label,COUNTER,INTERPOLATED,AF3,F7,F3,FC5,T7,P7,O1,O2,P8,T8,FC6,F4,F8,AF4,RAW_CQ,GYROX,GYROY,MARKER,SYNC,TIME_STAMP_s,TIME_STAMP_ms,CQ_AF3,CQ_F7,CQ_F3,CQ_FC5,CQ_T7,CQ_P7,CQ_O1,CQ_O2,CQ_P8,CQ_T8,CQ_FC6,CQ_F4,CQ_F8,CQ_AF4,CQ_CMS,CQ_DRL
off_to_on,-9.60038732281,-8.67206566538,-9.25639179833,0.218812610113,-5.31045217811,-0.987157914836,-3.70583579081,-8.10126287722,0.0895257051017,-6.18682831511,-3.01123031396,-9.24858442739,-7.92647114673,56.3630978048
off_to_on,-8.96208440328,-15.0308552389,-12.3861787483,0.208902309819,-4.8804183399,-8.14577041749,-7.2011490064,-9.44509111739,0.0806615479047,-11.2244468322,-4.60953482164,-14.0290603286,-9.65097003607,39.0332314169
off_to_on,-3.28323342243,-11.4221738502,-7.969385804,0.642712862182,-1.92339288506,-14.532242626,-9.42186812125,-6.80044035235,0.0224697443977,-10.9049401498,-4.26620671221,-11.2702493171,-5.89301279607,-17.0742471406
off_to_on,1.6953453846,-1.60287551035,-0.980554081087,0.461974292106,1.10998781403,-7.68629623714,-6.21628860407,-2.744163915,-0.0700051557309,-4.11953990671,-1.32580392592,-1.95885155498,0.530707274913,-20.9172455651
off_to_on,3.94942887372,7.46489791655,4.59552354826,-0.603913378556,2.80276585651,11.1234380442,2.58198730255,2.11284605536,-0.1205873804,6.1213909693,2.80310840893,8.01022781955,5.67155708273,16.1715936001
off_to_on,4.20444766854,9.984174652,6.8122979206,-1.29306589462,2.60789986568,20.0443472164,9.41781019272,6.10475318036,-0.0936752204745,11.8939081587,4.82542217346,10.8545061396,6.24512591142,11.3257179564
off_to_on,2.78243674776,5.47099589577,5.27030256224,-0.585185349062,0.936312681464,5.86557442104,7.94069109921,6.25457957271,-0.0367459954543,7.82329253907,3.13530142487,5.67182833663,2.42404434736,-38.0909157023
off_to_on,0.00527501658294,-0.806661722538,1.63006739169,0.726830609382,-0.69912256977,-13.5023827271,1.18005720346,2.39516331449,0.00434478497467,-1.77904071162,-0.224379347782,-0.544406645756,-1.80051461477,-49.0208313593
off_to_on,-2.16189746937,-3.1681358587,-1.13674579383,1.06407719988,-0.982396834565,-13.2022476473,-3.44501298996,-1.44377147769,0.0441567266389,-7.20341006451,-2.14928588621,-2.72478877382,-2.56704322817,4.07681481086
off_to_on,-1.80706915665,-1.42136065392,-1.69991615945,0.153397095381,-0.285960335953,2.02674157241,-3.49569374715,-1.72587764979,0.0947273744853,-4.4578993563,-1.86735526698,-3.08498823726,-0.184863355583,47.8908261846
off_to_on,0.0155499835185,0.0293975974543,-1.61930832208,-0.744220457732,0.0603396273173,7.16656932533,-1.59202528111,0.233176703647,0.110495991804,1.30622946596,-0.832081864488,-4.15658183149,1.71226377565,32.5529066336
off_to_on,0.461783065723,-1.42776910635,-2.55693231095,-0.557912695592,-0.265065083572,-2.22342723716,0.305555587015,0.43950824086,0.0537122663066,3.36598093484,-0.307506123992,-3.21038330164,0.570398789935,0.30455309927
off_to_on,-0.952536360188,-3.51972464204,-3.45540084245,0.354474318455,-0.470075825558,-4.58873743843,1.54553436361,-2.33660679535,-0.0322931886763,0.77972058325,-0.273836603903,1.35573007552,-2.51999519521,-3.87219809181
off_to_on,-1.65031637533,-2.90774573125,-2.05027604981,0.847276194985,-0.280698951799,8.34327160454,0.3927287346,-5.13167752163,-0.0768638602446,-2.63490340144,-0.168334917371,4.23047216351,-4.29081302562,-4.03543559088
off_to_on,-0.0456125290225,0.31269555334,1.5357684501,0.401080379958,-0.25296980659,14.1993962879,-3.3365685488,-4.4371993036,-0.0753364000527,-3.39807548412,0.368407371415,0.98307619777,-2.44695986058,-24.0338256758
off_to_on,1.89740346814,3.37344225247,4.42462113876,-0.419736241973,-0.361346850892,-3.09095806266,-4.96352501984,0.0811548762545,-0.0674414477569,-0.892002951515,1.25114045763,-3.03993630789,2.19948722473,-24.280180809
off_to_on,1.56737218683,4.32450306616,4.18631343543,-0.776359806931,0.179594863835,-21.7689186872,-0.286541808823,5.34434263584,-0.0522498358363,2.80554073653,1.75104604052,-0.348319740021,5.87225753948,20.3567515139
off_to_on,-0.451170754111,3.05859761403,1.21642724777,-0.511651686682,1.22313121916,-12.2705940361,6.63366025735,7.40985754518,0.00222372436132,4.20768595632,0.938814804119,5.28226073696,4.82842073708,42.5446486725
off_to_on,-1.34727096955,0.253206260501,-2.05170223501,-0.12307323096,1.38047900257,14.8258846482,7.48364191708,4.65560092062,0.0767709695677,1.63196937836,-0.967876344085,3.54512642205,-0.471515744234,-22.7189591033
off_to_on,-0.0810570488415,-2.69164141996,-3.28184958292,0.0892962805293,0.230719503971,20.9055359492,1.58453848713,-0.625174862235,0.104658079836,-1.90461835954,-2.22553567506,-4.84531938581,-4.83708655075,-100.573963786
off_to_on,1.52488956727,-3.61579104542,-1.76668359282,0.408175034915,-0.690986931631,-2.9456486682,-3.24010829521,-4.20440981584,0.0659202838933,-1.69136313518,-1.46615135205,-7.24628113993,-3.7887697049,-47.6346403991
off_to_on,1.52504337713,-1.73842487175,0.931955282989,0.961552735528,-0.343036742556,-21.2630811367,-2.96601232959,-4.28456775052,0.0119705388635,1.63365539928,0.42751154983,1.06622310248,0.812238392453,125.956049758
off_to_on,-0.0116699924624,0.610193735119,1.9078728447,1.0557968957,-0.0996983287449,-6.76588916679,-2.61413352803,-3.0563343902,-0.0188596077477,1.82531582464,1.3922458512,7.91505981072,2.86001643466,213.4711687
off_to_on,-1.78030038124,0.627782426601,-0.142477272415,5.38544297722e-05,-1.35718169287,19.3528455041,-5.5676034694,-2.84036941758,-0.0458044910361,-3.5508611293,0.813647154844,2.44128880893,-0.026695962756,58.7619116769
off_to_on,-2.65997280864,-0.827338821327,-2.75927560761,-1.49874205332,-2.45043510472,19.4693788098,-5.77423345804,-2.1906182269,-0.0809015206674,-7.57275967843,-0.116285405602,-7.47969320532,-3.38505624371,-213.220912706
off_to_on,-1.9594737723,-0.342161045502,-2.12815289616,-1.74552958836,-0.64837738701,-6.31269230309,2.2324825265,1.59540213842,-0.0843608149388,-2.8410073689,-0.457157611931,-6.88032137412,-2.15934586845,-304.183918291
off_to_on,0.338116765384,2.51213433825,1.83191785128,-0.260313105026,3.06124313307,-23.5445145719,11.4827441382,6.81819634427,-0.0285965174742,6.81259708916,-0.442005952834,3.5067217288,2.45578266363,-85.664910554
off_to_on,2.82323649544,3.79992163156,4.64048603993,1.31247569178,4.22478761648,-13.4771163144,10.2569601395,7.86560038099,0.0427644742968,10.0916701942,-0.226285783268,8.92963194362,4.9713391284,232.45641213
off_to_on,3.30754851511,0.910663734727,2.77387874503,1.25157380044,0.931165191737,6.26284722181,-0.822769069256,2.48250348414,0.0708528257411,3.33245518289,0.561632264149,3.04853641453,2.84808147658,321.750550142
off_to_on,1.24171109868,-3.08194125389,-1.64116217954,0.0182584113605,-3.06682633331,12.9557770198,-9.02327329017,-4.50969825059,0.0599174029327,-4.97470216495,1.38068620607,-4.37077619562,-1.20517656313,99.6292469569
off_to_on,-1.25944729694,-3.40732961772,-3.6315109707,-0.575208799713,-3.14907358065,7.62314267484,-6.98069972534,-6.8626623202,0.0481290134373,-6.37113484121,0.657909846259,-4.11720544217,-3.57269188915,-183.558512685
off_to_on,-1.80755537413,-0.23103188424,-1.78365374853,-0.0119378625348,0.109871963423,3.20889895687,-0.7603271937,-4.0222694358,0.0326575695311,-2.56588046148,-1.61685238904,0.0332560119312,-3.34297647742,-239.389475291
off_to_on,-0.619230895376,1.89230283743,0.656128952202,0.449826328376,2.12264651638,1.74602757983,1.70664229482,-0.215700890311,-0.0140946118934,0.151865992058,-2.74210190519,0.735469077173,-1.4204817352,-65.5081024448
off_to_on,0.0468166989483,0.597862579906,0.81741842067,-0.0386443926796,0.602710122083,-2.45295605863,1.30443918463,1.61162102146,-0.0721641535082,0.725685780171,-0.675192779904,-0.894645884509,1.0462686306,93.7740764155
off_to_on,-0.954425059517,-1.53890813555,-0.386087566996,-0.675289545225,-1.91695792862,-7.57736884408,2.11551192606,1.85284062841,-0.0852096509745,1.8782205666,2.49606030186,-0.143700908944,2.47132273966,80.4585901853
off_to_on,-2.17107871456,-1.33917521445,-0.64824302773,-0.514834308411,-1.97421422589,-7.14236148202,2.69610171493,1.46694408219,-0.0439194645579,2.91226019887,2.84625530803,1.57466867522,1.60264208705,-2.93393256997
off_to_on,-1.42715179846,0.783942686911,0.311334259678,0.0106737181269,0.601057690869,-2.68728367974,-0.0146052215697,0.727316055293,0.00205701835172,0.921894423909,0.0366520740433,0.381375109556,-0.310387281413,4.94262785959
off_to_on,1.5053145338,2.31123412433,1.25527201437,0.0564324278304,3.0952409524,-0.615829183186,-3.03418356823,0.566992211448,0.0229460356693,-2.42974157126,-2.18168011715,-1.45315519977,-0.424317028465,71.5454011847
off_to_on,4.37802660616,2.10240288904,1.63285639506,-0.0612427255735,3.07225252543,0.399125715796,-1.34946440475,1.76342041567,0.040734025174,-2.20679962946,-1.33445955856,0.638356109523,1.3130881994,47.0302710181
off_to_on,4.39804552961,0.693639919819,1.44359638243,0.464470681642,0.378821042011,6.13095562526,2.97552304947,2.40414386311,0.0661614261749,1.53990811752,0.590264180424,3.98416922308,1.32715366041,-71.6905502674
off_to_on,0.878629656772,-1.24688753506,0.143451120971,1.1858875307,-2.92505956835,12.4976985813,3.20538437556,-0.364798030969,0.0638143568045,3.09732027672,0.70612990471,2.01160589898,-1.94435194543,-122.098372838
off_to_on,-3.67463478393,-2.84398507186,-2.21895220814,0.793785620006,-4.0261814244,8.32564939582,-1.45110783139,-5.07363988846,0.0132278222696,0.0421979173444,-0.417261528153,-4.04785547127,-4.35418317017,-31.9808821634
off_to_on,-5.48644639976,-2.57360329442,-3.55358866087,-0.71264216165,-1.74861765663,-5.61370501628,-4.6673399109,-6.09937402964,-0.0440289937552,-2.98144316141,-0.335807873059,-5.85777843546,-1.52426358625,67.7409173996
off_to_on,-3.15077268364,-0.0206990154174,-1.79271024953,-1.65005049016,1.89424746371,-13.7028690666,-2.75944189495,-1.20241902486,-0.0598695429101,-1.92787646477,0.896068676716,-0.999182307202,3.84108407289,52.8807753966
off_to_on,0.888083414381,2.53064359399,1.70708868885,-0.939112068477,3.4324458357,-7.22112787499,0.929215462748,4.45114868922,-0.044847146709,0.573113851576,0.935559450777,3.47990999257,4.75767168033,-10.4328669843
off_to_on,3.08321432792,2.35925168519,3.20106861079,0.390474907146,1.75377325173,2.68716063875,2.60469064595,4.90068629048,-0.0342835464311,0.506832448903,-0.658413038949,2.71319101203,-0.144627256638,-0.580145838414
off_to_on,2.54577738026,-0.0460595378205,1.44428763559,0.773273570585,-0.802051884375,2.29898976659,2.71995116994,1.29309599289,-0.02254093657,-0.724206614938,-1.47545136109,0.693099565151,-4.41127188522,50.2089968803
off_to_on,1.11850051864,-1.61866268851,-0.763157810464,0.270630143267,-1.66163991756,-4.07032212997,2.05325211841,-0.805701375806,0.0160973663025,0.361200109614,-0.176228556051,1.3791407798,-2.89209295796,25.3552863156
off_to_on,0.26957148157,-0.969183364265,-0.846690332886,0.0928113242738,-0.948753240128,-2.36801128175,-0.706561870493,-0.0238246093895,0.0627692602215,2.51221126442,1.2620091842,1.25966843581,1.43171905476,-61.2440999222
off_to_on,-0.333537999588,0.250521737774,0.112023740237,0.530586588667,-0.208064912163,8.18727223094,-4.20456954454,-0.018605394721,0.0690285956122,1.89836291298,0.699651338666,-2.95987136845,2.74018420374,-80.6116846999
off_to_on,-1.00296097793,0.638091008882,-0.0316945890426,0.637847431756,0.281067694803,13.8109727339,-3.19192528284,-2.0844870814,0.030896134359,-0.783768538947,-0.794018522322,-5.92549120365,0.856351194902,-4.2714589483
off_to_on,-0.871451952748,1.05647387739,-0.634109901763,-0.084034920476,1.08291604102,6.83938862924,3.17605621979,-2.56563991541,-0.00649343656821,-1.2744538194,-0.765700349239,-1.24533951146,0.0183757350675,51.5591185993
off_to_on,0.242313827517,1.94813054756,0.167211130655,-0.877352472162,1.47876271193,-4.73780673863,6.93400625154,0.47868268946,-0.0205424386567,0.611336890553,0.702424398629,6.52583497401,1.16947431181,21.3586214603
off_to_on,0.496768092063,1.17049780615,1.31271815503,-0.937326186788,0.119606440717,-10.7704731202,1.46355289503,2.89261907495,-0.0339912689119,0.292242171074,1.23479171206,6.7361521908,0.689663589971,-14.2541239824
off_to_on,-1.45772652171,-2.71989148358,-0.119612078412,-0.478421718388,-2.25449005243,-11.0692249294,-7.59102373899,0.394364791568,-0.0555661602947,-3.46920841594,-0.101665539383,-1.69914894569,-2.88133815487,15.3083487767
off_to_on,-3.51479408775,-6.42593773101,-3.49192386781,-0.0635229571365,-2.95908240438,-9.22048663655,-8.84294988847,-4.19155080549,-0.052494333097,-5.31157824482,-1.54606550612,-8.24349686129,-5.4680407313,47.2781954089
off_to_on,-2.04519653955,-4.65585586843,-3.91207572635,0.347760753854,-0.80771260945,-3.68001219183,-0.741370601852,-4.11004256862,-0.00787899786275,-0.97033367511,-1.38609580657,-5.38956483407,-2.89409441243,5.54542769562
off_to_on,2.99899526198,2.73256893035,1.13435503522,0.943819612527,2.31511401781,7.22341671043,7.05279558116,2.04372341401,0.0402932152939,5.899132476,-0.0475001809901,2.34517789341,3.20940509476,-57.7488157098
off_to_on,6.96293298235,9.21349389736,7.08778779405,1.21847181419,3.90625406232,17.184968655,7.61711349913,8.15113959314,0.0513987320594,8.16679462793,1.17155131972,6.53742780372,7.28949588549,-48.8056072402
off_to_on,5.46574350272,8.53907653982,7.09517841982,0.521451183143,3.18561509207,17.0743202446,4.0102723692,7.78770346822,0.0373227658464,3.92035551607,1.77332261503,5.22670383946,6.00703680019,9.95443768458
off_to_on,-0.700437415829,1.33454171585,0.353934288502,-0.730487913975,0.459740713242,5.9686684324,0.873953189348,0.748706249543,0.0287386995052,-2.56312330229,1.55335915394,1.48333108473,0.636816466005,25.4589486772
off_to_on,-6.53593945383,-6.44414279084,-6.95814642065,-1.30379366548,-3.57516302985,-8.63086473736,-2.87101231365,-7.73375974274,0.0184935242357,-6.59705295836,-0.00258015055969,-2.6901573843,-5.14200763162,-5.59360543706
off_to_on,-7.76170443477,-9.74143474759,-8.69967132647,-0.737275882384,-6.53063256792,-18.8917211854,-8.25314044621,-11.6067864959,-0.0161241167121,-6.57829371554,-2.36628367874,-6.09799318065,-7.80554662987,-3.94337570399
off_to_on,-3.97695250162,-7.3956973655,-4.32151806529,0.0811412268803,-4.77507907789,-19.7485906172,-9.99362647713,-7.67872018061,-0.0567832694845,-3.10563266326,-3.19255746001,-5.94755458261,-5.50979678946,40.013406878
off_to_on,1.99803214425,-0.884525714417,2.41657767609,0.225188362742,2.02695078858,-8.41843468141,-3.15477003811,2.15300574252,-0.0607115835794,1.88962769425,-0.843343411871,-1.04135228132,0.470277935874,44.6629792202
off_to_on,6.43264065118,6.68385130952,7.38331266443,-0.0407189273555,8.19179039435,10.6138974935,7.51907163082,11.0171653034,-0.0260040683829,5.35602645058,2.71623642254,4.6694861285,5.88669414492,-16.3786760394
off_to_on,6.72299552068,10.6097167776,7.80122813349,0.146847443239,7.23213273803,22.6802296721,11.9596740274,11.8597185257,0.00725077473663,5.18089209031,3.54428901844,6.13977506317,6.87823610712,-60.0040197424
off_to_on,2.83557622385,7.18774306438,2.93481546067,0.861528353553,-0.169661157994,15.7874731966,7.1337837808,4.14504230212,0.0202795760556,2.28616937255,0.598783409194,3.40913283901,3.45972285659,-27.9143279968
off_to_on,-2.45352556118,-1.76172776961,-4.35327405927,1.2222497888,-6.40798787183,-2.493555441,-0.834839139191,-5.25107653662,0.0328968989063,-0.808219456721,-2.6922842364,0.137500567888,-1.15241776855,21.6543955894
off_to_on,-5.38942866271,-8.76835120863,-8.16005876217,0.534152504526,-5.86846116458,-11.5668244123,-5.85515916404,-8.95192322244,0.0510154107222,-2.76349823777,-2.59169268861,-2.10104593664,-4.05489900582,16.6007723543
off_to_on,-4.1981388806,-7.64575276922,-4.77745954416,-0.855659430277,-0.85838345631,-4.67593853379,-7.08660748127,-5.86415719005,0.0455607106302,-3.25098404307,0.458377400345,-3.93402868629,-4.31889227768,-14.4421982983
off_to_on,-0.549258252867,-0.405956727672,2.38272517961,-1.86801578612,2.5859852485,2.00548026779,-5.30554942377,-0.538262759846,0.0038315853977,-1.76580445444,2.67761612147,-4.37364481988,-2.25874488151,-5.31733674268
off_to_on,2.06777447694,4.70294418927,5.65348100687,-1.61147606986,2.15400260329,-5.47478329989,-0.801455452888,2.4148045016,-0.0392022716562,0.767986972358,1.58843505904,-1.81268840144,0.763240983645,29.980357247
off_to_on,1.76598560929,2.68090460669,2.02579529333,-0.110749118186,0.338198739493,-15.588065489,3.65977164061,2.02389576928,-0.0484874359299,1.12194345633,-1.39737449186,1.94081597232,2.32571187675,29.0700952667
off_to_on,0.144808918779,-2.36735320868,-2.94981089744,1.56542405636,-0.109841762558,-7.16469808911,3.9393625048,0.600993844145,-0.0351273874377,-1.71467817745,-2.92036605402,3.43788117047,1.23433316244,-6.54680591004
off_to_on,0.180516681772,-2.60238606815,-2.31374107335,2.03679143576,0.854997165422,16.70696172,0.989527382884,1.05537674601,-0.025295650229,-2.90994169362,-1.34660640569,2.8761600755,-0.304395556523,-20.4547719278
off_to_on,1.95747442518,3.07177748655,2.7594729287,0.909963537481,1.55301060151,27.9748948161,0.532226654705,3.5024908295,-0.0127732582316,1.95638359514,1.6476624436,2.63125419339,0.531547303323,-5.40185599422
off_to_on,1.97082924084,6.93846393544,4.27523091682,-0.676419914126,0.570838885727,10.4784523486,3.54845660255,4.1543256637,0.0199196594703,8.03434358384,2.86731819508,1.41508668554,2.36917710821,-8.57601897003
off_to_on,-1.55556917901,2.64218363958,-1.03840889798,-1.2486921513,-1.87433647709,-16.9640386293,3.51345398251,-0.134448675052,0.0545810052958,5.96835810269,1.08483537879,-3.34597734347,1.30062197523,-31.9743200272
off_to_on,-4.27333807601,-5.27841637878,-5.85221264567,-0.713853347742,-3.39864911761,-24.0760916996,-2.55494263263,-5.82508028879,0.0547714143007,-3.40809810431,-1.3658499941,-7.32930344257,-2.1278495147,-18.2397545507
off_to_on,-0.875998219416,-6.71992653123,-2.13163503653,-0.252696454655,-1.52198077524,-6.88823730164,-7.27479235972,-5.56719668456,0.0213243794864,-8.09812218188,-1.35236442788,-2.71358428992,-2.64528980091,40.5599029165
off_to_on,5.16732194206,-0.592657631874,5.63911873032,-0.393002164715,2.28435937703,10.4461110477,-4.20263412729,0.580681850977,-0.00994200161695,-2.96727334279,0.634167934076,7.21197200334,0.635337131392,65.105440577
off_to_on,3.48914728492,2.65933484297,4.63680287921,-0.151570756134,2.88388941909,8.88740712666,0.543946666492,2.7413814073,-0.0230410155132,1.16469311196,0.726526569055,7.56300893402,0.902113135537,6.96487811715
off_to_on,-7.3332324856,-2.87954773261,-6.8204082931,1.15691593581,-1.27826492082,-3.12886535328,-1.51724877666,-3.90336947198,-0.0342899255833,-4.38512059182,-2.34646145873,-6.00802042586,-4.91718782396,-63.8478299634
off_to_on,-12.4194853088,-6.80792024026,-12.3668830222,2.10710130817,-3.80141559449,-4.89159763195,-4.17611489125,-7.69810637159,-0.0472665199263,-8.15355163238,-3.89076194215,-14.7559012911,-7.17166658296,-52.3354156802
off_to_on,1.08537457375,3.46432061789,1.28696534201,0.697735322646,1.42756248212,7.43323743101,5.30189714634,4.42344019832,-0.0376498535294,5.36335941462,0.656645967544,-0.689283994353,3.80408936726,26.9528672561
off_to_on,21.0778104142,19.487805644,21.1029264221,-2.30926596668,8.87398104362,15.8144447963,20.59815152,22.249133014,0.00223100639493,25.1907143278,7.36177552663,22.4812963235,18.2793842208,75.2304114893
off_to_on,19.9795693293,16.9914097884,19.2377979863,-3.35630121002,6.10208917528,4.38906803225,17.1669649045,18.7789228948,0.0400709910185,20.7636291513,6.78067717669,21.560022794,14.4044410823,40.27673152
off_to_on,-7.96241791242,-9.99472559003,-9.11088701392,-0.479498365764,-7.75875302646,-18.2208601584,-11.9411444439,-11.7375241006,0.0465200860219,-13.5791278277,-2.93362470687,-9.64830290406,-10.4134049407,-39.6891076274
off_to_on,-32.3956541689,-33.3991805825,-33.0419755239,3.4999318615,-16.6180036814,-26.3930955182,-36.7879932942,-37.2697186978,0.0325519918537,-40.8457715972,-11.065054848,-35.4976674041,-28.9030935213,-98.9357752563
off_to_on,-22.3957255509,-23.1090203998,-22.2361942345,3.93175624949,-7.29912401305,-7.4752037622,-24.7214295235,-24.9133909353,0.0206511199142,-25.4243877514,-7.12153409836,-22.771604342,-16.5088456002,-89.3578976598
off_to_on,12.1665115386,12.2226769597,12.845119934,0.123618465563,11.1248023915,21.0312553849,14.1700998848,14.1497477735,0.00581731270989,17.4678562683,4.74774163315,14.5204161201,14.2247698641,9.73907167979
off_to_on,31.7278377316,33.539618365,32.790505908,-3.71261158001,17.5976228216,29.5676319743,36.6060340275,36.1581834521,-0.024527731538,38.8712471685,10.5339402085,33.3535306992,27.8496386346,147.64650782
off_to_on,17.5068721535,20.4284528836,18.8436762948,-3.67929594127,6.30430091101,10.1727025068,20.9822569193,20.2292970712,-0.0526133652628,18.9137452884,4.65062384898,17.4549785263,11.7518577695,186.927127468
off_to_on,-8.01991632855,-6.18946307915,-7.13596027565,-0.557837712464,-7.37151144265,-15.1669169046,-8.29306870326,-8.45593965166,-0.0483494353289,-11.8051241647,-3.82644249267,-7.30995320265,-10.2342453962,36.3855802044
off_to_on,-16.1661837842,-16.7383470165,-16.6952563415,2.08468243341,-9.37408364587,-21.7433500292,-18.2731617413,-17.3365639012,-0.0155426139383,-18.659999567,-5.04744460822,-14.2117892044,-13.5595480256,-187.376261773
off_to_on,-8.4614112673,-10.5790522669,-10.4292180093,2.52808994541,-3.88847109263,-9.55425743284,-9.2101517721,-7.90489856844,0.0136889053089,-6.55952231383,-1.21294930487,-8.68153714785,-3.97833974567,-243.015039057
off_to_on,-4.11161622104,-6.24804836868,-6.35589887332,1.77055145763,-1.84692416211,3.03168437937,-3.19919261131,-2.79046885204,0.0260346913884,-1.40582515402,-0.289678314186,-8.50690903186,-1.0772353945,-58.7004581548
off_to_on,-5.74019148887,-7.32749860318,-6.87029815649,0.744293243282,-2.71900306505,5.9129602381,-5.83077129756,-6.62084532462,0.0350587592344,-6.72230507925,-2.48684629637,-10.6636014292,-5.45801853181,158.953314321
off_to_on,0.44924259707,-0.383001768902,1.17883928959,-0.823754671647,1.41649015564,5.41874132277,-2.34571535386,-3.42085594602,0.0427058900363,-3.72106757797,-1.16754759147,0.4535337498,-1.70673024602,185.907577313
off_to_on,14.9475637474,15.7776805201,17.3713926806,-2.5442244322,9.11651503661,7.46832247484,11.6400101659,11.0639679067,0.0292113814331,12.0184138848,4.58846809117,20.3959312676,11.6426285985,54.2855077571
off_to_on,18.9340540499,21.9476947649,21.804977776,-2.70445944499,9.75360486572,6.96273806209,19.1214097296,18.8788415392,-0.00860142582929,20.3596322695,7.13705812812,24.7239965705,16.5350603806,-45.1260127718
off_to_on,3.57396743949,7.05389074185,4.86093292139,-0.671897777055,0.541792136788,-0.376615608099,7.96311048557,7.91808550754,-0.0410240773998,8.08178392039,1.96353678381,4.57158828052,3.51856474556,-50.3497696286
off_to_on,-13.8795200091,-12.9914888566,-15.4099315205,1.65023779388,-8.03447723968,-7.26297293026,-9.61865781903,-8.75515583429,-0.0440823070792,-10.484638803,-4.99835050139,-18.0149621118,-12.3843688033,-56.8501655651
off_to_on,-14.4649853616,-17.206917122,-17.6472333105,2.19216500408,-7.33873217295,-5.87691685715,-14.8883778965,-12.9082617123,-0.0289724211923,-15.2297608642,-5.93893177614,-19.5804148543,-13.2871515598,-91.4092570587
off_to_on,-3.64342935417,-7.58080764031,-5.77467971316,1.34013619839,-1.81747827072,-1.67418538418,-7.56609915551,-6.28801909244,-0.0152124553752,-7.38098381947,-1.79409971768,-5.08758977415,-2.82083635956,-51.0900626888
off_to_on,1.12395677567,-0.701595047358,1.42795960829,0.661055892213,0.284235699397,-4.05160135046,-0.497672909495,-2.10493135151,0.00106535858129,-1.2874142471,1.00418173546,4.32101586508,3.18922644017,84.1310505427
off_to_on,-1.6143132554,-0.476858969416,0.0113721886761,0.141027960212,-0.375495134903,-8.22178590486,1.6771600595,-1.91418354716,0.0284289741107,-0.197045433428,0.735324370545,2.43648735478,1.23060335023,154.344979053
off_to_on,0.808227777608,3.20603586265,2.12661392415,-1.20351195728,1.67558975001,-1.14458972957,4.20262774758,2.54879276872,0.049960728644,3.57315298072,1.05725732254,0.932531578616,0.895912204106,47.8192602705
off_to_on,10.1954552969,11.9724850169,10.9854188649,-2.58277180366,5.42241943341,14.8374587182,7.43437271868,9.99096919353,0.0414449022664,10.0423137194,3.07437823587,6.22399360323,5.57007433771,-104.130776305
off_to_on,13.1985180066,13.6785029267,13.7454071229,-1.89353044275,5.05553804649,20.2878281012,5.49940524626,9.61285339308,0.00933606711599,10.0413553309,3.31701231991,10.2328652777,7.35823378598,-105.696435336
off_to_on,3.64258436551,2.92264738526,3.27214449392,0.743898796984,0.476267817566,6.06307257726,-0.661594031422,0.449765771996,-0.0175519014779,1.97516477762,0.302608775126,5.81799970367,2.05619536226,16.4937380728
off_to_on,-7.41591173311,-8.80517086619,-9.1741394302,2.3991051156,-2.58630913095,-11.9024891262,-2.74863022881,-5.53149127002,-0.0283918157007,-4.76896012587,-2.56388096829,-2.47932091952,-3.86166542014,71.2302410046
off_to_on,-9.57676082065,-10.4789052442,-11.113545213,1.38266632687,-2.48635729889,-15.0777589188,0.0785269581445,-3.12428302885,-0.0346818415357,-5.67678449611,-2.61270223418,-7.86949666602,-4.96050105839,3.92373630269
off_to_on,-7.04017446155,-6.49321732588,-6.17548398694,-0.299302459395,-3.32724451472,-7.53909624358,-1.27575018205,-1.76352368907,-0.0373725327056,-6.84460934412,-1.74139120941,-10.4429853791,-4.68803536713,-44.2345668671
off_to_on,-6.60129374009,-5.35963502715,-4.08522402504,-0.223640561268,-5.62815805358,-4.63878452115,-8.88241809724,-7.23260035488,-0.0208319206576,-10.2916442901,-1.9911871733,-10.8373215234,-6.14901872033,9.13589239851
off_to_on,-4.08174962399,-4.14116982693,-3.33494997526,0.632956408568,-3.7430718793,-5.59886103473,-10.8631296045,-9.4430158671,0.0144532947084,-6.93442617507,-1.45177414805,-4.63241265297,-4.55497882248,57.1431291977
off_to_on,5.83278874061,4.0293234825,3.40687635223,-0.176882624854,3.95641084477,3.19093897217,0.456138414824,0.854724840132,0.04141069725,7.23814069948,1.81527347082,8.53302272112,3.70939929922,1.60560038377
off_to_on,15.3190700131,14.1011757707,12.7541940427,-2.05722021906,9.72236043637,19.6195443536,13.9181028888,14.0611980338,0.0409611067149,19.0953440053,5.01742870843,17.7591980306,11.8028625119,-72.7167876571
off_to_on,12.6210038981,14.2006426954,13.4269430815,-1.92234804402,6.69189124061,22.294474594,14.0124147854,14.1158038969,0.0246262580264,14.3039171088,4.15397336815,12.8760052772,10.8042260629,-41.6589649368
off_to_on,0.642002298169,3.67879272306,3.86188517509,0.759884091706,-1.01395237544,2.60328925124,2.68731710877,2.23167680072,0.00950246121161,-1.73504556945,0.268076559342,-0.727328265917,2.48884013558,49.5126281046
off_to_on,-7.17598760646,-6.38008804453,-5.67109798938,2.62744233975,-4.71216570677,-18.1987071561,-5.55478262895,-6.36068573351,-0.0073024816167,-11.4708962735,-2.29437098527,-9.06025708992,-4.6284270349,63.6871734181
off_to_on,-7.1462840655,-9.86963358752,-8.97153486884,1.27151896183,-3.49025316987,-17.436126215,-5.62247608785,-6.01081298704,-0.0312269616037,-9.41256489563,-2.5733380193,-8.3241335452,-7.9134648127,-5.37428775691
off_to_on,-7.51692977311,-10.657982519,-9.837197098,-1.19902312215,-2.91145743679,-2.83172354593,-5.16883509266,-5.38573679081,-0.0465487828075,-5.33616388888,-3.0985350097,-6.30636749611,-10.0269169335,-38.8702401838
off_to_on,-10.2597172854,-10.0568574421,-9.99886763004,-1.40675431763,-4.0548945591,1.90946151527,-7.40800943452,-8.26750710227,-0.0343166287491,-4.90152932816,-3.79826012597,-6.546387126,-8.94314309237,1.20744578846
off_to_on,-5.96076053086,-2.648589298,-3.84564898181,0.379186832245,-2.18909956188,-5.27961862732,-5.34871067638,-5.96318471985,-0.00316112525485,-1.89525713068,-1.36443532553,-3.28940734167,-0.0125772126587,22.981689
off_to_on,8.07067495181,10.5525063622,8.94963842015,1.12045901841,3.55304076318,-3.79866414682,3.55892481027,5.37075346599,0.0211007024214,6.93201927273,4.02781610237,5.51129211476,11.9216705786,-20.9355606483
off_to_on,18.3017368486,16.982121251,16.6889861182,-0.1702090041,7.13536436255,13.1434083199,10.1750666758,14.0416401032,0.0299047904665,12.8296992848,6.70817009496,11.7564508557,14.2919267954,-50.2178077102
off_to_on,12.8156934877,9.04045730423,10.52817394,-1.27539709626,4.65808360159,23.9090077747,7.61061367524,9.35395419572,0.0332361080839,8.25676539464,3.23501623925,9.31289990969,4.31460853942,-2.70328609601
off_to_on,-1.2663158261,-3.41035155849,-1.84274731339,-0.529041960179,-0.00488635137945,10.1799175441,1.82230145346,-1.56284328601,0.0315372335988,-0.920888074074,-2.0795506319,3.12306943036,-5.60786499419,53.7577926692
off_to_on,-8.75666251869,-6.85591853827,-7.15150548642,0.802960622087,-1.9706471651,-14.1296097411,0.334246318613,-5.08061931538,0.0128179547764,-5.13633599352,-3.28442595093,-0.594442178588,-5.53579994955,36.0636175879
off_to_on,-7.37122008756,-3.20671566329,-5.00730343132,0.848082754493,-2.25525468742,-21.5009812806,-0.336422413715,-1.73606076732,-0.0195683405664,-5.17431396507,-1.15765497438,-4.53953618512,-1.47664888959,-17.1765156467
off_to_on,-5.90059232806,-3.59531656795,-4.49651261349,-0.0832143653085,-3.66079042156,-8.16918248694,-5.99297347266,-2.33550815424,-0.041155086819,-6.7718561456,-0.698684332396,-11.7261822945,-3.26376573728,-19.423453853
off_to_on,-6.55058031852,-8.25752437083,-6.81509308298,-0.455699488333,-4.43878915541,4.77716631525,-11.1135373112,-7.74133051258,-0.0372229886678,-7.52845536259,-2.46598546814,-14.3407938986,-7.43650066534,16.4101441822
off_to_on,-2.87233820165,-6.54568387036,-4.31553711538,-0.0211302959552,-1.53845809387,3.74242578285,-6.4012150408,-7.3320221158,-0.0196767128779,-1.14176693716,-2.16174569929,-3.70515214184,-3.68820148738,10.8720217792
off_to_on,5.57299409008,3.71321098271,3.87935263884,0.210919607801,2.89882876576,-1.85867982607,4.32499791621,2.04537813417,-0.00369946589429,8.40561552711,1.45132545174,12.3988352427,6.43839552202,-36.8250627369
off_to_on,9.94666999604,11.0022592528,8.55001975912,-0.0977740322939,4.16345452745,0.931708416809,8.30331722137,9.6510935996,0.0127747076959,9.75752655579,4.03087469469,16.2802214592,10.4748530289,-46.6939092313
off_to_on,6.35912738207,7.89183035833,5.51898217596,-0.227575016596,2.42609278192,8.99813071237,3.73658104978,7.57801916778,0.0328809860317,1.88766272779,2.62855375861,4.84616968903,4.27170371788,4.34849735828
off_to_on,1.81686190129,1.69645739069,2.13527406477,0.151572823385,1.72952811524,10.8083982857,1.61019975829,1.9187878511,0.0423897314325,-3.29175064556,0.159419644139,-5.70142092196,-2.23801081517,45.6194193637
off_to_on,1.29614155563,0.837638162496,3.3729424979,0.403580548923,2.30132865493,3.64269969746,5.76612512016,0.640235350291,0.0270063820066,0.506190333303,0.041955651947,-3.57565089318,-1.51952809558,30.6507702818
off_to_on,-0.523863288287,1.13066013278,2.55326140325,0.0329130062411,0.148163367397,-5.59928208256,5.62558036953,0.587001926329,-0.00291399405216,4.14157502804,0.518088252216,2.72967813802,0.718485710182,0.423278682728
off_to_on,-7.69308457545,-4.83634149293,-5.8817248288,-0.537667158347,-4.91247101328,-10.7887309269,-4.9521263504,-4.32981469579,-0.0242427382369,-1.59990652223,-1.64428170697,-0.0439519886472,-2.77877537626,-3.38002227519
off_to_on,-12.5091800821,-12.3416908801,-13.6209940319,-0.628737595135,-7.07175490632,-10.1837118933,-14.6192177221,-9.81453194747,-0.0304667602334,-10.4023214013,-4.66013144154,-8.93648878007,-7.7144468352,-4.5335363708
off_to_on,-6.3471191684,-10.2916515722,-9.5182717654,-0.141465603139,-2.98006573293,-4.20291218862,-10.7082439651,-7.20602717307,-0.030615979234,-9.72118475215,-3.84046174113,-10.5186190251,-5.58893087065,-24.1356510963
off_to_on,5.35305318233,1.09103657579,2.55264674612,0.513692157896,2.83191563646,3.47798757789,1.28790676268,1.52357105512,-0.0251349292904,0.381378752091,0.890201610198,-1.60271445638,2.03512955201,-22.6761928723
off_to_on,9.87055417786,9.85841339578,8.9464828473,0.863584922725,4.58884651148,6.47201988943,6.96469360851,6.24112898414,-0.00521449279098,8.29912954576,4.39671168821,7.81802954295,6.28400812608,22.1660012634
off_to_on,5.55007321312,9.34734864166,6.3539234351,0.617808533222,3.04221682323,3.77513445851,5.03997540044,4.53062340817,0.0237536175926,7.97661552754,3.60868737794,10.1732702199,4.7576734814,42.5137356341
off_to_on,2.05273231149,5.08342258098,3.9781435571,-0.0863914122954,2.21860138203,2.9084822392,5.63787174638,3.69536699127,0.0399871194921,4.43902217879,1.11993405223,7.62904269502,2.9932169716,-24.0493524038
off_to_on,3.2827193377,2.91084409903,5.76507542414,-0.633942919176,1.95124126612,7.72220994359,9.649569587,6.12073643791,0.0326713041435,2.42021897244,0.196721027994,3.55395226965,3.18098386724,-101.446012096
off_to_on,2.06564238966,0.330727781892,3.8956203962,-0.595944924148,-0.71466696113,8.67188700554,6.0630946178,4.32066947508,0.0141091606312,-0.292176915449,0.028974515642,-2.63284673984,0.954216891317,-48.0496633998
off_to_on,-5.50436547662,-5.65192481399,-5.77574544482,-0.371648459422,-4.56784072835,-3.66557311672,-7.63339907611,-5.10013146814,-0.00202751364661,-5.34998190418,-1.57920438518,-9.23894544357,-5.00027255931,125.085723186
off_to_on,-11.4594896966,-10.3285792048,-13.7096170392,-0.513792831398,-4.87437931062,-19.2235514435,-17.3614417508,-12.8022780694,-0.0171891589436,-8.30862560098,-3.63525756114,-10.1848439143,-8.62512533988,212.971236224
off_to_on,-7.79645515907,-7.83441197829,-10.0269602535,-0.543043959075,-1.06294296732,-17.6409899975,-11.8362149084,-9.36773488721,-0.03305878178,-5.49054931739,-3.30174005298,-3.91468325678,-5.45846163592,60.1460380753
off_to_on,1.23841437297,-0.683794576148,0.597578556365,0.490167326367,1.91637585944,1.91984577897,1.4885793,0.738835962912,-0.0372520123007,-0.265543321265,-0.421135653561,2.63860084016,0.596882916352,-210.983956924
off_to_on,6.13083647107,4.17029616299,6.53719531214,2.05284487107,1.29445742762,16.2564281971,8.68118113883,6.30152987107,-0.0195526600644,2.61038066281,2.29076998493,3.99704553502,3.74928105415,-303.90987096
off_to_on,5.57551377374,5.38629338366,5.8296168005,2.09617508343,0.372096806674,10.1085420054,8.18755802913,5.29748040484,0.00853444468278,4.01201032414,3.05784770939,3.69181544959,4.23350674932,-87.6773480814
off_to_on,4.88537263599,6.45836340413,5.23326534461,-0.155935635636,2.18179175053,-2.64094569375,6.94109414582,4.35738570906,0.0264857939255,6.39538389902,2.50416445053,6.1477766948,4.95141274966,231.09937356
off_to_on,4.85628686215,7.14332850456,6.26446165507,-2.5518594783,3.89799225305,-1.88352451686,5.19819888297,5.30919815398,0.0297289269481,7.01801616874,1.47711013467,7.21130217229,4.74212859724,322.893886293
off_to_on,1.3064702106,3.26449207439,3.23287258099,-2.52117005663,1.54772387186,7.46357761743,-1.53941482307,2.78471031658,0.0267776287158,1.89007118235,-0.119181049351,0.865686827541,0.903329191468,101.368287068
off_to_on,-5.26105581535,-4.7378832462,-4.72272309074,-0.465593058103,-2.97308076479,5.23637831893,-9.20137717487,-4.26403703843,0.0184084605163,-5.87920350799,-1.91410481307,-8.56366383673,-4.37274882552,-183.772251642
off_to_on,-8.18290642416,-9.9331580935,-9.81246836092,1.03978648529,-4.38296705271,-9.6914162793,-8.03208245349,-8.54265397845,-0.00154840070492,-8.65333422014,-2.62896228744,-10.3593954558,-6.13419651783,-241.081684002
off_to_on,-4.48780026605,-7.75933406286,-6.88269083208,1.02703345108,-1.88500483415,-16.3765616489,0.637827343069,-5.44922552902,-0.0265271992604,-4.77077368365,-1.87840967608,-2.83993962611,-4.00063051406,-66.4688582545
off_to_on,0.564910191064,-1.75431846164,-0.752623664629,1.00938835285,0.286217756547,-4.64892891575,3.93073911078,-0.311342490104,-0.0375836894095,-0.216508817649,-0.827398577405,4.00517064188,-1.88732491136,94.0932396018
off_to_on,1.53448319592,2.1144662481,1.830740449,1.75221889003,-0.101119143071,9.23588908178,-2.53049079501,0.475938121495,-0.0273590121427,0.796437570486,-0.252347302449,2.93240205045,-1.00167979897,80.9553043021
off_to_on,0.105285944111,2.89928453325,1.50757073864,1.50046877168,-0.389290963232,8.16799776706,-6.54271261471,-0.559669639745,-0.00837385117588,0.930119991899,0.599903878279,-1.23305463518,1.36402238857,-2.57757335574
off_to_on,1.05833760419,3.56324490235,2.83246963254,-1.05843062515,1.7091345328,-1.10028642524,1.70251092248,2.71448165625,0.0070803679281,3.5050815969,2.26124737012,-0.272351968412,5.59669946264,5.81227885994
off_to_on,4.8117193614,5.32318659387,5.95726130769,-3.76236651622,3.99329942803,-1.85548332314,13.0882215374,8.6537011745,0.0201239673032,6.4585303033,3.45965564008,5.35881249316,7.61608163524,72.627097885
off_to_on,7.3468864296,6.15769955211,6.84046258735,-3.22587588562,3.21302555949,5.70233162622,12.1630389177,9.10516952467,0.0316782455641,5.73654845394,2.56055803687,8.02236425322,4.65251533445,47.0243855972
off_to_on,5.15732183979,3.57592488104,3.22048106666,0.424485002059,-0.109536552498,7.45929231901,-0.690298321192,1.19518255204,0.0313782925219,1.13992984041,-0.189869742399,3.24035179747,-0.987012813824,-73.0028884929
off_to_on,-1.95265603168,-2.85201163772,-3.49031009101,3.36916892483,-2.86621207847,-0.754644625771,-11.0407892133,-8.34399187014,0.0124351686957,-4.29873260781,-2.94739707486,-5.60552899707,-5.65552735123,-123.398813719
off_to_on,-10.4245240118,-10.2006989696,-10.0065465335,2.93909479582,-3.60559220489,-8.49798574768,-10.7856443879,-11.5292886565,-0.0131376453506,-8.04685697165,-4.17950773361,-11.2819240993,-8.0608376065,-32.3629866404
off_to_on,-13.6197163343,-12.6293318903,-11.8395606025,0.59334027605,-3.06794359103,-8.65425487804,-5.27748177198,-7.29935608788,-0.0274433985766,-8.49262464201,-3.3989172011,-8.88605142936,-7.48812673845,67.828428133
off_to_on,-6.64408534132,-6.05247961374,-5.45072194314,-0.825687331906,-1.65634965453,-5.25148076759,-0.886028206869,-0.158514735755,-0.0277207478025,-4.39207756564,-0.810712713752,0.101044508819,-2.56850641026,53.0234870223
off_to_on,6.5915511109,5.81432426069,6.18388088279,-0.956890420265,0.917705909604,-1.71140475661,3.12650099831,5.48837397182,-0.0221674652645,2.90872606918,2.49733128517,8.08641313725,5.18298287078,-9.76294665059
off_to_on,14.5981475166,13.1164105811,13.2207750822,-1.32207304564,3.67574873719,4.75271325139,7.73786440926,7.73383462378,-0.0119605155928,8.69791632204,4.49399941186,8.13701341948,10.0503618169,0.736075174884
off_to_on,10.4384314798,10.2370654419,9.23532472631,-2.00659495942,4.42486812781,12.3493901308,8.94180647159,6.61197107966,0.00701152312078,9.32853733572,3.71716460136,2.12433587635,8.00930910069,51.1168750641
off_to_on,-0.066577653263,1.91668541415,-0.302930809007,-1.28643602604,2.36583538366,11.1740051577,4.3721164482,3.3953897596,0.0277272364241,5.80777136489,0.888318361546,-1.27943295374,1.7214118014,24.983043478
off_to_on,-6.19632355636,-3.73856844028,-5.11887072133,1.25269176301,-0.793028356105,-1.44074923045,-1.71060725627,-0.467683697759,0.0341092622043,0.739731966,-1.8503950882,1.26401611896,-3.42629709006,-62.3275377448
off_to_on,-5.41390109798,-5.09481572523,-3.56501959852,3.2471236993,-2.83861584456,-12.1419014682,-4.92909459045,-4.40631247427,0.0217402801068,-5.36363495753,-3.11287695948,2.61391769101,-5.7965245181,-81.3858570779
off_to_on,-3.31284301685,-5.61477295708,-2.36350263683,2.36820253374,-3.12727194934,-8.36523983024,-6.55360517301,-7.69044159318,0.00306063583299,-11.1737908556,-2.8727527426,-3.48505998209,-6.56345426358,-4.6893079004
off_to_on,-2.96328199357,-5.72170592667,-4.16135500481,-0.5155307291,-2.29969150043,3.10561107079,-7.97205774045,-7.85499755602,-0.0110208851944,-11.3473989873,-1.468894136,-10.9204465944,-5.08002482574,51.0999470374
off_to_on,-1.60859146387,-2.51282255543,-3.79877806409,-2.37375278613,-0.940441978465,5.74974667277,-5.34026668703,-2.80549488421,-0.0215375932793,-2.38674710185,0.588247892635,-8.64556821213,-0.190771441204,21.2262570707
off_to_on,1.90316977191,3.09415913123,1.30441798141,-1.77697118179,0.785459839879,-2.68040344053,3.62947957154,5.02791083889,-0.0290952218639,9.48489475057,2.04337298899,2.84175816505,5.22279183152,-13.4375305436
off_to_on,3.85816862307,5.75940848436,5.42065023742,-0.238238622613,2.54336920026,-8.04685631336,11.9915370532,9.49830603446,-0.0253049580873,13.0825782265,1.77462912952,11.2133405635,6.40230728762,16.6303218468
off_to_on,2.39270932603,3.75122790858,3.70422079375,0.322371649984,3.37868876247,-1.34515744961,10.5614131827,7.14865583792,-0.00613294870575,5.90475961427,0.503009231796,8.91858321836,3.37093076495,47.9647041172
off_to_on,1.16436140153,1.55520352082,0.278483897939,0.0904022635578,2.16668747902,9.26298256974,0.668309616354,0.771399180761,0.0164557032043,-3.00187585138,0.109917351813,1.58087000499,0.53783220476,5.30343503007
off_to_on,2.52964500661,1.95456149799,0.931204862182,0.458406399975,-0.946642025715,11.1685461016,-7.30798468109,-4.46486399847,0.0271574222058,-5.55685891231,0.835310473272,-2.63065503095,-0.48980842944,-58.2357090436
off_to_on,2.53706884172,1.32752135349,2.97465697217,1.4611067012,-3.55462544251,3.14754117763,-7.35168658044,-6.0470985405,0.0248181207974,-3.70313772416,0.782968015739,-3.70021274123,-2.27882237487,-49.2053346098
off_to_on,-2.21267363917,-3.18868371073,0.0412108966325,1.51378692469,-2.78933116039,-6.26787103235,-2.99467107247,-4.1784603317,0.0173508004059,-2.74101557551,-1.01706002313,-4.96021404106,-4.89496685291,9.28526035114
off_to_on,-7.15429651557,-7.12212300803,-6.16128396245,-0.164137167128,0.890377521772,-9.90818987099,0.562195493392,-0.0646664531172,0.00625787586037,-2.16628998433,-2.738737215,-4.83301774598,-4.14705129834,24.5917637309
off_to_on,-5.58240554448,-4.95583574589,-7.39456800527,-2.05192172233,3.1037098523,-6.61044804685,2.25959888727,3.49627560757,-0.0110368063679,0.900955669589,-2.27129788185,-0.681683700623,0.738533395654,-5.83031551195
off_to_on,0.813989441751,0.763712033293,-1.59259766024,-2.06389237426,0.71678940168,0.580384942362,2.16500223548,2.91017399489,-0.0275637919808,3.95824993281,-0.211230086868,3.82464406709,3.78055022969,-3.18256754165
off_to_on,4.19165149321,3.24532890734,4.1131078683,-0.207895769227,-3.34368567558,6.16312456949,-0.129332949202,-1.36408999326,-0.02998667806,2.44582439581,1.32080504476,3.32874374377,1.16817311126,41.0316160016
off_to_on,2.29829266246,2.08482341138,4.39739016941,1.45979078331,-3.27656956117,5.43492232407,-1.87239491422,-3.3024359899,-0.0162888059774,-1.46061860367,1.76051402793,0.166881012014,-1.77453104033,45.1696315923
off_to_on,0.707616530527,2.62097130403,2.30759827435,1.43013635673,1.60846552269,-0.0618292286601,1.18476000553,1.02520349488,0.00146740675655,-1.31049518164,1.99025010141,0.840546479436,1.18093348546,-16.2467289618
off_to_on,2.53543782143,5.25252661469,1.97415957365,0.326522738193,5.40610163148,-3.13777017134,6.41001981739,6.30891069711,0.0137620331957,2.71289543345,1.86942693855,4.27298902656,6.05931768632,-59.9078288166
off_to_on,3.30690884914,3.71280615488,1.6104062365,-0.38154716406,3.41293539174,-0.176883428204,4.80874864675,4.1634173409,0.0216919616552,3.34279005987,0.303611742977,2.65508279526,3.89113383055,-28.1626468903
off_to_on,-0.689707129474,-3.73980251587,-1.51046022675,-0.337220348732,-1.70440735945,3.62936707335,-5.20383153116,-4.18180917345,0.0257961985626,-1.73963981094,-2.14997522624,-4.85073309015,-4.68468517142,20.7535338635
off_to_on,-5.19469303812,-9.10194614043,-4.48176910072,-0.232301175489,-4.0414479296,1.96177130811,-11.7502138625,-8.10784112512,0.0194887940404,-5.32306602524,-3.12367996481,-8.57996152609,-9.00203439953,15.6508702273
off_to_on,-4.33321407313,-5.49747912117,-3.14643676377,-0.36897180275,-2.33520095244,-3.25721048929,-4.87639332796,-2.36415612038,0.000876390541436,-2.02370700465,-1.66065710334,-2.69738902442,-3.78693233379,-14.5801517515
off_to_on,0.0511656816036,2.40323097976,0.403403742219,-0.309796938168,-0.232851086269,-5.0722588398,7.55937196119,5.02684428939,-0.0185350062114,2.74213855491,0.36393470923,5.05825114125,3.47335322492,-4.75336163643
off_to_on,1.5521366351,5.07842985426,1.00064389168,0.112920806334,0.0338843123626,-1.59030086156,9.49808245481,4.1501639913,-0.0259103814275,1.38207283177,1.07567643752,4.66961262115,4.28218702881,30.4671691956
off_to_on,-0.52100965044,1.59449653458,-0.894660361896,0.395063081713,0.173632227709,2.45465927946,-0.384355357284,-2.63757688454,-0.0214501794343,-3.28742690396,1.05418978293,-1.17349353919,0.912773334723,29.3113471636
off_to_on,-0.589330862884,-0.71859364579,-0.190573615245,0.228981618559,1.69588190961,3.0208777822,-6.93244712963,-4.62014455832,-0.0127390968106,-2.18168558497,1.54547099912,-2.08527029252,0.518428294757,-6.0884758875
off_to_on,3.41621109246,1.49052927014,3.59663680879,0.00910496633112,2.92073957064,0.772013905477,-1.13262665054,1.51448644183,-0.00149177114264,5.21032237481,1.84989646622,3.22938847326,2.92765438662,-19.8577283931
off_to_on,5.97058676756,3.18279536343,4.74465777397,0.071813849889,1.77797587967,-1.65029059594,7.00504075269,7.24040003776,0.0137517878533,8.68433970643,0.528613767395,5.16957068737,2.06252161074,-5.43484773886
off_to_on,2.14948306056,0.0679084409337,0.476003722399,0.0922208133549,-0.877522896321,-2.1238375447,4.20660019935,4.51528747844,0.0263943645022,1.79462785975,-1.70804208282,-1.10073038906,-2.88580836122,-9.46078742958
off_to_on,-4.6036246901,-4.26812040207,-4.15244856248,-0.228645786381,-2.61942718783,0.5268207863,-6.24720262542,-3.60270853755,0.0256161222945,-8.36713796091,-2.53909629762,-7.5426521879,-5.63971072591,-32.8997530521
off_to_on,-6.75900401795,-3.97826304248,-3.63308465397,-0.451196325003,-2.50497270146,4.5600591533,-9.81551824853,-7.87793421534,0.0112975665114,-10.0825944248,-1.28962635414,-5.18969768499,-2.66109694508,-18.4637618756
off_to_on,-2.51122990789,0.360996974089,0.149456976262,-0.0750437701645,-1.1930933086,4.84767201841,-1.60180905466,-4.58394283195,-0.00510821523381,-1.77336419983,0.301932499296,2.60992587834,1.83716017188,40.8694939497
off_to_on,2.5455226494,2.98413457732,1.47092719311,0.482402816405,0.567578197341,-1.06066307889,7.86715990124,1.60441811664,-0.0154373507684,6.85487467979,0.76797100605,5.48839295212,2.80697219647,65.454519146
off_to_on,3.11000895013,1.10444914087,-0.715136752979,0.406682956177,1.96913054206,-7.56413894146,7.86034096518,4.61739048369,-0.0209265387478,7.08494231842,0.598319922494,1.01913869154,1.1080847297,7.19728057519
off_to_on,0.274177613549,-1.958914394,-2.18120703548,-0.224056279683,1.91560598089,-7.09135095317,0.346287475092,3.27765849748,-0.0221768132153,0.561278598087,0.739089689961,-2.91824220508,0.353170222744,-63.7963037411
off_to_on,-1.11668744612,-1.7645944353,-0.157907078256,-0.532202429368,0.446626059746,-0.649063779979,-5.12873386534,0.648524076591,-0.014183710979,-4.2379012864,0.982709128989,-0.496757644795,0.90393659287,-52.4778634538
off_to_on,0.830787022481,1.71621999671,3.22713877585,-0.186016202778,-0.649611664194,4.02987699367,-3.92250988219,-0.378463145582,0.00332484765248,-2.3777727006,0.695736887781,3.95889298822,0.619002522297,27.2198464092
off_to_on,2.98057751274,4.33651047684,4.3184288679,0.228512008403,-0.264137016034,4.29452438268,0.378491052585,0.107385292364,0.0195722009893,2.50778570487,-0.0247355006811,3.06731197563,-0.774042471829,76.5473862542
off_to_on,1.67992813313,2.57124338389,1.9782461924,0.291173937095,0.159269955928,4.51648374072,2.3268803238,-0.116989191066,0.0240056018268,3.40605560765,-0.772737594523,-2.75817483472,-1.55571573087,41.5030072791
off_to_on,-2.22280142502,-2.37556020213,-2.036034304,0.279863094693,-0.903670602992,5.41351405018,0.572227819422,-2.17805102098,0.0179281570567,-1.18748658283,-1.44762122265,-6.09286837623,-1.13609747988,-41.1131147479
off_to_on,-4.25109113822,-5.40334212059,-4.73576380369,0.323432187212,-1.97299720142,1.3164642268,-1.95582159868,-4.00561237821,0.00854247480913,-5.37568822931,-1.6835762503,-2.82247150139,-0.484728242915,-103.179306895
off_to_on,-2.01033178771,-3.0763083709,-3.87499976011,-0.0137316082249,-0.640264942743,-7.78281023307,-1.70829575493,-2.43717698841,-0.00233287980215,-3.5335876953,-0.70909103035,2.73920587255,-0.0561312618635,-92.1410181829
off_to_on,1.7028596373,1.96938133526,-0.0748985952057,-0.733459747824,2.00348084366,-11.3937271034,1.61895337555,2.31423388082,-0.0153712188792,2.2345990492,1.24520712728,4.21487583575,0.476506307508,12.6637590146
off_to_on,2.64195566461,3.87340818346,3.05237144197,-0.899419233223,2.31589809106,-3.36476559459,4.30496075137,5.82670692375,-0.0245396746582,5.03695683905,2.38144898494,1.37849971905,0.915359936047,154.220795712
off_to_on,0.595461779591,0.992345907056,2.63274778384,0.0101921125213,-0.271018007297,6.67109970922,2.51178769249,4.32319475298,-0.0212678532545,2.51881625621,1.43675191931,-0.851442997351,0.856604964966,190.085961856
off_to_on,-1.00862636673,-2.03806824351,0.149600799905,0.977026379488,-1.99963727204,6.62541437551,-2.71325148115,-0.743096538043,-0.00689391926793,-0.780854856731,-0.401453018251,-0.0762257643022,0.738259047698,32.6232867762
off_to_on,-0.376720346959,-0.991923429426,-0.674059164088,0.749386601588,-0.448129189884,0.225505552266,-5.88590810192,-4.47606699429,0.00789640562183,-1.01114224002,-1.09127972887,0.765728248718,0.826274241268,-193.519605275
off_to_on,0.62195605898,2.00990991522,0.701140637482,-0.239103538181,1.72562588761,-0.291863994634,-3.37443449157,-4.13926339197,0.0162308207546,-0.372756360552,-0.626464295865,-1.03837479494,0.0409900710516,-244.937206541
off_to_on,0.279709677252,2.12565126057,1.12944866163,-0.518660327914,0.989577472125,4.55680670049,2.29736171524,-1.25924077225,0.0195224388355,-2.06581486035,-0.592209604721,-3.16753628682,-2.06269015776,-55.824002517
off_to_on,-0.0913128625442,-0.739700815149,-0.840990970627,0.112842142213,-1.60393049214,2.64961808006,5.60058602907,1.35392375946,0.0184985723122,-3.7582763673,-1.13737829341,-1.82577903163,-3.09853894854,161.946555844
off_to_on,0.93105171219,-2.24738567972,-2.36187661257,0.377973281048,-2.21530672813,-7.28127499465,4.02784169021,2.52823914984,0.00950335797515,-1.02905218506,-0.582013294608,1.95994824311,-0.618671862499,186.294658421
off_to_on,1.50432410043,-0.818189769151,-0.914535099283,-0.281956523125,-0.0348077560359,-10.7006127232,-0.401570341372,2.35595539008,-0.00654773588798,4.42356121152,1.41188031852,3.37018412784,3.19557396497,53.8821637976
off_to_on,-0.870490424919,0.188980775789,1.28576561642,-0.803581408167,1.96237832453,-0.455939850545,-4.1652296824,0.984252945275,-0.0197739739016,5.69721961799,2.4477173864,0.799240334933,3.24253347934,-44.5595254649
off_to_on,-4.43876091715,-1.24950377557,0.640059536976,-0.331143496916,1.65450485581,9.90248972161,-4.7983248129,-0.937423545312,-0.0216861305412,0.518342121869,0.692924298524,-1.89546414236,-1.08656188052,-50.276684081
off_to_on,-4.31926982677,-1.81365183947,-1.7562448556,0.438326409243,0.132934105551,6.32801341096,-1.62595011213,-1.83681917391,-0.0144561864771,-4.81567508699,-1.93608250013,-1.18355691359,-3.86216588585,-58.7861060158
off_to_on,0.93086820684,1.66258657905,-1.32957637278,0.593904276264,-0.855905588394,-3.96963319083,3.38441483307,-0.816317264162,-0.00485835176635,-3.81511196818,-2.00365397785,1.3094504629,-0.57239741955,-93.5497112684
off_to_on,6.50661247685,5.73334971816,2.62535425421,0.448320823879,-1.14029288679,-4.83357713896,5.74563505147,0.702868052138,0.00527923030191,1.47250167931,0.584634061029,1.75627984974,4.69586467759,-50.7563768507
off_to_on,6.50229869636,4.00048741614,4.76952996561,0.508716116633,-1.01326750864,2.74961236737,2.28213983855,0.358384139805,0.0161038046776,3.63523762685,2.19933564687,-0.476711148721,4.05365759992,86.3674305949
off_to_on,0.560802417646,-3.38755839276,0.954037053178,0.16521329247,-0.177099426082,3.67130830126,-4.25670258139,-1.8308994889,0.0222524420111,-0.0213435355851,0.440258061986,-2.77330991489,-3.10536619002,155.686051432
off_to_on,-5.71166918541,-8.31790205345,-5.06711126297,-1.04680870725,1.07625674654,-4.79518922036,-6.76375946381,-2.68213357966,0.0171209878673,-4.26040900961,-2.41001685639,-2.94357612469,-8.19274566441,47.4603577967
off_to_on,-6.42895245771,-4.40755343049,-5.60531751935,-1.77042413376,1.4260976827,-7.58149936422,-1.70167012359,0.456584088282,0.003126128134,-2.91247667778,-2.29383622411,-0.668783513186,-4.06846578582,-104.52290093
off_to_on,-1.19272113626,4.64548756678,0.766312616921,-0.429295337694,0.429248366022,3.00722631649,5.95672081855,5.44410542421,-0.00991211575591,3.40004502497,1.15948404466,3.12979775186,5.48788775017,-105.418221111
off_to_on,4.35360737812,8.89973025553,6.44885700056,1.82549821914,-0.617845298084,12.7852379415,7.77344335171,6.37674359091,-0.0163239601202,7.63833744167,3.83549496704,5.80950923074,9.82737461811,16.0834703525
off_to_on,4.13755067144,3.53292834018,4.00927387986,2.04518335194,-0.73791879703,6.2455505476,1.42140090511,0.290759204354,-0.0177072941108,3.94317626307,2.16607104544,3.66050049404,3.9791987504,69.6031799468
off_to_on,-1.35506933877,-5.69588025483,-3.97907496701,-0.25666743489,-0.619156866192,-9.57559457346,-6.61320495932,-7.8562670449,-0.0149398739498,-5.33993437349,-2.25739582832,-3.32707316058,-5.65061698555,2.87187506697
off_to_on,-4.87293759966,-8.83854478087,-7.50112951895,-2.02919286878,-0.784264243008,-14.6471197574,-8.23395398502,-9.31595069839,-0.00548820070923,-10.7281487888,-4.32896421917,-8.49436635782,-8.8895973943,-43.2706435752
off_to_on,-1.14686507268,-2.62631533439,-1.64146697423,-0.964867966512,-0.231108973418,-3.68208738244,-2.27464459938,-1.65288041033,0.0089021398079,-5.34374314253,-1.55912491689,-5.03967911293,-3.25205953917,10.9160752258
off_to_on,5.50692154885,6.09014046773,6.76709075363,1.16867020982,1.42154506463,8.80475492089,4.9828709797,7.4321453157,0.0193348958032,6.16443863686,2.78083641812,4.15333614279,4.10746648759,57.8047781257
off_to_on,6.07948543371,8.06280422988,7.52118662398,1.28103794787,2.16139352907,10.0787009677,6.99260879392,8.6287167729,0.0191491508154,11.3129078201,3.62421993205,8.339549072,5.49814902058,1.24267574435
off_to_on,-0.817639282029,1.94489053729,-0.000434734193384,-0.469484451535,0.312180937261,3.60183339754,3.3123225964,1.92354646015,0.0111731116603,4.31676012379,0.393243155742,2.60922124893,1.37087093892,-72.8257738415
off_to_on,-6.59936926444,-4.72960545568,-6.41100170968,-1.25903842917,-2.19134872456,-1.03319813478,-1.41316899942,-4.22199113625,0.00171922233957,-6.16573082557,-2.51621833429,-5.16982242097,-1.76749430741,-41.5742897814
off_to_on,-4.650012796,-5.07284853688,-4.91930141578,-0.0789459788579,-2.06433045921,-2.30941695897,-3.46682862821,-4.09608114765,-0.00744765512964,-7.72182587067,-1.74361115387,-4.98257104825,-0.635581987973,48.7139193222
off_to_on,0.732438240409,-0.869929574066,0.463773740353,1.01038644416,0.384252613838,-4.32818541919,-3.29049928413,-0.866297000791,-0.0161484396659,-0.226049782603,0.756154594518,1.80834047004,1.06508588519,62.2694147927
off_to_on,1.89917940737,1.23410405344,2.11595261808,0.406755336894,1.65220889447,-6.50754036545,-2.6518869563,-0.00525206185858,-0.0197345162531,4.91071591918,1.09185323027,5.28852678555,-0.789284011126,-5.80073472137
off_to_on,-0.136213369764,-0.334249472681,0.0492724437736,-0.675826868872,0.471278067562,-4.01309851174,-1.04277674421,-0.991675873484,-0.0132887583766,1.3708683334,-0.650050624291,1.27402410476,-3.79603787912,-37.8176982341
off_to_on,1.41402213323,-0.513889592797,0.346132957981,-0.494381989727,-0.517880322871,3.06027672501,2.63658929473,0.265244786628,1.25926597763e-05,-3.75954440898,-0.892381951155,-3.97796294539,-2.35180273476,2.3901908276
off_to_on,6.066718253,3.32060609492,3.93547254229,0.451680178207,0.439783298787,7.7974617216,5.87606383862,3.27135136953,0.0112636712262,-1.89585413133,1.33708032338,-3.93748490155,3.2740749278,23.2740054925
off_to_on,5.02465865499,5.78389036213,4.10988351106,0.560518717435,1.11105635415,5.2696626569,3.94629977286,2.95831672299,0.0158899860772,3.66547586062,2.38665354406,-0.289804397811,5.95200032598,-20.9409198359
off_to_on,-4.43661798474,1.03460392571,-2.44228193911,-0.169981750157,-0.714156243814,-0.982976082441,-2.98473331263,-1.76374219473,0.0156627510164,3.57221247833,-0.340482127984,1.73787630468,1.37001926046,-49.8776166875
off_to_on,-11.7918790721,-7.09153949996,-8.35823445454,-0.414656860568,-2.80263052169,-3.7186071769,-7.53997467118,-4.86085956112,0.011611841318,-2.20465771677,-3.66088257518,1.53871450342,-5.22283599425,-2.70140923376
off_to_on,-6.60237841738,-8.42859518561,-4.89822663764,0.0773089703893,-1.47913493183,-1.09609492213,-3.59884163099,-1.47967192259,0.00212115843814,-4.20722182745,-2.68360472334,1.91234645268,-5.53102497376,52.6903545136
off_to_on,6.15474883834,-0.173595176802,4.85937852478,0.195655213645,2.31678366257,1.6697540109,4.65607650116,4.38156856965,-0.0105198485048,1.06123768704,1.90436841975,2.61878470997,0.69070883537,34.7310953378
off_to_on,11.786886661,8.37997393135,9.00308348059,-0.410891322239,3.75712947805,-0.405572583013,6.95962697185,4.87364250369,-0.0184303326006,5.02451902487,4.36181673883,0.656375067376,5.55984712327,-17.4151463281
off_to_on,4.95702401523,7.5482530337,2.72503429582,-0.618303275319,0.957584572366,-5.21340791946,0.576945309408,-0.725045413904,-0.0165428241371,0.649537423931,1.78862064639,-3.48063803648,3.8420462892,-18.5790174536
off_to_on,-4.69983782575,-0.559722416513,-5.42972771704,0.248970861782,-2.41935705352,-5.66849659747,-5.54299949622,-4.95614376954,-0.00815682062769,-5.69538917666,-2.11101323061,-4.86308802462,-0.925276260495,17.2290998303
off_to_on,-6.74183784565,-5.97401034283,-5.7228526376,1.13346460187,-2.55004778208,1.27240839531,-3.1442916971,-2.70325324442,0.000893850168583,-3.7062954017,-2.64453434193,-1.03970758141,-2.86752547182,11.2190840385
off_to_on,-2.42927885172,-4.366205248,0.0176921669417,0.758698049467,-0.469057558225,9.44195697899,3.40532462059,1.81827880257,0.00895805460828,4.22757455618,-0.477618446392,3.68078034566,-2.04338311772,-36.4977182033
off_to_on,0.449088168965,-0.805686954003,2.74590586273,-0.47512919021,0.42031024567,9.40177412878,3.41281199995,1.5932737055,0.0156803599186,5.74931348188,0.396942150724,3.50584044862,-2.24690953794,-46.3490197468
off_to_on,-0.274670137921,-0.125183058504,-0.127580121748,-1.09895401083,-0.269568355892,-0.346062818987,-3.89338965001,-2.6020634446,0.0171323015284,-2.43467119747,-0.816644056312,-1.16082257365,-3.11009489971,4.09487396257
off_to_on,-0.0440758803866,0.104333033899,-2.0678824971,-0.579770944046,0.0339027432149,-10.2905551746,-7.12836627375,-2.98985921034,0.0098268052089,-8.31634145517,-0.87102818752,-4.15866047116,-0.160333712974,44.7234846787
off_to_on,3.44123243072,3.63027812966,1.52011132433,0.234646524387,2.10092359242,-9.80777600157,0.870139835567,3.59950073562,-0.00256461804806,-1.74796168235,1.8293096701,-1.37282082186,6.62016091122,29.953741617
off_to_on,6.04965935017,7.24556323879,5.86962724827,0.484088726138,3.19103579312,0.767478562505,11.1998235563,9.60320079779,-0.0120915552857,9.89522991004,4.0884129583,4.2467757605,9.73906083495,0.386130154418
off_to_on,3.25348272193,4.36541992875,3.8637912147,0.24907082079,0.98129651616,10.0259126096,9.72830015042,5.73089231231,-0.0151845661,10.9891836605,2.22871233653,6.30959526639,3.34896126602,-3.26454365638
off_to_on,-3.33366480663,-4.39587554966,-3.39795591835,0.0557190143353,-2.81452234602,7.89329706089,-3.50046342632,-6.0461479432,-0.0136053284928,-1.05324785651,-2.47881542991,2.26085733229,-7.60852508243,-4.61096927783
off_to_on,-7.7489777526,-10.207408474,-7.83595887645,0.0883746713157,-4.34334796495,-3.20001942628,-13.5021753696,-13.3433956053,-0.008137759195,-12.4616400624,-5.07440715047,-4.27333510167,-12.1187780865,-23.8270627672
off_to_on,-6.43870443295,-7.09247252221,-5.07541081483,0.146776036073,-2.27703124509,-10.8279141489,-9.61086323876,-8.14646162341,0.0019041026236,-11.3219213911,-3.03208380113,-7.85885416108,-6.23576194022,-21.570404492
off_to_on,-1.26438993699,0.698054899509,0.730594377882,0.021443867925,0.965731751918,-6.25131709847,1.80585479753,3.44081864366,0.0120042570686,-1.23190242478,1.00671513141,-6.33142783499,2.94495502244,23.1717435352
off_to_on,3.6597127455,5.28908842926,3.66134475842,-0.282360530548,2.55268744777,5.574095938,7.65960272084,9.32116975242,0.0133769523436,6.45601018869,2.98166654844,-1.20588020429,7.11216264529,42.1075595891
off_to_on,6.18803300163,5.30437365258,3.5449305632,-0.509789997977,2.32221064075,11.2634443207,5.25183989168,6.23687456926,0.00619318153122,7.55175412685,2.15399156139,4.9225333889,5.99159507315,-25.759806116
off_to_on,6.4765130606,4.85798149945,3.81774850956,-0.329231739351,1.81990155202,4.52322626118,2.31702406586,1.45714057001,0.00486214550682,6.16323576311,0.903500147846,9.36264635202,4.16249319027,-102.713776475
off_to_on,4.47718524555,4.80986368729,4.47547968171,0.245717449152,1.3568818802,-6.09043018363,2.92689501711,0.630565933138,0.0174112876944,4.6394751463,0.784087682255,8.96497073117,2.5796084065,-47.2796215796
off_to_on,-0.584668401198,1.26337838073,1.71677561511,0.676585191641,-0.294592173099,-7.73839052628,2.05275292672,0.498956681752,0.0208765967087,0.267387937825,0.615662321065,2.27692184055,-1.56029765197,127.415190009
off_to_on,-7.32478203978,-6.3674092478,-5.06413900492,0.454457211367,-3.11765273781,0.0808384895645,-4.0888974947,-3.54550667968,-0.019642647834,-7.29507561278,-1.10897249238,-6.97073232986,-7.57355377616,214.188232609
off_to_on,-10.7372651643,-11.4824635702,-10.0283395082,-0.205748577795,-4.50543839646,5.04667762938,-9.80795735746,-8.2199531398,-0.0876197995144,-11.9071032237,-3.34655672091,-11.5159051525,-9.56297308789,57.7849029807
off_to_on,-6.53498717732,-8.0387132504,-7.34321010057,-0.580805481643,-2.21084779599,-0.364712186412,-7.42113766313,-6.57482721641,-0.0926995917883,-8.01908469932,-3.43545002832,-7.92096700887,-4.01402462279,-215.706950588
off_to_on,2.86006083852,1.19520474779,1.13375752872,-0.343294392488,2.10335785613,-7.40735970329,1.26953241,0.997503557142,0.0329295386371,1.63456550468,-0.624924748189,-0.376958596637,4.56289737646,-305.616710958
off_to_on,9.43829117877,8.10893720834,7.72043612227,0.135114690683,4.21180708535,-3.45338150752,7.24229776104,6.58303162919,0.199678240035,9.14630029368,2.69234704208,4.88346672753,8.5913990713,-82.1757415174
off_to_on,8.17031124182,8.89979605837,7.81083819973,0.397315379705,2.45724808218,8.41298690781,6.35085085695,5.77035003533,0.193847516189,10.1941967012,3.73735512054,6.6175665395,5.98521232969,240.191847625
off_to_on,2.3266494784,6.05345427967,3.86332774327,0.359886517988,-0.320312896245,12.0226941591,2.96056020093,2.65809567346,-0.0688029037687,6.31239625956,2.31816607246,6.96410814202,0.921896530152,325.689050952
off_to_on,-1.61913404168,2.13952833122,0.333504532604,0.0804159710619,-0.883554292574,1.06852357542,1.37850268319,1.82540977561,-0.352132080683,0.344183371029,0.28117289038,5.41623035523,-2.34881915002,92.720396316
off_to_on,-2.15213924483,-2.93188441654,-1.89137121092,-0.389410528493,0.155037237039,-10.8030286218,-0.000623401805315,1.19496980748,-0.296432767755,-5.77574024561,-1.11420632717,-0.167370137244,-3.12283732993,-196.407970796
off_to_on,-2.62680622341,-7.79941209426,-4.10870926096,-0.695103953376,-0.0359969538878,-8.63548416311,-3.47791537476,-2.76266223415,0.131954945797,-9.06201216777,-1.97484900487,-7.08692216233,-2.3683079002,-244.712401415
off_to_on,-4.49316426999,-8.30034237675,-5.65401507263,-0.308920274868,-1.86465245119,2.99620360747,-6.33420569575,-7.16906806052,0.502014270061,-6.44984919616,-2.34878937423,-8.69367317575,-0.962299021201,-57.5221420875
off_to_on,-5.02328747942,-3.29582732836,-4.50606160723,0.605662300706,-2.8130580363,7.26476208354,-4.82637281149,-6.2444144334,0.369920399017,0.279065308207,-1.6841511231,-3.73617404478,-0.39691144963,105.823408606
off_to_on,-2.30229409319,2.09015471896,-1.04590713724,0.995069440467,-1.41271515548,-0.658987047822,-0.611399083146,-0.678942563473,-0.169924356791,4.48710460279,-0.109991910365,0.94921838072,-1.88470401228,84.4897507274
off_to_on,1.6430084182,3.04218619433,2.08706314519,0.219867738984,0.811539153382,-7.87183481418,1.83057959035,3.01355516393,-0.55034259421,2.68006596564,1.14157402584,0.641168361694,-3.37176846594,-7.45163466454
off_to_on,4.46957782266,2.04746423192,3.91466475134,-0.835514678346,2.06893652752,-3.34556621684,2.36107894261,2.5377433144,-0.382967669346,-0.362648390266,1.40697182429,0.145870182127,-0.600859234365,0.00667491501995
off_to_on,6.59796213235,4.45924695066,5.71854178729,-0.781213128665,2.65519434023,7.04013709832,4.38816480884,2.69961344168,0.109911317808,1.68861000372,1.5527680786,5.24440279104,6.45608631979,69.9579174151
off_to_on,7.92101691451,8.66999605572,6.97208482737,0.308919173789,3.1413671698,10.3062293158,7.3346703639,6.1596486161,0.409818585956,6.79849482223,2.20380690369,11.0391617624,10.8847138635,45.5103479483
off_to_on,4.90142679193,6.79290498025,4.14990069805,0.896301842584,2.19983447908,3.86002045304,5.71548921438,7.40727353802,0.311313693784,6.42254163427,2.04745463597,7.2521895514,6.15075046955,-74.4547348173
off_to_on,-4.39154409235,-3.68967733984,-3.8918164997,0.125753488175,-1.40741934122,-4.09573221032,-2.41342352314,0.68799421754,0.0479459116724,-2.41864663392,-0.451051713466,-5.67417911414,-4.99194050291,-121.879544256
off_to_on,-13.9723636475,-14.2726172806,-11.6738750644,-0.950975306276,-5.59516718987,-7.37763718038,-10.7691045941,-9.87944110787,-0.112012782767,-11.7534937649,-4.04863534136,-14.5617760292,-12.592380961,-26.7045236868
off_to_on,-14.1943997613,-14.6806673262,-11.7777440873,-0.85080726564,-6.2787024608,-7.02182361243,-11.7360467698,-13.9047688789,-0.160196000534,-11.8427131058,-5.2875636,-10.2213855873,-10.5379818014,73.0468180048
off_to_on,-3.34973129089,-4.57344495599,-3.4255342956,0.33142435282,-2.19640706331,-4.93276416383,-4.91532574526,-7.30340185344,-0.192097813218,-2.61967235508,-2.48797623488,1.01359333165,-2.23341959277,52.7861876396
off_to_on,9.2398735255,7.2910385708,6.42217247949,1.17668594522,3.41079944645,-0.1450104403,4.05345671982,3.64722178722,-0.171930695975,7.15447728475,2.15967679382,7.01770698215,5.16133430675,-14.3257345091
off_to_on,13.6409924031,13.1485213974,10.758071994,0.850442888644,6.36923723833,6.68476269546,10.2259955145,10.6161588726,-0.016892530418,10.2546655061,5.05482909984,5.37032617731,8.41085610126,-3.1029645486
off_to_on,9.33776675762,11.7285713217,8.78701152921,-0.0867920799553,5.33354563579,10.6623971166,11.3829108457,10.8757029226,0.190568234166,7.01633238763,4.62260225037,2.80584998532,8.23676926175,50.0462298922
off_to_on,2.49502184917,5.43539599741,3.93859524062,-0.726252181433,1.6697475057,7.75146568667,6.27635682644,6.07486696363,0.257904155088,1.77212185773,1.76297939987,2.89749211163,5.13530400441,24.8137214469
off_to_on,-3.10057611815,-2.94712763117,-1.35569217097,-0.849049769488,-2.53312186732,-0.321728764191,-3.65573362189,-1.435010025,0.134623457544,-2.6966238863,-1.74808379861,2.13334952024,-0.859717579013,-62.4060332568
off_to_on,-7.81002796265,-9.89305463842,-6.46228706318,-0.660171539533,-5.23237112128,-8.10312309407,-11.5778032077,-8.21044421851,-0.034077923433,-5.66368654772,-4.13090151184,-1.91441181071,-7.19145904779,-79.6208119999
off_to_on,-10.6422600656,-11.4798285973,-9.70453035366,-0.163022135078,-4.79435711412,-10.955103804,-10.1409547738,-9.56444153311,-0.117374344035,-6.225383346,-3.93254013083,-5.5633832304,-9.34949937534,-0.892397873799
off_to_on,-7.87765241424,-6.71181243918,-8.11394688468,0.639343428364,-1.44902319297,-6.93652926396,-0.759189744877,-4.14950320443,-0.132720970096,-3.54515680138,-1.2029112596,-4.72035391783,-5.54929599479,53.6968122916
off_to_on,0.926384794938,0.900062129904,-1.12651579203,1.23615988778,2.1262031157,1.99278962464,6.55763225374,2.83378172874,-0.133430975744,0.953880712001,1.83072627583,-0.944918242651,1.02460560408,20.1224156831
off_to_on,9.4341091878,6.56064357714,7.04282401718,0.937088494843,3.22797706082,9.07052800777,5.12153945084,4.81709462916,-0.0899307045642,3.83604744801,2.66917561499,1.38454379541,5.5253939747,-16.5779741385
off_to_on,10.4043572826,8.05320401476,10.3194639638,-0.200946728292,2.03485453422,7.51483847573,-0.570531922724,1.73659763277,0.0308700113164,3.11025570354,1.28044880976,1.10627669575,5.81535107823,14.5540401989
off_to_on,3.81232747153,5.88811328793,6.30258465444,-1.18645386931,0.884706608546,-0.709263034835,-2.09632670111,-0.62193496215,0.153604571715,0.597499243844,-0.123272000294,0.464436985266,3.15708539687,47.3851078549
off_to_on,-3.4048396824,1.58085008992,-1.38227948559,-1.1015567847,0.84995592702,-5.15094780279,1.3910945154,1.03794570848,0.167986879035,-0.207388027776,-0.0901915231815,1.07460368315,0.0469745201724,4.88251236388
off_to_on,-5.23549494115,-2.71175152627,-6.29952694864,-0.14329073648,0.590949581289,-0.204873043237,3.75929541999,3.57578536112,0.0767697612063,1.5427601963,0.527266542732,2.4655478503,-1.68063456243,-58.2704442594
off_to_on,-2.17944906068,-4.47599389095,-4.95590771377,0.617718715722,-1.0518403646,6.01167912396,1.84770846106,2.79252295606,-0.0206807092152,2.96355957188,0.335914450319,3.59492964003,-1.60800080795,-47.4959600975
off_to_on,0.921428540644,-3.03631202466,0.176003370441,0.522247257941,-2.91517092056,2.55130066744,-1.1517348831,-0.787427390354,-0.0700899586282,1.13208238778,-0.608587363563,3.38477579775,-0.792466037711,12.0932064592
off_to_on,0.608931313249,-0.935794539159,3.20426317638,0.0579855025125,-3.02602781957,-7.64293260032,-2.41271011593,-3.77367435308,-0.0978069878071,-3.12472134402,-1.33956625039,0.428560075127,-0.811630123519,25.9590094803
off_to_on,-2.30743856321,-1.13955193354,0.762993846689,0.0706364614449,-1.24145404494,-10.7927253754,-3.56932004335,-4.83785865082,-0.113217258777,-6.18842183344,-1.4555334524,-5.29145727166,-2.02817610027,-6.86404805238
off_to_on,-4.22588731525,-2.92123055403,-4.30886324733,0.483768814342,0.898242985575,-2.07242428226,-5.58981288152,-4.65251670561,-0.0741264771893,-5.69239898193,-1.06114066318,-10.2017234518,-2.92818280341,-4.93114428907
off_to_on,-2.21812258203,-2.38718802563,-5.60374312814,0.368047373703,2.35196351943,7.48371547682,-4.59232236598,-2.61107146745,0.024257188617,-2.11206980434,-0.0231550043707,-8.94833196162,-1.63812491869,40.024812419
off_to_on,3.17009563053,2.37911122273,-0.0276209607061,-0.587209508054,3.15510757284,7.49493296132,2.51961035201,2.44179571602,0.106846505014,3.06749811628,1.54218183479,0.0349862624102,1.9198227014,44.376282467
off_to_on,7.79946577599,8.09979507863,8.07650795689,-1.31339828023,2.99289306539,2.32176886597,10.8831642143,8.15892170907,0.11068254949,8.19293738395,2.52528965853,11.2389546218,5.49620489562,-17.3340314772
off_to_on,7.24740435342,9.18167418182,10.5679729784,-0.673219231888,0.949629657104,1.36346746397,11.5289791522,9.13785038416,0.0622377572542,10.0461394388,1.82783415958,15.6229065267,6.081493627,-60.0846007599
off_to_on,1.14610986745,3.37359994874,3.89858539377,0.825007031086,-2.55015868667,2.81281307814,2.45872260634,3.20205306299,0.0178880291822,5.06393288292,-0.0284918194194,8.60225981388,2.40399575138,-26.3903313064
off_to_on,-5.97606950404,-5.7761446589,-6.59711871862,1.47121247599,-4.88174134569,-1.90509355793,-8.31501063742,-5.07126106483,-0.0206306394156,-5.34249576994,-1.43548147159,-4.89195568583,-3.4448265435,23.1803413099
off_to_on,-8.78404996095,-11.6783715894,-11.7051250481,0.552444823248,-3.7313694056,-10.8439821687,-11.9022728945,-9.10716661109,-0.0745901937667,-13.0359389823,-1.7789327092,-14.0151773138,-7.11033280742,16.5540523804
off_to_on,-5.89510260453,-9.95826067223,-7.56247631439,-0.740391771984,-0.0154366252471,-11.4058993365,-7.45276652338,-7.1085461192,-0.112998812456,-10.7019120848,-1.7564713702,-12.0259821774,-5.75980024904,-15.4490219237
off_to_on,-0.261066983665,-1.91019482389,1.07017780645,-0.962346383664,3.01806152855,0.509380446944,-0.417470745208,-2.17815192396,-0.0808786020583,-0.609281491614,-1.54472865212,-2.63231277379,-0.953310714788,-5.92806708888
off_to_on,4.37718965724,6.65612176418,6.73769440635,-0.209197972226,3.49264320742,12.3643668073,4.92714951517,2.69091743791,0.00959994325909,7.81490472893,-0.218336713963,4.93861576888,3.1420703572,29.7515744196
off_to_on,6.24913239607,10.2488281498,6.76330266617,0.378336881765,2.36513439449,11.571364973,8.01657945084,6.59951275191,0.0808463921148,9.002496741,2.23750841919,6.47182377834,4.30074417434,28.6019729921
off_to_on,5.23253170372,7.69594261091,3.7293609662,0.314425559716,1.04694414852,1.71941880995,8.52568265783,8.08229393218,0.086474688805,5.65377073306,3.71555311555,5.43608971045,3.58400751209,-6.82805168557
off_to_on,1.77200948188,1.70137017321,0.406242094207,0.0770897739441,-0.664830835021,-5.07725958829,4.51552573383,4.44275772684,0.0534029361595,1.74190731612,2.22462570655,5.05524275502,2.20121863732,-19.8288078715
off_to_on,-2.77008384296,-4.36722136747,-2.78584600267,0.00481099571778,-3.07940316303,-5.38683840754,-4.07399656067,-3.87194268223,0.0207699933794,-3.06419161351,-1.26114901318,2.67889502045,-0.395261913726,-4.44966824219
off_to_on,-5.74968082112,-8.07186799868,-5.29322544069,-0.107416000986,-4.41326343148,-4.6744805783,-11.8989535931,-10.4632741367,-0.00972184983062,-8.61188222856,-3.57201106297,-4.26840722241,-3.83550361031,-8.39440498924
off_to_on,-4.86852912347,-7.3958236795,-4.78288866996,-0.258924611845,-2.31780401555,-4.36772952546,-11.2652535419,-8.19532202456,-0.0436524607245,-9.30327371708,-2.83670865616,-10.5163816121,-4.81674116966,-32.3488133245
off_to_on,-0.508727386638,-1.63293177596,-0.22676272817,-0.0590151111504,2.37713544045,0.048883735586,-0.417659345289,2.2172634692,-0.0618501671982,-0.755210108807,-0.130682273781,-7.65901594914,-0.967713382191,-18.1871895434
off_to_on,4.10600467707,5.99904242905,4.99968374617,0.401460605027,5.43322891561,7.62106290927,12.0518787594,11.1955464463,-0.0492375729945,10.5828966047,2.21031182894,3.49376314141,4.33292584665,40.8729443626
off_to_on,5.32247569929,9.01366262576,5.79075416606,0.382812029048,3.71443613596,9.23905641553,13.8502639572,9.59340139242,-0.0225200987901,12.1026090455,2.70911290013,11.4413539874,4.74426990035,64.7020735265
off_to_on,1.88183073683,3.79202382713,1.11971799949,-0.287062620288,-1.15132475925,0.812316976407,2.04084418909,-1.53996043714,8.25770481108e-05,0.877631581477,1.17994705647,7.40510924493,-0.842674122246,6.06534726274
off_to_on,-3.78301685766,-5.26181419867,-4.55543377286,-0.653415787396,-4.5771893199,-8.64120516688,-11.91176082,-11.6314175698,0.0276993493718,-11.240917327,-1.4538094326,-4.02717626806,-6.12262487085,-64.0239231641
off_to_on,-6.71805715686,-9.18847952676,-6.01863148932,-0.0469323916565,-3.78077819615,-8.30941388652,-13.3454936919,-11.0784767053,0.0646203248347,-11.590104004,-3.17001087153,-10.8467354697,-4.95071981774,-51.7972296433
off_to_on,-3.32263143173,-3.95055131007,-2.30378555705,0.661969092813,0.0222603138244,0.0539113429862,-0.964825277347,-0.571023287147,0.0775440136796,-1.24956092144,-2.03470105761,-7.20030098303,1.38376643493,26.9473867151
off_to_on,4.39023339243,5.06978600775,3.12338485472,0.28191374851,3.38079000775,5.82178415921,11.2169857312,10.017814007,0.0356280873309,8.29500792068,1.44755558903,2.31461035277,6.45615946594,74.7232362737
off_to_on,9.24986726547,9.03065964334,5.98543294369,-0.690293392103,3.56908450006,4.39685059167,10.2902130445,11.5156971505,-0.0336876973573,9.43732004974,3.98922754215,9.50587927045,6.29084814254,40.929649813
off_to_on,5.87175842011,4.94003769193,4.60662272005,-0.629678393922,0.516694507098,0.982292864697,-0.634149692295,3.93209623044,-0.0710837567749,4.333219857,2.84343667588,9.75140623519,2.19109896657,-37.7618770485
off_to_on,-2.8174598988,-2.25705384245,0.659719361345,0.651088334629,-2.93917867236,0.259770985317,-7.75893177824,-4.71129130369,-0.0597022568593,-1.45083706388,-0.883237139881,3.53826822492,-2.56130466928,-98.3274618317
off_to_on,-8.31656882998,-6.08749512429,-2.85531664034,1.34764710372,-3.22154892572,-0.0144115119929,-4.51834904737,-7.31356341235,-0.0326031061106,-5.22410903936,-3.46152425841,-4.95856582552,-5.75153485761,-91.5720031297
off_to_on,-6.36848605857,-5.10840960214,-4.49422973795,0.245763870293,0.136893992631,-2.81782108237,1.79233473867,-4.43362898003,-0.0107114105424,-6.51271397777,-2.89589405961,-10.2976225548,-6.21376281135,7.27492175429
off_to_on,-1.30093206558,-2.54208793739,-4.95286663162,-1.38653263554,3.20654449467,-5.42752071226,2.01857894154,-1.6671511885,0.0195751404354,-4.97804863098,-0.702589942485,-9.47104122748,-3.64741554683,148.212353791
off_to_on,1.00321823083,-0.955599896663,-4.50021435633,-1.50778310089,2.02091871761,-3.60206559939,-2.37135230167,-1.60817657947,0.0584835588239,-1.24568970539,0.790142235636,-3.90520644092,0.669590035448,189.443545094
off_to_on,1.25029157779,0.688914924039,-1.30557609771,-0.0645336624745,-1.95662628498,1.3889815051,-3.11927999827,-0.888233829804,0.0700525484797,2.7797249696,1.33184855087,3.15965507302,4.58514533046,36.8553359617
off_to_on,3.9390713942,4.20221494298,5.44998503705,1.18638455308,-3.22497656874,4.64186694114,2.09160590127,3.88310424465,0.0328879445044,5.82541887504,1.96451593828,9.6806841864,6.82506175215,-189.680448031
off_to_on,8.17671542735,7.85962189359,11.3949752513,1.16812614792,0.190976447548,4.65538784063,6.62654177926,9.51383682815,-0.0203999792328,7.33504561309,2.4788455012,13.0787583858,6.7001667948,-244.255220652
off_to_on,7.07924310752,7.04256900816,9.55665350244,0.465873529428,3.51818620061,3.82611391859,4.46445357375,8.71858202237,-0.0447305180887,5.38612780425,1.35427697947,8.66145709489,2.83926898223,-56.3352012644
off_to_on,-1.92784029189,0.00574740215591,-0.928669255142,-0.117176155376,1.85045236803,2.67832013283,-2.09213876425,-0.480561194405,-0.0389968975024,-1.62443801044,-1.63641665057,-4.39838740123,-4.69713574246,162.126401965
off_to_on,-11.0595854183,-8.35580274662,-11.3467820282,-0.614106403281,-2.4711248935,-1.24341014512,-6.06890852939,-10.5675934278,-0.0302237941078,-9.66228537364,-4.07854180825,-16.4481275526,-10.8714511569,185.710499931
off_to_on,-10.7109472633,-10.6091463443,-12.0101195161,-1.08867133425,-2.96971980367,-7.48088789095,-4.1474820028,-11.897389022,-0.0223421500822,-10.1707708709,-3.20556730603,-14.5424858458,-8.67674960367,50.9989009299
off_to_on,-1.74584746858,-4.99192988552,-3.45559241866,-0.953378269947,1.31111829778,-10.2957764379,0.76805992483,-3.39887892102,0.00136106651393,-0.760016537095,0.631912395205,0.772821345928,1.55004306692,-47.5928528588
off_to_on,5.58659778583,2.33125379527,4.38567441809,0.0892793801322,3.93703083486,-5.37335535114,3.53102443403,6.12830873408,0.0346550275117,8.66730696651,3.69125330856,12.7674909077,9.49354086932,-49.9779162961
off_to_on,4.82196756935,4.59425368775,4.52374254311,1.16888799818,0.334424332959,3.88964849117,1.57359322472,7.68397086387,0.0469003772927,6.6444475523,2.72439405684,8.34468627201,6.28634631181,-55.3199173315
off_to_on,0.617516739194,2.53794454194,0.842218397141,1.19805330468,-5.1452933503,10.1530966272,-2.93119672153,1.54672326791,0.0281548424786,-4.10548528468,-1.08502192871,-4.61779255278,-3.32450173664,-90.6034560193
off_to_on,0.947790910669,2.50543557655,1.51152671101,0.296088459509,-4.84226426653,10.2174751608,-4.46654963078,-3.83142659495,0.00290999590174,-8.66440136805,-3.09713862791,-7.64702464485,-6.12876473912,-50.6248092052
off_to_on,5.63939704738,6.54047838747,7.01169253805,-0.502798493574,1.75396703779,5.86081849096,0.577209480464,-1.71799714374,-0.00898297850616,0.509736653691,-0.694075606896,3.26552129898,1.90205665164,85.0616360232
off_to_on,6.72867670828,8.08375418344,8.79296879095,-0.647071865166,7.25457852344,-1.18831605741,8.4816565337,5.3130037837,-0.0160390385061,12.5800051408,3.19626138445,12.6267247677,9.5508616919,154.924142938
off_to_on,-0.47674074551,0.498019401961,0.566185074106,-0.416812971815,5.76780520479,-9.55312390761,10.1374512003,8.24249913994,-0.0280935154295,11.8075726574,3.49068327608,6.94438156366,5.33254575674,46.9381064348
off_to_on,-10.4133798035,-12.0438539051,-12.1317809723,-0.137995491673,-0.611639845265,-13.9469120243,1.21353044251,1.79060620181,-0.0324963670125,-2.22433629776,-0.535239477845,-7.71947720529,-6.72645319376,-105.827986655
off_to_on,-13.0885560776,-16.9264362786,-16.656512769,0.109965035675,-5.60588562411,-7.91912150253,-11.0026741066,-9.15214861286,-0.0159316059941,-14.5122658391,-4.20505513428,-15.0386050749,-12.4350313259,-106.633893552
off_to_on,-5.41132895266,-7.77268847326,-7.43688242368,0.124868161794,-5.98574199673,5.74268764745,-14.5560799441,-14.1816994848,0.00965622887776,-13.5535923042,-3.54779563228,-9.14939750545,-6.16763764978,16.6840019363
off_to_on,5.38442292317,6.95511899658,7.13758741372,-0.198747622227,-3.11012299537,13.6267526419,-6.36384161997,-8.2327353991,0.0234197737607,-3.45599775361,-0.224329208915,1.21243423094,3.10365398959,71.7218921869
off_to_on,9.94363834915,13.4592247172,13.7938003604,-0.292064483994,0.569101803808,7.09194530063,4.98028554691,3.55063233275,0.0242086951613,4.64507263614,1.52391965604,6.57161374877,5.53372287229,4.34758271785
off_to_on,6.82329428604,8.61038199857,8.9040139639,0.476146935111,3.75060925717,-4.87753048022,10.3579321615,11.995003393,0.0230529826886,7.0494605136,1.08705553817,6.88921321328,3.08720334998,-43.5090834343
off_to_on,2.53649115546,1.75570667746,0.941368580931,1.45393202046,5.51024070268,-6.31764818653,9.41632495884,12.8299816227,0.0183310974514,8.17760711946,1.48103187491,6.79414449954,3.74166731126,10.0486440491
off_to_on,1.95811050895,0.685551431278,-1.58813112862,1.07923679503,4.70404799788,3.65730779617,6.44273482656,7.94781809175,0.000621812282752,9.92086497255,3.48561089864,6.78118595083,7.58180430979,57.4150021783
off_to_on,1.84330111075,1.6372733279,-0.426873752628,-0.871968876121,1.1109704594,9.10277142699,1.97707260496,0.288702874344,-0.0234116923767,7.30910124252,3.53966698467,3.19071118289,6.09214398608,0.916719134325
off_to_on,-3.45417987496,-3.11256765847,-2.62738558215,-2.43605054207,-3.58182430666,-0.0612478794495,-5.75034956244,-8.30777621224,-0.0340285472713,-3.25204211384,-0.806515592595,-5.11608296048,-4.48727415448,-73.6758088087
off_to_on,-11.751676541,-11.8776246767,-8.45337983062,-1.75225970903,-6.53320376157,-13.1706588206,-13.2299605741,-14.314006562,-0.0251014132377,-15.8282693661,-6.14795779223,-13.3154991506,-15.5095775988,-42.2037094109
off_to_on,-13.4762987861,-14.2244533902,-10.1363796452,0.521057278611,-5.62571216959,-13.3878089243,-12.6751098039,-12.6408398916,-0.0093372459191,-19.2464292107,-6.83770545889,-14.34052592,-15.2874309644,49.318413378
off_to_on,-3.80234353906,-4.85529881475,-3.17623438342,2.09049940789,-1.14142928399,-0.307631743587,-2.41115135086,-2.67612129528,0.00389606723064,-9.04866484008,-2.07195644043,-5.57424121436,-2.98839343503,63.6201091348
off_to_on,9.76107857858,8.91498934306,6.72394238103,1.80872026526,3.95520417497,11.2693772558,8.97471835433,8.59970743374,0.0175455913482,7.43271053561,3.49265703588,7.79244598923,10.734680784,-5.11110348083
off_to_on,15.4079946227,15.8245745497,11.0127132445,0.474962399544,6.01671983682,11.672428543,12.1818792019,13.1163092207,0.0304246719178,18.2269963634,5.70822644861,16.2088429648,15.6870570664,-38.136790318
off_to_on,10.2408260697,12.621494381,8.44489849263,-0.749643932498,3.92899078529,5.22518811438,7.43078626028,9.95562661659,0.0304174288837,17.1381949316,4.6219938468,13.74016464,10.9418052791,1.95900547041
off_to_on,1.40263719341,4.28057374547,3.74981273311,-1.39890896734,0.174616362589,-0.764515066445,1.62258639841,4.05834717815,0.0125378429513,6.87269252748,2.06075886677,3.15741819156,2.03664940333,23.2035118708
do_nothing,-4.41390997748,-4.04533740234,-0.661326743066,-1.2404041042,-1.97688789363,-5.10884292852,-1.68857019716,-1.46264607048,-0.0103927630769,-5.42846916135,-1.20403684175,-7.19612633472,-6.09191324124,-21.204093745
do_nothing,-7.27049688869,-10.3596185482,-5.89556297216,-0.192648388196,-1.96174681636,-7.7022540242,-4.45484483729,-7.0716906314,-0.0240765478701,-13.3818404262,-4.31872836634,-11.0945019559,-10.9862219924,-50.6031355577
do_nothing,-9.19995561041,-12.7756495724,-10.5203177968,0.937519469839,-1.70821560879,-5.26517904374,-7.49880645995,-11.3938121376,-0.0279148305935,-13.5471269803,-5.02375760187,-8.33297914862,-10.7030461527,-3.10997956027
do_nothing,-8.64079302403,-9.01004987399,-9.72374791156,0.924558872384,-2.34705060298,1.51168602703,-7.58500361174,-9.94380507292,-0.0255159247004,-6.37861096995,-2.16447045158,-2.52968606335,-4.54160197674,53.2569659071
do_nothing,-3.21487812754,-0.438364992895,-2.41529507127,-0.0933452456562,-2.59788085086,4.28531228674,-2.83424955229,-1.78694103131,-0.013081974561,3.19368085261,1.69371730001,2.36789615832,4.02009924983,35.6906525556
do_nothing,4.95981175512,7.30182331886,5.66390934225,-0.512862857381,-0.799144108357,-1.24269351994,3.27195897173,6.90645379636,0.01029539524,8.3031738406,2.82121349615,3.81263165265,8.61808886296,-17.0744551666
do_nothing,10.6347505523,10.0044152458,8.80593963426,0.316721522137,2.57916972901,-5.80232332289,6.22717382487,9.63212103691,0.0307507778185,6.12661975591,1.14985833698,2.10520883822,6.30763119047,-18.904277893
do_nothing,10.9296438966,8.64814306275,7.6664331414,0.884965067242,5.12105849167,1.15198668698,6.02429480094,6.96603395979,0.0326802536538,1.14502975184,0.107615593746,0.945621455465,1.05848530431,16.9539411143
do_nothing,6.61199832622,5.73775807912,5.59029419459,-0.0964590593486,4.62953148975,13.1936389426,5.18138916673,3.53368290012,0.0183055150162,0.186343057581,1.45889674261,3.63633663078,-0.997327957123,11.2331520739
do_nothing,-0.658271795726,0.966428616418,2.18915883227,-1.3437774594,0.939778840287,13.1328130396,3.42815215267,0.426592278791,0.00165177568237,3.84540923115,2.76712946182,7.47944015114,0.962987703499,-36.6167841468
do_nothing,-8.72171146137,-6.30367384109,-4.53037635203,-0.819166733487,-3.6395231199,-2.19972027938,-1.44577964833,-4.21828967993,-0.011551285416,5.23348702029,1.07819655247,5.29254687332,1.87918708603,-46.7375225277
do_nothing,-13.1948707355,-12.3583625891,-11.4519201158,0.883871005688,-5.63766309328,-15.870647687,-7.91739303742,-8.62208432537,-0.0239008387856,-1.14378972922,-2.76277134494,-4.87162238858,-2.09364459797,3.88531551102
do_nothing,-9.78659950373,-11.3666682325,-11.5854802985,1.20989177607,-3.43069394399,-13.8481966294,-10.29956287,-7.7526244025,-0.0306199997868,-11.1148511676,-5.119888326,-14.4909494167,-7.97617103352,44.9396942261
do_nothing,0.0670362399559,-2.71218695408,-3.09909543239,-0.363354100255,0.623874460247,-2.62605096212,-5.60985050331,-1.39286769619,-0.0212225740024,-14.3121043138,-3.87039743798,-13.2115702975,-8.98885301323,30.2546258772
do_nothing,8.85555547951,7.09316290046,7.1166059435,-1.38085254175,2.43878771028,3.8685011563,2.15402468236,3.94792107741,0.00167049649272,-5.91522409546,-0.179564932942,-1.39995377791,-2.46381678445,0.503430500669
do_nothing,10.3662307374,11.0089246535,10.9382282085,-0.210041177025,1.22488050514,4.88561281755,6.85054967882,3.96845156483,0.0206311226159,7.51400544228,3.3766284691,10.1940249139,6.80160365894,-3.08780895323
do_nothing,5.66169117626,7.9717555393,7.2566453319,1.41189828672,0.434158746854,8.39656817569,7.09378465939,2.4854342951,0.0248393446389,14.9018425213,4.91335266752,12.9146431312,11.315147364,-4.23905968694
do_nothing,0.221580143675,2.02067012814,0.943432982981,1.12232715875,2.318626022,12.4217854972,5.55698198904,4.26352498888,0.0201711770729,11.5842563777,3.74981473186,7.9001136411,8.04229879322,-23.7820632545
do_nothing,-2.76132583937,-2.77505781079,-3.62404052261,-0.487594576511,3.78870025627,6.22572151139,3.16315545642,6.14457062482,0.0135791585191,2.14123249553,0.511474892922,1.02685495689,0.45198284181,-22.3538395223
do_nothing,-3.92306406261,-4.86132033229,-5.25679697959,-1.0641266456,0.734652147606,-9.55076127184,-1.72438082165,1.62978857912,0.00180178797408,-5.83719930141,-2.79451929349,-4.44146042245,-5.5938897442,22.1275626403
do_nothing,-4.22294743378,-4.42753631271,-4.13689826466,-0.21226736205,-4.81749705665,-18.4912784334,-7.88321559382,-7.44502589578,-0.0161116987463,-8.40789160522,-3.95324434195,-7.58643952959,-6.99866553046,42.153931707
do_nothing,-3.21095308439,-2.56039257141,-0.978815791338,0.278713144057,-6.17684274961,-9.93264441647,-9.55639649179,-11.0940750915,-0.0280455385428,-6.43631636444,-2.55079907436,-6.97797729856,-4.86107947036,-24.1505332822
do_nothing,-0.922691241524,-0.935889519677,1.96067621078,-0.368226434102,-1.2767680854,5.83482772103,-3.49354386852,-4.60039908607,-0.0228285966597,-3.00346707065,-0.320457193675,-2.72578998402,-2.06602463261,-101.087365133
do_nothing,1.14327753347,-0.523098560207,1.96991528653,-0.778228831516,3.82644885152,11.7507367336,4.88504219911,4.39875768382,-0.00662725540879,-0.618379168613,0.907999266162,1.23696088809,-0.20735369667,-48.0357446157
do_nothing,1.95469129429,-0.278354286431,-0.798486290461,0.101981507694,3.22491935264,5.54328554083,6.87591958104,6.07169801314,0.00648227558703,0.600474825346,1.06978461496,1.70074695663,1.34470567337,123.997972307
do_nothing,2.19726243997,1.60535009626,-2.70558294739,1.30481507986,-0.680546469996,-1.77671066266,1.7180269177,1.27800392588,0.0134569304826,2.71653119509,1.26089641717,1.40475880313,3.75146188489,211.576269029
do_nothing,2.61081530169,4.72485547034,-0.668474808903,1.43294631692,-1.34429128823,-3.18466974253,-2.23946125552,-1.06696926388,0.0193092049668,6.62207659719,1.83608358879,4.60235301593,6.25817539028,60.2989065603
do_nothing,2.4157201377,5.91237964072,3.85574356511,0.486316985379,1.88847376409,-1.13066083422,0.743907648299,2.55254082453,0.0211903404133,8.81024985886,1.86832888569,8.37315878423,5.94957773925,-208.724239057
do_nothing,0.655764460658,2.70833918568,6.0972418459,-0.742259943855,3.23423566244,1.20124413531,5.39870279306,5.67115199118,0.0109493096339,4.28654139412,0.487160742078,4.9533792934,0.928304567226,-301.462848712
do_nothing,-1.75763135389,-3.03526046579,3.22845967889,-1.76896885638,-0.148195606703,3.35671974754,2.9928730506,1.86373736943,-0.00775717067738,-5.7377531373,-1.75505406565,-5.73200612795,-6.13542029215,-87.56079878
do_nothing,-2.82298426565,-6.32988830851,-2.38556619555,-2.00327488691,-3.74107536265,2.6699816286,-5.44422942635,-5.76507860017,-0.0198898296297,-12.1860746379,-3.13415841519,-12.6144609581,-9.17263935895,228.651554664
do_nothing,-2.10996563017,-4.46618042648,-5.76730897234,-0.622297298903,-2.84696081441,-3.69612260302,-9.58203762004,-8.71642057322,-0.0186714536269,-7.9118541619,-2.38771630814,-7.19273236044,-4.96612761283,320.289230713
do_nothing,-1.29785148018,-0.376913851404,-4.85927506709,1.84057558595,0.343711988866,-10.1060774033,-3.94909444092,-4.17663952262,-0.0119302079749,2.48700106858,-0.0724932440099,4.17297676685,2.47123212385,100.98667988
do_nothing,-1.58092245443,0.885621871582,-2.31288567717,2.99035203416,0.802590257852,-6.24820827548,4.39587530613,2.20547861426,-0.00607292692158,7.45477766153,1.86389523062,8.14137476473,5.81517387675,-182.101703373
do_nothing,-1.58018160714,-1.09007376245,-1.10769079979,1.31898093667,-1.14434767268,6.48481024348,5.76178880985,4.3334550514,0.00269325823519,3.0958542057,2.04095030318,2.03807402676,2.88496508087,-239.526595618
do_nothing,0.907458083203,-1.17210729283,0.00380370967422,-1.37726269275,-0.703082412237,12.6436098556,0.878415112574,2.67982057613,0.0154208750715,-2.40691830663,0.978611177682,-3.82719734954,-1.07374106312,-66.4294506901
do_nothing,5.15392402537,3.86060479079,4.05422792257,-2.14633679576,3.11496592355,3.62089241422,-1.49532418366,1.68855005049,0.0217750412211,-1.01294532654,0.151769035524,-1.60654938987,-0.621283239655,93.4375877703
do_nothing,6.98312384838,9.16655219865,9.23578727084,-0.842632391225,5.24001215466,-8.23035750133,2.0216785523,2.7729086457,0.0139478484645,4.107837912,0.0353926430989,4.03305680557,2.74349224099,81.0824172999
do_nothing,3.29249315891,6.89263252867,8.7631832126,0.156933809315,1.9438981788,-6.38144113737,5.00682571426,2.89747300821,-0.000265542577587,4.52730591936,-0.154334873637,4.59873105207,3.24227367095,-1.7983729104
do_nothing,-3.51254547022,-2.88160729519,-0.206037704353,-0.085933091539,-3.53621906971,5.69160876788,1.39463569264,-0.337388976688,-0.00857063057526,-0.530026012255,-0.847105578395,0.126743947679,-0.817687889039,5.75775891489
do_nothing,-7.43500170928,-10.6969318219,-10.5901001367,0.0429927787889,-5.42413440152,9.78415685545,-5.58213928058,-4.96015941407,-0.0107501612574,-4.23675561774,-1.30994054095,-3.0442334324,-4.92589745688,71.2690368672
do_nothing,-5.60261534193,-9.12152998846,-12.4786533407,1.3259318013,-2.83263193394,-0.439911627637,-8.13080126421,-6.98937694997,-0.0132205213497,-3.61276326364,-0.884373529253,-2.97440360235,-4.85679862813,45.8391424229
do_nothing,-1.20062354785,-1.6456435923,-4.95431896013,1.85899376638,0.349881441876,-11.7832478088,-4.03648614704,-4.81245196534,-0.0137498733398,-2.87224607656,-0.0596613157498,-3.28862496404,-1.72479446664,-72.6035733157
do_nothing,1.35946984876,3.28058255474,3.58683981322,0.155722171669,1.51385792742,-11.6614259324,2.09057114496,0.0683157652008,-0.00513887118974,-3.8843405316,0.445799528553,-4.54909249177,1.05177999325,-122.06440401
do_nothing,2.05173599343,3.67034270289,6.61383418493,-1.97232772323,1.8035823154,-2.91023255715,5.67914219236,5.2103368964,0.00895785950824,-1.52194132501,0.8240843784,-2.0672688537,2.69877757847,-31.7713289456
do_nothing,3.54881343843,4.01926247569,5.79760249525,-1.84809340966,2.60629932236,5.83377585373,5.90990602424,8.24461875017,0.0158429557026,6.48636878069,1.36793776532,5.28125753186,4.10542679068,67.4067538155
do_nothing,5.44992234674,5.65674688387,4.89241654457,0.0794734608014,2.78463661955,12.2302966884,3.38125651002,6.77235406439,0.011779435393,11.7720116307,1.27785104159,10.2862588373,4.1439662097,52.798990088
do_nothing,4.09742919161,4.15957591708,2.97823073799,1.12417941696,0.804069621683,15.0915718234,-1.21535821379,0.25634408956,0.00561078326912,5.48821567849,-0.241805084155,6.27952491052,0.982243613308,-9.31233779363
do_nothing,-1.37672958618,-2.11897580875,-2.04710186592,0.529786419138,-2.32569601034,8.14306235859,-5.18806414926,-7.32949507002,0.00265707336965,-7.11202886506,-2.03454361758,-2.93464228687,-3.51184953813,0.836465476654
do_nothing,-6.48165679343,-7.39159814245,-7.16583008841,0.091592711891,-3.97661658215,-9.35900157318,-4.74750359276,-9.4663773713,-0.00221846223521,-11.5129065831,-1.90076131081,-7.62437619295,-4.77277134813,50.2326420428
do_nothing,-6.68519726513,-6.19579289008,-7.05017500049,0.627010095767,-2.94825999065,-22.7800649028,-0.0442990814112,-3.81680402724,-0.0111777508215,-3.41021689243,0.270800489858,-4.8935613443,-1.77519542895,24.1492069857
do_nothing,-2.62140725578,-1.13615155479,-1.79705506259,0.590603558651,-0.303338588401,-16.5523584534,3.60896252255,4.33088813241,-0.0154819278162,5.62319905393,1.96040098395,-0.969123309482,1.27774988734,-61.975419529
do_nothing,1.97889442577,1.80233772215,3.11227749637,-0.873903802521,2.22864892761,3.72508798552,2.1152889379,7.40185889854,-0.00870284356797,4.78304682721,1.32090575286,-0.657704578671,1.04800853237,-80.4266893487
do_nothing,4.85642459583,1.98360085959,4.17388125733,-1.91986973126,3.39933183615,16.3765078559,-1.97223507323,3.61879070808,0.00193199924957,-1.91740680325,-0.504946797287,-0.901740515314,-0.484718182054,-4.44798639095
do_nothing,5.16694177507,2.59364397567,2.69552600733,-0.728728823396,2.42725183384,11.3196106364,-3.16339285888,-2.1099783189,0.00642410174995,-3.92488823862,-1.40372662378,2.30671906431,-0.0655907872675,50.6421122711
do_nothing,1.83340831367,3.19416532248,0.554633360614,1.43750181814,-0.492445357552,0.498946660831,-0.442204691793,-4.59773237244,0.00637354371673,0.0850977495899,-1.13237161285,5.97833521072,1.41964327456,21.1650301897
do_nothing,-3.86570988181,0.7587067327,-1.79219442987,1.9293080113,-3.26494527036,-2.1047152843,2.36738893875,-3.10863822854,0.00849476838245,2.93144034591,-0.59983845895,4.47018305043,1.19460185386,-12.9423988069
do_nothing,-6.1301619412,-2.7697675603,-2.46290736962,0.449744860005,-2.9849998504,1.26602032931,2.72358261647,0.227491366822,0.0103403088538,1.85882020887,0.355373750332,-1.05075045178,0.0597183835456,16.6663874653
do_nothing,-0.652380776783,-1.65101400831,1.01197045305,-0.946174077571,0.761086128909,0.557490509539,2.03615147308,3.54801165845,0.00450648586912,1.31914488527,2.17976549146,-3.74120864776,0.9369278223,47.2192817896
do_nothing,7.38810405206,3.48709881153,5.82171313517,-1.05697888379,4.33729819901,-5.09962156904,1.78272211433,5.27205845727,-0.00641845554471,2.90396802961,3.25021477701,-1.37891254499,2.70527380432,4.80622166217
do_nothing,7.38559680944,4.18268446709,4.46658014612,-0.631866599421,3.39132627816,-8.25937257393,0.561299791518,3.45997523371,-0.0116175247676,1.61922418806,1.13969551321,0.567741875739,0.764070305196,-57.7981911505
do_nothing,-2.7102581726,-3.3322425804,-4.74225886369,-0.318184791314,-1.9223393074,-5.59688447451,-3.06085736496,-2.09180935052,-0.00824034969843,-4.62675523334,-3.22741313652,-1.99871499926,-5.05467834624,-48.5946566606
do_nothing,-11.9388413336,-10.5383348175,-12.4057574698,0.332308154009,-6.30167906861,-0.430075834207,-6.95673360648,-7.78878712297,-0.00412395807983,-9.17528981554,-5.31585733753,-5.07170348603,-8.06168914334,9.19807309438
do_nothing,-9.45012909709,-7.3542697734,-8.717305181,1.23973869786,-4.83684218313,4.36057214499,-6.93231708462,-8.56364941312,-0.00317821592126,-5.47625184817,-2.41920078948,-2.71303351686,-3.24642556723,24.2282503333
do_nothing,2.1871298728,3.91129952163,3.56995070791,1.13890611365,1.44426739314,8.0684210886,-1.23431589886,-2.77245949369,0.000150098100063,3.12581494936,2.53101802941,3.76374226089,5.25149418273,-5.65693245891
do_nothing,11.2074971378,11.7864283245,12.603887709,-0.326142159023,6.6354744407,8.54168565014,7.25318935471,5.94755532906,0.00816376636954,8.0947731144,4.53382285236,7.59938091672,8.99991450707,-2.7662963454
do_nothing,10.7613640665,10.0681939118,11.7797054448,-1.40478185636,6.26093686722,3.99249910914,12.5125281958,11.454213237,0.0128455733843,6.81198226255,2.56229091833,5.63726810318,5.44732252264,40.8429146836
do_nothing,3.60601186056,2.45670978328,4.46373841516,-0.625652380948,1.35506361459,-2.46109858102,9.32040084337,9.44074492991,0.00798722172312,3.19130557418,-0.198972582102,0.776193782732,-0.616340706911,44.5397018632
do_nothing,-4.58113224636,-5.2811208163,-3.96948810022,0.76596661684,-3.67492252122,-6.19760162558,-1.8074889186,0.566261780068,-0.000552568245313,-0.275886544893,-1.29609147836,-3.5985511836,-4.2937514567,-16.3581930128
do_nothing,-9.93404424084,-10.2139399524,-10.9403901689,0.559006283314,-5.64908342922,-7.62325937946,-12.7330378781,-9.1355141903,-0.00436868138664,-4.32640136478,-1.42889829634,-6.49417404661,-4.93738597094,-59.3655979894
do_nothing,-9.29299029472,-9.63110440411,-12.9616297637,-0.900879908086,-4.32036079868,-8.90878898345,-13.7964831873,-12.1888546511,-0.00491495263257,-7.47502353065,-1.76722512081,-6.55883747604,-3.6392187063,-27.8638027741
do_nothing,-1.69871423731,-1.8759464801,-5.92889420697,-1.06144930661,-1.00334884419,-6.49256139545,-4.09233176759,-6.38435681786,-0.00766118319162,-5.79967343621,-1.60055895412,-2.04261662692,-0.921162018669,20.4074676676
do_nothing,7.28039442061,7.84972136602,6.81238047106,0.84901139974,2.6548466482,4.14801841126,6.7398979955,2.68811612458,-0.00990247096906,0.252121299878,-0.0419238434949,4.62513258845,1.87630453462,15.3680089895
do_nothing,8.98995576318,9.94925273305,13.7676786126,2.29888363446,4.82207860304,16.5920350671,9.53130213656,7.59947128709,-0.00490523905332,4.6967848125,1.78897277802,7.17077948128,2.57551547694,-14.2654503814
do_nothing,2.43534732061,2.71634807025,8.49783768754,0.952429512069,4.13515882662,16.9466764601,5.58469905354,6.76837220763,0.00500162285077,4.13896854165,2.07815589504,3.4043121779,1.3407255884,-4.38458512559
do_nothing,-3.69126885051,-4.13497780935,-1.59376017595,-1.84692202449,0.948162748073,2.41986589416,1.96848259825,3.84330578499,0.0102168428429,2.02978454392,0.841683682132,-1.31078798039,0.991864861925,30.2458346247
do_nothing,-3.02056340376,-2.96186526242,-5.72670784203,-2.70197950728,-2.65819867658,-12.9314299118,0.144445179142,0.856190789355,0.00798993452715,1.92806371664,-0.424714838786,-1.93861715879,2.36850105029,28.8412248403
do_nothing,0.111987879473,1.10195757673,-4.04219622583,-0.598700224001,-4.42792215819,-15.7610789239,-3.83249624961,-3.32299868587,0.0047000232493,1.64204468648,-0.94095799637,-0.860923706208,2.32764676931,-6.11919654189
do_nothing,-0.769327801466,-0.362002562118,-3.6185719492,1.93012671262,-3.30752296223,-8.20878991993,-8.72813156402,-7.31982157099,0.00345494263855,-1.60952098301,-0.980089839326,-2.29742685896,-1.2331466152,-19.5534723546
do_nothing,-2.97547275392,-4.58865230892,-4.35296726312,2.14641366361,0.135593690943,0.391305750481,-6.77826048532,-5.99366788321,-0.000291879999549,-4.7362893129,-0.559474949388,-3.73349563491,-5.11597918542,-5.35489959615
do_nothing,0.137494110555,-2.43550524228,0.232447540356,0.247563748223,3.65406054191,7.13441930659,3.4872121426,1.55695844474,-0.00790810296863,-3.34244359258,0.474318207763,-0.120280160997,-4.8558147132,-9.54612658521
do_nothing,5.97630637819,5.09823402276,8.48943904689,-1.40885472457,4.18913033108,12.1535421426,10.9750551441,7.47409677715,-0.01211841412,0.319947610697,1.21039365495,5.51370921598,-1.01540890643,-32.6906299167
do_nothing,4.78813680233,6.71116259891,9.05183497746,-1.28687836022,0.639793817685,10.1886965112,5.75750489901,4.36677454223,-0.00769058353953,0.70437502174,0.368742157542,4.54933489246,2.21299327369,-18.2148149353
do_nothing,-4.42980375227,-1.31246935905,-1.77681533689,-0.00622222280183,-3.86815977606,-1.78439945724,-5.87354554441,-3.60625889933,0.000146869537195,-1.33125920063,-1.41534457558,-3.17825821431,3.24281152464,40.3928907203
do_nothing,-9.93930937897,-8.03423752746,-11.3243181209,0.908792997804,-4.38207878718,-13.2336396307,-8.9211896048,-5.58262823789,0.0041381355936,0.256275400611,-1.75483008922,-6.91695364254,3.68578527273,64.5303326907
do_nothing,-3.48110028975,-3.92602903548,-7.14650294729,0.731019709334,0.0649508443544,-10.3965304173,-0.35004008343,0.727795931908,0.005330178079,5.45964421062,0.211232934936,-0.667420297565,3.42223195032,7.36474990641
do_nothing,7.35392749935,4.93202465769,4.98409791288,-0.112417519382,4.60741665588,3.07068341391,7.30824060897,5.89299044139,0.00790534094668,6.30276588806,2.22158474949,6.83283317637,0.168049301804,-61.9532394208
do_nothing,9.55646728381,6.5500492872,9.44626477108,-0.761455909878,4.13283921778,9.50066080051,4.36081225148,2.67281020372,0.00926646615505,-0.743641998408,1.81385411976,4.74953887828,-4.99260815183,-51.0250335017
do_nothing,2.16549946933,0.632095274059,2.75868893033,-0.661244924931,-0.506208117284,2.60225703548,-3.29341997667,-3.90014809206,0.00404112737064,-7.62332280796,-0.321501798812,-3.44010131053,-6.53305193328,25.5982238743
do_nothing,-4.4789082732,-3.05872815765,-3.81632623164,0.110613426594,-3.91547552631,-4.693151785,-4.65982468544,-4.74369340525,-0.0051404851342,-5.50465328332,-1.46622753029,-5.55072305569,-1.7283470706,72.5652822775
do_nothing,-4.15594756274,-0.775825433436,-2.68519966619,0.886683165115,-3.01135525439,-1.99154791933,0.396158992802,0.307187310199,-0.00986379155495,2.381002637,-0.66025687256,0.509242716047,4.57579664223,39.7595666109
do_nothing,-1.11101964869,1.0382505774,0.486812725359,0.882523672954,0.0454345711686,3.41254545754,3.19316620052,3.83642757155,-0.00792113470171,5.51056514001,0.381994619184,4.33412987292,5.77298388547,-37.235979875
do_nothing,-0.884635526755,-1.94811034955,-1.27968978721,-0.0382470872341,1.72361169526,1.52589038293,0.260900221696,2.09572568655,-0.00473143289235,0.840875290883,0.0547670302976,0.0378494484229,1.59400537288,-96.6790641043
do_nothing,-2.38991765674,-4.89703394953,-4.59206050545,-1.04104372348,1.26099518783,-3.140600506,-2.99875380917,-1.58522402072,-0.00283036349288,-4.36968363569,-1.06289361303,-4.9406469917,-2.90841698403,-90.308539218
do_nothing,-1.76820355849,-2.44993927789,-2.45989161245,-1.05934378529,0.0644580631564,-1.55978347371,-2.06634598497,-3.47694040216,0.00132881384522,-3.82027990157,-1.35390376751,-2.49684022658,-4.29491573195,6.64360690692
do_nothing,1.30936581982,2.77526254451,3.72750409828,0.00101255191713,-0.688074957423,2.55496921447,0.75697422065,-3.18585631856,0.00823265808617,0.619861585669,-0.199830824293,3.42850749721,-2.8564185721,146.033057427
do_nothing,4.50820891687,5.14289104747,6.64321882562,1.0362539385,-0.369631097494,0.246951783578,1.91164803733,-0.543956685183,0.0114256078153,4.09111825489,1.66959961061,4.12080323322,0.474548648022,188.453961879
do_nothing,6.19809624097,4.26926705944,4.0694921384,0.953594512375,1.28108098095,-4.5180688326,2.06024825103,4.81969447746,0.00687233160909,5.04213985819,2.95115594062,0.15944180141,4.62268639608,39.1597952581
do_nothing,4.99907352859,2.99519563727,0.27635620799,-0.0668526189447,2.87626692615,-0.808873670914,2.77737605917,9.03401718886,-0.000515340288906,3.77151915548,2.42000881148,-0.811676463402,6.23345517244,-186.076896811
do_nothing,-0.503796182475,0.886853620288,-2.06789988332,-0.830297421321,1.58761346443,8.01752823678,2.19923601335,5.39459943196,-0.00450306239279,-0.279825538195,-0.22709356726,2.23870127425,2.09469880792,-243.779479081
do_nothing,-8.10677230556,-4.07658759804,-4.35997822367,-0.573057766509,-3.00767983066,6.91817452956,-1.76233042276,-5.83831722045,-0.0059300325358,-5.97148359805,-3.44660437749,1.92704060529,-5.13253594008,-60.1302204812
do_nothing,-11.0831569228,-9.09375671797,-6.31485837802,0.225333406232,-6.50576324069,-5.4408324439,-6.30701003217,-13.9203453533,-0.00798496646829,-8.60443573149,-4.54207663344,-4.55652811205,-8.05889720027,158.101805489
do_nothing,-5.29582806103,-8.07542960392,-4.4054445603,0.565273254464,-4.09218036778,-11.8406166739,-6.18200745143,-9.34021680234,-0.00827358290804,-4.78160398657,-2.24611637761,-9.21026309756,-3.61005115168,185.593028987
do_nothing,4.4407491131,-0.159614084669,1.82755577909,0.129547254879,2.8223588032,-3.11296804859,-0.666331055393,3.65720702283,-0.00272723371605,2.57659903441,1.69083384863,-4.30457407174,2.80134412162,53.9764681146
do_nothing,9.30406120075,8.04661644709,7.03550519902,-0.469826465291,7.38554106087,7.22154441617,5.20423068812,11.8033816604,0.00569827362706,7.36691947432,4.16110042786,6.03766002545,4.76724509255,-45.3206497124
do_nothing,6.79871586203,10.0584376395,6.61151384568,-0.478533078211,5.3790472541,5.15903305651,6.58493162892,8.74567528986,0.00968719603396,7.07918766428,3.66178556281,10.912231089,2.93776122822,-49.7981275509
do_nothing,2.00940252024,5.84785671627,2.33925233703,0.178290206171,-0.202401841464,-1.88174172409,3.54199320747,0.670049783532,0.00766243162316,3.61726914444,1.12935339518,6.2960698452,1.86196199105,-55.4718658305
do_nothing,-0.764319310704,-0.456429198661,-1.31831763192,0.81143882763,-3.8058664634,0.0698001241942,-0.501077168417,-3.86284212749,0.00434897921371,-0.826134482112,-1.54259881472,-1.70254879523,1.89002162856,-90.1461134091
do_nothing,-2.54054961084,-5.53143377652,-3.24004225112,0.640125227588,-3.84239555943,6.41992405422,-2.85224763246,-3.69650344628,0.00184551808471,-4.9642751378,-2.91829032217,-5.97389591484,-0.378708758446,-51.0079291795
do_nothing,-4.89347552267,-7.62370780735,-4.56420462406,-0.332910167496,-2.46640526921,2.41867934368,-3.20573422122,-2.66047364355,-0.00253724265598,-6.58672513735,-2.43481053315,-5.63343025923,-4.67557957017,83.0287866872
do_nothing,-5.73897529066,-5.65199407231,-4.42650758693,-1.12975344314,-1.10651998889,-9.47759859809,-2.63257518447,-2.45748077963,-0.00857867318946,-3.91426656908,-0.649779722147,-3.6146507031,-5.97272878997,153.051309828
do_nothing,-2.88712547863,-0.627337458621,-1.23016549562,-0.777040551062,0.617175230398,-11.2668247768,-1.96407381078,-1.85197153435,-0.0106269857509,0.871062697579,0.88117678169,-1.43188374489,-2.03754844605,47.1415866153
do_nothing,1.59088662562,3.71394708996,3.05617847421,0.438147663324,2.38415221081,1.2723124759,-0.862260923535,-0.187671762341,-0.00578933866506,3.23943942425,1.015561101,1.31945859702,2.80145749469,-104.229997343
do_nothing,4.03418637469,4.44470526767,4.28159284781,1.12275089351,2.7618933778,10.6580060727,1.49667675972,1.96373484131,0.00122413864545,2.27347802909,0.447995602118,4.36218231513,3.88807689969,-105.511467572
do_nothing,4.0989454197,2.73878078319,1.91711818364,0.487710500158,1.59969203422,4.89943012346,4.34155955735,4.15343521574,0.00506149047961,1.46014339514,0.710963838754,5.89622000333,2.33089301789,17.0493893301
do_nothing,3.65017382464,1.54941425147,-0.241019987408,-0.55451468322,0.378380790881,-4.68928604846,4.76553006437,5.1730925175,0.00645313860279,2.47942552722,1.64434307301,4.14922659026,1.64024352175,72.22893328
do_nothing,2.47501038854,1.16365903391,0.162461807942,-0.591648237774,-0.327445736669,-3.03271644731,0.992938446807,2.57272570689,0.00783486872382,2.30336788939,1.27897516852,-0.698669313924,1.49341323267,4.81611599391
do_nothing,-0.934803183827,-0.322223196583,1.01088040287,0.304538033457,-1.46379391237,5.19810885656,-4.06596017231,-3.51852160154,0.00707527272273,-1.12381681389,-1.06903552363,-5.66724938466,-0.74175652618,-44.1798239331
do_nothing,-4.95431840796,-2.81402851713,-0.214715832164,0.670086979766,-2.8775879397,5.23093278625,-4.95479079829,-7.58980480776,0.0012662017872,-4.22723272549,-3.04488642487,-6.59718500688,-3.99986084297,8.3813327401
do_nothing,-5.43720631996,-3.68615049933,-2.4157298583,-0.209019772011,-2.52540834035,-3.68083650509,-0.411990857895,-4.28541174455,-0.00637228956129,-2.85425326767,-2.08495934745,-2.28627181623,-4.07747735481,56.3091009499
do_nothing,-1.66489309265,-1.92303389985,-3.03007386321,-1.18275885713,0.245852741853,-8.74096522431,4.09919773665,3.36404688496,-0.0095229171639,0.687108143087,0.858033217801,3.1511416734,-0.401470515996,1.15267627578
do_nothing,1.90118519969,0.0741226324676,-1.8859473414,-0.801145955912,2.72720128048,-4.22693863168,2.672504788,6.14099326535,-0.00722636869812,0.749407243417,2.30665319627,4.27258633638,2.38768568009,-72.9440178025
do_nothing,1.65138492904,0.222505706138,-0.456346115701,0.671187738374,2.22609243486,2.34187423201,-3.32395439965,0.645247005883,-0.00369178260829,-2.47265619011,0.878453520199,1.00300827436,1.26986489751,-41.7671772275
do_nothing,-0.24124541026,0.0118007435151,1.04619056593,1.59060284764,-0.0526321410905,4.19493097521,-6.38154948622,-5.49556820666,-0.00069183698084,-2.55136221589,-1.01192870789,-1.30542082867,-0.648267813029,49.8140925309
do_nothing,0.502113928422,1.85954713734,3.08554023641,1.00210993566,-0.83871159609,3.3041995428,-1.95545468151,-3.70653838199,0.00374075350019,3.14408309772,-0.72735593017,0.452983224243,0.688651220685,64.475233648
do_nothing,3.63652354104,4.60961939859,4.32461605708,-0.398215495661,0.431683984185,2.6649112403,5.79364891263,3.8405315537,0.00884470236958,8.21768454391,1.00110361652,2.61916263998,3.54639160276,-4.65072051752
do_nothing,4.69112935553,4.39713703098,2.7211759538,-1.32910158631,1.24938583875,0.974668248963,8.72197987834,7.43201247101,0.00973141259159,5.48816239487,1.45977700961,0.584426702514,2.85040167755,-38.7547619135
do_nothing,1.34694409587,0.0431081871162,-0.96624695085,-1.23583343698,0.133559864922,-1.82114840018,3.91216267819,2.97419876188,0.00454381306132,-2.91153358138,-0.0810719134207,-3.62502304309,-1.85148318125,0.858596830463
do_nothing,-3.56073874232,-4.76561862242,-3.47843830703,-0.386429483957,-1.53864160248,-2.24786184482,-3.62308035371,-3.56998232424,-0.00213972736029,-8.10229894623,-1.58079910768,-3.96106081919,-5.1920771527,22.6187748947
do_nothing,-5.97928302919,-5.770342454,-3.35373823641,0.670178988356,-2.158836034,-0.192997855791,-7.14128708463,-5.3664358812,-0.00571124971455,-5.74868168806,-1.30162214635,0.412696513799,-3.39640418906,-21.2689088117
do_nothing,-5.03339035267,-3.0706224495,-2.43409706158,1.32985603793,-1.84514612192,-0.619190924659,-5.13090653024,-3.03722129288,-0.00685703053428,-0.32735720518,-0.0126420281393,3.51121537942,0.753805801226,-50.6938431046
do_nothing,-2.2366398377,-0.155469934261,-2.14441074943,1.07476233758,-0.902514328782,-4.50680353485,-1.22615086297,-1.17384884371,-0.00746697164751,2.16122829612,0.518919959109,1.31052693389,2.3132008902,-3.0709680191
do_nothing,1.46999439816,1.1508541474,-0.848365988977,-0.0397959300861,1.24811069614,-5.17317270611,1.23909735078,-0.630190438483,-0.00571626420874,1.59309603113,0.0802542758257,-2.36122398963,0.903917731017,53.971235906
do_nothing,5.52340979469,2.48319596416,3.00879140558,-1.14811769255,4.00160281583,1.45952684885,2.40423362512,1.28015622452,0.000289664220657,1.7354510657,-0.0370187361197,-1.66789896246,0.185102877924,36.7570747649
do_nothing,7.64064006055,5.0551772714,6.89011007911,-1.27098831752,4.48484791259,9.05983846679,3.61711773216,4.64543389218,0.00712079296581,3.64401143301,0.794408156108,2.62238824912,1.79444863383,-16.6632318343
do_nothing,4.96605044662,6.17746047806,6.2122130401,-0.328180621745,0.929875431012,9.07635890236,4.2785735902,5.72586989851,0.00934035938602,4.25873766368,1.51792877675,4.37279933759,2.9878472387,-19.4121655329
do_nothing,-1.76750982495,2.17500375164,0.282563784346,0.770388143353,-3.93773226416,2.00078273747,2.63899105968,2.40942952581,0.00658156466479,1.06942864314,0.810839898482,0.71006020302,0.854850506399,16.2704706579
do_nothing,-7.32832260387,-5.52755726117,-6.12059909233,1.07105574531,-5.3787237312,-5.14522094544,-1.13259436391,-2.58542524955,0.00272646694419,-4.2377350163,-1.07362942628,-4.41480105812,-3.35353175183,10.8874908367
do_nothing,-7.08372714949,-10.0397483144,-7.76688998244,0.449203490393,-2.31102939353,-8.32698848115,-4.49601613914,-5.33619219011,-0.000643450426889,-7.34845956908,-2.37081386851,-5.54310090757,-5.47266729743,-36.8917494265
do_nothing,-2.14950956739,-6.37891970223,-4.0899307255,-0.429371946218,1.63439993892,-7.6145939103,-5.23428650216,-5.00622505708,-0.00490467083561,-5.42212844826,-1.67604236803,-1.68701074876,-3.08706558529,-47.0986253565
do_nothing,2.27877870797,2.28047778002,1.28228948229,-0.799030639176,2.8711000866,-2.82275042003,-3.31913314826,-2.92060878582,-0.00894840632046,0.494185266467,0.482563176207,3.6599476867,2.00505873942,3.88805640713
do_nothing,3.22142420824,7.8301288387,4.62551721781,-0.418543163486,1.62267078741,4.86408614566,-0.0341149198823,0.302864080106,-0.00863948925444,6.14065215722,2.09491258286,6.17126346347,5.52162310926,45.5376783822
do_nothing,2.39420541408,6.14918054588,4.70019453591,0.287004322453,0.318692956661,9.47457992541,3.27136393635,4.16760858354,-0.00305864533727,7.14386795492,1.72169592022,3.6562564556,4.43107042648,30.9123316035
do_nothing,2.22152252232,0.700473178599,2.40996105917,0.616849836583,0.112510722283,5.90929756221,5.08593027866,6.25507611837,0.00328412142016,2.74500027088,-0.0345061632447,-2.33339164363,-0.34096118332,0.708732092662
do_nothing,2.04369308717,-2.73465236497,-0.447996217185,0.26377565092,0.285428583119,-1.9266778599,4.00297596365,3.98559659601,0.00639365675338,-3.0729728169,-1.28430979787,-6.7647441162,-4.39462324545,-3.12608366185
do_nothing,0.094304257988,-2.45892445995,-2.17087625826,-0.33572038108,-0.00926672272866,-5.33316581759,0.381087142427,-1.32941966273,0.00699804592196,-5.17188185119,-0.966504153123,-5.08364866238,-3.83622696422,-4.20777852091
do_nothing,-2.6384037089,-0.92552634109,-2.12268928508,-0.455267846975,-0.774524674157,-2.50871427268,-3.10274509829,-4.8239058049,0.00670057722505,-2.51720231591,0.161084827339,1.52221774046,0.47533003424,-23.946410915
do_nothing,-3.34442250566,-0.435913882033,-1.14002574855,0.0465610871862,-1.49732443211,0.599715388418,-3.83384820709,-3.61336792566,0.00407780696147,1.05338037274,0.696776801205,6.45982017357,3.48347695655,-22.9685161319
do_nothing,-1.62375025846,-0.823797769617,-0.461547930276,0.494214452109,-1.52542260221,0.517589940064,-1.85928943104,-0.161369672243,-0.00191124292927,1.79829665333,0.259213100284,4.99323305555,1.77413627973,21.5447283521
do_nothing,0.063749732718,-0.732562464647,-0.217721352313,0.226278230534,-0.46171048255,-0.272560293315,0.655960365507,1.30513252911,-0.00776771108757,0.389668968132,-0.391179408993,-0.354087257928,-2.04536540067,42.1793491803
do_nothing,0.443616305663,0.488488183503,0.387105208554,-0.486282717181,1.14276824919,-0.40257799202,1.86760710619,0.227574325739,-0.00890692787355,-0.0913367019638,-0.517156731715,-3.60886561973,-2.60941729893,-23.8035610618
do_nothing,1.00509120224,2.09882252765,1.3792820423,-0.688732054588,1.92021545005,-1.77930082765,1.23070665997,-0.504766073124,-0.00555127927278,0.816557403496,-0.122481270904,-2.96503307464,0.940730881279,-101.021019224
do_nothing,2.40738432919,2.31602759032,1.48112598597,0.0277069513581,1.17521526128,-2.88355559206,-0.884948688472,0.571179651589,-0.00140656063247,0.546866992833,0.355694193401,-1.61305709412,3.51303152215,-47.9809816602
do_nothing,2.29883475849,-0.0428427644733,-0.0906793652898,0.882373391795,-0.175404132039,1.13013373875,-2.86886767975,1.50509589984,0.00205147936591,-1.74335129756,0.50679097124,-1.67128049757,0.954672619194,124.766400962
do_nothing,-0.778494222378,-3.3048885685,-1.9334390606,0.799409243973,-0.771997149141,8.04063127777,-1.98182727245,0.504586309002,0.00579054563286,-2.86694529474,0.124084194634,-1.06160438628,-3.8709371358,212.68375463
do_nothing,-3.55839237277,-3.46380461257,-1.61545503385,-0.207082728448,-0.430122808341,7.6592350199,2.69026839356,-0.813854546149,0.00861539147108,0.0553273097202,-0.518923461736,2.33496668319,-4.40223451573,60.2971792651
do_nothing,-1.77076312627,1.10313818954,1.30638723679,-0.975095291813,0.0699452560299,-2.59367809821,7.26091599763,0.209247568695,0.00718551080975,4.64946314814,-0.582865823831,6.29043159544,0.985371905797,-210.360073646
do_nothing,3.0658501437,6.11042661843,4.08835928276,-0.635309904419,0.200859629454,-10.3490862663,5.84575781657,2.66705053519,0.00138433854703,5.36774810517,0.423257349413,6.31078072287,6.42285077288,-303.286249964
do_nothing,4.52293801467,5.21921202802,3.21169046587,0.294733219923,-0.147743173906,-5.48781554427,-2.18025035416,2.42894617319,-0.00441005467887,0.379865579348,1.50594934709,0.941767676479,5.43914344133,-87.7646063601
do_nothing,-0.211826539527,-2.07019545949,-1.81791399519,0.629815538888,-1.04126611115,3.4499170983,-9.85374027564,-2.21240271127,-0.00680064135346,-5.86471527783,0.919835340814,-6.52996946475,-1.44095999648,230.138735842
do_nothing,-6.05072899095,-8.75903117605,-7.12460346556,0.0973138121753,-1.88577066807,2.34562793814,-9.72653612844,-7.14583049429,-0.00665918762201,-7.59820102038,-1.37748341382,-10.7430518425,-7.40727505545,321.927590322
do_nothing,-6.19717809856,-7.86585304073,-7.34518181922,-0.371054328871,-1.11753504188,-4.92258019806,-2.1020052549,-6.49586467418,-0.00549573711135,-3.58528527788,-2.92298399851,-7.79732522116,-6.79573660676,101.438799195
do_nothing,-0.272340196333,0.0474479057975,-0.741960175247,-0.0195461996762,1.81586775737,-2.11453724986,5.95645534041,0.443567158615,-0.00230808468142,2.75218030164,-1.5167441873,1.83987875459,-0.472319931365,-182.858533297
do_nothing,6.00618542627,8.05731815786,8.08197010597,0.630140567214,4.45228910612,11.1269584377,8.8322927578,7.97079160448,0.00331370502755,7.2969761492,1.71887038698,11.9173223471,5.84320935859,-240.592796756
do_nothing,7.56675177133,9.95250488915,11.3588766935,0.511794065412,3.3955844296,14.9068714573,6.81357887499,9.84269825291,0.00800948579935,7.76805308669,3.41167044274,13.7242611371,7.26858235721,-66.901408667
