label,COUNTER,INTERPOLATED,AF3,F7,F3,FC5,T7,P7,O1,O2,P8,T8,FC6,F4,F8,AF4,RAW_CQ,GYROX,GYROY,MARKER,SYNC,TIME_STAMP_s,TIME_STAMP_ms,CQ_AF3,CQ_F7,CQ_F3,CQ_FC5,CQ_T7,CQ_P7,CQ_O1,CQ_O2,CQ_P8,CQ_T8,CQ_FC6,CQ_F4,CQ_F8,CQ_AF4,CQ_CMS,CQ_DRL
off_to_on,-0.494966726903,1.15755638266,-0.213483421289,0.59152532636,1.75590876429,2.38054170577,5.29152687403,2.77640717865,0.705098804803,1.10245799179,0.0853119676861,0.0972159738982,0.591715346204,67.8679544337
off_to_on,1.16600228087,0.988348141003,0.765019938535,0.240251554464,0.863624131905,0.462360055182,2.47049755679,3.44883095062,-0.459970242054,1.91543738374,1.59599748846,3.60191803035,1.40618999395,-94.8420528956
off_to_on,1.85482486316,-0.15336804096,1.0333163709,0.572168463014,-0.446687150418,-0.728796243015,-4.78347834839,-2.05384239598,1.0511266005,-0.643392563424,0.162239664647,0.299305205131,-0.16969204283,-62.2339428312
off_to_on,0.0725866707491,-0.499967810495,0.372153005608,-1.8486877867,1.12775555206,2.35890197438,2.08540472229,0.899798403328,-1.28440022705,1.90601580518,0.0136408844682,0.314000498222,1.5660102319,79.6872344519
off_to_on,-5.02053962592,-1.29458787399,-3.06087898135,1.59539540799,-4.02282940038,-5.75295257697,-2.54686562071,-5.09631234132,0.813450642366,-5.23881189842,-2.36663137465,-6.3827006748,-4.46993300108,83.2008778164
off_to_on,1.9863978986,1.12956644276,0.485506066968,-0.342397545672,2.06039331643,1.98827951401,1.6172757778,2.73466093989,-0.608981536879,0.897125737775,0.76085802318,2.60313607284,1.01015902129,-88.3626579637
off_to_on,6.28076007086,2.88359045458,4.58252042881,0.0903813764679,5.27007698458,7.86085663542,5.92395116477,8.46071149524,0.858307492681,7.99618506807,4.35333038073,9.0042533297,6.26283850215,-81.4358149905
off_to_on,-6.11332659816,-4.57514522307,-3.98798823748,-0.807882861056,-7.25242831998,-8.90650306573,-9.36358423969,-10.6343899561,-0.86666537197,-7.2621930627,-4.97125826592,-8.6099364364,-6.2074653897,77.9051479407
off_to_on,-0.624767547149,1.35472274265,0.0722855868366,1.01416283046,1.43638370173,-0.0310524067509,2.13684248524,-0.10772317002,0.729668065418,-0.723947202758,0.55617758047,-2.02638723697,0.19796666133,92.739068858
off_to_on,0.0485695749788,0.205833523172,-1.06513122477,-0.753146360868,0.860584006172,2.14187315339,2.69459887126,3.93102140029,-0.893802930552,0.452170077084,0.555909920527,1.64353381788,-0.0474437724264,-76.5538841436
off_to_on,5.25280691773,2.29790433343,3.99257582322,0.91944620306,3.10334447318,4.61678397586,2.10389523188,4.10056928186,0.898811037398,5.62865079912,2.56196984493,7.36322795366,4.4468636089,-97.2447203064
off_to_on,-1.27456435416,-1.95184940485,-0.416777477238,-0.996449015408,-1.98090695948,-3.05983013251,-3.10454876176,-4.31149280646,-0.459989293927,-1.64868837058,-1.75828631667,-3.03470547822,-1.47108012968,73.2392526146
off_to_on,-7.2701792248,-2.74465441019,-5.23426865259,0.347857489962,-5.28256055339,-7.26914619345,-5.22940243838,-6.95194384995,0.398824393336,-8.4421706341,-3.25640848169,-10.4723997188,-6.31929014433,97.5892352154
off_to_on,4.37644863134,3.60988134517,2.81565118975,-0.0396697235362,5.34781488767,7.07401719695,7.49721325463,8.67923806905,-0.918387967023,6.67711935889,3.59366125565,8.63933361767,5.40211525099,-62.2786477788
off_to_on,4.73391918199,0.961904947287,3.2975779725,0.782478889595,2.30686321664,3.43303153311,1.14577356366,2.58087443559,0.90169560141,3.60521193496,1.14664699859,5.30969646493,2.05031281733,-108.140031213
off_to_on,-2.89336046332,-2.5234156001,-2.07961031962,-1.17045925217,-3.0099326778,-3.79577371892,-4.46092438758,-5.72690215155,-0.182906024569,-4.17863604649,-2.19472287575,-6.43390194505,-2.57077264449,66.4859009943
off_to_on,-4.08198171089,-0.0531824995322,-2.11631691143,0.27897265836,-2.4904874022,-3.67826321396,-0.237050644702,-1.19679461939,0.0808096602935,-1.47793286827,-0.124731650372,-2.63599551548,-1.04048164188,98.5282322738
off_to_on,-1.51371297934,-1.4337507782,-1.89051675747,0.422656425228,-1.86531239119,-2.88631460142,-3.8500751301,-2.48430654701,-0.734766760634,-3.72674687327,-2.6009149132,-1.49686753621,-3.83559497056,-48.4117978954
off_to_on,11.4544030072,5.73155102871,8.04583088808,0.193177956451,11.8195573786,15.8116410675,12.9292197503,13.1174171755,0.735067122412,12.0661986373,7.08728343934,12.6867807948,10.4501702686,-113.116650494
off_to_on,-4.66589737826,-2.53134761851,-2.74662559783,-0.868424462079,-5.82458004988,-6.15377596016,-3.648255948,-4.95911420093,-0.0134081340709,-2.95025976164,-2.1454841232,-4.94741945783,-2.74488590672,58.521808791
off_to_on,-10.1574314181,-5.49432332707,-7.40886832328,0.447971442564,-11.034140759,-16.1646846881,-15.7097490854,-14.6734026494,-0.00106316841361,-12.8711382183,-7.30764659779,-13.0013751038,-10.4127249753,96.4482020487
off_to_on,7.67210025577,4.590292613,5.2404275709,0.135900538352,10.2962413414,12.5745714037,11.1591431693,11.5094027088,-0.62684370289,8.0046597907,5.46782762366,9.61116354214,7.11455201047,-36.8788154473
off_to_on,6.17675681728,3.5971879372,4.67677588725,0.128442562302,6.5222201482,10.7430921203,10.9308371509,9.28411771082,0.457775811178,8.52107273855,4.47737056853,8.1134421927,6.16688845428,-112.55125627
off_to_on,-4.62761466871,-3.32604385731,-3.42121717559,-0.598197185773,-7.60427530411,-9.84105813279,-9.36146590769,-8.53227592299,0.290203529485,-5.01099600752,-4.10884930142,-5.6752397911,-4.43060754825,50.573947703
off_to_on,-8.50087009582,-5.05242844511,-6.38529268186,0.395219862466,-8.81885189106,-13.1956619981,-13.057075062,-11.4889783442,-0.151236218273,-11.7330326962,-5.59853360794,-11.6214784117,-8.678851095,92.3093942577
off_to_on,5.8818793252,4.58182917447,4.78291028976,0.18455156353,9.28365587481,11.8251689193,11.4119920803,9.62461426469,-0.543326810373,7.04570663428,5.04333874191,7.45451856448,6.54803580841,-28.8530654032
off_to_on,10.0996236258,5.70545429187,7.37416752634,-0.372622149361,10.3000079923,14.8776253208,14.632451999,13.6821548402,0.315001729281,14.3558247389,6.58737750371,14.1838377103,9.83204838735,-107.676101735
off_to_on,-10.8764269882,-7.85049425689,-8.92089995812,-0.0220533083268,-14.7481688637,-18.4273272057,-18.4018379754,-16.0485201106,0.448860135112,-14.6709985416,-8.78186495105,-14.745707069,-12.4338443803,43.8693654852
off_to_on,-4.49018863346,-1.5861369796,-2.58967418573,0.422891530029,-3.81106286142,-6.63067325781,-5.11862238736,-5.50837984184,-0.313809678658,-6.24985983075,-1.97128137462,-5.90824960643,-2.3899615065,87.0778074892
off_to_on,8.59502691091,5.84032728918,7.10541121433,-0.0719476683354,11.4755560975,14.071758724,13.1849543645,11.7324083557,-0.291573336852,11.6326059683,6.44755804448,11.2033009093,8.83401723895,-24.4980501017
off_to_on,2.43054080075,0.109187885273,0.524727085404,-0.766212650576,2.09510427914,4.1667215265,1.17203624363,1.98649495593,0.0198817610977,2.68429301003,0.463917240873,2.19675005398,-0.0803361952163,-102.461907006
off_to_on,-4.61241671101,-2.28720448824,-3.39969798684,0.752588029877,-6.55043761672,-7.30068740837,-3.40896587331,-3.06312533267,0.645881276681,-4.79817124695,-2.35377218362,-3.59628370404,-2.93202933846,46.5253596962
off_to_on,-6.23276141597,-3.4790553984,-3.77009722323,0.317249747114,-7.39252473604,-10.5983833895,-8.92555365888,-9.53113957471,-0.448988875068,-8.8608145061,-4.77009604077,-8.6720780875,-5.58754150417,70.7131342463
off_to_on,8.48104519939,4.80021693113,6.2435974683,-0.620476981905,11.0587862247,11.9116245387,6.55244221867,7.12221443155,-0.0727376616404,9.34414261083,5.5912528721,7.68153336518,7.22344263738,-21.2257573689
off_to_on,2.54906780896,1.53605904285,1.1869085181,-0.682824664009,4.04662009347,7.20226251595,7.55786358893,7.64427608628,-0.251348738449,6.07646962622,3.00369574611,6.08996377503,2.78701485322,-74.3402645906
off_to_on,-7.73896199731,-4.21006255422,-5.64936936464,1.57707931827,-10.6603124361,-11.5932090006,-6.90266293566,-8.11512227545,0.825187228326,-10.3424819949,-6.04874427338,-7.99551623999,-7.48467352735,8.08939076659
off_to_on,1.24053757691,0.231484681879,1.43627803839,-0.572736856236,-0.104618900148,-2.1420300777,-2.71369713015,-2.13568511506,-0.537692581428,-0.429989701717,-0.208089559024,-1.21037418008,1.48815181661,84.23156438
off_to_on,2.50237489733,1.28013761701,1.90565518171,-0.53389786692,4.86487893577,4.08486744866,-0.441902721229,0.96837437175,0.0326374839599,3.83351340315,2.97934405849,1.23436229376,1.90583208853,4.44572141446
off_to_on,1.06596329693,1.29091992807,0.157555182385,-0.113147930992,3.21358218013,6.08402830444,6.27313367366,5.40635698274,-0.405217070742,3.04961824239,1.04926464027,4.88564834042,1.35728269678,-123.421649889
off_to_on,-1.20211700626,-0.4276136827,-0.708816777017,1.20370268782,-3.76678102711,-2.53900740178,3.10211758369,1.38140050619,1.00702244045,-2.07968386435,-1.44402911028,0.06552940955,-0.983076051322,45.7921346642
off_to_on,-4.35137982275,-3.83593880924,-2.93868764451,-0.971516741398,-6.99667041638,-10.8662933988,-12.3742376444,-11.2805020773,-0.724725441587,-7.35653579403,-3.79061402179,-10.0233786152,-4.89668823489,83.4845571136
off_to_on,6.28239321292,4.3636375729,4.87435668363,0.274044460131,9.43138435094,9.26533690911,4.11425562918,6.25779889926,0.149419530877,8.89253239488,5.50697853798,7.66458470382,6.94838227333,-22.5358621564
off_to_on,-2.27326622649,-1.11285795559,-2.45342417685,-0.43290177108,-0.0757030867827,2.83698079331,4.74402770096,3.28154724241,-0.442198141722,-1.46664128749,-1.77456399223,1.5997941561,-2.92050629199,-99.6159557534
off_to_on,-1.14365571511,-0.389704282689,-0.570708771649,0.825521103849,-3.91840485336,-3.28563498264,1.59212562192,-0.868200495243,1.17099960043,-2.24333285803,-0.768073628257,-2.05475034135,-0.81660583701,39.5314880771
off_to_on,1.50289449996,0.0684687677256,1.63930198384,-0.706336386261,-0.686156152718,-3.29071584572,-5.45477875399,-3.58655725463,-1.1392642078,1.07887421794,0.763111780494,-2.05277443618,2.05797683259,90.5190135639
off_to_on,-1.28229700218,-0.863231886399,-1.34362005767,0.690520209754,0.91962163455,-0.68832166096,-5.77301680497,-3.03831357972,0.487856793635,-2.47975792784,-1.56546711551,-1.64277856301,-2.78539885094,-65.5022979684
off_to_on,1.04127353155,1.36997492735,0.38475856446,-1.02668842839,3.90983973551,7.91484998371,11.3857582881,8.80296256673,-0.328048433769,4.33048571461,1.96559070551,7.32975380126,2.28847819188,-4.85727224774
off_to_on,-0.305473147793,0.242656273469,0.474357167053,1.01210670576,-2.98353626439,-2.7205117294,1.22436168738,-1.11283587766,0.857309167678,-0.73731048413,0.337256191226,-2.77252777086,0.0764626674723,-65.5920251784
off_to_on,-0.420853621352,-1.71984473746,-0.739746487964,-0.69495374387,-2.78135577057,-6.36194002109,-10.5866797388,-7.74443144803,-1.21838785503,-4.34832064884,-2.50393412535,-6.48701400594,-1.98438363821,125.952199203
off_to_on,1.99254724172,1.75235539662,1.68992742472,0.704838055019,4.32935339368,5.04239162139,3.49850909526,5.19876379051,0.979188227272,4.84423215133,2.3192374832,7.3903390043,2.86199662284,-4.66401532608
off_to_on,-4.74729144631,-2.31493139681,-3.68959159923,-0.75864205986,-2.96340114036,-1.10600502356,1.27791732068,-1.25653768028,-0.662233404762,-3.36473077968,-2.37928499623,-2.08967037563,-4.17926449122,-90.3975523797
off_to_on,5.18012507478,3.24027044031,3.92326704044,0.564596640248,4.1855691277,4.73213111403,5.81787893461,4.66256518839,0.750316351086,3.54006588903,3.31295735405,0.934633209546,4.43630878768,-32.106636232
off_to_on,-1.31545376506,-1.99655581471,-1.15069381904,-0.846104443984,-3.95766349134,-6.03596143167,-6.45654391949,-4.76403687551,-0.980927294369,-2.59723290195,-1.94106853939,-3.07732491619,-1.70445355237,126.877421742
off_to_on,-2.24596287764,-0.465157614165,-1.1683908588,1.52494561201,-1.46828789426,-2.4301382276,-4.46939220359,-3.42440311692,0.95013772491,-0.845742767072,-1.02006304781,1.32554270511,-1.17772515173,24.6361361074
off_to_on,1.45417688516,0.948757927937,0.696722364198,-1.24470731712,4.74568347838,7.2518879786,6.59586751805,6.08125000339,-0.833837958951,2.68909470276,1.27053436457,2.70991002889,1.36505830322,-156.895606884
off_to_on,0.36482614218,-0.0839123537892,-0.018282648833,0.258738957249,-0.987045137874,-0.473807121103,2.8032123363,0.958445018369,0.968810073212,-1.85320483114,0.345365686444,-3.3069378276,-1.26437421216,22.6278495082
off_to_on,0.716494009125,0.402551503252,0.938594244646,-0.489906101618,-1.98628567996,-3.58769907087,-2.51112401591,-2.53303265924,-1.13597225952,1.85020214897,0.36960782229,1.85533125321,2.56300614759,116.51745118
off_to_on,-1.77158808813,-0.662907200585,-0.84290634534,1.65195074679,-0.820292326443,-2.52900014583,-6.8104097301,-3.92012601767,0.961447239763,-1.74147163148,-1.59326878251,-1.02501325557,-1.64855610354,-0.422437879107
off_to_on,-1.27180620566,-1.58150190724,-1.95258569179,-1.47521756929,1.27143634587,3.36178704341,1.84005022001,1.53175914512,-0.700140288956,-2.76042837599,-1.40106256408,-2.45644121461,-3.15946134844,-128.147126497
off_to_on,5.79816731402,4.43453526341,4.66753564885,0.288002842639,5.28872491952,7.95727375715,13.9488330467,10.5399665948,0.819139752364,8.55085968956,5.89121574279,8.52804000895,6.99171201332,20.9584097691
off_to_on,-6.17981698327,-4.21444517613,-4.39512358032,-0.496099148429,-9.05500521827,-13.090874123,-12.9163197328,-11.8567064373,-1.11508470898,-7.67451655478,-5.23550364189,-8.81258759069,-5.77947418505,94.9107304236
off_to_on,1.91006929609,1.22829804505,1.71649445689,1.62662692332,2.90063521406,1.77688911361,-3.99226105896,-0.891015403166,1.08603563759,0.696914146543,0.382284063163,0.787538704294,1.62038926049,4.07531884697
off_to_on,2.18741761035,1.11180059224,1.02845120654,-1.26701094444,4.3572091427,8.38279827294,9.09592804273,7.46698801132,-0.829800167443,3.87086282793,2.103506044,5.40056213371,1.78708619786,-102.342630385
off_to_on,-2.35826622983,-1.03408521866,-1.913450335,0.151359606073,-3.15959152791,-3.31130160811,0.712439661454,-1.42781291968,0.754171348672,-2.76055547617,-0.848644220716,-3.0136266884,-2.95075355356,7.04899885809
off_to_on,-0.0466155366944,-0.302711050537,0.453525290007,-0.674353310635,-1.51037555039,-4.36627179917,-3.60747674371,-2.06611246157,-0.81938474797,0.384613021969,-0.310139977866,-1.17683630549,1.52166474917,76.075161743
off_to_on,1.05470720738,0.868432905942,1.30208552047,1.81238796972,0.917285944256,0.732196985164,-3.2137211748,-2.07088635044,0.808905433361,0.15333291865,0.121075744397,0.28873163797,0.913613873563,11.4704029219
off_to_on,0.416477623718,-0.0403271276691,-0.758045729525,-1.17921585888,2.52763661782,5.62323732579,3.57524752436,2.6932297949,-0.833859419393,0.134859713901,-0.212204573966,1.92275798019,-0.894521978985,-72.9518901464
off_to_on,-1.06882376531,-0.460657092043,-0.754084568642,-0.0170643794231,-1.43636861459,-1.79860141257,3.36369243974,2.67682772987,0.951766788585,0.167418741866,0.768267295723,-0.140663664589,-1.03929703452,-14.3103885587
off_to_on,-1.84757405777,-1.34390305492,-0.736181891526,-0.500040809579,-3.81164916898,-7.17734487755,-5.89246385283,-5.47963056218,-0.901831982458,-2.23168126205,-1.55458589162,-3.88028327011,-0.664556740476,62.3228448228
off_to_on,5.79748323019,4.1061007539,4.68175628518,1.4401874635,6.95285556432,9.07231870115,4.39516648077,4.68586588002,0.677188066699,5.98825523236,3.30993857242,6.25131379645,6.35467145225,16.3671588743
off_to_on,-5.63578623689,-4.06879105287,-5.36247417333,-0.841753587702,-4.97012493411,-3.3895871698,-4.6898446985,-4.6042990365,-0.648584325252,-7.07241230998,-4.4328898729,-5.61303734371,-7.59269440845,-43.1481058862
off_to_on,0.67334641372,0.671588259362,0.785460689975,0.124281014568,0.11010678539,-1.80734869174,2.49019972528,2.31490660135,0.836723679546,1.6478389697,1.81720567424,1.61483912431,0.746194651687,-35.8953552564
off_to_on,3.74699881715,2.08616662888,3.3992304975,-0.826662118378,3.43300738943,2.74598546882,4.39561287999,4.07878569869,-0.850626515687,5.16641662982,2.59409258188,3.83334715277,5.2412566926,51.9173959678
off_to_on,-3.1298697967,-1.58037981074,-2.42510154589,1.32523284339,-3.0135893121,-1.79637813316,-6.54540435279,-6.4426497729,0.660447795491,-5.23213367924,-3.21845152307,-5.65648462625,-3.30099221737,19.4621849389
off_to_on,-0.146672069201,0.0457343089514,-0.601595671952,-0.494785726187,0.390281391774,1.65301805617,0.636590025486,1.00133597378,-0.601794196741,0.630473992639,0.228476201944,2.3193491604,-0.275970708879,-20.9872985209
off_to_on,0.906847038877,0.0802758028564,0.812440088845,0.142895639257,0.356265884511,-2.00596325486,2.72957713906,2.69128536264,0.661619526497,0.708991973632,0.970457788386,1.02924714377,-1.04423020069,-46.644945592
off_to_on,0.54324292316,-0.120558982198,0.389796058191,-0.962023118096,0.56031325246,0.488495674663,0.722065195315,0.416257149046,-0.585341778567,0.315329906,-0.00995394080302,-1.25911967496,1.64609440609,40.2174904869
off_to_on,0.433776335594,1.61815813521,0.900477245395,0.975743003406,0.982360420289,3.45270204,-0.880969651269,-0.799351218476,0.493746154413,2.48580649989,1.32760420166,1.98062648313,3.5192213985,18.883882775
off_to_on,-3.97584213045,-2.92289023981,-3.47618049148,0.0548038152421,-4.58512227187,-6.20683699291,-6.31854768847,-6.33999089455,-0.604381968938,-6.47768404082,-4.07608809505,-4.9241862951,-6.9799111945,-3.89542204766
off_to_on,4.94820886927,2.37750571722,3.44096600167,0.0503239596822,4.91898802648,4.44670369244,9.60432519253,9.56872406089,0.667418492099,4.7370171609,3.23623795505,5.52010048137,2.74573428761,-47.3219955432
off_to_on,-1.7336268455,-1.08394312122,-1.06593863292,-1.14432754003,-1.29366071808,-0.588228020348,-1.95343930937,-1.39495369921,-0.419682070555,0.204208077785,0.198520172005,-1.63999011831,1.58368237996,26.5001361534
off_to_on,-1.47643886405,0.058475900368,-0.653579535341,0.852159629262,-1.28170271186,-1.01926612549,-6.7643727579,-7.09303345586,0.187809039335,-1.79131721417,-1.13921371724,-2.3177539152,0.136121437252,15.9147034707
off_to_on,2.21218523457,1.24399361598,1.36191863097,0.405608019518,1.51832331772,1.28522267283,5.87439894537,4.9327051092,-0.33599314404,1.82579832646,0.261759317984,3.39934993553,-0.833114520316,8.5917525414
off_to_on,-2.28913948834,-2.0931896441,-2.07894055964,-0.130164291862,-2.65665567607,-3.38931742555,0.00753672332076,0.892244446891,0.542265677396,-3.85458573489,-1.32951480124,-3.31156434269,-3.89817400309,-40.7842509381
off_to_on,2.28564919073,0.994997585808,1.82432281665,-1.09256540874,3.9099978367,5.00512882634,-0.951083600063,-0.0312594508222,-0.322341895458,3.70253189547,2.50220228435,2.51624406771,5.48474861955,12.5130497021
off_to_on,-0.607756418844,0.587154983756,0.0148930831898,0.745982143194,-1.31929759437,-1.49264547302,-1.74350767105,-3.04954677495,-0.0727895009161,0.908287349461,-0.443623080117,0.00675586686183,0.223304440638,11.6934128323
off_to_on,-1.93275378157,-0.494781678683,-1.53085618201,0.534706974814,-3.37036295223,-4.61986746433,0.343132941314,-0.159218852372,0.00737258172428,-3.40089569661,-2.14555498842,-2.19123946626,-4.04546616235,16.171245709
off_to_on,2.91192076218,0.595398152392,1.79524192362,-0.389914776578,4.52292623323,6.03371449874,4.48904556035,5.74992292386,0.433763839488,1.60120814967,2.06306197434,2.4641043463,1.93931561806,-29.6485439427
off_to_on,-2.54656204305,-2.82131438284,-2.20783180755,-0.554884052136,-2.20607955587,-2.30313914728,-5.77190016235,-5.75975844046,-0.453602715673,-2.67469575424,-1.78640729904,-3.6637348705,-1.94659937801,0.106852338092
off_to_on,2.05943052309,3.59953843631,2.44059220494,0.307457193555,0.999309531782,0.160251655387,2.75932757417,2.01726880525,-0.153195584093,6.38827936317,2.7138346302,5.55808438644,5.20030671692,6.9905752697
off_to_on,-0.578171732913,0.0936191965292,-0.452335426844,0.449798175477,-1.07380253409,-1.4177287024,0.198109234372,0.465995150405,0.485960384464,-2.59527423329,-1.06135030156,-1.92068557534,-2.3265135949,19.1044857345
off_to_on,-2.08623320929,-3.69147217202,-2.51477617827,-0.183855563482,-1.01436885356,0.152874301467,-3.01162834445,-3.04223041595,0.0462387346175,-7.39902948317,-3.33935248762,-6.59648613785,-5.81342501679,-16.4669909581
off_to_on,3.52877454734,2.48270459284,3.04385062402,-0.303033229579,4.41379790651,5.30580760994,6.79647182824,6.47219573761,-0.548458999677,9.17929459685,4.45470259327,8.91758163465,7.08622339265,-10.3629524538
off_to_on,-2.75616236093,-0.0672661510255,-1.50872538226,-0.0834996862612,-4.66436293324,-7.46542468916,-6.85039064926,-5.77842491791,0.00782770422646,-0.932301064475,-1.05748796889,-1.80981964501,-0.813654531603,6.55510565559
off_to_on,1.4741752349,0.745495440733,0.674425823703,0.473829477493,1.26928820675,1.94049299683,0.165147028833,-0.0811455362411,0.832199809086,-3.23042887416,-0.877590379272,-3.37449876807,-1.6687169358,9.92298832544
off_to_on,-0.088253135674,-1.23201013432,-0.0800551091649,-0.222681474635,1.70377500615,4.2956002718,6.00008698426,4.34401295353,-0.604363184556,-0.337619457522,-0.250182839487,0.757703708371,-0.879237277525,4.09887399195
off_to_on,-2.05972301985,-1.33920204859,-1.63988520415,0.18901980487,-2.05239001582,-3.88183064428,-4.2131151537,-3.35488832409,-0.22487083085,0.612004600643,-0.25036490638,0.966030397519,-0.148858620326,-13.9471678398
off_to_on,3.05434088449,2.51315864996,2.21645734757,-0.524041706986,1.62007946104,0.548767626557,-0.72650229542,1.20156065001,0.128696185643,4.12317097269,2.49951867274,2.868931247,3.87701516173,-16.1303060763
off_to_on,-1.31075418993,0.0261667766655,-0.278809588511,0.401602960743,-2.0485509688,-1.27550419063,0.200732317731,-1.19035848403,0.691348685605,-4.16108113122,-1.8505963845,-4.68873088384,-2.87111020037,38.3950209564
off_to_on,-0.319096717954,-0.980312829939,-0.624680288149,-0.141310888685,1.96297469804,3.50103707925,3.50057048709,1.55498074621,-0.759821862193,-0.424636936509,-0.828161385682,1.14185359226,-0.438037051594,-17.1399215619
off_to_on,-0.0560492363285,-1.14537394033,-0.806580967401,0.49328065514,0.523184831886,-0.258445114084,-1.7604444115,0.0437040231713,0.17224920062,1.55150479459,1.07696890633,1.8737730015,0.252611493626,-6.79911099655
off_to_on,-1.2131339906,-0.0574208863667,-0.329929824629,-0.717950680506,-4.21076030696,-6.25230230529,-5.30893991537,-3.69206804308,-0.246867303845,-1.56907908076,-0.640528710682,-3.24041015258,-0.953711832795,12.0225338583
off_to_on,5.25539782133,5.02147373444,4.98657642338,0.206431997159,5.47870313565,7.32320084491,8.85608102801,7.09438306721,0.781228335234,6.12335114136,3.19428031752,6.30241175963,6.15856944407,-25.8548073261
off_to_on,-5.6130582286,-5.0232892333,-5.59838201078,-0.0988263604428,-2.92774633002,-2.13686528653,-4.79660471236,-6.11331705215,-0.575466418114,-7.8089792865,-4.84724707889,-6.6933918184,-7.35124633613,37.9602121096
off_to_on,-0.335007804837,-1.13886363762,-0.530798631555,0.885131228066,-0.411350918015,-1.52960000844,-1.48609334034,-0.115389979863,0.10093729862,-0.140325453167,1.01468610676,-0.19395829516,-0.113395128113,-23.1670806804
off_to_on,4.45320925151,3.60197937859,4.54046664434,-1.12798654405,1.3866140204,0.800409021613,4.12625558343,5.41319654833,-0.597716897006,7.11485249993,3.42011860906,6.24662504141,5.65594679408,18.934435268
off_to_on,-1.55395086322,0.23858821842,-1.19183670359,0.415386164188,-1.20120544559,-0.882314092732,-3.27439759287,-4.27797909583,1.30218334084,-3.45442494058,-2.40625977563,-3.58337014602,-2.48897683115,-46.7484316011
off_to_on,-1.35348933213,-1.48969756948,-1.97431081975,-0.280723270056,2.22784783523,3.65804490875,1.69452520019,0.386390427049,-0.741228047671,-1.50838524003,-0.464725098487,-0.626260059559,-0.603228753214,45.4903737193
off_to_on,-0.960318128994,-1.88502335309,-0.46503446015,1.01915136284,-2.71861248503,-3.92650332702,-0.530942053554,0.125911113934,-0.175452753052,-0.992571033949,0.0893002102663,-0.89550141039,-1.60020582503,1.1016563605
off_to_on,1.96263799339,1.32298127787,1.81750836904,-1.17275468872,-0.241581285076,-0.706089870935,-0.733442657317,0.628304442892,-0.368975933059,2.11711592815,0.322671441961,1.26408154462,0.965957969387,-17.9646577316
off_to_on,2.78116758475,4.07983362398,2.51903712579,0.595141653763,4.47499880648,5.60128517066,3.34480600019,2.85272171192,1.58121257534,4.52373843676,2.67729363704,4.49558959115,4.87002505939,1.64197673405
off_to_on,-6.13679143643,-4.98736099404,-5.55001106008,-0.488068178116,-5.33224331674,-6.62912874586,-6.76797053356,-7.89861045516,-1.3658457845,-8.41218747819,-4.77146915881,-7.56566645117,-6.20804008659,-26.353085957
off_to_on,3.3110654664,0.39661694249,2.53146855172,0.792966241405,2.99559925824,4.35196365356,6.47363729005,6.71588156452,0.161532700936,3.13631834247,2.49942890513,3.02760403037,1.40913038599,55.3212651668
off_to_on,-0.352915411554,0.594340621615,0.40494153589,-0.742881111951,-1.21324805027,-0.787797733297,-0.243235144871,0.434415783029,-0.119409513193,1.33578056035,0.0636777195684,0.430107292433,-0.159207279765,-1.6516658756
off_to_on,0.833454298175,2.71268784135,0.649616767328,0.756348269313,0.522430982527,-1.87285333137,-4.73440664936,-4.54516951782,1.23843464747,0.513289836941,0.198446566994,1.1134558401,2.76847622598,-52.2000787543
off_to_on,0.267704829094,-1.72136155519,-0.617062765542,-1.15383700259,1.17254262577,1.76160790041,1.89153449891,1.82077237532,-1.5521982843,-0.257531721703,-0.282905277021,0.182985985472,-0.0572785385386,-5.46783843004
off_to_on,-3.51957609136,-3.24821000627,-2.15165912478,1.06137718781,-3.0133187665,-0.696496615399,1.75633099482,0.847882289092,0.67506215204,-4.43138322254,-1.22330131993,-5.23031340686,-5.61435737009,59.301270431
off_to_on,2.47096130422,3.03418792934,1.970535421,-0.48794744704,2.17459305206,1.79905505365,1.7754316463,1.31563887645,-0.209660627066,4.08733300841,1.24845633981,4.33207400294,3.61075763235,18.2018903968
off_to_on,2.26746599382,2.29968396606,1.63229567389,0.680501238276,0.855788453195,-2.30963197296,-4.17736621161,-2.43875969709,0.816772702452,2.36689479091,0.651921208413,2.84854025423,3.17111426563,-81.4930876311
off_to_on,-3.28694871441,-3.86836376824,-2.69805156315,-1.34649423656,-3.00780859063,-2.20410622153,-3.3557947469,-2.34398898787,-1.38929455877,-4.92078589164,-1.73132418332,-5.55755729402,-3.84261067712,-3.52628619976
off_to_on,1.33912013301,1.12706359968,1.45950860095,0.983578921164,3.37835178113,7.2525263056,9.91300867012,6.97822431371,1.15701576679,2.57519152689,2.39077282196,2.59854263114,1.11051398309,60.9167576338
off_to_on,-2.82617006408,-1.20958710012,-2.90282369382,-0.194879506375,-3.32885646461,-5.49895610028,-4.56838398189,-5.58632238487,-0.659439568466,-3.60524191491,-4.12190251176,-3.01250837696,-3.78266815461,42.4465599743
off_to_on,5.09726872785,3.66894514905,4.5631174003,0.702513218544,3.24820707636,0.717597226396,-1.45580644125,2.43745471762,0.558171192092,6.37559667838,4.01057980439,6.14907780985,6.75566252113,-99.7558894411
off_to_on,-1.76277332593,-2.25783713205,-1.21742318379,-1.62890158786,-2.17042526882,-0.782408505476,-2.10179423115,-1.41775603302,-0.850131354505,-2.22395216856,-0.0714257293457,-2.85661799459,-1.46494808412,-15.2419474018
off_to_on,-3.01800189267,-1.61456744748,-2.92352624826,1.06106351275,-0.385591032797,1.83563438542,2.95168382458,-1.44775784266,1.20654934396,-5.34627241792,-2.98326138501,-4.84218409442,-5.18441250605,65.0147297716
off_to_on,2.35469900161,1.91985165492,1.67299726859,-0.0462556504225,3.33760407877,3.23992504541,6.44535395706,6.17930927396,-1.24954404074,5.62914754443,1.46897268415,6.15189857855,3.57304047931,66.0210897824
off_to_on,0.00694867040031,0.254892928077,1.00697436826,0.619641405709,-4.03617003114,-7.68539731369,-9.38325355482,-4.85240240459,0.808847202537,-0.154890166733,0.728451963448,-0.927603473499,0.708825085771,-112.105154535
off_to_on,0.874518963022,-0.51324999477,0.0245283607121,-1.71257205844,0.748258549955,1.77776155099,-2.35936031447,-2.69003646636,-0.359526905737,-1.90942457162,-0.312372871031,-2.02144212315,-0.00200045995699,-28.1543440488
off_to_on,-0.408924255769,0.367018675729,-0.49017524212,1.29625253712,3.68532544061,7.15731924915,9.78108511544,5.87055572053,0.568595198121,0.88252907471,0.448805468574,1.49345628916,-0.58344482853,64.8731747929
off_to_on,-3.99071705673,-2.34346735268,-2.94323638124,-0.280706145788,-4.43547811855,-6.34910699882,-2.79048808106,-2.26285556351,-1.18405589463,-2.47910354062,-2.77884911216,-2.52286843972,-3.44132641322,84.913151752
off_to_on,5.50599211872,3.56293499256,4.62006671977,0.418738949858,2.25113951575,0.445851856911,-1.40721800168,1.49828465192,1.28447836418,5.13200442119,3.60308035018,4.69955487183,5.65401666221,-110.71549236
off_to_on,-1.95848159778,-2.09692464148,-1.87675219707,-1.00958344389,-2.15608612401,-1.44282002452,-5.57339337258,-5.74207850843,-0.740007135236,-4.68424511949,-2.00811814688,-4.69691412831,-2.93587582999,-48.9224393753
off_to_on,0.334731613806,1.00409889686,0.393057144004,0.902951340877,3.4963565653,5.30884971946,7.16027718338,5.13554923091,0.368551303721,2.30056202062,1.29871547944,2.86850796091,1.21347022678,66.4144770462
off_to_on,-1.41566929048,-1.03082234786,-1.27306982876,-0.793803577178,-0.778999251544,-1.10167707513,3.12423211644,2.77273936438,-0.592666911515,0.569746833833,-1.02105929718,0.364458238062,-1.13415433391,96.6413503372
off_to_on,-1.09748902446,-0.747339024468,-0.780367717783,1.09651439456,-4.2401434506,-6.05591509151,-8.32420516177,-7.14095721188,0.96543086865,-4.22317444943,-1.50109066605,-4.88076389792,-2.31838239325,-99.7611385845
off_to_on,4.5701030016,2.8215447811,3.77995738166,-0.799655348744,3.77176664973,4.30499080913,1.50508443136,2.54375001177,-1.00461274454,5.01236757512,3.28739059971,5.68344905861,5.47144398997,-71.5648182779
off_to_on,-1.37860914426,-0.905931193497,-0.991284418219,0.0354644237783,1.14076726983,1.82360204511,2.86764610351,2.3722722757,0.695821323736,-0.267109908877,-0.601064263524,0.0924911433589,-1.58021700043,68.0798220377
off_to_on,-3.75704054137,-2.55404359857,-3.78482095396,-0.287407675834,-1.80839923141,-1.03464886441,0.868418975842,-0.975643610685,-0.341722651001,-3.68915476133,-2.56551765277,-4.53665542328,-3.71710035747,101.213345002
off_to_on,2.03657453184,2.1579500956,2.37854210548,1.22932306278,-0.982003693976,-1.72395702563,-0.662368346971,-0.468063460839,0.351280143652,1.93885595968,1.76399085842,1.78164754438,2.45957729889,-82.8734287044
off_to_on,0.919533802472,-0.180250252567,0.92401057378,-1.04684415422,-1.57689951803,-3.8234246239,-6.40503700337,-4.03019979271,-0.759342432991,-1.17407314451,-0.81454805101,-0.110396821736,-0.386883292277,-91.2707790483
off_to_on,3.19114680405,1.64091993217,1.93593528426,0.0207031513852,7.2989561718,9.96029487013,7.93651134141,7.91093179141,0.933853538109,5.55897632994,3.10000035562,5.36914343621,4.01160848027,67.6893864277
off_to_on,-6.61049193453,-3.58902044349,-5.41891914916,0.000158797623453,-5.26750512893,-4.20429385025,-0.932711916292,-3.59816139032,-0.492283652604,-6.0783709193,-3.69288969286,-7.25154686624,-5.73564655118,100.473725552
off_to_on,0.576126804638,1.04196049596,1.18888227298,0.777674094741,-2.83200876275,-5.43355524195,-3.35642510672,-3.37777770844,0.130277892486,-1.67760904076,-0.428769949838,-0.867240121027,-0.422706031879,-63.4839943322
off_to_on,5.82648042951,2.64631793167,4.49604936685,-0.749454619124,4.84275364044,4.64453339978,1.68082550057,4.30479245133,-0.476589146409,6.72184956702,3.41191510818,7.38303801973,5.40623418753,-106.084415622
off_to_on,-2.93172365612,-2.25845778808,-2.84137329828,0.203893456891,-0.652622023064,0.568813746723,-2.26714161838,-2.19423980969,0.836054279554,-2.94036782651,-1.64880117457,-3.98909310159,-2.73313150054,65.475208131
off_to_on,-1.22772936461,0.228013513524,-0.911852018271,-0.391382466332,0.539964769344,2.01992438242,5.22187552901,2.97165066597,-0.430646524884,-0.290170911029,-0.131668241634,-0.102719599592,0.156295772509,95.8633529287
off_to_on,-1.10927515178,-0.327766551584,-0.257813229734,0.739309215615,-3.51249393841,-5.36799850392,-2.10689447415,-2.35026869331,-0.0608439999365,-1.61256305894,-0.528117126936,-1.14189152824,-1.90525739253,-44.9456793016
off_to_on,1.82271647843,0.171390331289,1.15046312679,-0.235693905255,0.186156131671,-1.33205642682,-5.0368782863,-3.50954672259,-0.232538683275,0.352995342002,-0.240028853794,-0.0389921594649,0.56505580174,-114.673519451
off_to_on,4.07923482415,2.26056955546,2.84691510532,-0.249495586624,6.33921512131,8.70413692411,6.05138870265,6.92366726012,0.68015374016,5.45794682449,2.86142546406,5.43427679227,5.00492577553,61.8512577459
off_to_on,-6.44005078306,-3.42693039132,-5.01217567489,-0.18436503243,-5.36254163167,-4.89538116232,-2.09765658895,-3.05408316594,-0.374622711529,-6.26239020172,-3.05197936956,-5.83332660914,-5.76378862828,88.8226299429
off_to_on,0.757399051469,1.40786948282,1.22133217101,0.527282308636,-0.488069588873,-1.4924744046,1.57708310965,-0.0920837161624,-0.150123943974,1.28885372519,1.00776031059,0.89142765549,1.02505189619,-29.5394009165
off_to_on,2.57163412946,0.492635070946,1.818725662,-0.044806290291,1.07846952799,-0.0768698678517,-2.00351592256,-1.42544013757,0.0493619974106,0.850152953827,-0.247106941663,0.686836048467,0.831504987765,-117.197505355
off_to_on,0.200430400403,-0.758563191226,-0.638237324137,-0.188084930958,1.22783410266,1.74145376359,-2.667662274,-0.127213977329,0.241562745523,-0.474490816079,-0.345807673588,-0.0450711313448,-0.078299073793,57.7225172812
off_to_on,0.161436003146,1.49407214078,0.607713611167,-0.2944738057,1.68748235008,3.6897750385,6.05904008376,5.53200653334,-0.0510946615674,3.60934367162,2.7602770656,3.65934580876,2.86010405619,80.6723490341
off_to_on,-4.62966083022,-2.26594061946,-2.77131986011,0.295848563033,-5.61487007705,-6.65794790294,-2.11735136637,-5.30483612595,-0.186827419689,-6.1430942448,-3.52366969389,-6.55138854872,-5.41028572207,-18.6467606113
off_to_on,3.49826415038,0.91693457099,1.86391125221,0.39219024213,2.65169209121,1.44119366025,-0.430136688883,0.141606513859,-0.0207896125148,1.9605762715,0.5363325186,2.03727808042,1.58171086905,-114.74189798
off_to_on,2.27937653927,0.671861996559,1.15064005247,-0.410924368769,2.1740637934,1.91190820578,-3.21054719308,0.519217644431,0.133162688605,2.8101841424,1.53225126551,2.99928433185,2.54072965791,54.092868281
off_to_on,-2.41310161764,-0.0750734453441,-0.83944267216,-0.263841354681,-1.29614140532,0.466010673583,1.27158009658,0.40989427764,0.283871644399,-1.80477893019,-0.360765484795,-1.68580042907,-0.569391944638,72.5389939119
off_to_on,-1.10901542889,0.0398070262921,-0.431610761057,0.134615682544,-0.126742622595,1.37614331917,8.91442304422,5.02114118728,-0.571261535411,1.04132737886,0.515448812368,0.71085489242,-0.401468560134,-12.3343635823
off_to_on,-1.50781064339,-2.5769749856,-2.33544278136,0.694461268682,-3.78468253562,-7.71751485139,-9.65851071542,-8.63327219748,0.187541469543,-4.48189680491,-3.06435267269,-4.58713619799,-4.6827418153,-111.746342705
off_to_on,6.0163325408,3.13733990847,4.45467347699,-0.625243137932,5.6597894734,5.57354292166,-3.61624509968,0.489182125287,0.226977031149,4.16324325798,2.46228820807,4.82364430314,6.04606879572,60.162497469
off_to_on,-1.31643998771,1.12661894848,0.279704525003,-0.158412414111,1.120518251,5.15644652976,9.8187857403,8.27986614469,0.0511201141411,2.86275031748,1.97947541025,2.43340930464,2.01176469335,52.7005526746
off_to_on,-7.54574486114,-4.58214286624,-6.13988040144,0.0203628375113,-8.01270406906,-9.14591605244,-0.920801794784,-4.80354471949,-0.625076676672,-6.84687976954,-4.05169682946,-7.45078013483,-8.18193760175,-6.86219528158
off_to_on,7.10141659458,2.61816425373,4.66504310915,0.789993973463,5.56356976043,2.83941148816,-3.03982609153,-0.997067175017,0.722094006364,3.73671199174,2.29079485429,4.85975236057,4.47028222169,-84.4158429659
off_to_on,0.585056573707,0.301817869742,0.602600098197,-0.663564064342,0.765035419347,1.38909643306,-5.92392356564,-2.59526277268,-0.385854737052,-1.32539369862,-1.20427187425,-1.42085754042,0.412757581142,21.1671222061
off_to_on,-3.05580471857,0.420111704204,-1.52286473441,-0.049808030549,-1.65733833868,0.84642387722,7.97589829843,5.56326071761,0.197330705228,1.89812853096,1.1900363588,0.748477664771,0.450805561825,68.0727513727
off_to_on,-0.546553418766,-1.44748043636,-0.789105658382,-0.224393735844,-0.993374155011,-1.46492643435,4.31022365621,1.71312653573,-0.35906571411,0.628893465117,0.598614758388,1.15181641157,-0.904906920886,16.4684157538
off_to_on,1.38226663208,-0.629795619537,0.655472635717,1.03701290848,0.65189025025,-1.77382646316,-10.1493673728,-7.43434002578,0.634244852504,-4.77017282967,-2.14191411306,-3.70297102177,-2.43004845131,-131.553974096
off_to_on,1.86677625578,2.40756252024,1.4612662369,-0.870479478065,2.27620864493,3.19733180154,0.59779862244,2.17672356671,-0.794172115645,3.34426720391,0.675635275948,2.51887454498,3.41112575867,57.6399172489
off_to_on,-3.15462834337,-0.867769955527,-1.81596711063,0.254888058592,-3.50344786219,-2.36005915935,4.98372741358,2.32242245123,0.731280002833,0.727480275965,0.450671652752,-0.185388298391,-0.719680736828,67.542065039
off_to_on,0.783413958546,-1.14555216241,0.220338809997,-0.544584367546,1.75426639982,2.0416038787,2.2329761992,1.66334182913,-0.484615335068,-0.348780861152,0.918124531979,0.680289054292,-0.232714322159,-10.2044250234
off_to_on,2.21664534831,1.4477060716,1.75670353439,1.00745725033,2.009081145,0.880489007726,-3.69861874769,-1.47864196603,0.381025225794,-0.0925543443987,0.08484831451,0.585823721747,0.505582997937,-106.518603738
off_to_on,-4.26142846041,-2.15669260015,-3.58162913501,-0.479382378104,-5.94540854121,-7.69911126354,-8.4431372678,-8.46252182424,-0.712691365332,-5.51468011068,-4.8318308913,-6.5583656719,-4.49619483817,48.1664889944
off_to_on,4.78994788667,3.54901505907,4.04844619529,0.120112463158,6.55223273798,9.77238918768,13.5169978828,11.6527315276,1.12865967478,9.2736878099,5.87513222206,8.71005521924,7.3117081157,76.3248630684
off_to_on,-2.73365840574,-2.53790759407,-2.03168679441,-1.1113262951,-2.28340904063,-1.99065368915,-0.662446235236,-0.24291042303,-0.964247441826,-2.85184989053,-0.519717001348,-1.77451366895,-2.77814357293,-51.6039687933
off_to_on,-0.777508324418,-0.584275983642,-0.688337396139,1.77277326086,-2.65951665585,-5.83608197001,-9.72543851919,-8.15871569467,0.381039798946,-5.1174561494,-3.02526658441,-4.67294235406,-3.10424916333,-11.8773762356
off_to_on,2.6060279159,1.7091143958,1.60911481925,-0.566072406951,3.25718825321,4.04232452467,2.81049984786,2.25811130857,-0.347398816088,3.88328214044,0.464653639792,2.8357680511,2.63852892565,-63.0135977961
off_to_on,-1.79815706297,-0.256287735174,-1.00406770976,-0.487856668491,-0.64198005714,1.34275880009,5.04095598587,3.48533779286,1.05729979406,0.731217726295,1.47970587751,0.250361926808,-0.145994852738,119.935924524
off_to_on,0.216173076245,-0.311930405741,0.265217358968,-0.735829576791,-0.423673687997,-0.569828501871,1.08029176213,1.64864973808,-1.38838163479,0.415932614596,0.983648502892,1.70432169497,1.41215610198,6.5484705774
off_to_on,0.538758678407,-0.541877843226,0.409407462941,2.24025965806,-0.848016513389,-3.05573294967,-7.20871594276,-5.12429295286,0.725657996956,-2.66376357179,-2.00842450497,-2.56014415072,-2.12751661582,-99.9926088393
off_to_on,-0.718894718253,-0.213519096437,-1.07165018668,-1.33236295798,0.553652944967,0.842591528303,-1.06079954295,-2.2021555473,-0.182236943586,-0.946290233211,-1.48054637907,-1.97564180693,-1.56657165583,-28.2733914146
off_to_on,1.79163877736,2.85197751701,1.84624056264,-0.390055085174,3.19995698704,5.50756234762,11.0076107785,8.51915678364,0.755747634633,5.76231172069,4.26149510914,5.6987188564,4.71218331804,122.937989119
off_to_on,-4.09612615323,-3.93577968054,-3.21312257425,-0.0510314257654,-6.32426678347,-7.36610502672,-7.20922496455,-5.10365053977,-1.46215476237,-5.63390937957,-3.30516127831,-4.94479887054,-4.05509729439,34.7465266264
off_to_on,4.78156890859,2.08585869827,3.83312273576,1.64303948454,4.14392608665,3.06590919905,-1.5303811809,0.927062947836,1.03750694072,3.13797030262,1.7958335868,3.56218066932,3.07882457914,-168.698868971
off_to_on,-1.44059283245,-0.0213241650483,-1.43601357057,-1.54357730623,0.764517586098,0.943593225485,1.42919971436,-1.83821205404,-0.30277161698,-1.38712931508,-1.24794436278,-2.08871701247,-2.41350157701,29.0265793215
off_to_on,-2.36883836229,-0.0240351262954,-1.92785641861,0.334940709657,-1.70740704964,-0.727371523496,2.3053852885,0.757960293881,0.64864817057,-1.20827212357,-0.106624166604,-1.82475147461,-0.808504508665,112.71882739
off_to_on,1.78147632767,-0.484472624791,1.67762119611,-0.498362032589,-0.766461937646,-0.0492111119433,0.415174217634,4.12164425299,-1.35738489104,3.8372007438,1.67451568044,4.37454788062,3.91355259927,7.37326541236
off_to_on,0.399744098327,-0.571796700581,0.80542238723,1.57539565988,-0.457858639837,-2.73103852421,-5.41126460435,-4.92587356682,1.00730996865,-3.1247065739,-1.44915518672,-2.04549400633,-2.50128606994,-137.604478587
off_to_on,1.02298742516,1.81925357553,-0.247846343797,-1.31877456105,4.70629410202,5.30971918192,4.05860279192,0.54541040313,-0.318940582075,0.358552847638,0.171891307498,-0.159932703703,-0.31229214403,25.8589425403
off_to_on,-2.29874036626,-0.222927731243,-1.65169924137,0.132505482166,-2.50756167178,-0.883056702152,2.2828961345,2.68236473068,0.717905895788,1.34393631618,1.0034339101,-0.374096530867,0.531606488917,92.625393054
off_to_on,-2.50248105773,-3.38713310664,-1.12902962606,-0.201374724586,-6.26780093876,-7.53271338927,-6.91745425582,-4.03114747844,-1.39048704501,-3.2146101076,-2.62805413429,-2.36440012211,-1.6113041088,9.13899511646
off_to_on,7.76990570192,4.57980433749,6.00356391274,1.34088588751,9.01237931584,8.94794671353,6.73920251635,5.75801885699,0.891232564364,5.8737971726,3.76089148469,8.11946244056,5.50091056283,-108.118407732
off_to_on,-4.81913547553,-2.16400699007,-4.9492543369,-1.47698880923,-2.01386746314,-2.08005870394,-3.14339717709,-5.02689710397,-0.181000885085,-5.47057977139,-2.57120272293,-7.05338686254,-6.14651071155,8.87090851008
off_to_on,-1.61616359548,0.0425400640259,-0.615205760947,0.456629347141,-2.58042365926,-1.95289715768,-0.0658223987127,0.73595302382,0.771948293672,1.19688749249,0.670286004877,-0.917987501877,1.14151521444,75.9503315673
off_to_on,1.93812671736,-0.313235638188,2.32340751325,-0.0576194559749,-0.751501404415,-0.636357670188,0.80827673097,2.17583280574,-1.56561518986,2.16128595246,-0.316580031666,4.1654542409,2.62377924599,13.7228254312
off_to_on,0.883287122844,0.226651233208,0.0826715037336,0.734965968176,1.85539178432,0.645961755931,-1.59465008004,-2.16817435334,0.925926732434,-2.61281244051,-0.316638474917,-0.896891494818,-1.71008708815,-74.6776599886
off_to_on,0.662922007139,1.42699795782,-0.319460685398,-1.22715083324,3.42787015125,4.32011135018,3.74312916272,2.58490004917,0.0285640468688,2.54769031815,2.33996635549,0.52657024289,1.03452542346,-16.2276024637
off_to_on,-2.96527337261,-1.51681601472,-1.43704666837,1.02268059862,-4.78110484888,-4.48867039714,-3.20856360345,-2.62554246315,0.427856516367,-2.01667284245,-2.07199367729,-3.38077120473,-2.19814571277,64.8742969587
off_to_on,0.160248905983,-0.881695528507,0.513144348427,-0.763011981964,-1.25484881899,-1.72887385603,-1.11004528022,-0.374814282615,-1.3069420953,-0.358627344696,-1.48638882372,1.44827364746,0.89839302783,15.626563872
off_to_on,3.00864925687,2.20362471889,2.01132308558,0.577457299738,4.38225004173,4.11603673804,3.64643123774,3.45907501733,0.956510461528,2.70712594223,3.13038420672,3.81503721335,2.66910845282,-40.9055217287
off_to_on,-1.92447464401,-1.3654803276,-2.54192365698,-0.192260568233,-1.55883581494,-1.58071277611,-3.12747635492,-3.94609492144,-0.187227324123,-3.57511942422,-1.37310238731,-4.95729788644,-3.96816976275,-41.4549562412
off_to_on,1.79774887108,1.54160666894,2.36723647871,0.169958121162,1.65157507705,3.09849382577,4.52842604995,4.54910966853,0.396697275791,4.48340191149,1.42355487493,3.31479694824,3.25009835634,57.20818172
off_to_on,-4.6164161546,-2.94284251977,-2.89060147393,-0.940944342387,-5.16629186027,-6.70405993235,-5.97035857867,-4.88283205801,-0.87390658272,-4.38233532024,-3.64798185951,-3.31897519501,-3.14235015992,15.8048027889
off_to_on,3.04077059156,1.89275239553,1.42206766066,1.33124710795,2.97625954997,2.55743398675,0.569249319157,0.486839473513,0.548589047646,0.484912290902,1.97759499034,1.98402992828,1.76488779631,-15.3898763686
off_to_on,3.35445013851,1.38699637837,1.88441896568,-0.310205963138,3.58043203171,5.28079888034,6.93365898729,5.39317709656,-0.137835127939,3.87457205171,2.88518250757,2.64932584761,2.06093314261,-54.9681696394
off_to_on,-4.77040893911,-2.41885190645,-2.48832819316,-0.699057610209,-4.5615789471,-5.33833209887,-5.41041230239,-4.73374622693,0.448609726104,-3.43845074915,-3.35953005162,-5.0073277482,-4.03255610145,47.6577391343
off_to_on,0.312645234627,0.721073109151,0.521097735766,-0.126798470502,1.04297576609,0.808695671541,-1.54648708896,0.125396283699,-0.75121521139,1.23806198485,-0.28151079998,2.90583598181,2.32609534063,12.7569489568
off_to_on,0.58210728804,-0.0330182436519,-0.433301770261,1.58408407637,-0.789139265445,-0.932467294562,1.56585503222,0.0512744867419,0.407418509171,-1.99163149423,0.774974416078,-1.06544316693,-0.927810410698,4.24050381424
off_to_on,1.69258441162,0.415141224106,0.972021608903,-1.14916565216,1.01508722586,1.26383946358,2.8164861687,1.46722038174,-0.0555393655868,1.24214635926,1.12591129006,-0.166605273462,0.444604705218,-57.3608955243
off_to_on,1.56136297782,1.24794224567,2.04281310205,-0.626807251523,3.48241841876,4.34385899278,0.354696009526,2.70804622216,0.182394447076,4.74811973869,0.997190384428,4.17922346128,2.68025539726,35.2904841699
off_to_on,-6.73627584582,-3.64808850187,-5.02811103147,0.897358226595,-6.03056115851,-7.40437606591,-8.08136066109,-7.64927181357,-0.370238326114,-7.89094465942,-4.67022451541,-6.9484423577,-5.99056752932,7.9759758032
off_to_on,3.57494368122,2.69782198829,2.34083999122,0.646556397972,1.47975842289,1.82289493542,7.26621434365,4.66741839366,0.372988317542,2.40343971115,3.05010085001,3.03105366415,3.73810260803,18.3781138206
off_to_on,2.90650806166,0.428168967383,1.75236908471,-1.35512446026,1.41854550358,1.98758367804,0.975384501719,1.48855938545,-0.347901974048,2.61695639105,0.902543385749,1.90988791752,0.975019711829,-51.5663167413
off_to_on,-1.49476004742,-1.30561065262,-0.825547846438,0.198908130231,1.75822944402,1.45560103285,-4.52709229979,-2.20955499019,0.187889287861,-0.279293296092,-0.83482330788,-1.08996828065,-1.40398972837,21.8873123425
off_to_on,-2.25448236225,0.456246109267,-0.904520606264,0.749603182939,-0.690306642526,-0.668877830973,2.57431184493,1.43148905684,0.0862319206387,-0.426555164275,0.0969675706461,0.378796837454,0.580323413026,2.67545435425
off_to_on,-2.18288239322,-1.32714069537,-2.23023641289,-0.105077241228,-6.84577794545,-7.46725265724,-3.22526091485,-5.01779820268,-0.00596199963478,-6.05057032783,-3.19298077043,-5.33452733321,-3.94860389087,26.7166524792
off_to_on,7.13077022795,2.5726157378,4.59535741343,-0.710918178125,6.78684914033,7.91400807675,4.66267453917,6.1281652088,-0.315254135584,7.86613830112,4.28214557129,7.0498210248,5.77171694671,-40.343438551
off_to_on,-1.34003036627,-0.673199173694,-0.205099567423,0.281561703913,3.20496311883,2.83339520121,0.112349851251,1.13455445279,0.119853182816,1.78719963369,1.11233840545,1.13665506588,0.209607780719,9.41349064737
off_to_on,-6.38360512614,-2.3540015213,-4.32209702684,0.488974737915,-6.44596627417,-7.51451917028,-5.80339800385,-6.97458661056,0.397160510855,-8.84681632106,-4.98784525893,-7.76417878234,-5.99605917178,-2.38619753809
off_to_on,3.58835676926,2.10435597788,1.98333392035,-0.325144580495,-0.72016970022,0.734243182494,3.38904850501,2.85011147497,-0.230452916129,2.93097332507,1.27544205177,2.99714936011,2.84089250615,29.5797515569
off_to_on,2.01128934678,-0.019248294839,1.27293929047,-0.198376981006,1.8024480759,1.47051436529,0.93663931805,1.58060916581,-0.349455325775,3.43544330758,2.19907417769,2.43620217539,1.77754956398,-26.4106458672
off_to_on,0.77288193968,0.351780940123,1.0431168441,-0.00595877948345,5.77764023632,5.16278460005,2.39026137658,2.67218322828,0.0971122045469,1.26886647811,0.995394841203,2.05744022335,1.33454547234,-1.65487793804
off_to_on,-4.15472762364,-1.61386053785,-2.97243455128,0.527322964194,-4.72055649916,-4.50262576908,-4.9314232119,-4.8724875821,0.695191574957,-5.83562568682,-3.39111098214,-5.64263307,-4.64124133906,-2.47643636624
off_to_on,-1.56636623377,-0.501435444191,-1.45084380947,-0.408101240198,-6.48670521891,-6.36912775461,-4.12927015042,-4.43608516976,-0.575791205591,-1.62498999597,-1.34433890123,-2.74442759715,-1.31807601184,19.5428032385
off_to_on,7.37409784803,4.0129174119,5.64898904796,-0.0580965600914,8.72780002838,9.59507318271,12.5208498699,11.6172402076,-0.220400837629,10.2287058936,5.81868155236,10.8749161741,8.30851873361,-4.62528221323
off_to_on,-3.1508879365,-3.33547014017,-2.76765145949,-0.00783906233684,0.833044150954,-0.633466713412,-4.27496173169,-3.31829027215,0.134154458749,-5.91086204631,-2.96936788229,-4.75253188447,-4.90290783586,-5.95841256642
off_to_on,-2.75492871028,-0.505657171805,-1.70859030727,0.503215796641,-3.79170391233,-3.75302900492,-8.06594982223,-6.95928103138,0.695827510604,-3.38461788897,-1.42649256419,-4.8059024022,-2.45397893583,-24.7893802011
off_to_on,0.504517097054,1.42933727396,0.863468870801,-0.716865158012,-3.33047122736,-1.92621565264,3.69097884726,2.27253128922,-0.745773008885,3.22222873877,0.746718864119,2.22121763027,2.01579061184,47.2256279125
off_to_on,2.81376616719,0.717386776921,1.3986185274,0.533198479217,3.88081613532,3.32565773138,7.22607897999,6.19192307055,0.118287273767,1.79936793508,0.930517648731,3.98552806049,1.81234856469,-24.8236239425
off_to_on,1.39453669975,-0.246385449361,0.765677948862,-0.327482042266,5.17768833224,4.51203125822,-1.428743466,0.134232622812,-0.201339178562,0.897898285031,1.42143857565,1.30021612676,1.37369293767,0.236411273112
off_to_on,-6.15001664522,-2.99410315141,-3.81282908104,0.327235106723,-7.94177984795,-8.3594675391,-12.5261278186,-11.6036086227,0.793928988549,-7.22966793353,-3.73698361435,-9.69056202555,-6.89961031017,5.10182634171
off_to_on,2.3217470164,2.43791685451,1.70399813305,-0.586038972993,-0.196343749605,1.51802748952,7.69868070319,6.34398367814,-0.627191023733,3.91194901437,0.865560507018,4.14197180518,3.18894187779,-20.3779805689
off_to_on,4.96958544632,2.98298188006,3.35332756916,0.898248843332,6.37430113295,6.48862115474,11.5676340222,10.5006500358,0.106150915247,6.84827577392,4.03520056671,9.1740031248,6.4513553559,34.4751113186
off_to_on,-6.09054884363,-5.61604214607,-4.94674789575,-0.740259045082,-4.53948514122,-7.31129239832,-15.2188770499,-14.2206934093,-0.49316930671,-9.99239213453,-4.87239649119,-10.837426385,-8.431167966,-20.38369266
off_to_on,2.02491469071,1.85565561777,2.26460767333,0.148643355559,1.65573461303,3.25853568303,-0.680183131375,0.982712967929,1.18824592082,2.27317938242,1.6188973871,0.812673321312,1.31047743176,17.6151708892
off_to_on,0.199282783842,1.61345589934,0.162370869628,-0.118729281856,-1.48221491233,0.254720993058,8.49274731792,7.45231035177,-0.824704370684,3.37841455565,0.815970484894,3.86672031798,2.80873620022,-49.9406428103
off_to_on,0.792808324168,0.426672782162,0.212738861966,0.984636115781,1.05794354738,-0.557991294926,2.19473785209,0.00465602449946,0.0737997435952,0.269544673915,0.248878035314,1.41056977792,1.22644713216,51.734609716
off_to_on,-1.04311332202,-2.89419487515,-1.13560082378,-1.42462905716,0.307591797171,-0.976471036807,-8.68849180077,-7.33919308793,-0.411650523488,-3.89923226799,-2.00428369097,-4.03922043551,-4.20052224825,-0.249630170909
off_to_on,-1.26577539251,0.100128953827,-0.248698521672,0.603053842772,-1.44712703303,-0.471481216167,-2.67466283094,-0.276566738916,1.22459082782,-1.18108805708,0.269416869805,-2.1827379234,-0.991777155475,-25.6067829143
off_to_on,3.31084716732,3.75020737271,2.57989063657,0.0823446093092,2.77040568292,5.14042453665,12.622615684,10.9633365216,-1.00964332315,7.5124050371,3.51981659588,7.34637884694,7.05146473726,9.61012632582
off_to_on,-1.67692498393,-1.91907175841,-1.81023412836,0.689706329664,-2.49823406157,-4.7204277959,-3.48495187672,-5.69367916832,0.258148872098,-3.89777645781,-3.02310128815,-2.90682418107,-3.97387902274,-23.8678416096
off_to_on,-2.45736891781,-3.12472109884,-2.14057575955,-1.67865971528,-1.66157469335,-3.53864009081,-10.3965802613,-8.83108077748,-0.394657535662,-5.2887743529,-2.6745905006,-4.91284236879,-4.52868009318,49.6854827179
off_to_on,4.19610935793,4.17528860127,4.24019926958,1.16148086095,5.41108420691,8.36069950374,8.6694154162,10.6310273949,1.0499784208,7.35073299823,5.81940021632,6.28329442981,6.91581303199,-12.8199996243
off_to_on,-2.41056106965,-1.33274761244,-2.3523013505,0.0292674955136,-3.70896321337,-3.30173766475,0.795476645471,-0.152601872838,-0.977529502821,-2.55222912892,-2.5218174421,-3.00071782982,-2.42212148635,-25.6625314941
off_to_on,1.64501407342,0.508215187658,0.850056094192,0.0322954343528,0.926127072939,-0.683709436721,0.261849091677,-1.97272081633,0.506564448352,1.39905150243,-0.29254779989,2.62559811447,0.655600709712,-17.6517802098
off_to_on,-3.15917342705,-2.33311155215,-2.14629094575,-1.15685868716,-2.37672193417,-3.40959299997,-6.26950995619,-5.87271507126,-0.682399987273,-3.81073676123,-1.88740852663,-3.65840378225,-3.24773803703,46.3570701882
off_to_on,1.76029506129,1.81279387396,1.88387202232,1.61852474334,2.80214686888,4.28750260055,1.17780193188,4.13221481663,1.10561422394,0.552676357132,2.40695281532,-0.39101417527,1.67077068556,22.6109920128
off_to_on,3.30542029149,1.62739720568,1.92468034222,-0.955597076796,2.62805820635,4.26698681647,8.4199023555,7.91691919765,-0.849443338143,6.0769714426,2.46043785336,5.96757616631,4.49986320843,-55.8336164318
off_to_on,-4.60377267593,-2.78378966435,-3.61271567035,0.236770946237,-6.25892795339,-8.69089644982,-5.52478443904,-8.7638137842,0.424191501493,-4.77594306802,-4.38396487055,-4.13770954881,-5.04832105147,-22.4059818537
off_to_on,-0.128067610025,0.0721967132148,0.117990765554,-0.260301592072,1.51748573919,1.03991100055,-4.19818078166,-3.54960489843,-0.751482562688,-2.37608757889,-0.997129890683,-2.13298406591,-1.17351248584,40.5224755288
off_to_on,3.13642284055,2.0956240833,2.96107832668,0.849073395484,4.04729454815,5.68073211758,3.91082973317,7.11227831061,1.25133310833,3.19004624406,4.38449422418,2.71054750445,3.3723875036,63.5157401437
off_to_on,-1.25760321179,-1.60904301119,-1.8649734104,-1.32915253124,-3.04718568797,-2.81618998951,1.92787342136,1.26628038893,-0.934616218476,0.726428697817,-0.619088904855,0.394851979762,0.13946299638,-79.1941672484
off_to_on,1.16196968639,1.45773899818,0.95697590012,1.09463940587,1.190250656,0.725140806859,1.58996022277,-1.30441369921,0.368681387272,2.05474579218,-1.06901050264,2.40689690343,0.871349771617,-37.290698126
off_to_on,-4.63598367767,-2.83596171432,-2.91492189017,-0.361228104751,-3.75065006828,-5.25075211387,-9.14618570491,-8.90929622773,-0.602845125113,-8.25997330964,-4.07729008625,-7.9799879595,-6.71588274012,37.438074217
off_to_on,4.46472486299,2.88572160243,3.49243159955,0.175524207404,4.79986272881,6.09022847545,5.98090973976,8.86490132637,1.13125543446,5.37881046928,6.07191223352,5.46346145636,5.9647990064,101.311733574
off_to_on,0.559253576461,-0.68947302842,-0.675215965814,-0.823071282029,-0.400543767824,0.771646772908,3.39455023699,3.56958444421,-0.905431874548,3.1582388353,0.200046128102,2.56969381711,1.71966335867,-95.9294518717
off_to_on,-2.87028231268,-1.08975733724,-1.58543551733,1.17327591259,-3.1418232599,-4.65000642219,-5.04438821684,-8.23655577181,0.411595675204,-4.41144946708,-4.65344168936,-4.81436474117,-4.47505336191,-52.1978039469
off_to_on,0.932530983872,1.25343171043,1.53015193986,-0.688810674384,2.01951089554,1.61636477206,1.14668989503,1.02782865465,-0.683421584429,0.56939757794,1.32075353597,1.74969544103,0.977286344429,30.9714990266
off_to_on,-0.581036094786,-0.995868408662,-1.34136174046,0.446247489355,-0.865741967369,-0.350557020881,-1.52580999962,1.89426034762,1.18171854596,-1.6459767707,1.63166698688,-1.43816471932,-0.643046945492,130.681078227
off_to_on,1.63685996451,0.268569544018,0.606006325759,-0.888885892545,1.43924516644,2.64581701741,3.03361255583,2.43282076848,-0.811445703741,3.43649251164,0.48189912553,2.08534232344,2.76815890481,-96.554659194
off_to_on,0.81949697601,1.5433111777,2.14822485325,0.837270847742,0.275761386656,-0.569804037731,1.69633918429,-1.00089001562,0.152702662762,2.30476381652,-0.723049547139,2.09709414534,0.820146362717,-74.4724705315
off_to_on,-4.39107771286,-2.83772085977,-3.83102184298,-0.104080368765,-3.95895656396,-5.64829261991,-7.57249586264,-6.62021968606,-0.452119619097,-8.07674342587,-3.47621734046,-6.45153810544,-6.4615034006,27.2593893184
off_to_on,3.67517848733,2.26848297283,1.99551376599,0.228209202407,4.87844432636,7.15859381442,6.45290399857,7.95737593331,1.22841297791,4.57503853015,4.84369000958,4.66184919663,4.94347789505,148.214679645
off_to_on,-1.41627712743,-1.4122262649,-0.599805309348,-1.24609030187,-2.99130612181,-2.98584053634,-1.58785830581,-2.2038038182,-1.10104442246,0.489954144737,-1.28397931932,-1.42566702769,-0.204754682826,-83.516780093
off_to_on,1.82075704839,1.29877392904,2.06194599408,1.16964906189,1.34465421834,-0.214950448586,-0.698893449801,-1.14520312318,0.258104308644,1.24331023757,-0.795712485182,1.61716378549,0.587459421365,-99.8079544305
off_to_on,-1.04040398035,-0.25116006455,-1.53670637946,0.069276415047,0.688833076415,1.38512271711,2.0454992688,1.73541271829,-0.0178800880894,-1.79106533513,-0.0158630544628,-0.0828852960956,-1.65281296692,25.3264222578
off_to_on,-3.41935568351,-1.78688515378,-2.7577301471,-0.141177742995,-3.61836264037,-3.44649501337,-4.27143899055,-4.12155284961,0.567219107601,-4.54413201972,-0.895726021659,-5.14217309566,-2.73833203295,154.74815544
off_to_on,4.83823694894,1.95073177743,4.00904458217,-1.14842214038,3.71131608359,4.15263997913,3.11727803834,4.15788039518,-0.923677134892,6.86180373687,2.61466087511,5.59802584837,5.59344572545,-61.5804864758
off_to_on,0.0428548227057,0.0263795673992,0.453136720763,1.29994464972,-0.0299377727047,-0.913453168232,1.37405539724,1.02591094137,0.628555909663,0.411861112055,-0.743682401776,0.674477359069,-0.887306717498,-123.183310123
off_to_on,-3.4186328501,-0.966396499941,-3.16253035755,0.0530061502135,-2.35065988154,-2.26939422671,-1.95886339265,-3.19986517992,-0.146635192025,-4.88694090848,-2.17886390114,-3.43633356497,-3.32168063486,23.0811667063
off_to_on,1.07385477016,0.542552880947,0.662638289035,-0.485569552146,1.45462384845,2.25143394403,-0.980887795749,-0.408349069475,0.0175459843201,0.767075157264,1.52523117588,0.276173556771,1.28012887214,153.127159526
off_to_on,-0.0915721976995,-1.59348556121,0.116215372408,-0.489398078803,-1.50768504375,-2.49171340853,-1.85228486736,-0.796358138399,-0.343322628172,-0.0991147318705,-0.412791158572,-1.29323716163,-0.827931779505,-35.8558478041
off_to_on,3.76059136594,3.35723643741,3.54381309683,0.806187459323,3.58608803757,4.43991492452,8.72312791624,8.10329405951,0.696991894683,6.61768612624,2.75760245462,7.04320865475,5.41402809324,-141.701754472
off_to_on,-4.5233088648,-2.08598681187,-4.1131557113,-0.100931971917,-3.31631457709,-3.59093849832,-6.1443011901,-6.81809302671,-0.483452809108,-6.58988378637,-3.97281384206,-5.50110919757,-5.30311966137,20.3569272371
off_to_on,-0.786480169972,-1.31087309079,-1.13073858952,-0.0193397670003,-0.156303899568,-0.890773327869,-5.3130133942,-4.97919448391,-0.10837549616,-3.25633875573,-0.252068546387,-3.70608157753,-2.34799007755,145.789482038
off_to_on,4.43338033809,2.29124748661,4.25180109824,-0.437386776876,2.79969598843,3.80275959047,8.81968900706,9.34206659584,0.129649791574,7.91013235685,4.48844830416,7.08289391396,6.20912279756,-11.0168609811
off_to_on,-2.41096760238,-0.898612464503,-1.60143399045,0.238047162799,-3.37240927244,-3.67221251445,-1.35663926348,-1.38828579254,0.502994548489,-2.52402330599,-3.01998541434,-2.31481092197,-2.09847066347,-153.344035184
off_to_on,0.440517514919,0.772239960288,-0.412022818182,0.141229043036,3.39503768161,3.44361150222,-1.64736166577,-2.29198529604,-0.618760877507,-0.628517587624,-0.339138573967,0.195270549027,-0.374161695654,17.1581669863
off_to_on,-1.20259930427,-1.34362745579,-1.02010792657,0.275492624549,-1.71324864496,-2.07219422579,-2.92275734644,-2.94236009594,-0.13357769098,-1.68470054495,0.568263413896,-1.79815608115,-1.85630974416,135.071956262
off_to_on,0.0813238624864,-0.514715742692,0.525501528052,-0.559131175513,-2.46012308822,-2.66329547384,1.19457201372,2.08637867681,0.490059414427,-0.247472543277,-0.132097938959,-0.969794809586,0.596722952673,9.72633027622
off_to_on,3.57038766123,3.06158765829,2.99586723237,-0.135178271618,5.08381100886,6.26431700042,7.40795968977,7.05869637982,0.145104130728,5.76325941642,1.95564242577,5.62276983592,4.71089068696,-157.887938753
off_to_on,-4.21124956124,-2.31051385183,-3.55481325347,0.579036008835,-3.17510773447,-3.97156956538,-7.47319371563,-8.37964632073,-0.56181553167,-4.73586611213,-2.9734490506,-3.9456914959,-5.07739306686,14.0301851601
off_to_on,0.80797671653,-0.314425212367,0.0905580674812,-0.0170459327049,-0.00531312425335,-0.278178705826,-1.8030036362,-0.87790807696,-0.0139397934674,-0.70839999294,0.858883563457,-0.359419413655,0.149443146421,123.001379531
off_to_on,1.5241483225,0.701796837195,1.61418703655,-0.280227824317,0.935203342691,1.12575145976,4.76762573436,5.35093395579,0.57197843815,0.980475632188,1.16561576026,0.00147132604282,1.5980303043,24.5543528862
off_to_on,-0.975339341381,0.386034237386,-0.193636215745,-0.166177567063,-0.8486310313,-0.60412179907,0.747709560245,-0.745156247011,-0.284851303049,0.967996848181,-0.861973545481,0.59223807671,0.242818953424,-156.427498137
off_to_on,0.994053908711,0.60247817306,0.392669554636,0.15018066649,1.66554030484,2.20927937424,-0.869381677319,-0.781776651418,-0.132641019439,2.85140018372,0.907403765696,4.0036241878,1.29980628617,11.7469028515
off_to_on,-3.02638360466,-3.12892049556,-3.15950606418,0.25068037044,-3.02193643745,-4.41779486804,-6.76509596509,-4.94208259873,-0.0480062155817,-7.58977004056,-2.84974221802,-7.5423462368,-5.61637733532,111.106993709
off_to_on,3.98108220852,3.44014968366,3.7643590358,0.27657028217,3.83848459543,4.48399177992,8.50911671635,7.48548840456,0.426855569575,4.54807758387,3.45402038858,3.87267297964,5.32526860713,33.8786722161
off_to_on,-1.13158544412,-0.374490777541,-0.180904673095,-1.00652270586,-2.19503106603,-1.45910716015,1.04719690892,-0.575778524694,-0.504081430559,2.76338642125,-0.271853641368,2.46871393386,0.660936663615,-155.193251022
off_to_on,-3.58204446298,-3.12755716005,-3.64224730463,0.247677265886,-2.84612866839,-3.9959083396,-9.86265163117,-8.04542937972,0.399074317022,-5.93449757801,-3.58421126072,-5.52604975331,-5.74243739666,22.1929129876
off_to_on,4.94697805363,3.33886316018,3.46564581016,0.794417824727,6.38955595225,7.17951447793,6.86297974071,7.78563573629,-0.283539692844,4.09811459105,3.49409340587,4.72893200346,4.9893598548,84.2881571732
off_to_on,-1.0928421857,-0.0442656779725,-0.0327635823297,0.122765559697,-2.8138438144,-3.15691556911,2.32272553218,0.404216201131,0.226412270232,-0.685984445236,-0.0262652728751,-0.925453780703,-0.153979096608,44.9888774361
off_to_on,-2.65084674746,-2.4039944862,-2.12228235363,-1.65688374674,-3.08906580381,-3.22900341781,-4.42379149055,-5.00715048335,-0.419734297136,-1.8638754348,-1.90662744891,-2.92914769026,-2.88489016648,-131.453965846
off_to_on,1.28660959025,0.849343477158,0.785327399532,1.05341594716,2.54795061587,3.07447619576,-0.938177736085,1.12222045359,0.726744832657,1.77569202993,0.659687410412,2.06984492842,1.10102009355,-15.3376325953
off_to_on,0.830122701261,0.927363571318,0.378645213387,0.602258360781,0.717099286756,-0.00994519443703,0.78725584659,1.01114640284,-0.628790024389,-0.832805098134,-0.316552348209,0.580438270032,0.718702601384,104.542671633
off_to_on,2.6408475591,1.8065590185,2.33376033664,-0.368232322502,2.60731232459,3.52661334812,7.5708936747,5.43680397147,0.211009279998,3.4795799614,3.02612617952,3.02507933506,2.97039176098,57.8453604006
off_to_on,-6.84411954141,-5.07612386105,-5.13910695437,-1.14501034423,-7.45648625162,-8.11649912508,-8.96738159376,-8.83542565086,-0.210722044463,-6.91181284931,-4.2113349918,-8.74752494026,-7.20678719357,-173.078538562
off_to_on,2.92511093291,2.14242218776,2.19717326113,1.31244094948,2.67060957415,2.25080276533,-2.20500397584,-0.0229765719866,0.686638869557,3.03223823855,0.606309438873,4.21550731071,3.21233849861,23.0367153521
off_to_on,4.75918339561,3.33065226262,3.21491811311,-0.402367685147,5.77905182988,6.83687760317,8.39573296664,7.87244875396,-0.867239744364,5.2358560742,2.86856905102,6.7585522641,4.82624987246,109.429833435
off_to_on,-4.76190748915,-2.71007791477,-3.19915106918,0.321076629866,-4.38898229114,-4.65797540196,-0.281398166561,-2.54551970285,0.555885975074,-6.07985454421,-1.48907637295,-7.72050398121,-5.25182647926,12.7308409205
off_to_on,-1.07581937189,-1.67058182546,-0.737790334157,-0.7285617596,-1.96207134291,-2.22018512108,-4.3243022141,-3.14501146607,-0.374792300251,0.0906683238025,-0.638842159519,-0.810907834978,-0.297951314185,-137.038667669
off_to_on,1.66360718279,1.04798565225,0.848602364517,0.506941598275,0.328949902576,-0.491560032619,-4.91516843435,-2.84804301607,0.551765221084,1.08528229567,-0.965227617144,2.7363780047,0.677942651392,24.5481132794
off_to_on,1.99794032074,2.35834500028,1.53284814817,-0.483453691628,3.67958726343,4.904278331,8.0569818616,6.09355363055,-0.713919804357,1.90284300338,1.72209333405,2.43175902246,2.52601626793,104.868928828
off_to_on,0.235524407403,0.324431500718,1.06878376286,1.20221504969,1.86998348463,2.78753187933,6.83476485222,5.48712061175,0.74446050822,1.82123428017,2.73199244775,0.0830184556684,1.26784912829,-34.6611072852
off_to_on,-6.29595736976,-6.05415913698,-5.94529561047,-1.1014087052,-8.7017986393,-11.3443833066,-16.4291099355,-14.0354312472,-0.779674720042,-8.9238214977,-6.24413005418,-9.0747862175,-8.41388635251,-31.2999413084
off_to_on,5.173464556,4.50358973219,4.03010396452,-0.151041744663,3.88992100095,4.74781643916,3.43506843195,3.85715883122,0.734078470977,6.27651879556,2.69282483623,8.15327258389,6.07674228891,-79.6689450825
off_to_on,1.16177402216,1.8351661941,1.86225692632,0.216717689726,3.08300391179,4.78537032603,9.8018093275,7.3850219978,-0.616456232116,2.44255522599,1.95286798422,2.14259513315,2.41071530669,133.722693269
off_to_on,-1.48276354123,-1.97902711797,-1.41474172705,1.46184427155,0.816725391768,-0.188191179174,-1.98346287093,-1.43549798428,0.679401178082,-2.76643175953,-0.44201363614,-4.78666952166,-2.92164363626,23.2235569165
off_to_on,-2.27029778525,-2.48093298868,-2.95718512657,-2.02991014736,-4.72946519695,-5.76108944833,-8.14775238475,-6.21857811299,-0.80961299535,-2.20313204956,-2.23055634902,-1.28947740321,-2.43153462757,-110.854697405
off_to_on,-0.475653774684,1.1715695863,0.688651783364,0.414802203127,-3.64580232707,-3.3945878513,-0.974410717956,-2.22204167826,0.674327091874,-1.02663098957,-0.853446249505,0.8556854834,0.318902807439,-41.247745245
off_to_on,6.01451443859,3.94695955779,5.11501937369,0.484370594732,10.0337194931,11.8889536004,12.1690190398,11.1478572157,-0.540365730486,7.34828396743,4.38795610509,6.08200370314,6.34035572653,124.954564982
off_to_on,-2.35546238045,-2.31368478151,-2.5767841753,0.869466618976,-0.0222240785439,-1.0626922207,-3.02419054439,-1.70394117315,0.793730775854,-2.2397293845,-0.791131994449,-4.21322896126,-3.51221387265,54.8206675829
off_to_on,-6.37749704223,-4.2435967318,-5.46890843483,-1.89212214267,-10.7589411888,-12.3755224813,-11.6315431234,-11.422496207,-0.967306060882,-8.16553662218,-5.02205184604,-6.13145852094,-6.11168196013,-178.297448686
off_to_on,6.3905059815,4.99877318359,5.94690346664,0.801756877236,4.99808099573,6.82354418617,8.90964129512,7.85297883913,0.597955588898,7.49041530813,4.52254601143,8.89916511826,7.62977372588,22.3200282568
off_to_on,0.09767167718,-0.577804069014,0.0857052872753,0.293945812083,3.94469966784,4.03482210067,1.33729526791,1.9374323241,-0.340394599529,0.120322584165,-0.495871193216,-2.23344611918,-1.28840992673,106.39092581
off_to_on,-0.321385807919,-0.00287338945928,-0.723731196502,0.440091448495,0.715288222483,0.143291776938,-0.684340480716,-0.479240105649,0.758786848149,0.0522164384987,0.267449178605,-0.566160788996,-0.362576090523,27.714190123
off_to_on,-4.07902653755,-2.53964383149,-3.40245653024,-1.45964769465,-7.34967035447,-7.68037017857,-3.58239335522,-4.40937999176,-1.09580337873,-4.41791056552,-2.27421843861,-2.39945530059,-3.03252910586,-145.392924808
off_to_on,1.92196803878,1.03569776434,1.93916968545,1.04847985355,1.13288975694,1.20436525456,-0.200164629951,0.391540901959,0.725466200539,0.843864656449,0.994664499482,1.02494205021,1.65483681898,22.9695976745
off_to_on,4.51347737313,2.64406120106,3.73627275372,-0.147070600693,7.07847069462,8.06056555415,4.05023353244,4.86628623708,-0.39490950782,6.07877240141,2.19026094068,4.65387293947,3.9770242226,83.6446180808
off_to_on,-4.38993515879,-1.98374163368,-3.61873782118,0.204398600773,-3.97014678939,-4.89258467033,-2.06826666501,-3.43927677017,0.659383010207,-5.17251467038,-2.67556513804,-5.39443211925,-5.03151946646,25.4526694339
off_to_on,-0.978691630647,-1.0143127469,-1.45226443778,-0.9191262875,-1.90747376743,-1.69063037546,2.41648373195,1.85896817931,-0.834622048441,-0.351758964543,0.601636597484,0.699283549737,0.833742308937,-112.898526131
off_to_on,2.68263648856,1.15184799568,2.863296915,1.28353571709,1.12237448936,1.22942862512,-3.11111915905,-1.06859080787,0.600794685861,2.60610971228,1.55827134348,2.91791061993,2.59865518429,7.99223116182
off_to_on,-1.40470132958,-0.646256119732,-0.934958572318,-0.938522998018,-1.00294403762,-1.73243824252,-6.13894973816,-6.11398912636,-0.61733464291,-3.71819003499,-3.21926090694,-4.37243965206,-3.73279265899,67.9355074704
off_to_on,2.79953073831,2.8404857504,1.78748722351,0.16705627638,5.68690532771,7.24729448881,14.3321153645,11.9781815665,0.857271509891,5.98766215318,3.76031481085,5.28211520068,4.13927366285,23.65059704
off_to_on,-4.57017338011,-4.12112137786,-3.98865567673,0.177000146106,-5.88590857631,-6.91408527464,-4.34524161803,-3.80996424516,-0.600943191323,-4.66501127136,-2.26271260808,-4.01199041875,-3.29977688491,-75.9438953196
off_to_on,2.15843906643,1.34086085512,2.33021029088,0.600230519972,-0.388363458847,-0.955708976921,-9.34098633745,-7.04742251408,0.244578330687,-0.284432902704,0.239660522717,0.700520658521,1.27857117423,-16.296085815
off_to_on,1.57900463703,1.66741685969,1.4728218086,-1.5587722459,3.02843187404,4.19802737424,4.39064872334,3.40785790993,-0.639547076783,2.42837913294,0.508904446871,1.51103953247,0.443837973655,59.6641044115
off_to_on,-2.42533142492,-1.50981001264,-2.50314243001,1.07187281868,-0.604315955316,-1.20092534477,5.63225515467,3.88392493351,1.07090170944,-1.70482147415,-1.03774183715,-2.68399660127,-2.19831855977,18.7406176275
off_to_on,1.74049717106,0.434702966155,1.02495838511,0.242838511297,1.19336861476,1.37600109324,0.844818188401,1.64855539077,-0.533190124452,2.62384685488,1.92611326542,3.98513666504,3.77244783319,-38.8064003554
off_to_on,-1.40633791609,-0.41955899324,-0.0941106781991,-0.203980106527,-3.59558332367,-3.65066831521,-9.39868395045,-8.06084375707,-0.0379814462244,-3.05472155156,-1.15900046897,-2.8007155964,-2.42640373289,-41.7890160569
off_to_on,0.32350591505,0.158224280648,0.146957483756,-0.996912703164,0.838658676921,0.771415001505,0.909860373018,0.579889674755,-0.450602625447,-0.210269822622,-1.08436626001,-1.2386522682,-1.12735292164,55.6527718948
off_to_on,1.59553370289,0.861321531802,0.265650468142,1.06351736449,3.5869456184,3.42463138792,8.64282160183,7.62179569724,0.915886531871,3.07663930964,1.74813550866,3.27392980507,2.34532238798,13.1406787986
off_to_on,-3.01689467327,-1.86146149948,-2.06292242125,0.0118839299805,-3.2428601561,-3.17469904864,-3.15078399168,-3.72959352372,-0.320799520063,-3.16507618363,-1.22063942995,-2.72324038242,-1.95883559297,-11.0047302824
off_to_on,3.7639810809,2.88382109676,4.23640268409,-0.0445876410223,2.04129980454,3.19511936512,-0.891272752906,0.382897155303,-0.059456430263,4.43874881707,2.51595397142,4.08176720718,4.17067773664,-55.9662481182
off_to_on,-3.05806583349,-2.91827047822,-3.52008267033,-0.831889849777,-3.70564426366,-5.3879229237,-6.79369541489,-5.3724890524,-0.663074701665,-5.52630353126,-3.74985887587,-5.35317704404,-5.4148746101,49.6345623457
off_to_on,-0.201317892202,0.280639486413,-1.00302545011,0.509422969745,2.51584752078,2.33231935423,6.43976027646,4.33756642433,0.903658529954,0.386907392081,0.855178152812,0.717168901967,-0.0139560647527,6.187908655
off_to_on,3.11035313824,2.70436305112,3.98970226335,0.478170440207,3.12192376151,5.10838535313,7.94669478856,6.3471334088,0.119297832506,6.52418381577,3.36834890208,5.72574745165,5.92182411502,9.43842435656
off_to_on,-2.16725042828,-2.11199132486,-1.42553240665,0.124577624417,-5.21658596882,-6.30524146658,-12.1482337531,-9.31711613,-0.453491334279,-5.43452728106,-3.21897953819,-5.46574324648,-3.59758237867,-58.9661687545
off_to_on,0.386332786465,-0.186743902152,-1.43618978417,-1.33947582091,1.98979745216,1.62158961813,-0.377452194184,0.933022239191,-0.705496473284,-0.121855787985,0.355612037798,1.04388600037,-1.08073129362,40.0753962288
off_to_on,-1.6011113086,-0.122053255407,-0.715945823765,0.507982946403,-0.353842365185,-0.400455678477,6.26036150774,3.05239820811,1.11388012798,0.47017310763,0.242575898289,0.123791809637,-0.801477776368,-0.451654893821
off_to_on,1.80760562264,1.13176161588,2.53941622467,1.14900590852,0.369528361733,0.58365082212,0.560829414644,-0.162178092995,0.159488081472,1.12737405468,0.0556795184019,0.0570653709175,2.96572024564,23.0687071143
off_to_on,2.67340714927,1.02249727522,1.54536056706,-0.483197520141,3.01118247764,4.40654703021,-0.971362014448,1.99798881728,-0.767985537171,2.6545144081,1.94398273332,2.84273166424,2.4467349057,-53.5579558393
off_to_on,-5.73288960497,-3.41802952117,-5.20479203296,-1.33766906053,-5.67219502569,-7.31827219456,-6.54865870706,-6.31725747661,-0.318270833341,-6.2097664605,-3.32932997495,-5.00598365205,-7.1373917564,28.4838845785
off_to_on,2.27226914416,1.9079752531,1.96634354513,0.813831394502,1.76315160719,0.972102189199,4.93570240301,2.91446812301,0.816148587425,2.71793963893,1.2150862146,2.84375681454,2.80475252161,-5.80921619488
off_to_on,1.5760200182,0.535215309458,1.98192349951,1.13565770681,2.32727011347,4.01870758184,3.24196639099,2.61262942145,0.265083629071,1.35852882665,0.736211056839,-0.286566360865,2.13430506915,29.9994308069
off_to_on,-0.763149512259,-0.45573629185,-0.571808783232,-0.875763839546,-0.279170112524,0.471221100459,-2.52044647349,-1.12518906947,-0.727674849096,-0.624307696205,-0.105750143851,-0.914287496777,-0.562574042777,-42.4623024071
off_to_on,0.81750539681,0.832168247781,-0.170871298076,-1.02605110599,-0.596929440699,-2.2811766172,-1.19808433944,0.108545190832,-0.286478256903,1.81434878616,0.824502935449,4.14755629177,0.721869260847,16.7260046444
off_to_on,-4.27315232256,-3.09310026758,-3.68877189882,1.0212400027,-4.55633956322,-5.92336135192,-4.82542615278,-5.9143198546,0.592291139942,-6.61777519229,-3.75238284226,-6.79128479208,-6.05322843072,-9.53803605863
off_to_on,3.74106267484,2.53372727282,4.1516927526,0.755374839656,5.99843894508,9.13067849241,9.20098475563,7.12118131581,0.568471900406,5.0158931536,3.23947664604,2.56158477588,5.37151894937,31.0240756944
off_to_on,1.95338806225,1.36577879479,1.80604874128,-1.15002487989,0.9107431666,0.952496163341,0.934916737844,2.15264608331,-0.966743291091,3.26631123682,1.3100321854,3.89339359197,3.09953780826,-28.4236649628
off_to_on,-3.36357645924,-2.29125464142,-4.19032010708,-0.0657425928668,-4.95507001178,-8.17677125784,-10.1080226657,-7.53317227246,-0.205133044295,-5.26330501501,-2.98203880207,-3.10615188109,-5.30384083458,5.33839989951
off_to_on,-0.526196349251,-0.262060002272,-0.248670452869,0.424561933205,1.19077114391,2.71674296291,3.47818398128,1.82846474285,0.746198125304,0.157342772192,0.573725606049,-0.710440628594,-0.687331661322,-7.41280339222
off_to_on,-0.0602977503973,-0.147721395014,1.30583012407,0.390569831644,0.10345359863,1.59917917105,3.54615426513,1.21747385695,0.352814222534,-0.656968883501,-0.378767658397,-2.30599411516,0.632732914397,19.1932022184
off_to_on,4.51470891361,2.78697689082,3.09646423867,-0.663015642438,3.70266268043,2.90448435636,2.36161437389,3.87571341392,-1.1449085623,5.45739790782,2.42902058306,6.4294674943,5.53079606212,-6.42394731174
off_to_on,-1.98803702594,-0.657509649021,-2.24323019559,0.276901497651,-2.12742711591,-3.43346723399,-5.04879687735,-2.93211178997,0.426756914129,-1.07781448203,-0.358722329489,-0.315573920783,-2.70377868856,-0.164744098395
off_to_on,-5.51881562805,-4.08791074943,-4.38706360142,-0.346804722901,-4.98329435995,-4.73388891033,-5.86702196349,-7.03608233734,0.334621795304,-8.47717819999,-4.22813481912,-8.90957247514,-7.09280866974,-26.7842608728
off_to_on,5.71384569962,3.34823799342,5.06700276716,0.60061031769,6.05587692032,8.32657777008,11.3505357658,9.43013697641,0.100601335273,7.11175953942,3.7477277367,6.95041238211,7.0155730196,44.5689114058
off_to_on,-0.339250698308,0.339861908867,0.113451886212,-0.225981951304,-1.4484396175,-3.30136700519,-1.62654735774,-0.958873555498,-0.854659419221,1.25773283252,0.00992202615818,0.754800162443,0.783565971863,-24.9455970557
off_to_on,0.434942602727,0.836726083734,-0.0723447071712,-0.115799372016,0.975831895167,0.178182580613,-4.06346982767,-2.33387788303,0.85486784604,-0.656243427274,0.369324000011,-0.271630970614,-0.378727756519,2.84994606695
off_to_on,-2.61150507838,-2.97359554117,-3.04501256191,-0.451120635379,-1.79170402072,0.0398899962611,-1.6671679246,-1.5708977916,-0.40441558511,-4.01026641123,-2.19585370573,-3.23731413158,-4.18602812598,6.40232494719
off_to_on,-2.40756144967,-1.31532826061,-1.13312617491,1.16100150256,-3.63187950463,-4.28729003394,0.439538930428,-1.44872156186,0.22567198879,-1.83096868595,-1.33594311549,-2.34263094245,-1.63809998517,-23.2540917468
off_to_on,6.96153196954,5.4728187499,6.63148607848,-0.885655718682,7.11887283275,6.64748494479,9.02673712953,8.36224231058,-0.451178589603,9.52905126525,5.15263960864,8.87191434474,9.41102382372,32.6057127048
off_to_on,-0.546094324576,-0.716652041526,-1.33862365605,0.0575169269905,0.0500844755017,0.453513115938,-5.29359924975,-3.20746309972,0.765098568927,-3.00061424124,-1.16101028224,-2.84056500422,-2.70107306336,-17.0265017377
off_to_on,-6.46187874978,-5.09946038041,-6.52014188022,0.0689102767385,-6.35047434968,-5.96279201776,-8.73727174021,-7.56703957011,-0.741953579744,-7.39407054796,-4.51595920495,-6.56880431288,-7.91561925072,17.6176372256
off_to_on,1.63280191151,1.7783436195,2.71391345667,0.719183365822,1.0519892358,0.274418962724,7.63512494306,5.11473744486,0.344824334695,4.18360217309,2.40914832946,4.33772762276,3.93411478785,-47.5577989641
off_to_on,3.94405621923,2.76219363355,4.10374114159,-1.3323339642,3.52863507897,3.13404455209,4.5757532751,3.35164333185,-0.256029652513,2.56081218624,1.63173026043,1.47118010075,4.22755315494,42.9206761874
off_to_on,2.73377184098,1.8708708823,0.996626867445,0.805322895415,3.68456940533,5.89900521378,-1.15372698754,1.66225271003,0.856901995157,3.36245274231,1.87215897847,2.9079448452,1.74314016521,4.25718117935
off_to_on,-9.60797233723,-7.12676531833,-8.69298614042,0.237918672584,-9.49878700719,-11.2205405898,-12.12764819,-11.2217227854,-1.22264862432,-10.24358746,-6.52433386047,-8.67299832101,-10.5516111561,-16.849825129
off_to_on,2.37755829063,1.84142287438,3.05347537974,-0.106619900124,1.92709731864,0.728403268978,6.9007963223,4.13737300881,0.546750877945,1.72998013256,2.01645569303,2.19377316851,3.28272032353,-1.03283464895
off_to_on,7.53486472166,5.59337643269,6.97086515405,-1.35730142203,6.79982103215,9.29024912103,10.9534332807,10.5277640505,0.128600676139,9.65479160452,5.47720313062,7.6294754064,8.94674254321,-25.7417578292
off_to_on,-4.74656015067,-3.03520507076,-4.59495193644,1.94481086911,-4.30543028306,-4.80628825421,-11.6454754319,-9.30983221122,0.488793734179,-5.96617113386,-4.22007445344,-6.16347680461,-6.23030319551,53.8353528373
off_to_on,-2.6330590842,-3.13804947824,-3.64294209836,-0.450833745854,-0.919966556916,-2.02385591174,-2.9395132859,-2.9677556261,-1.48838203512,-3.41692593346,-2.21476262648,-1.06665242949,-3.39945234679,2.95379600722
off_to_on,1.62196499515,1.83704181806,2.75299861651,-0.83627094668,0.104500565391,0.133245485149,6.88335731513,5.27128443618,1.17636431102,2.44954577953,2.9892301295,1.94144999773,2.45308050896,-56.3949322649
off_to_on,1.76604208896,2.11635825202,2.34045247275,-0.337497377304,0.210659855293,1.11330280733,0.674135953015,1.01599636029,-0.0612295860398,2.24388113776,0.615076220231,0.36022753911,2.95543831091,-2.83732257946
off_to_on,1.6701764791,0.388965195941,0.342704957835,2.09271603714,3.9515566752,4.35543104917,-0.639008689298,0.0186370912956,-0.030716158926,1.54383887481,-0.108558053903,2.32892917269,0.944388918022,54.0977224343
off_to_on,-5.86394376688,-5.05537839571,-5.87066552121,-1.45118405151,-5.32621421408,-6.9481327796,-6.89213050062,-7.22102781106,-0.940675777682,-7.66166623123,-3.97212804748,-6.5930060025,-7.80849070221,26.2873132391
off_to_on,3.7312595215,3.98918347796,4.15131755303,-0.403528064383,2.13047559349,2.86092634701,7.10855235137,7.41495719138,1.39220477776,5.72889477493,4.65905460069,5.44580242135,5.61249395194,-87.7812138791
off_to_on,-0.252844107433,-0.0434264748111,0.709274423232,0.269104162795,-0.806588184813,-0.131016677525,0.0440941827432,-0.10422833844,-0.80443069019,0.257037572585,-1.18372168515,-0.552743823129,0.76290717486,1.19322000721
off_to_on,-0.288233727985,-1.07083793382,-1.12388012747,1.34897803596,0.814333082969,0.106858451837,-3.6880197885,-4.46409118046,0.194013826246,-2.58393761117,-1.68421860149,-2.71801069218,-2.13841916882,52.8730074188
off_to_on,1.59403999749,0.869230750062,0.249641981299,-1.50742072367,2.5330382702,2.54274137059,2.54016391449,3.17541763763,-0.307467160875,2.60437586731,2.0726099652,3.28047561873,1.60679495716,52.9853448132
off_to_on,-3.54823051835,-1.48101699518,-1.84627933986,0.348334906047,-4.73907288638,-4.81385992653,-2.16381468731,-1.28820151765,0.835913608084,-3.18769015952,-1.37050841805,-2.63238583094,-3.20059681916,-107.629191041
off_to_on,1.09639637501,0.478808410346,1.59039520859,-0.299906055531,0.658787955405,1.54383045948,2.5007181117,1.3747489441,-1.10852577574,2.07824028946,0.210136567786,1.35090740429,2.17980178353,-8.90492366994
off_to_on,3.15634063482,2.02945274568,1.96870520246,1.13041320722,3.14387126395,2.25822597448,-0.0797823698883,-0.460813275588,0.780494738355,1.59974345011,1.22847576086,0.719259950662,2.58090299402,55.1094268772
off_to_on,-2.45562727779,-2.07442852924,-3.08445894879,-0.817442816614,-1.22131674398,-2.02730808682,-4.51607208589,-3.36025279011,-0.21132602216,-4.45183574053,-2.13463247995,-3.37966668319,-4.02315267499,77.933188556
do_nothing,-0.00873743139953,0.372926187394,1.0361388153,-0.0627368833127,0.686992131718,2.99079198578,6.99120903423,6.62006902334,0.218327914899,4.63445356571,2.47202638945,5.25537750534,1.36198900994,-120.821776816
do_nothing,-2.68732119074,-1.50749961625,-1.57846599828,-0.38745082955,-5.51028525688,-6.58193458296,-4.38681462975,-5.03923374209,-0.877302766434,-3.538080451,-2.72662902709,-4.60258014488,-1.91235200544,-20.9921345598
do_nothing,6.02041774154,4.01806041962,3.98835721853,1.33452134457,6.45276379116,4.96547187131,-0.619357565738,0.468269994916,1.1425466442,2.07457471991,2.16876271196,1.94367112777,5.21399572586,54.3094166727
do_nothing,-1.89305075475,-2.18101565005,-1.86459553894,-0.897476659638,0.792946598241,2.25377909015,2.03798126867,1.71181283652,-0.511776328662,-0.00897725127817,-0.14143603423,0.514234664537,-2.8139828801,96.9807642586
do_nothing,-4.99114980195,-2.79428902341,-3.24228288202,-0.0240717456925,-6.00858616146,-5.2254506572,-0.0821553447706,-1.51403209392,0.0252798318156,-2.37203968145,-1.90807012033,-2.46949594619,-4.55657478942,-119.394765678
do_nothing,4.9380538061,3.98752272073,3.8238237552,-0.324236746771,3.1336757687,2.32320083629,1.77160768669,3.12591466306,-0.480537266893,4.17341720603,2.22595157031,4.47263185147,6.71718225043,-41.7786037108
do_nothing,-0.0355426205143,-0.414080995855,-0.201968682194,1.03828034958,0.392590758521,-1.2767493878,-6.56745704196,-4.9340319259,0.989519150948,-3.90248767453,-1.08284772259,-4.22704891954,-1.62842071266,56.2536664447
do_nothing,-1.77425876872,-2.26110099721,-1.41780509356,-0.638103567949,0.00677585819438,1.7841291723,3.66884964395,1.05834741534,-0.647480719344,0.2993235355,-0.434894827394,-0.206983791362,-2.49970554803,107.824080229
do_nothing,1.1101602099,1.65433659589,0.982179456468,0.0943454212708,0.695402939119,2.1309150294,7.3819049786,6.1070075752,0.156230528114,4.44665323225,1.82639861257,4.96612459476,2.2759832472,-107.536027344
do_nothing,-2.34077498253,-0.797161719375,-2.11181170633,-0.513911098581,-3.53022717495,-6.23036729587,-10.514761892,-7.00845948773,-0.36210215896,-5.40342736673,-2.45478446505,-4.86491523449,-2.07569167899,-65.3149393694
do_nothing,3.36618573793,1.43362579302,3.03755477825,0.71347895475,3.41064562273,3.46670042558,0.457031622163,1.21530525401,0.703741757269,2.19267640575,2.01772345642,1.74371935497,3.29226304636,59.2269039
do_nothing,-1.57492202658,-2.09412165226,-1.20872965319,0.0353891136144,-1.33445095554,0.230767383974,4.92148724321,0.797242784273,-0.492256301321,-0.578239329531,-1.60932985196,-1.29239534676,-3.01417158382,110.764199033
do_nothing,0.377100435335,1.6698524336,-0.0879887413432,-0.141570280171,1.87618597429,2.19707951368,3.49377717415,3.45341564525,0.214175355671,2.49465816598,1.55778748659,2.97850416905,1.24318785453,-89.1030470674
do_nothing,-1.04951097995,-0.198817142668,-0.970798781409,-0.912214504243,-1.70411566928,-2.99159542253,-7.08914780393,-2.95026811106,-0.356043462719,-1.68599151346,-0.0309710044716,-0.929907875071,0.286247497443,-86.626836532
do_nothing,-0.938698025161,-1.95918710654,-0.0801751723541,1.05079995462,-3.42692971777,-4.52987223778,-5.73596381495,-6.00969233404,0.449343841808,-4.60918090666,-2.93835886148,-5.07041353578,-2.57346519075,60.8190002948
do_nothing,5.11595540046,3.09391729236,3.91878945155,0.264230507926,6.9779406198,9.44835975788,14.3981008508,10.2081444096,-0.229268212814,8.28176823707,3.58982008901,7.53012615893,5.19601452982,107.923784428
do_nothing,-4.23078552839,-1.4151050551,-3.7540096895,-0.56747319319,-2.348700762,-2.53784355497,-2.51209977085,-1.84665365371,0.204004827937,-2.95572933152,-0.507452230784,-2.59504576324,-3.78819310154,-67.7688427171
do_nothing,-2.02444199933,-1.49933944934,-1.8185534776,-0.842285690091,-3.88184443773,-5.57136461958,-10.846609962,-6.86837373852,-0.421763970215,-4.74404977314,-2.24807335866,-3.8172990119,-2.02285581599,-103.518298552
do_nothing,5.11723413081,2.43760472318,4.81277591616,1.23869498053,3.62359777781,4.20559183518,6.03441183781,5.06526193302,0.273403443728,5.8162081911,1.99569264545,5.17018346491,5.52009421054,60.9757816197
do_nothing,-2.52008224085,-1.53513047457,-1.95661089595,0.344445139512,-1.03769855626,-0.877731937979,2.83560974666,-0.707389013549,0.107199007052,-2.26984583477,-1.37120793518,-2.95705891483,-3.16826824946,101.016083573
do_nothing,0.584192383464,1.13962470917,-0.34552859303,-1.07808542289,2.07102623426,3.09374172364,1.13247332563,2.21848340545,0.050278685698,0.753818744912,1.97561014331,1.59088164238,0.123755309334,-47.1113552883
do_nothing,-1.36844914732,-1.11686033245,-0.9812652413,-0.367440790559,-2.86321139384,-3.60160471338,-5.9583863258,-2.90642564613,-0.498863362774,-1.21586932747,-1.36614265851,-1.111873296,-0.782762215232,-114.415925415
do_nothing,0.369326428011,-0.0734151999686,1.01250118121,1.33194972964,-0.507086583509,-1.95122056155,-0.849097006316,-1.99009601386,0.259794834756,0.185384245341,-0.871688058577,-0.323975737592,1.70517791717,59.8426323395
do_nothing,2.69789487855,1.68401372646,2.04412312398,-0.156885243963,3.59234281229,5.0505882455,7.02431786947,4.61752145313,0.41680380552,2.24312471421,1.89862025454,2.4871908387,1.26941798819,91.7083411981
do_nothing,-3.40822221387,-2.13128749476,-3.45672924962,-0.970335092749,-3.09334040647,-2.45696167629,-3.26224899467,-2.331979473,-0.344677949539,-4.32854586927,-1.66456954336,-4.47025867442,-5.31576351197,-29.6016506763
do_nothing,1.54499307828,1.60966281386,1.43719806445,0.294922291502,2.14220852034,1.67114454407,0.598355673588,2.51581492608,-0.349411668862,4.74316583417,2.11150032502,4.78697969447,4.88351512951,-119.256249215
do_nothing,-0.303077444883,-0.612508283894,0.458425397336,0.635150292629,-1.56219543783,-3.00660152534,-2.99482156797,-3.66755029031,0.354200040443,-1.52193331572,-1.56651185366,-1.11554520535,0.015318770768,58.0901756756
do_nothing,-0.360747985627,-0.924472741325,-0.652098333811,-0.288264458714,-1.33822222296,-0.624130171536,-0.443705810012,-2.00783438843,0.397051522822,-4.02996823405,-1.6336536184,-4.40715570847,-3.90827657134,81.496614966
do_nothing,1.88679783758,1.93162640086,1.01668683549,-0.411425117166,4.24677580184,5.91955558257,7.55582736416,7.93692581406,-0.587734991722,5.76509648609,3.63085662317,5.14780778619,3.43041607948,-16.7676672194
do_nothing,-2.9749231577,-1.38446426777,-1.98642190191,0.441822145827,-2.86464870161,-4.29361308908,-5.17558197865,-3.66045177857,-0.0382674255345,-2.19900511419,-1.57738720914,-1.1654476421,-1.38520708683,-118.941631833
do_nothing,2.27934961399,0.570245216266,2.00055198129,-0.255089875802,0.151822144112,-0.175721063145,-1.95845315687,-2.35133194069,0.271370657212,-0.157328075836,-0.490669969197,0.201309292543,1.3019119128,56.5428131612
do_nothing,-0.4861289663,-0.436726787002,-0.354569189693,0.157598295503,-0.443761174341,-0.206623753713,1.1270157618,-0.306951084561,0.271770786056,-0.619843771673,-0.0630447592989,-2.24102573358,-1.20500439155,71.598424864
do_nothing,-1.94597576006,-0.677827146056,-2.15551144489,0.100960224308,0.100029880265,0.110871891238,0.706841341282,1.18364444035,-0.578722051638,-1.56607202213,-0.702818983339,-1.19653118814,-2.04302484676,-8.62816094647
do_nothing,4.22227039266,2.94331488265,3.67126440914,-0.0685995888729,4.21402089351,5.85073645142,5.99605651636,7.46867430801,0.272005733169,6.26927400463,3.65567223928,7.98847483177,5.2546936224,-118.198923339
do_nothing,-3.95777835018,-3.20645129823,-2.64732472918,-0.60460439151,-6.4835901159,-8.4813971926,-9.14704557763,-9.91883135936,-0.174370789103,-5.21569956794,-3.39832395528,-6.43795792237,-3.74268623061,64.9748090523
do_nothing,1.07221364904,0.787914862254,0.457686761331,0.872091163607,2.01258975223,1.32744142351,-0.23375313885,-1.73083081865,0.522804777659,-0.500866134052,-0.174751144006,-1.59210252068,0.419489784615,49.8351683034
do_nothing,1.10409153698,0.807170124835,0.254899700078,-0.104578252957,2.99287386072,5.17319364036,6.85803106291,8.06400674983,-0.543541943006,1.60643346863,0.858010643848,3.05890511519,-0.146172867639,-1.90937813156
do_nothing,-1.64668485107,-0.580945768906,-0.399104002088,-0.311037794274,-2.68526413229,-3.01208549835,-1.41003769532,0.110668988133,0.145389616459,0.190105709458,0.659044379538,0.604667380024,-0.269932271047,-91.5277657432
do_nothing,2.5100324247,1.17563651746,2.11928251841,-0.581827594755,1.12498959223,0.226136228239,-1.46190636982,-3.35300009569,-0.217543244615,3.37816803916,1.58870384097,2.21080838177,4.39823503796,26.4957015285
do_nothing,-2.45212670629,-2.04221843514,-2.80193456616,1.32567332976,-2.1058584386,-2.53227850685,-4.48804046292,-5.68740388721,0.829501730766,-6.87564877735,-4.3274840418,-6.9937475546,-5.66584944815,64.4229650088
do_nothing,-0.688101622868,0.113482327364,-0.522245925545,-0.675678108223,1.69684632218,2.62284179844,4.3230473631,6.70995197757,-0.86617166352,0.496337990133,0.282150046738,1.35941858479,-0.959966773635,21.9989491311
do_nothing,3.22408495227,2.71058790569,3.63356617983,-0.16377633322,2.06520993083,2.6004331577,4.91583414547,5.68765491477,0.0678577902518,7.53958707471,5.24001078197,7.57221524383,6.30293447231,-138.140962295
do_nothing,-1.54190747081,-2.24946548389,-1.93512946523,-0.0907485031999,-4.27430964699,-5.23612475643,-7.50131428234,-10.127150205,0.218822076244,-4.76283122549,-2.94486951298,-5.42416493803,-2.50427849334,61.7754031833
do_nothing,0.424748445826,0.59698649592,-0.0983819425589,0.693154459886,2.98681510877,3.00754450623,2.02025338844,1.57992536561,0.700515589815,-0.740995694367,-1.47706472927,-0.761495365319,-1.14454343659,64.1265949606
do_nothing,-3.89286269849,-1.91107704707,-2.44550766643,-0.747810683996,-2.22284031012,-2.57329738257,-2.01825647517,0.722322558531,-1.40902534201,-2.99972923115,-1.63489143174,-2.50510516083,-3.80935087638,-3.51393152411
do_nothing,5.19613797952,3.17227537436,4.13389987473,0.671060179992,2.52047497989,3.79016870395,4.69901178977,4.90134323939,0.655077372145,6.3493655513,5.38913832723,6.61759500851,6.7667161948,-114.317562521
do_nothing,1.06553466704,0.0422842992845,0.454866150701,-0.679344279673,-0.0298118268982,0.0222829215251,2.2302144019,-0.589338276452,0.31190811101,2.05925405412,0.256688279005,1.21203805831,1.61801510053,52.6371123617
do_nothing,-6.59007112644,-3.60779675347,-4.80283167489,0.351965957302,-4.08816681399,-6.36159391298,-10.0351430201,-9.95330404194,0.246830575566,-9.63608253035,-6.72495775521,-9.71084016105,-8.94956722245,72.9414801475
do_nothing,3.09861287139,1.88955677155,2.03283558787,-0.158986643205,4.3115129905,6.12223026457,3.57364844404,6.23341301551,-1.40655326074,3.09049156507,2.37216283193,4.21828145557,3.18193482494,-44.7187750073
do_nothing,2.73589564999,1.53229165626,2.19491254203,0.832319025657,-0.51661481556,0.078005402737,6.34287774463,6.25451588661,1.11712941989,5.05597933874,4.44900775573,4.63586729668,4.47298378418,-20.0331589114
do_nothing,-2.12746413679,-1.17952667501,-1.23620273379,-1.4128540132,-2.40852795146,-3.86887663362,-2.54641800888,-5.28012211551,0.0555743577959,-1.37702303638,-1.87574187914,-2.33848453257,-1.55702772452,-58.2879973696
do_nothing,-0.266087291311,0.138528539614,-0.101832192593,0.665519901892,3.02264947384,3.63981775978,-3.96678811907,-3.59323740872,0.0503958279131,-2.34682083879,-2.29136223488,-1.70151362425,-2.13359553583,116.906010293
do_nothing,-2.52748203642,-2.54297427404,-3.07358255687,0.29202437319,-3.34305023368,-3.60833346991,-3.65941419055,-1.14453591237,-1.14394429606,-5.03197780417,-2.4169461431,-4.37273685765,-3.93205575023,12.0353037828
do_nothing,5.62651586618,4.25516109763,4.99004048564,0.289550425322,3.24746215947,3.6503267924,12.300836426,11.7711243016,1.10739164482,9.87942711991,7.12325965527,9.45331754952,8.77859153978,-106.580536079
do_nothing,-2.50757157514,-1.23748411553,-1.14040664077,-1.49212847288,-1.5839958623,-1.50344935493,-3.39422717084,-5.62041038565,-0.13022243758,-1.28907208779,-1.61892022939,-2.02595144902,-1.95760426833,-23.7633523665
do_nothing,-2.39016691347,-1.94728462849,-2.41564329453,1.25278289178,-0.399279010284,-0.808725346524,-9.40578084275,-8.84731498115,0.24249137056,-6.50173426678,-4.77175379613,-6.25136704752,-5.40051823529,119.150851411
do_nothing,2.69660907699,0.998830375718,1.15553053728,-0.0699892685171,1.4321785329,1.40113183892,5.42736893883,7.44348454897,-1.19089436234,2.46195906004,1.74524422808,3.50385901283,2.60425512842,40.0639677348
do_nothing,-0.751523625423,0.444607773496,0.174204847947,0.0222173167561,-2.18363379903,-2.37226772665,4.16108027991,3.57518022565,0.978410293145,1.18997060748,2.52724924237,0.905138653248,1.2696830552,-174.112585403
do_nothing,0.470441183468,0.662771466347,1.07088666509,-1.05373671753,2.36272584593,3.57692302777,-0.411974848728,-2.30644963633,1.47380175749e-05,3.11795713853,0.532705974906,1.70496292232,1.74387947909,33.2184678689
do_nothing,-0.21547965247,-0.868412714773,-0.539952132142,1.31505244199,-0.603129609037,-1.36021609899,-6.15871794671,-5.45145988382,0.288927053061,-3.11653068345,-3.1250300896,-2.48410284958,-2.97137373539,108.130602936
do_nothing,-1.30988793323,-1.527751049,-2.23955601732,-0.506306778856,-2.0130150028,-3.16627341598,-0.932013879775,0.885663873761,-1.31256468077,-4.9659231659,-1.44515138999,-3.36255972894,-2.58326452807,12.7814375473
do_nothing,2.25666221507,2.86279241991,2.59130890668,0.0820907369484,3.43192163422,4.86257871382,10.3514591866,9.3208257094,0.971042482206,7.16824104516,5.38332306972,5.93132020227,5.60113429415,-141.792873121
do_nothing,-3.0985036139,-2.17619262217,-1.52956870501,-0.551858232645,-4.26281397836,-4.20409174168,-6.54706506712,-8.08829644428,0.114851714205,-1.50578068507,-3.11974431771,-2.86292248364,-2.82269744691,28.8052292256
do_nothing,4.76964655551,2.26809768892,3.08634967344,0.936178618196,4.60621347158,4.47007194501,-1.03361065483,0.312442777829,0.194333468816,1.32450679436,0.793823221055,3.11639459802,2.41721580145,88.8561784513
do_nothing,-3.16767643069,-2.06202029684,-3.37696100981,-0.694087680501,-1.48289503472,-2.31555931402,0.782202606256,1.78954100397,-1.25055377591,-4.817382202,-1.04794632954,-4.16089619346,-3.72575415049,13.2662771952
do_nothing,-3.36589225392,-1.10142589487,-2.01608627318,0.39221978481,-4.28607600839,-4.74351233364,-0.651861323949,-1.91784662403,0.961923050024,-1.26300250798,-1.05508499791,-3.18451051497,-1.5335950577,-110.4912873
do_nothing,6.68881607786,3.61526398927,5.9069116494,-0.534882729545,5.53566890935,8.01649306745,5.38633937492,4.66177593268,0.0257336198847,9.80008598861,3.818352333,10.038831041,7.85727445213,10.2402923624
do_nothing,-1.42129511679,-1.27373229714,-1.31434334137,0.864602807284,-0.418922109512,-1.38719531595,-4.56130412843,-3.4257116995,0.215059023912,-4.45267639507,-1.14800824139,-3.26801184183,-3.70103857652,73.6252280449
do_nothing,-3.89217956793,-1.82707454504,-3.93604806442,-0.824383416902,-2.72910685425,-4.6557076429,-2.57031106365,-1.95389704025,-1.01687427218,-5.91970233201,-2.74762251234,-6.01586141691,-4.28670151352,15.9699974458
do_nothing,1.5328260859,0.978513012924,1.37250177465,0.328742670391,0.0506681934708,1.0093644132,3.73504056811,2.70828857954,0.717447410565,3.49209324179,0.869089064577,2.42237620251,2.92224776796,-75.0803678912
do_nothing,1.27849015446,-0.0951551577975,1.79462479089,-0.0430688674708,0.562923009065,2.18093473005,-0.292593045756,-0.943148616345,-0.0748615607508,2.7941832335,1.19070388688,2.77200896386,1.58146455296,-16.4539937017
do_nothing,2.72757333486,2.74078546628,2.30453709772,0.489664161922,4.51765950774,4.34999357838,3.52814653886,4.53052536305,0.43993337831,3.16632471283,3.18345966923,4.40795730052,2.61235622851,64.2484684131
do_nothing,-6.0438823655,-3.77547558334,-5.80807236707,-0.951671749093,-6.31377731849,-9.03374603584,-7.98180582379,-7.17741898333,-0.882751138143,-10.008246155,-6.1529028408,-10.1027895131,-7.64519791379,15.7572008266
do_nothing,1.39461078121,0.000979603663938,0.932659830202,0.481764022829,0.468217537449,1.37564178879,1.82201267021,0.580435183877,0.344077156872,1.90123662255,0.491972479909,0.570570378386,1.97467818857,-39.3968648848
do_nothing,3.71718596057,2.44466783544,4.16007865256,0.182608825335,3.72434343697,6.59715086292,6.77537728701,6.04920926006,0.0191760957405,8.33667749992,4.75189731117,8.50831555167,5.56614315549,-43.1620784923
do_nothing,-1.87978531794,-0.211715499831,-1.49993713507,0.257685546227,-1.14761332981,-2.97701306618,-4.6917102767,-3.25197373412,0.624286927725,-4.30452239748,-1.46213426215,-2.79386831041,-3.27958747842,58.3082723431
do_nothing,-0.648675677902,-0.724504642491,-1.73855000989,-1.00276568104,-0.0313919734213,-1.84593574714,-0.69829595824,-0.23970575256,-0.867502591959,-2.83421587206,-2.04411156856,-3.17140541822,-1.18888730946,13.8632020682
do_nothing,-1.87683574927,-2.06794729271,-1.16228626252,0.450014467287,-3.81428717258,-2.72456593021,-1.64196413084,-2.94853592384,0.00926914050141,-0.895484693144,-1.308949736,-2.70733408192,-1.51226653422,-12.1980931107
do_nothing,3.14058579376,2.23696920394,3.28873598797,0.482361905735,3.69699114932,6.035676074,4.054567176,3.49966146572,0.310195983505,5.04169006098,3.32032982815,6.04663370621,3.69254147014,-57.9270000131
do_nothing,1.48499583819,1.98212962367,1.03719008882,0.0895053119493,3.47446871974,2.1094534246,2.30927740379,3.77813174858,0.605233515473,1.56099516021,1.82713623559,2.93443379875,1.67773038719,50.2713721732
do_nothing,-5.4603643113,-3.85575130961,-5.09669752245,-1.08448842691,-7.32678901315,-10.3866171866,-8.7841423963,-8.1851696146,-0.961408870531,-8.37972124988,-5.60813462201,-9.49617398594,-6.26928543497,9.10340186719
do_nothing,3.94730469391,1.54075827531,3.3687214101,0.332121178374,2.97238381189,6.37212471074,6.01781759738,4.06644855562,-0.0465993800647,5.28191792369,2.39961182527,4.25493927754,3.92121414978,8.69087205513
do_nothing,-1.12660389397,-0.564373397087,-0.403271600834,0.913764913824,1.01242569246,2.11757779307,0.475980631443,0.307271121638,0.605329117169,0.0336129639466,0.744199119371,1.01955177457,-1.12819971328,-61.2688878673
do_nothing,-0.424550800936,1.25986872569,-0.444530547541,-0.162534407184,0.00246148396773,-3.34986030748,-3.25437324907,-0.982802828068,0.269300338254,-0.985737192426,0.149909610439,-0.0811862663377,0.756021062192,39.1124298742
do_nothing,2.8648569248,1.13974801033,1.93004006171,-1.23877653031,0.329502339025,0.961211343291,3.41601609646,2.88745919793,-0.912053053559,2.74234419055,0.505001126851,1.90088320674,2.55660991554,3.08996832586
do_nothing,-4.20503396716,-4.31896932933,-3.440288862,0.508974692095,-4.03084522941,-2.35816793516,-2.92197841312,-5.28236564208,0.158218560983,-5.88812504629,-3.58387000252,-6.86361355593,-6.53003564422,23.6022876053
do_nothing,1.12474446552,2.18528785238,1.32666019843,1.01242559542,4.39897536107,4.33535298397,1.70816360419,3.18205619757,0.633526575917,3.75278214345,2.91845154712,4.62959373009,3.37890754905,-56.0988752705
do_nothing,1.65794820833,2.0527632936,1.4944977743,-0.359326622605,-0.26571480818,-2.09985071086,-1.52693699861,0.391830726851,-0.183104670132,1.51414211272,0.942196548496,2.44870309989,2.60447390143,26.5715072009
do_nothing,0.475775416675,-1.38852233281,-0.342537519584,-1.16321592605,-2.03094751828,-1.41014215794,1.3039666408,-0.885655347539,-0.563954686517,-2.26352834625,-1.77061909219,-2.99461361156,-1.9859669803,-2.941049923
do_nothing,-1.2694799235,-1.04558979716,-0.801244576772,0.456149430324,1.68543925296,3.11776068385,3.44590839334,2.24256350781,0.306553992841,1.25172293869,0.626845076087,0.0473108210204,-0.693097587264,32.2525965436
do_nothing,-3.959857095,-1.18847088842,-2.52292754839,1.27098888103,-2.90581455906,-4.30685567454,-8.66636203918,-6.10939804629,0.473233403431,-4.10167864939,-2.02847621904,-3.2403865718,-2.94145825351,-45.1830833971
do_nothing,6.29237022006,3.92129770804,4.39156706181,-0.817277406164,3.8184405113,4.10628302501,4.31563849399,4.73364455326,-0.541927493251,5.05692741579,2.8395364553,6.45263700981,6.08006959231,14.5909037732
do_nothing,0.377709361083,-0.704880249198,0.189861714916,-0.881603560815,-0.560576513723,-0.326022339415,5.42404587999,2.92313439097,-0.108024920774,0.872468148721,0.520718634495,-0.200456544312,-0.363306104805,-8.24672246173
do_nothing,-5.72502365351,-3.4903222749,-3.97265336204,0.716981902078,-2.94905692865,-3.59223986292,-5.70223434229,-5.64966268677,0.404126906455,-5.12909192335,-2.84914242667,-6.62154220239,-5.51323411481,35.0181068279
do_nothing,2.09123424685,1.94486575243,1.27308413332,0.772828555717,2.49273754391,3.5818739576,-1.43187802417,1.05385842103,0.171408320785,2.06379476844,0.825279493855,3.38118167913,2.60288755613,-31.2568351628
do_nothing,0.878646228653,0.526360032007,0.563265295571,-0.92016183571,-2.15086949753,-2.71436066746,-0.194757723571,-0.805236611138,-0.85463879056,-0.738565455457,-0.529938575141,0.599982365436,0.354438165245,3.64537194979
do_nothing,3.39314433767,1.81588861917,3.21547229983,-0.0160173338806,4.17346809621,3.76831256117,8.31479232418,6.20284736191,0.653013724824,5.28440453169,3.80757146315,4.1442527643,3.9512688248,-8.14884415049
do_nothing,-4.53697843471,-3.37625536142,-3.95915914285,0.0969282081852,-2.50618199442,-2.22756489136,-4.64415519444,-3.83874394864,0.197283050574,-4.56914629087,-2.76776424966,-6.17298938583,-5.16572116505,24.5261333932
do_nothing,-2.92010841121,-1.01566376694,-2.69092754263,0.371672816751,-3.84292712674,-3.57944411468,-8.43035899122,-6.6460447341,-0.437481994448,-4.9028821885,-3.54473148838,-3.67717360731,-3.07493831285,-9.06214201412
do_nothing,6.93033318921,4.70908531302,6.29709998373,-0.238801806107,5.91860845212,6.40903044337,9.72804592125,8.82635222039,-0.382921589583,9.18962316924,5.10632789038,11.065469798,8.27699085441,-1.26041732767
do_nothing,-1.16162529553,-1.8000595502,-0.961814562107,0.223353677345,-1.16821664413,-2.75954586491,1.14120898055,-0.164544709071,1.11605212001,-2.1478099585,0.0217257689669,-3.811042816,-2.56161677214,-29.3298625048
do_nothing,-3.17747237424,-1.97975933401,-3.59556161855,-0.875412839185,-1.88495193437,-1.12355835929,-4.34707080462,-3.68867902334,-0.684106055716,-3.77038947099,-2.20817972591,-5.40977731051,-3.06220003218,50.940746529
do_nothing,0.214168368374,1.2427498109,0.973031541346,0.799716107543,0.394886988401,1.72983100328,-1.26231422957,-0.386285311988,-0.247982961459,1.6934684288,-0.368353340299,3.59563550593,1.31304877115,-28.4677347933
do_nothing,0.609429425711,-0.288741170921,1.05870047796,0.336943190449,-0.822286677112,-2.58937446497,-0.510454492453,-0.525147881515,0.245037269371,-0.669336096284,-0.451325316454,0.441136250595,-0.608736015801,4.7373288067
do_nothing,4.05781446169,2.27993408895,2.39132277438,-0.43796783822,3.77465295402,3.86341132888,7.58670782274,6.73881320264,0.73127990773,4.6049299714,4.40737018998,2.81412417469,4.51786746894,0.163087150562
do_nothing,-4.92818002254,-2.84829712286,-4.3498029421,-1.04681144739,-3.48066255745,-2.63609853099,-5.17140617221,-5.83761004844,-1.2684978413,-5.13344833812,-3.33407957209,-5.65869858463,-4.4764441313,-15.7415437792
do_nothing,0.262472611996,0.474682292201,1.12983726573,1.59143688569,1.12795597021,1.50599369498,-1.9590987488,-0.831058472067,0.631542211852,0.334037257048,-1.18432127521,1.69625371765,-0.528950038146,30.1873771418
do_nothing,1.40440012695,0.372814273401,1.3478771388,-0.183808794916,-1.05901928527,-2.19869324204,0.901929725732,2.18832836089,0.138574628073,1.97867336665,1.12792902893,2.01254846699,1.58475235139,-16.0456544966
do_nothing,-0.0339228660803,0.353562760469,-0.804725511959,-0.624324018886,-0.581654215082,-1.29677246821,0.702292662121,-1.00598456925,0.163132397924,-1.15224970509,1.08693555599,-1.82160612931,0.579971455387,11.7088063996
do_nothing,2.43291473518,1.5197843443,1.54013394573,-0.617317833076,6.13134871777,8.6280602323,6.59256371544,4.80750320867,-1.01691411748,3.11559373576,1.40763293345,3.32167963119,2.29569023388,-40.269179088
do_nothing,-4.82584780629,-3.48886227,-2.74683050955,1.64657128497,-6.14649735318,-7.0070240856,-8.72294817791,-5.87470123457,1.02205352995,-5.01853530744,-4.06621216086,-5.26127920434,-6.18541310989,40.2472643607
do_nothing,-0.272495619072,0.00414261731882,-0.269820781427,-0.734826285976,-3.4347924251,-5.36103879153,-4.24078742031,-2.85776197783,-0.221643048778,0.0523546677857,-0.195510695254,0.35508561271,1.1528696465,5.01778089555
do_nothing,6.36219789939,4.9476556988,4.44068172004,-0.345006950596,8.9573039798,10.4808140658,12.9202134478,9.29095334473,0.0331421781742,6.87137141008,5.42970089455,7.22771049,7.20020282071,-20.6709641344
do_nothing,-3.92005893139,-3.65312746936,-3.42670017307,-0.182420558646,-2.11852435993,-1.36894977437,-3.16814074863,-3.72836442525,-0.77286218547,-6.30203886936,-3.50616185463,-6.88004958231,-6.32354835344,4.74702145179
do_nothing,-0.795783792269,-0.689145129959,0.147741549184,1.10847469559,-3.41658328952,-3.93247350718,-5.97018130185,-1.98675567362,1.09610265526,1.11229533154,-0.34665516314,1.09998139597,-0.0721089749359,-31.1790173474
do_nothing,-1.43010431203,0.0613642679218,-0.876507785936,-0.886416511232,-2.61084338091,-3.97355946578,-1.59530499568,-2.12141157597,-0.470650211821,-0.120342883116,-1.16915019377,0.0514203531561,0.13099644992,59.508982992
do_nothing,4.0974501738,2.95373532305,2.65898631687,0.279718391367,7.04534818901,7.75616008413,8.85914398574,5.1452856709,0.162046441868,1.89715508206,2.9867002291,1.95602722798,3.35177518049,-2.46301902907
do_nothing,0.902809826697,-0.959155012552,0.0364604324925,-0.44915446123,1.04746252019,2.76097330951,0.479291474292,1.91797192345,-0.775719480492,0.451464443634,0.816385370362,0.684492315669,-0.275814799355,-52.1901508092
do_nothing,-5.64773651679,-3.24636725737,-3.45795147741,0.877433362256,-8.44188739313,-10.190090915,-11.2168551008,-8.22784826382,1.03815277892,-5.00039686906,-4.23004541669,-5.25723291054,-5.69686610292,-8.17288235313
do_nothing,1.76909818764,2.338287865,1.92263774381,-0.780749214852,2.83298673903,2.51978357808,5.75487443237,3.93757239052,-0.341759102965,4.54826254974,1.28778083655,3.96717530416,4.30356878815,61.4305508688
do_nothing,2.82478890794,1.43690014138,1.23906806795,0.53833204201,4.31330514387,5.12918748833,5.3542823502,2.92855255985,0.0823455224154,0.602148729167,2.36944190196,1.1328682156,1.77573754894,21.1885519354
do_nothing,-0.508819473379,-1.75732711725,-1.29382146745,-0.580612961331,-1.41398206337,-1.12334642603,-5.5471199686,-3.41348490635,-0.880630575955,-4.04611539121,-1.29674290823,-3.13215684424,-3.25421384131,-85.8627514334
do_nothing,-0.762139127797,0.614065706835,1.26992547692,0.594180759114,-1.38889676759,-1.57824463228,0.391990831619,2.1721622885,1.14830376547,3.84506940111,0.326145675332,2.8303598251,1.50179510084,-3.16166999947
do_nothing,-4.78982449021,-2.4344382071,-3.6707598851,-0.475727409642,-4.83638382248,-5.94429939244,-2.34673331117,-4.56746184942,-0.210435478133,-3.25857393193,-3.17487859819,-4.24173677347,-2.94278917376,60.3370360869
do_nothing,7.05184954882,3.80315704952,3.68450763491,0.556110488239,8.19783711133,9.47122084617,6.70234241697,5.48970098714,-0.129284899387,3.33570215777,4.27294644518,4.86112015465,4.89172728757,49.3690492048
do_nothing,0.162617300274,-0.742702064677,0.555210363259,-0.732434877053,-0.0338441203239,-0.0347650081194,-2.57460742176,-0.373207433347,-0.913319155541,-1.75535702689,-0.313229752024,-1.02049683207,-1.74657005106,-108.281884565
do_nothing,-5.56420654147,-2.30181150327,-2.57368304482,0.683672531391,-6.61404213144,-7.73588919874,-5.58925975722,-4.97689035298,1.35712204812,-1.73444970096,-2.79823941952,-3.59106860732,-2.9408117853,-11.9498012993
do_nothing,1.41396921489,1.02654502632,-0.0831004078402,-0.585988067178,1.99767874438,3.26532817724,5.89327797133,3.96454893924,-0.266476787283,4.06538357647,1.31559741091,3.87673717006,3.18980225429,61.8395588268
do_nothing,2.35799709119,0.502666333458,0.843473624485,0.591141410793,2.37158267534,1.78334710298,0.0648795347237,-0.00435521647994,-0.301640980408,-3.40171863542,0.175868236364,-1.85780115659,-1.29163103999,76.3356074262
do_nothing,1.38557196039,1.05707885886,2.27767798765,-0.471436253295,1.80331241194,1.45409331269,-1.3621757469,-0.14392166992,-0.725418113871,1.16404118837,0.963854026248,1.42005798877,1.39547862964,-123.902679526
do_nothing,-3.36518834792,-1.26593132362,-2.05604993507,0.3963449151,-3.51386938071,-2.95297122285,-1.90448537527,-1.7776160717,1.33045042896,1.11324699872,-0.672802696141,-0.509144901773,-0.826888501092,-22.5685309815
do_nothing,-2.5892392196,-2.42900254086,-3.37105205136,-0.671928342141,-3.52195457892,-3.51840141638,-0.352386725892,-1.06085072477,-0.365517084803,-3.60378879613,-2.53474411923,-3.68122893781,-3.16056027098,59.4471329914
do_nothing,6.99021873836,4.62419553439,5.82332116289,0.682700515845,7.40403606952,7.57114540057,8.04647598068,7.52598639005,-0.286943451541,5.63850186487,4.24282987178,7.13348712986,6.14289964704,98.014284113
do_nothing,-3.12772364372,-2.0414012916,-1.93363880817,-0.00968129520217,-2.09427342317,-3.39182456018,-8.98717195983,-8.26641215532,-0.528031615471,-4.65271595613,-2.4772410465,-4.61589287378,-3.87992180072,-124.815297343
do_nothing,-1.36400162534,-0.720037447227,-1.43664940191,-0.144562654649,-1.44834962467,-0.410215436117,-0.322654961679,0.339820575314,1.15911703743,0.259757755014,0.243476616683,-1.118137369,-0.304495439699,-41.9502730245
do_nothing,0.621530497777,0.369235028528,0.472643242539,-0.881984056423,-1.41942956629,-0.206540734421,7.67860539543,6.72072775558,-0.529272981898,3.32851591954,0.767222727403,3.2429077033,1.65828606127,59.5281877837
do_nothing,0.0452272728913,0.128467544934,0.314904995891,1.276595636,0.851203124122,-1.19907246671,-4.35318946782,-4.70187805148,-0.0464954460049,-2.6424085981,-1.40582164362,-1.26089935558,-1.13563569317,111.528412671
do_nothing,2.39475583845,1.03680966354,1.3510624979,-0.00595094801515,4.98996936824,4.8297976927,-1.96343558185,-0.900743887646,-0.27615789915,0.539144414588,1.41766414086,0.592294139194,1.67250415384,-115.012699163
do_nothing,-2.87096743038,-1.46136976974,-1.95350086844,-0.618048806068,-5.23714138707,-3.75792348183,0.882799404917,0.449548947387,0.545824822657,-1.5338753139,-0.554256661406,-3.00289936828,-2.65511114267,-64.1806107361
do_nothing,0.0200534959142,0.397903737473,0.387113791577,-0.820192660831,-1.30277547121,-0.586723637237,4.06270552498,3.54273843147,-0.333378441264,3.3672620454,0.205079630694,3.7001710516,1.76156144228,60.6200704498
do_nothing,1.52340984573,0.460919371832,0.834220349117,1.60409486695,3.94594357203,1.88898451351,-2.18219867828,-1.09380927505,0.341980467383,-0.165001149883,0.0167526949863,0.871911696181,1.17612063973,116.823346432
do_nothing,-1.70152161111,-1.52370592575,-1.81998565532,0.0922672514925,-1.57401025452,-2.65434667312,-6.22113522483,-6.78372840259,-0.498730336681,-6.44689862461,-2.1721259958,-6.75439439107,-4.17917312481,-98.1996027099
do_nothing,3.84061047558,3.44303967782,3.67835510211,-1.30503903151,2.51039043183,6.22803600304,9.51565455513,8.35769620134,0.14684262,7.96590293295,4.4080216177,7.22860956838,5.06740184492,-84.3163798291
do_nothing,-4.87666091223,-3.35225324373,-3.54364212265,-0.258161288499,-5.0400308808,-5.60600333876,-2.93988726194,-1.18956811811,0.221464024368,-2.21195814033,-2.62906151049,-2.00400722764,-3.08372319897,60.4448440614
do_nothing,0.299473619874,-0.316064639644,-0.502893692743,1.73118257404,1.07594448748,-2.47405860965,-4.14237616614,-3.7636499187,0.178528897431,-3.26343933815,-1.50557036823,-2.73925050728,-0.388518193663,115.873018502
do_nothing,5.03782679044,3.30222993673,3.8804475755,-0.48646453482,5.22622908679,6.96782596927,4.08426136498,1.98264570212,-0.686327978986,3.56401478695,2.64958751337,3.50939567714,3.14196883697,-78.0228406215
do_nothing,-3.91412319801,-2.04259379779,-2.42347828614,-1.06080771867,-4.22917002213,-2.01478287054,-2.18677642593,-1.80626779279,0.386469610041,-2.4875582234,-1.13101441089,-3.0365114856,-4.03563437871,-100.191539515
do_nothing,-0.485288909247,-0.287952038929,-0.413664015091,0.290599299122,-0.441992770332,-1.32907095225,3.71817177128,5.43872499185,0.172551673238,2.93616574468,1.11305987562,3.19889160553,2.92234470466,59.084933135
do_nothing,0.754040791342,-0.0527473856945,0.0985225692042,0.975212964188,-0.145895729197,-2.92400754479,-2.97328330543,-3.54162116954,-0.151946812413,-1.77150824594,-1.68252860766,-1.572336532,-0.32659383035,110.286228384
do_nothing,1.5186683199,0.873788609179,1.12500336883,-0.492850459508,2.38013063195,3.69147602313,-3.40462413297,-4.40118066047,-0.119293196136,-1.88175104622,-0.49892423887,-2.0713204203,-1.87201460383,-58.0530322546
do_nothing,-0.0884505851398,0.782738868941,0.563025378007,-0.410599876048,1.20846254551,4.085242263,6.62256214195,6.33649823972,0.135688353737,3.60631755741,3.08668116152,3.66382022373,2.03869624143,-110.28185355
do_nothing,-3.83748910998,-2.68999034749,-3.19179551019,0.0988638249304,-5.73341765061,-8.07900070152,-1.90431100093,-0.800579100078,-0.117866643017,-2.38487646118,-2.22319765521,-2.42245546633,-1.57957245412,56.7966117853
do_nothing,4.28772036055,1.88941982191,2.87632594454,0.328660317614,3.57947832903,2.29654956998,-1.27041749035,-0.0865406432416,0.127851835683,2.11925421517,0.280405409777,2.16903433517,2.56824715879,101.698368188
do_nothing,-0.871838923551,0.0585496500631,-0.266720134939,0.183144636406,0.905603706562,2.17863270703,-2.3952293987,-4.29509836576,0.13713594853,-2.52843080057,-0.57997004656,-2.70697981636,-3.00398545463,-40.7860994907
do_nothing,-2.15568151865,-0.764815487393,-1.69541212765,-0.503895252177,-1.32715801501,-0.163336907973,2.91755317428,1.2686383686,-0.380104220333,-0.689187140188,0.397782697904,-0.487666610651,-0.370196213201,-114.587522714
do_nothing,3.15150121618,1.12438641355,2.29225333627,-0.118353386474,1.38317725243,1.06183198617,4.99431270441,8.14674996909,0.112706826571,5.6332360691,2.51235328533,5.903773481,5.03472352292,54.3506427072
do_nothing,-2.84089616073,-2.04771023096,-1.99345979558,0.488109434759,-4.18833306449,-6.46173568474,-9.43305673052,-8.26610111559,0.184750993468,-5.42711204525,-3.79331137653,-6.04321320714,-5.0325244857,91.6120304986
do_nothing,1.23506380456,1.92148817274,0.937037540581,0.151076447552,3.81283141688,5.1287266517,2.25043436212,-1.76703273542,0.121017903919,0.520840745261,0.787427196235,0.487548877796,0.674716043691,-27.7904620298
do_nothing,0.417414446274,-0.376304890994,-0.227052140153,-0.75332796887,1.24539336474,2.77805801948,5.18600714748,5.1345552072,-0.4932722366,1.41976148556,1.36371422213,2.14584550638,1.33196820475,-114.068175237
do_nothing,-0.0466077799514,-0.49186753416,0.506195666593,0.486234986178,-2.6452842884,-3.79798474539,-2.01235604323,1.939594935,0.256877605344,0.718186106027,0.424649078031,0.730913116131,0.733267927184,52.6181892335
do_nothing,-0.0448161403966,0.796823261072,0.5863775051,-0.0243852902036,-0.382083325309,-1.26759539976,-2.23606354459,-3.11330808793,0.046007755289,0.810831815052,-0.529301636503,-0.204161324489,-0.070334970906,81.439770168
do_nothing,-3.62200042576,-2.55798982698,-3.97808270088,0.0823571986272,-1.85863102752,-2.0214081804,-4.23792265907,-7.48089222109,0.207203100116,-7.40026875318,-3.96436469878,-7.26134755658,-5.92088905354,-19.7160471329
do_nothing,6.10979795602,3.44808318925,4.36274096617,-0.303707253283,7.33979752607,9.6219306145,10.4914733254,11.725695075,-0.478361451465,7.94394902054,5.25583612593,9.25532121411,7.68907763422,-112.248457745
do_nothing,0.11484358657,0.69907785143,1.88269927031,0.270501610351,-2.17175643767,-2.5788610081,0.0233969771477,2.39907520045,0.269332170332,3.36485173605,1.77128613005,2.89570419259,1.77314493333,60.1079856585
do_nothing,-8.8485049224,-5.98554531841,-7.3055125966,-0.309011364404,-10.1202741974,-13.15566117,-15.5435229273,-16.6554416847,-0.131314848484,-12.9756008216,-7.97286355675,-14.3243619022,-11.3850061293,58.5642987509
do_nothing,6.55073250323,4.15918663215,3.45486244001,0.573132830315,9.3317994028,11.1890194086,10.5848968638,9.07562901272,0.403784975046,6.52575091115,3.94321417244,7.13457802385,6.65631192332,-9.49050228574
do_nothing,3.35506307644,2.28382125258,3.42010171408,-0.448803373012,3.87500422348,5.85488098098,7.94913227669,8.42590481328,-0.510117755921,5.96145329859,3.29856139927,7.37227644394,4.98151080343,-89.5754961222
