label,COUNTER,INTERPOLATED,AF3,F7,F3,FC5,T7,P7,O1,O2,P8,T8,FC6,F4,F8,AF4,RAW_CQ,GYROX,GYROY,MARKER,SYNC,TIME_STAMP_s,TIME_STAMP_ms,CQ_AF3,CQ_F7,CQ_F3,CQ_FC5,CQ_T7,CQ_P7,CQ_O1,CQ_O2,CQ_P8,CQ_T8,CQ_FC6,CQ_F4,CQ_F8,CQ_AF4,CQ_CMS,CQ_DRL
off_to_on,4114.47092293,4116.37386071,4115.96873814,4136.65481619,4103.23487258,4107.35907507,4104.37943563,4105.11205595,4137.72668687,4110.43749652,4114.16881437,4108.68165832,4117.41947465,653.466146909
off_to_on,4113.79068449,4116.15473873,4115.7410719,4136.66445549,4103.03666763,4106.67883237,4103.57305155,4104.78120447,4137.70840271,4109.93626578,4114.10715441,4108.30150023,4117.37171928,640.643021837
off_to_on,4113.1407802,4116.04329177,4115.52132609,4136.67180747,4102.91265942,4106.12818117,4102.90802734,4104.55568852,4137.68091041,4109.59497159,4114.09850547,4108.07459392,4117.4434075,627.785541464
off_to_on,4112.51884113,4116.03056581,4115.30378052,4136.67699665,4102.84874211,4105.69953249,4102.3797358,4104.4251788,4137.64668061,4109.4110889,4114.13825433,4107.99190192,4117.62259309,615.239492281
off_to_on,4111.92170502,4116.10427491,4115.0829147,4136.68023976,4102.82939827,4105.38290405,4101.98035219,4104.37703779,4137.60829031,4109.37715527,4114.22019887,4108.03917359,4117.89378512,603.294887112
off_to_on,4111.34567505,4116.24928071,4114.85371232,4136.68183174,4102.83820223,4105.16621455,4101.69912524,4104.39670446,4137.56830952,4109.48101203,4114.3367693,4108.19749704,4118.23851808,592.172025602
off_to_on,4110.78678907,4116.44816814,4114.61194949,4136.68213015,4102.85834655,4105.03563231,4101.52272022,4104.46812403,4137.5291918,4109.70620057,4114.47929516,4108.44401601,4118.6360233,582.010651208
off_to_on,4110.24108649,4116.68189454,4114.35445142,4136.68153857,4102.87317445,4104.97596926,4101.43562475,4104.57421123,4137.49317294,4110.03250133,4114.63830839,4108.75278544,4119.06397617,572.862676472
off_to_on,4109.7048599,4116.93048647,4114.07930315,4136.68048935,4102.866701,4104.97110951,4101.42060629,4104.697335,4137.46218171,4110.43659793,4114.8038709,4109.09573393,4119.49929105,564.688805458
off_to_on,4109.1748792,4117.1737568,4113.7860014,4136.679426,4102.82410573,4105.00445957,4101.45920798,4104.81981138,4137.4377659,4110.89284344,4114.96591425,4109.44369714,4119.91893351,557.359224556
off_to_on,4108.64857749,4117.39201401,4113.4755367,4136.6787857,4102.73218046,4105.05940669,4101.53226853,4104.92439111,4137.42103641,4111.37410206,4115.11457856,4109.76748296,4120.3007188,550.658366942
off_to_on,4108.12418932,4117.56673616,4113.15039825,4136.67898226,4102.57971719,4105.11977045,4101.62045093,4104.99472852,4137.41263118,4111.8526358,4115.24053735,4110.03892785,4120.62406577,544.293588532
off_to_on,4107.60083443,4117.68118392,4112.81449724,4136.68038999,4102.35782304,4105.17023307,4101.70476465,4105.01581843,4137.4127,4112.30100432,4115.33529613,4110.23190389,4120.87067748,537.907431263
off_to_on,4107.07854314,4117.72093042,4112.4730087,4136.6833286,4102.06015161,4105.19673474,4101.76706722,4104.97438933,4137.42091041,4112.69294595,4115.39145343,4110.32323886,4121.02512349,531.092999646
off_to_on,4106.55822238,4117.67428993,4112.13213623,4136.68804981,4101.68304332,4105.18682206,4101.79053203,4104.85924274,4137.43647395,4113.00420946,4115.40291542,4110.29351542,4121.07530315,523.411845035
off_to_on,4106.04156515,4117.53263215,4111.79880818,4136.69472565,4101.22557095,4105.12993967,4101.76007142,4104.66153069,4137.45819138,4113.21330862,4115.36505701,4110.1277214,4121.01277551,514.41364443
off_to_on,4105.53090867,4117.29057441,4111.48031762,4136.70343935,4100.68949015,4105.01765814,4101.6627051,4104.37496533,4137.48451453,4113.30217502,4115.27482538,4109.8157291,4120.83294665,503.656881346
off_to_on,4105.02904964,4116.94604896,4111.1839215,4136.71417879,4100.07909847,4104.8438331,4101.48786579,4103.99595646,4137.51362201,4113.25668851,4115.1307837,4109.35258871,4120.53511162,490.729688773
off_to_on,4104.53902662,4116.50024744,4110.91641685,4136.72683329,4099.40100981,4104.60469309,4101.22763515,4103.52367463,4137.5435054,4113.06706908,4114.93309572,4108.73862783,4120.12235336,475.270000485
off_to_on,4104.06388114,4115.95744936,4110.68371394,4136.74119383,4098.66385417,4104.29885595,4100.87690536,4102.96003938,4137.57206217,4112.728119,4114.68345398,4107.97935696,4119.60130668,456.984177628
off_to_on,4103.60640981,4115.32474538,4110.49042724,4136.75695686,4097.87791547,4103.92727526,4100.43346378,4102.30963425,4137.59719141,4112.23930922,4114.38495648,4107.08518769,4118.98180012,435.663331888
off_to_on,4103.16892021,4114.61166975,4110.3395056,4136.77373194,4097.05472176,4103.49312055,4099.89800014,4101.5795521,4137.61688845,4111.60470931,4114.04193871,4106.07097737,4118.27639289,411.196652447
off_to_on,4102.75300285,4113.82975874,4110.23192192,4136.79105287,4096.20660371,4103.00159642,4099.2740378,4100.77917608,4137.62933438,4110.83276522,4113.65976901,4104.95541984,4117.49982702,383.581157991
off_to_on,4102.3593311,4112.99205398,4110.16644089,4136.80839228,4095.34623798,4102.45970716,4098.56779183,4099.91990315,4137.63297693,4109.93593418,4113.24461639,4103.76030685,4116.66841782,352.927432688
off_to_on,4101.98749995,4112.11257122,4110.13948028,4136.825179,4094.48619191,4101.87597504,4097.78795852,4099.01481839,4137.62659961,4108.93019078,4112.80320069,4102.50968906,4115.79940672,319.461060767
off_to_on,4101.63591291,4111.20575531,4110.14507741,4136.84081786,4093.63848566,4101.26012148,4096.94544177,4098.07832913,4137.6093762,4107.83442259,4112.34253479,4101.22896892,4114.91030188,283.519641954
off_to_on,4101.3017244,4110.28594216,4110.17496774,4136.85471123,4092.8141869,4100.62272128,4096.05302355,4097.12576883,4137.58090881,4106.66973772,4111.86966888,4099.94395963,4114.0182313,245.545442752
off_to_on,4100.98084214,4109.36684755,4110.21877705,4136.86628156,4092.02305163,4099.974841,4095.12498666,4096.17298063,4137.54124798,4105.45870903,4111.39144597,4098.67994522,4113.13933228,206.073909646
off_to_on,4100.66799134,4108.46110031,4110.26432285,4136.87499433,4091.27322262,4099.32767305,4094.17669923,4095.23589068,4137.49089425,4104.22458175,4110.91427683,4097.46077565,4112.28819829,165.718432835
off_to_on,4100.35683942,4107.5798356,4110.2980148,4136.88038056,4090.57099484,4098.69217687,4093.2241712,4094.33008063,4137.43078146,4102.99047152,4110.44394166,4096.30802871,4111.47740151,125.151896756
off_to_on,4100.04017717,4106.73236052,4110.30533814,4136.88205813,4089.92065444,4098.07873869,4092.28359406,4093.47036852,4137.36224242,4101.77857983,4109.98542395,4095.24026701,4110.71710513,85.0856804961
off_to_on,4099.71014993,4105.92590171,4110.27139997,4136.87975106,4089.32439553,4097.49686,4091.37087518,4092.67040648,4137.28695879,4100.60945243,4109.542781,4094.27241427,4110.01477574,46.2468723888
off_to_on,4099.35852975,4105.16544091,4110.18151394,4136.87330592,4088.78231597,4096.95488411,4090.50117836,4091.94230384,4137.20689709,4099.50130458,4109.1190538,4093.41526998,4109.37500207,9.35453460027
off_to_on,4098.97701818,4104.45364127,4110.02179748,4136.86270473,4088.29249099,4096.45976857,4089.68848201,4091.29628359,4137.12423378,4098.46943443,4108.7162176,4092.67517634,4108.79942219,-24.9041073247
off_to_on,4098.55756749,4103.79086392,4109.77975419,4136.84807352,4087.85112029,4096.01690994,4088.94516642,4090.74038052,4137.04127226,4097.52574289,4108.33517319,4092.05384609,4108.28675782,-55.8966696363
off_to_on,4098.09270786,4103.17527112,4109.44481475,4136.82968599,4087.45274211,4095.63002536,4088.28164158,4090.28018914,4136.96035543,4096.67837496,4107.97577736,4091.54835424,4107.83295113,-83.0669585639
off_to_on,4097.5758673,4102.60300965,4109.00881171,4136.80796184,4087.09050519,4095.30109406,4087.70602692,4089.91866912,4136.88377704,4095.93149359,4107.63690979,4091.15129182,4107.43139601,-105.953870873
off_to_on,4097.00167178,4102.0684653,4108.4663664,4136.78345953,4086.75648819,4095.0303601,4087.22389411,4089.65601565,4136.81369562,4095.28519292,4107.31657265,4090.8510743,4107.07325355,-124.207145769
off_to_on,4096.36621382,4101.56457733,4107.8151707,4136.75686338,4086.44205506,4094.81639624,4086.83808355,4089.48960155,4136.75205405,4094.73555371,4107.01201809,4090.63239329,4106.74783931,-137.599378716
off_to_on,4095.66727931,4101.08320059,4107.05615143,4136.72896542,4086.13823388,4094.65622736,4086.54860413,4089.41399671,4136.70050814,4094.2748393,4106.71989849,4090.476796,4106.4430684,-146.033834189
off_to_on,4094.9045243,4100.61550147,4106.19351043,4136.70064207,4085.83610672,4094.54550995,4086.35262365,4089.42106941,4136.66036666,4093.89182659,4106.43643371,4090.36337348,4106.14594368,-149.547731815
off_to_on,4094.0795955,4100.1523737,4105.23463921,4136.67282662,4085.52719735,4094.47876179,4086.24455447,4089.50017131,4136.63254525,4093.57226213,4106.15758956,4090.26953604,4105.84307165,-148.310829263
off_to_on,4093.19619016,4099.68485973,4104.18991219,4136.64647807,4085.20384363,4094.44963351,4086.21623451,4089.63840533,4136.61753557,4093.29942934,4105.87926134,4090.17185129,4105.52119041,-142.619287706
off_to_on,4092.26005318,4099.20456308,4103.07236771,4136.62254738,4084.85954156,4094.45121103,4086.25720007,4089.82097237,4136.61539104,4093.05480923,4105.59745672,4090.04691875,4105.16769391,-132.884979276
off_to_on,4091.27891145,4098.70403812,4101.89729038,4136.60194248,4084.48924875,4094.47633628,4086.35504269,4090.03158941,4136.6257291,4092.81881297,4105.3084721,4089.87225308,4104.77113737,-119.620571379
off_to_on,4090.26234732,4098.17714371,4100.68171222,4136.58549301,4084.08963615,4094.51793254,4086.49583844,4090.25296841,4136.64775009,4092.57156197,4105.00905728,4089.62714732,4104.32170845,-103.420887222
off_to_on,4089.22161515,4097.61934833,4099.44385283,4136.57391646,4083.6592786,4094.56932025,4086.66463487,4090.46734218,4136.68027152,4092.29368803,4104.69656333,4089.29348721,4103.81164986,-84.9411868723
off_to_on,4088.16940625,4097.02797571,4098.20252124,4136.56778653,4083.19877658,4094.62450958,4086.84597789,4090.65702097,4136.72177643,4091.96712478,4104.3690689,4088.85648803,4103.23561919,-64.8731367596
off_to_on,4087.11956903,4096.40238137,4096.97650298,4136.56750533,4082.71080407,4094.67845694,4087.02445914,4090.80496124,4136.77047378,4091.57586042,4104.02548091,4088.30532691,4102.59097352,-43.919336733
off_to_on,4086.08679202,4095.74405282,4095.78395615,4136.57328013,4082.20007966,4094.72727402,4087.18526319,4090.89532707,4136.82436847,4091.10662265,4103.66560588,4087.63364605,4101.87796739,-22.7673465257
off_to_on,4085.08625838,4095.05662873,4094.64183932,4136.58510575,4081.67326141,4094.76838052,4087.31469411,4090.914024,4136.88133837,4090.54946807,4103.2901893,4086.83990603,4101.09985582,-2.06418977312
off_to_on,4084.13328139,4094.34583504,4093.56539264,4136.60275339,4081.13876804,4094.80059456,4087.40066131,4090.84918557,4136.93921521,4089.89825158,4102.90092128,4085.92757321,4100.26289612,17.6076900219
off_to_on,4083.24293063,4093.61933931,4092.56769074,4136.62576643,4080.60653259,4094.82415727,4087.43310583,4090.69159392,4136.99586638,4089.15095578,4102.50040783,4084.90513078,4099.37624615,35.75208984
off_to_on,4082.42965876,4092.88652766,4091.65928313,4136.65346363,4080.08769652,4094.84069135,4087.4043505,4090.43501779,4137.04927434,4088.30986536,4102.09210845,4083.78590947,4098.45175984,51.9774721298
off_to_on,4081.70693906,4092.15821171,4090.84793416,4136.68495021,4079.59425476,4094.8530962,4087.30936064,4090.07645445,4137.0976106,4087.3815778,4101.68024189,4082.58774068,4097.50368431,66.0114184497
off_to_on,4081.08692319,4091.4462757,4090.13847075,4136.71913667,4079.13866416,4094.8653851,4087.14590605,4089.61626599,4137.13930161,4086.37684802,4101.26966313,4081.33244132,4096.54826692,77.7105223058
off_to_on,4080.58012873,4090.76327647,4089.53274185,4136.75476515,4078.73342876,4094.88247231,4086.91461908,4089.0582046,4137.17308399,4085.31027126,4100.86571551,4080.04514616,4095.60328355,87.0653020629
off_to_on,4080.19516461,4090.12201044,4089.02968918,4136.79044298,4078.39067673,4094.90992009,4086.61894774,4088.40932588,4137.19804714,4084.19981476,4100.47406321,4078.75350959,4094.68750269,94.1999030617
off_to_on,4079.9385023,4089.5350634,4088.62552478,4136.8246824,4078.12174362,4094.95365705,4086.26500711,4087.6797937,4137.21366194,4083.06621519,4100.10050944,4077.48680392,4093.8201023,99.36655841
off_to_on,4079.81429923,4089.01435972,4088.31400685,4136.85594536,4077.9367767,4095.01968068,4085.86133643,4086.8825841,4137.21979445,4081.93226443,4099.75080697,4076.27494653,4093.02005916,102.934981821
off_to_on,4079.82428014,4088.57072816,4088.08680212,4136.8826922,4077.84437454,4095.11375741,4085.41857368,4086.03310029,4137.21670441,4080.82201145,4099.43046754,4075.14749173,4092.30553201,105.377063677
off_to_on,4079.96768089,4088.21350076,4087.93391989,4136.9034325,4077.85127451,4095.24113407,4084.94906198,4085.14871352,4137.20502874,4079.75991164,4099.14457722,4074.13262534,4091.69326058,107.247425871
off_to_on,4080.24125735,4087.95016013,4087.84419997,4136.91677635,4077.96209963,4095.40627313,4084.46640461,4084.24824735,4137.18575093,4078.76995662,4098.89762408,4073.25619991,4091.19800214,109.160555955
off_to_on,4080.63936007,4087.78604775,4087.80583469,4136.92148413,4078.17917364,4095.61262304,4083.98498601,4083.35142371,4137.16015751,4077.87481784,4098.69334405,4072.54084662,4090.83202522,111.765379485
off_to_on,4081.1540731,4087.72414341,4087.80690336,4136.91651272,4078.50241045,4095.86243277,4083.51947691,4082.47828993,4137.12978354,4077.09503583,4098.53458995,4072.0051962,4090.60467807,115.718233929
off_to_on,4081.77541338,4087.76492306,4087.83589742,4136.90105598,4078.92928183,4096.15661734,4083.08434139,4081.64864562,4137.09634942,4076.44828491,4098.42322748,4071.66323703,4090.52204628,121.655274488
off_to_on,4082.49158471,4087.90629917,4087.88221481,4136.87457789,4079.4548638,4096.49467899,4082.69336372,4080.88148809,4137.06169147,4075.94873987,4098.36006131,4071.52383304,4090.58671102,130.165370312
off_to_on,4083.28927907,4088.14364524,4087.93660392,4136.83683663,4080.07195986,4096.87468637,4082.35921151,4080.19449389,4137.02768907,4075.60656726,4098.34479303,4071.5904182,4090.79761614,141.76453711
off_to_on,4084.15401608,4088.46990312,4087.99153945,4136.78789849,4080.77129673,4097.29331204,4082.09305052,4079.60355216,4136.99619142,4075.42755924,4098.37601207,4071.86087799,4091.15004887,156.872897841
off_to_on,4085.07051068,4088.87576909,4088.04151582,4136.72814089,4081.54178554,4097.74592673,4081.90422376,4079.12236341,4136.96894637,4075.4129227,4098.45121961,4072.32762138,4091.6357351,175.795069764
off_to_on,4086.02305791,4089.34995254,4088.08324691,4136.65824405,4082.37084019,4098.22674659,4081.80000455,4078.76211405,4136.94753443,4075.55923061,4098.56688442,4072.97783978,4092.24304662,198.704748648
off_to_on,4086.9959238,4089.87949867,4088.11576509,4136.57917127,4083.24474179,4098.72902763,4081.78542985,4078.53123428,4136.93331005,4075.85853671,4098.71852916,4073.79394291,4092.95731415,225.634103906
off_to_on,4087.97373145,4090.45016501,4088.14041671,4136.49213847,4084.14903737,4099.24529922,4081.86321641,4078.43524338,4136.92735253,4076.29864844,4098.90084453,4074.75415521,4093.76123676,256.468416308
off_to_on,4088.94183214,4091.04683997,4088.16075527,4136.39857384,4085.06895905,4099.76762627,4082.03375843,4078.47668367,4136.9304282,4076.86354764,4099.10782849,4075.83325064,4094.63537505,290.94619055
off_to_on,4089.88665218,4091.65399015,4088.18233805,4136.30006923,4085.98984961,4100.28788812,4082.29520216,4078.65514103,4136.94296515,4077.53394301,4099.33294675,4077.0033991,4095.5587128,328.66476756
off_to_on,4090.79600745,4092.25612256,4088.21243537,4136.19832512,4086.89758015,4100.79806152,4082.64358938,4078.96734718,4136.96504137,4078.28793385,4099.56931034,4078.2350936,4096.5092696,369.091253554
off_to_on,4091.65937854,4092.83824721,4088.25966566,4136.09509155,4087.77894576,4101.2904948,4083.07306025,4079.40735654,4136.99638639,4079.10176088,4099.80986555,4079.49812451,4097.46474507,411.578381006
off_to_on,4092.46814108,4093.3863259,4088.3335722,4135.99210729,4088.62202661,4101.75816164,4083.57610447,4079.96678864,4137.03639636,4079.95061706,4100.0475911,4080.76256613,4098.40317457,455.384729337
off_to_on,4093.21574689,4093.88769337,4088.44415999,4135.89103972,4089.41650322,4102.19488371,4084.14384973,4080.63512584,4137.08416146,4080.80948966,4100.27569728,4081.99974026,4099.30357578,499.698568926
off_to_on,4093.89785356,4094.33143842,4088.60141284,4135.79342789,4090.15391688,4102.59551359,4084.7663763,4081.40005491,4137.1385046,4081.65400405,4100.48782174,4083.18312347,4100.14656636,543.664456735
off_to_on,4094.51240101,4094.7087338,4088.8148113,4135.70063083,4090.82786841,4102.95607131,4085.43304675,4082.24784089,4137.19802935,4082.46124006,4100.67821645,4084.28916725,4100.91493369,586.411609009
off_to_on,4095.05963474,4095.01310578,4089.09287223,4135.61378343,4091.4341509,4103.27382978,4086.1328401,4083.16372093,4137.26117526,4083.21049354,4100.84192071,4085.2980044,4101.59413974,627.08301048
off_to_on,4095.54207615,4095.24063595,4089.44272909,4135.53376144,4091.97081389,4103.54734669,4086.85467951,4084.13230631,4137.32627793,4083.88395752,4100.9749153,4086.19401956,4102.17274585,664.864194321
off_to_on,4095.96444098,4095.39008988,4089.86977058,4135.46115724,4092.43815855,4103.77644252,4087.58774345,4085.13798121,4137.39163152,4084.4673008,4101.074253,4086.96626713,4102.64274496,699.010642756
off_to_on,4096.33350732,4095.46296946,4090.37735214,4135.39626729,4092.83866526,4103.96212666,4088.32175155,4086.16528803,4137.455551,4084.95012528,4101.1381617,4087.6087256,4102.99979131,728.872812503
off_to_on,4096.65793593,4095.46348763,4090.96659183,4135.33909174,4093.17685642,4104.10647619,4089.04721818,4087.19929057,4137.5164317,4085.32628787,4101.1661166,4088.12038385,4103.24332128,753.917880321
off_to_on,4096.94804605,4095.39846661,4091.63625826,4135.28934619,4093.45909954,4104.21247401,4089.7556689,4088.22590778,4137.57280382,4085.59407787,4101.15887903,4088.50516092,4103.37656234,773.747429636
off_to_on,4097.21555195,4095.27716319,4092.38275496,4135.24648505,4093.69335671,4104.28381546,4090.43981663,4089.23221253,4137.62337996,4085.75624632,4101.11850022,4088.77166794,4103.40643146,788.110453976
off_to_on,4097.47326601,4095.11102682,4093.20020141,4135.20973539,4093.88888844,4104.3246936,4091.09369655,4090.20669106,4137.66709386,4085.81988939,4101.04828952,4088.93282629,4103.34332799,796.911228991
off_to_on,4097.73477602,4094.91339806,4094.08060727,4135.17813992,4094.05592098,4104.33957463,4091.71275971,4091.13945999,4137.7031292,4085.79619329,4100.95274727,4089.00536156,4103.20082971,800.21179599
off_to_on,4098.01410447,4094.69915691,4095.01413286,4135.1506073,4094.20528738,4104.33297506,4092.29392709,4092.02243932,4137.73093753,4085.70005281,4100.83746378,4089.00919644,4102.99530367,798.229000254
off_to_on,4098.32535876,4094.48433128,4095.9894251,4135.12596759,4094.34805361,4104.30925224,4092.83560649,4092.84948035,4137.75024519,4085.54957942,4100.70898656,4088.96676811,4102.74544562,791.326228631
off_to_on,4098.68238065,4094.28567672,4096.99401557,4135.10303067,4094.49514184,4104.27241878,4093.33767527,4093.6164486,4137.76104906,4085.36551778,4100.57465882,4088.90229673,4102.4717634,780.000183871
off_to_on,4099.09840373,4094.12023867,4098.01476443,4135.08064494,4094.6569634,4104.2259905,4093.80143177,4094.3212618,4137.76360205,4085.1705915,4100.44243304,4088.84103137,4102.19602038,764.863211274
off_to_on,4099.58572686,4094.00490834,4099.03833257,4135.05775393,4094.8430739,4104.17287592,4094.22951792,4094.96388336,4137.75838913,4084.98879994,4100.32066401,4088.80849852,4101.94065491,746.621851258
off_to_on,4100.15541136,4093.95598318,4100.05166302,4135.03344838,4095.06186267,4104.11531307,4094.62581536,4095.54627186,4137.74609525,4084.844688,4100.21788628,4088.82977562,4101.72819098,726.052423264
off_to_on,4100.81700876,4093.98874182,4101.04245231,4135.0070116,4095.32028754,4104.05485715,4094.99531714,4096.07228743,4137.72756696,4084.76261007,4100.14258128,4088.92880912,4101.58065409,703.974545613
off_to_on,4101.5783248,4094.11704315,4101.99959278,4134.9779561,4095.6236642,4103.99241967,4095.34397713,4096.54755627,4137.70376943,4084.76600792,4100.1029395,4089.12779229,4101.51900475,681.223559841
off_to_on,4102.44522404,4094.35295781,4102.91356771,4134.94605003,4095.9755175,4103.92835649,4095.67853972,4096.9792949,4137.67574092,4084.87672066,4100.10662319,4089.44661446,4101.56260039,658.622856162
off_to_on,4103.42147809,4094.70643964,4103.77678315,4134.91133213,4096.37749944,4103.86259947,4096.00635235,4097.37609636,4137.64454682,4085.11434293,4100.16053506,4089.90238925,4101.72869527,636.957087852
off_to_on,4104.50865875,4095.18504403,4104.58382222,4134.87411472,4096.82937587,4103.79482412,4096.33516407,4097.7476811,4137.61123508,4085.4956454,4100.27059846,4090.50906583,4102.03198665,616.94721581
off_to_on,4105.70607686,4095.79369909,4105.3316115,4134.83497461,4097.32908183,4103.72464382,4096.67291412,4098.10461676,4137.57679511,4086.0340702,4100.44155464,4091.27712516,4102.48421501,599.228243323
off_to_on,4107.01076671,4096.53453552,4106.01949253,4134.79473254,4097.87284315,4103.65182095,4097.02751548,4098.45801237,4137.54212168,4086.7393122,4100.67678282,4092.2133612,4103.09382607,584.330390872
off_to_on,4108.41751587,4097.40678055,4106.64919573,4134.75442184,4098.45535991,4103.57648436,4097.40663942,4098.81919461,4137.50798528,4087.61699611,4100.97814911,4093.32074656,4103.86570197,572.664325972
off_to_on,4109.91893964,4098.40672049,4107.22471855,4134.7152477,4099.07004523,4103.49934231,4097.81750776,4099.19937485,4137.47500986,4088.66845781,4101.34589007,4094.59838138,4104.80096907,564.510906377
off_to_on,4111.50559913,4099.52773526,4107.75211301,4134.67853862,4099.70931086,4103.42187951,4098.26669884,4099.60931696,4137.44365867,4089.89063665,4101.77853648,4096.04152377,4105.89688866,560.015720713
off_to_on,4113.16616113,4100.7604065,4108.23919232,4134.64569167,4100.36488896,4103.34652644,4098.75997293,4100.05901577,4137.41422843,4091.27608289,4102.27288187,4097.64169912,4107.14683566,559.188525552
off_to_on,4114.88759733,4102.09269867,4108.69516881,4134.61811375,4101.02817767,4103.27678951,4099.30212124,4100.557396,4137.38685172,4092.81308173,4102.82399926,4099.38688505,4108.54036853,561.907489762
off_to_on,4116.65541995,4103.5102106,4109.1302388,4134.5971608,4101.69059711,4103.21733163,4099.89684241,4101.11204121,4137.36150708,4094.48589239,4103.42530814,4101.26176758,4110.06339147,567.927973904
off_to_on,4118.45395041,4104.99649245,4109.55513188,4134.58407749,4102.34394145,4103.17399456,4100.54664956,4101.72896127,4137.33803601,4096.2750981,4104.06869211,4103.24806396,4111.69840788,576.895404646
off_to_on,4120.26661674,4106.53342097,4109.98064358,4134.57993952,4102.98071304,4103.15375718,4101.25281058,4102.41240632,4137.31616581,4098.15805934,4104.74466589,4105.32490608,4113.42486177,588.361662379
off_to_on,4122.07627522,4108.10162368,4110.41717104,4134.58560108,4103.59442488,4103.16462712,4102.01532337,4103.16473356,4137.29553691,4100.10946041,4105.44258888,4107.46927815,4115.21956097,601.804289651
off_to_on,4123.86555077,4109.68094073,4110.87427082,4134.6016495,4104.17985909,4103.21546657,4102.83292748,4103.98633168,4137.27573323,4102.10193603,4106.1509206,4109.65650084,4117.05717387,616.647747299
off_to_on,4125.61719008,4111.25091179,4111.36025683,4134.62836912,4104.73327071,4103.31575702,4103.70315193,4104.87560608,4137.25631406,4104.10676251,4106.85751156,4111.86075327,4118.91078894,632.285891701
off_to_on,4127.31442094,4112.79127412,4111.88185471,4134.66571573,4105.25252858,4103.47531082,4104.62239857,4105.82902546,4137.23684573,4106.09459552,4107.54992209,4114.05562315,4120.7525243,648.10482271
off_to_on,4128.94131,4114.28245734,4112.44392561,4134.71330288,4105.73718743,4103.70394009,4105.58605766,4106.84122845,4137.21693177,4108.03623448,4108.21575972,4116.2146741,4122.55417285,663.505261416
off_to_on,4130.48311041,4115.70606009,4113.04926958,4134.7704006,4106.1884884,4104.01109566,4106.58865137,4107.90518584,4137.19623998,4109.90339198,4108.8430251,4118.31201798,4124.28786672,677.923659438
off_to_on,4131.92659018,4117.04529415,4113.69851476,4134.83594691,4106.60928761,4104.40548962,4107.62399874,4109.01241231,4137.17452527,4111.66944557,4109.42045558,4120.32287901,4125.92674398,690.851312202
off_to_on,4133.26033214,4118.2853826,4114.39009484,4134.90857177,4107.00391598,4104.89471622,4108.68539494,4110.15321932,4137.15164723,4113.310149,4109.93785506,4122.22413603,4127.44559959,701.850842269
off_to_on,4134.47499648,4119.41390013,4115.12031414,4134.98663289,4107.37797598,4105.48488602,4109.76579759,4111.31700034,4137.12758175,4114.80428059,4110.38639928,4123.99482899,4128.82150311,710.569529471
off_to_on,4135.56353835,4120.42104611,4115.88349624,4135.06826212,4107.73808391,4106.18028797,4110.85801284,4112.49253846,4137.1024262,4116.13420843,4110.75890575,4125.61661696,4130.0343661,716.749084714
off_to_on,4136.52137359,4121.29984333,4116.67220913,4135.15142086,4108.09156878,4106.98309428,4111.95487473,4113.66832647,4137.07639809,4117.28635464,4111.050059,4127.07417553,4131.06744365,720.231587877
off_to_on,4137.34648708,4122.04625782,4117.47755736,4135.2339625,4108.44614046,4107.89312186,4113.04941239,4114.83288959,4137.04982729,4118.25154457,4111.25658317,4128.35552381,4131.90775634,720.961436885
off_to_on,4138.03947972,4122.65923808,4118.28952925,4135.31369966,4108.80954143,4108.90766354,4114.1350006,4115.97510102,4137.02314239,4119.0252305,4111.37735569,4129.45227247,4132.54642118,718.983287422
off_to_on,4138.60355141,4123.1406743,4119.09738557,4135.38847399,4109.18919729,4110.02140003,4115.20549028,4117.08448162,4136.99685178,4119.60758382,4111.41345796,4130.35978648,4132.97888262,714.436101163
off_to_on,4139.04441941,4123.49528078,4119.89007465,4135.45622609,4109.59188129,4111.22640109,4116.25531643,4118.15147494,4136.97152049,4120.00345357,4111.36816112,4131.07725822,4133.20503739,707.543560898
off_to_on,4139.37017287,4123.730407,4120.65665843,4135.51506329,4110.02340737,4112.51222057,4117.27958127,4119.16768967,4136.94774392,4120.22219301,4111.24684701,4131.60768841,4133.22924956,698.601247067
off_to_on,4139.5910661,4123.8557846,4121.38673306,4135.56332279,4110.48836469,4113.8660859,4118.27411097,4120.12610211,4136.9261196,4120.27735949,4111.0568664,4131.95777421,4133.06025484,687.961095569
off_to_on,4139.71925434,4123.88321885,4122.07082791,4135.59962814,4110.98990412,4115.27317808,4119.2354846,4121.02121194,4136.90721838,4120.18629601,4110.80733837,4132.13770543,4132.71095535,676.013765037
off_to_on,4139.76847712,4123.82623397,4122.70076735,4135.62293697,4111.52958469,4116.7169936,4120.16103448,4121.84914587,4136.8915564,4119.96960534,4110.50889609,4132.16087158,4132.19810857,663.169627746
off_to_on,4139.75369544,4123.69968207,4123.26998121,4135.6325782,4112.10728475,4118.17977595,4121.04881796,4122.60770518,4136.87956896,4119.65053071,4110.17338586,4132.04348463,4131.54191634,649.839157515
off_to_on,4139.69069092,4123.51932634,4123.7737519,4135.6282773,4112.72118006,4119.64300117,4121.89756162,4123.29635541,4136.8715876,4119.25425927,4109.81352764,4131.80412481,4130.76552265,636.413517108
off_to_on,4139.59563664,4123.30140926,4124.20938969,4135.61016867,4113.36778802,4121.08790001,4122.7065806,4123.91615862,4136.86782136,4118.80716724,4109.44254653,4131.46321955,4129.8944315,623.246144875
off_to_on,4139.48465148,4123.06221759,4124.57633072,4135.57879446,4114.04207518,4122.49599782,4123.47567692,4124.46965129,4136.86834324,4118.33602842,4109.07378608,4131.04246884,4128.95585916,610.636105144
off_to_on,4139.3733505,4122.81765588,4124.87615638,4135.53508983,4114.73762265,4123.84965321,4124.20502206,4124.96067354,4136.87308239,4117.86720913,4108.72031507,4130.56423263,4127.97803768,598.813900133
off_to_on,4139.2764054,4122.58284011,4125.11253562,4135.48035487,4115.4468429,4125.13257626,4124.89502978,4125.39415693,4136.88182283,4117.42587471,4108.39454017,4130.0508983,4126.98948843,587.930345268
off_to_on,4139.20712847,4122.37172256,4125.29109511,4135.41621406,4116.16123912,4126.3303082,4125.54622615,4125.77588064,4136.89420877,4117.03523234,4108.1078369,4129.52424767,4126.01828578,578.048988363
off_to_on,4139.17709364,4122.19675741,4125.41922394,4135.3445642,4116.87169773,4127.43064567,4126.15912421,4126.11220668,4136.90975653,4116.71583487,4107.87021103,4129.00484364,4125.09133182,569.142410993
off_to_on,4139.1958071,4122.06861552,4125.50582168,4135.26751257,4117.56880288,4128.42399482,4126.7341105,4126.40980555,4136.92787258,4116.48496881,4107.69000171,4128.51145687,4124.23366283,561.092593161
off_to_on,4139.27043826,4121.99595425,4125.56099951,4135.18730694,4118.24316153,4129.30364266,4127.27135067,4126.67538414,4136.94787693,4116.35614694,4107.57363631,4128.06055142,4123.46780755,553.695356618
off_to_on,4139.40562015,4121.98524688,4125.59574535,4135.10626001,4118.88572673,4130.06593621,4127.77071929,4126.91542657,4136.96903078,4116.3387225,4107.525445,4127.66584641,4122.813216,546.668734498
off_to_on,4139.60332617,4122.04067387,4125.62156439,4135.02667073,4119.4881075,4130.71036299,4128.23175843,4127.13595771,4136.99056704,4116.43763804,4107.54754136,4127.33796852,4122.28577565,539.664952466
off_to_on,4139.86282818,4122.16407712,4125.65010708,4134.95074539,4120.04285342,4131.23952964,4128.65366676,4127.34233751,4137.01172233,4116.65331708,4107.63977285,4127.08420678,4121.89742957,532.285555809
off_to_on,4140.18073811,4122.35497684,4125.69279636,4134.88052138,4120.54370361,4131.6590385,4129.03531935,4127.53909211,4137.03176881,4116.9817023,4107.79974278,4126.90837804,4121.65590812,524.099084329
off_to_on,4140.55113291,4122.61064914,4125.76046614,4134.81779654,4120.9857902,4131.97726496,4129.37531598,4127.72978573,4137.05004437,4117.41443853,4108.02290266,4126.81080757,4121.5645825,514.6605879
off_to_on,4140.96575951,4122.92626144,4125.86302169,4134.76406685,4121.36578901,4132.2050416,4129.67205442,4127.9169356,4137.06597975,4117.93919446,4108.30271198,4126.78842519,4121.62244512,503.532194753
off_to_on,4141.41431418,4123.29506146,4126.00913219,4134.72047496,4121.68201178,4132.35525912,4129.9238246,4128.10197086,4137.07912138,4118.54011239,4108.63085972,4126.83497391,4121.82421802,490.303895318
off_to_on,4141.88478832,4123.70861476,4126.20596431,4134.68777148,4121.93443706,4132.44239707,4130.12891908,4128.28523534,4137.08914881,4119.19837174,4108.9975409,4126.94132447,4122.16058712,474.613688964
off_to_on,4142.36387035,4124.15708475,4126.45896373,4134.66629093,4122.1246792,4132.48200077,4130.28575512,4128.46603282,4137.09588605,4119.8928483,4109.39177912,4127.09588597,4122.61855654,456.166259856
off_to_on,4142.83739173,4124.62954792,4126.77168994,4134.65594307,4122.25589718,4132.49012272,4130.39300324,4128.64271227,4137.09930632,4120.60084839,4109.80178536,4127.28509993,4123.18191344,434.74940074
off_to_on,4143.29080285,4125.11433614,4127.14570701,4134.65622045,4122.33264733,4132.48274817,4130.44971638,4128.81278866,4137.09953006,4121.29889436,4110.21534172,4127.49400191,4123.83178988,410.247487783
off_to_on,4143.70966357,4125.59939634,4127.58053076,4134.66622191,4122.36068536,4132.47522454,4130.45545327,4128.97309383,4137.09681634,4121.9635354,4110.62019809,4127.70683183,4124.54730466,382.651422131
off_to_on,4144.08013176,4126.07265713,4128.07363065,4134.68469149,4122.34672553,4132.48171376,4130.41038783,4129.11994947,4137.0915481,4122.5721562,4111.00446892,4127.9076713,4125.30626415,352.064590208
off_to_on,4144.38943282,4126.52239019,4128.62048279,4134.71007134,4122.29816555,4132.51468559,4130.31539614,4129.24935283,4137.08421202,4123.10375484,4111.35701678,4128.08108404,4126.08589782,318.704549527
off_to_on,4144.62629314,4126.93755442,4129.21466889,4134.74056679,4122.22278763,4132.58446827,4130.17211168,4129.35716471,4137.07537389,4123.53966177,4111.66780945,4128.21273406,4126.8636021,282.900313562
off_to_on,4144.78132124,4127.30811063,4129.84801555,4134.77422102,4122.12844695,4132.69887085,4129.98294119,4129.43928875,4137.06565073,4123.86417334,4111.92823805,4128.2899568,4127.61766515,245.085281608
off_to_on,4144.84732206,4127.62529569,4130.51076744,4134.80899666,4122.02275922,4132.86288989,4129.7510356,4129.49183261,4137.05568084,4124.06507652,4112.13138463,4128.30225931,4128.32794558,205.786030471
off_to_on,4144.81953211,4127.8818468,4131.19178834,4134.84286091,4121.91279954,4133.07851011,4129.48021389,4129.51124315,4137.04609324,4124.13404546,4112.27222983,4128.24172888,4128.97647981,165.607347554
off_to_on,4144.69576574,4128.07216834,4131.8787839,4134.87387094,4121.80482396,4133.34460645,4129.17484169,4129.49441045,4137.03747781,4124.0668955,4112.34779329,4128.10333262,4129.54799601,125.214033058
off_to_on,4144.47646674,4128.19243613,4132.5585408,4134.90025608,4121.70402494,4133.6569517,4128.8396702,4129.43873805,4137.03035743,4123.86368607,4112.35720195,4127.88509568,4130.0303161,85.3101266465
off_to_on,4144.16466273,4128.24063667,4133.21717765,4134.92049318,4121.61433006,4134.00833082,4128.47964395,4129.34217933,4137.02516334,4123.52866969,4112.3016844,4127.58815073,4130.41463245,46.6163161329
off_to_on,4143.76582415,4128.21654109,4133.84040356,4134.93337212,4121.53825213,4134.38875957,4128.09968804,4129.20324157,4137.02221473,4123.07009043,4112.18449172,4127.21665731,4130.69565084,9.84635850228
off_to_on,4143.2876333,4128.12161643,4134.41378125,4134.93804841,4121.47679657,4134.78580107,4127.70448639,4129.020961,4137.02170337,4122.49984111,4112.01074822,4126.77759488,4130.8715969,-24.3166158243
off_to_on,4142.73967284,4127.95887936,4134.92299226,4134.93408089,4121.42942982,4135.1849705,4127.29826281,4128.79485326,4137.02368392,4121.83299357,4111.78723796,4126.28043888,4130.94408871,-55.2430377295
off_to_on,4142.13304637,4127.73269989,4135.35410175,4134.92145244,4121.39411084,4135.57021525,4126.88457659,4128.52484481,4137.02807029,4121.08722123,4111.5221351,4125.73673367,4130.91788359,-82.3782224114
off_to_on,4141.47994633,4127.44856439,4135.69382131,4134.90057301,4121.36738541,4135.92445554,4126.46614418,4128.2111922,4137.03463805,4120.28213679,4111.22468842,4125.15958034,4130.800512,-105.26128943
off_to_on,4140.79318675,4127.11280948,4135.92976748,4134.87226439,4121.34454152,4136.23016896,4126.04469802,4127.85439667,4137.0430329,4119.43857118,4110.90487177,4124.56306092,4130.60181585,-123.540976648
off_to_on,4140.08571968,4126.73233909,4136.05071388,4134.83772735,4121.31982155,4136.47000142,4125.62089275,4127.45512247,4137.05278489,4118.57782181,4110.57301372,4123.96162343,4130.33341232,-136.987755086
off_to_on,4139.37015457,4126.31433807,4136.04683447,4134.79849224,4121.28668522,4136.62738587,4125.19426772,4127.01412787,4137.06332761,4117.72089988,4110.23942037,4123.36945423,4130.00810741,-145.501776917
off_to_on,4138.65830039,4125.86599569,4135.90993464,4134.75635504,4121.23811458,4136.68715,4124.7632724,4126.53221656,4137.07402179,4116.88780581,4109.91400604,4122.79986526,4129.6392852,-149.116325166
off_to_on,4137.96074868,4125.39425122,4135.6336667,4134.71330164,4121.16695015,4136.63609398,4124.32535795,4126.01021626,4137.08418219,4116.09686081,4109.6059456,4122.26472263,4129.2402997,-147.996581795
off_to_on,4137.28651418,4124.9055724,4135.21372484,4134.67142344,4121.06624559,4136.46351907,4123.87713416,4125.44898828,4137.09310684,4115.36411922,4109.32336141,4121.77394156,4128.82389501,-142.433692707
off_to_on,4136.64274622,4124.40577465,4134.64801439,4134.63282789,4120.92962601,4136.16168868,4123.41458621,4124.84946897,4137.10010718,4114.70288217,4109.07305579,4121.33506868,4128.40167751,-132.834281604
off_to_on,4136.03452052,4123.89988605,4133.93678882,4134.59954767,4120.75163475,4135.72620427,4122.93334139,4124.21274049,4137.10453816,4114.12332786,4108.86029745,4120.95296848,4127.98366025,-119.705740167
off_to_on,4135.46471693,4123.39206048,4133.08274791,4134.57345246,4120.52805274,4135.15628022,4122.42897194,4123.54012551,4137.10582696,4113.63226832,4108.68866804,4120.62962552,4127.57789588,-103.637787182
off_to_on,4134.9339852,4122.88553837,4132.09109024,4134.55616703,4120.25617525,4134.45490469,4121.89731781,4122.83329815,4137.10349928,4113.23303746,4108.55997252,4120.36406902,4127.19021009,-85.280935498
off_to_on,4134.44079794,4122.38265303,4130.96951427,4134.54899916,4119.93503256,4133.62887693,4121.33481133,4122.09440221,4137.09720229,4112.92551017,4108.47421473,4120.15242195,4126.82404371,-65.3226307937
off_to_on,4133.98158727,4121.88487898,4129.72816334,4134.55288045,4119.56554296,4132.68871575,4120.73878586,4121.32616697,4137.0867234,4112.70624812,4108.4296376,4119.98807224,4126.48040737,-44.4619286014
off_to_on,4133.55095929,4121.39291722,4128.37951158,4134.56832255,4119.15058973,4131.64843908,4120.10775067,4120.53201079,4137.07200403,4112.5687637,4108.42282529,4119.86195979,4126.15794881,-23.383649288
off_to_on,4133.14197785,4120.90681158,4126.93818952,4134.59539057,4118.6950169,4130.52521954,4119.44161693,4119.7161231,4137.05314802,4112.50388971,4108.44886282,4119.76296863,4125.8531283,-2.7329870082
off_to_on,4132.74650655,4120.42608889,4125.42074992,4134.63369465,4118.20554223,4129.33892592,4118.74186143,4118.88351695,4137.03042404,4112.50023942,4108.50154658,4119.67840961,4125.56049373,16.9084551581
off_to_on,4132.35559565,4119.94991511,4123.84537641,4134.68240006,4117.69058967,4128.1115648,4118.01161845,4118.04004549,4137.00426192,4112.5447381,4108.57363786,4119.59457573,4125.27304267,35.0442741168
off_to_on,4131.95989885,4119.47725887,4122.23153948,4134.74025512,4117.16004672,4126.8666401,4117.25569319,4117.19237828,4136.97524287,4112.62320555,4108.65714971,4119.49734882,4124.98265504,51.281669575
off_to_on,4131.55010391,4119.00705336,4120.5996063,4134.8056356,4116.62495525,4125.62845193,4116.48049425,4116.34793528,4136.94408386,4112.72096674,4108.74365663,4119.37283425,4124.68057737,65.345905864
off_to_on,4131.11736045,4118.53834835,4118.970413,4134.8766038,4116.09714682,4124.42135806,4115.69388701,4115.51477868,4136.91161665,4112.82346715,4108.82461528,4119.20799809,4124.3579367,77.0902438984
off_to_on,4130.65368862,4118.07044414,4117.36480992,4134.95097956,4115.5888364,4123.26902373,4114.90497382,4114.70146488,4136.87876231,4112.91686912,4108.89168471,4118.99128092,4124.00626135,86.5009241071
off_to_on,4130.1523532,4117.60300145,4115.80319199,4135.02642035,4115.1121899,4122.19368612,4114.12381082,4113.91686083,4136.8465023,4112.98860654,4108.93703418,4118.71316256,4123.61798529,93.6969686417
off_to_on,4129.60818934,4117.13612242,4114.30502796,4135.10050714,4114.67888309,4121.21545965,4113.36107448,4113.16993063,4136.81584715,4113.02787753,4108.95362774,4118.36665358,4123.18691342,98.9247707194
off_to_on,4129.01786796,4116.67040005,4112.88840287,4135.17083263,4114.29966964,4120.35170684,4112.62769269,4112.46949979,4136.78780402,4113.02605699,4108.93547547,4117.94769224,4122.70862714,102.547642088
off_to_on,4128.3800911,4116.20693504,4111.5695884,4135.23508845,4113.98397658,4119.61649655,4111.93445682,4111.82400518,4136.7633444,4112.97701446,4108.87784303,4117.45542848,4122.18081175,105.030686552
off_to_on,4127.69570991,4115.74732107,4110.36265532,4135.29114789,4113.73954409,4119.02016792,4111.29163144,4111.2412399,4136.74337308,4112.87732636,4108.77741246,4116.89238126,4121.60349084,106.921550968
off_to_on,4126.96776085,4115.29360065,4109.27914131,4135.33714126,4113.5721252,4118.56901437,4110.70857816,4110.72810295,4136.72869944,4112.72637627,4108.63238959,4116.26446031,4120.97915683,108.827769309
off_to_on,4126.20141845,4114.84819573,4108.32778605,4135.37152087,4113.48525805,4118.26509737,4110.19340955,4110.29036402,4136.72001196,4112.52634082,4108.44255513,4115.58084887,4120.31279123,111.391553137
off_to_on,4125.40386597,4114.41381736,4107.51434324,4135.39311361,4113.4801205,4118.10619504,4109.75268726,4109.93245346,4136.71785671,4112.28206331,4108.20925851,4114.85374889,4119.6117722,115.262985701
off_to_on,4124.5840879,4113.99335953,4106.84147664,4135.40115915,4113.55547292,4118.08588604,4109.39117662,4109.65728613,4136.72262029,4112.00082051,4107.93535567,4114.0979956,4118.88567165,121.072643438
off_to_on,4123.75259063,4113.58978241,4106.30874447,4135.39533276,4113.70769141,4118.19376453,4109.11166733,4109.46612663,4136.73451758,4111.69199186,4107.62509339,4113.33055313,4118.14594841,129.404696531
off_to_on,4122.92106068,4113.20599049,4105.91267343,4135.37575202,4113.93089004,4118.41577792,4108.91486729,4109.35850165,4136.75358465,4111.36664367,4107.28394503,4112.56990823,4117.40554833,140.771527825
off_to_on,4122.10197164,4112.844711,4105.64692065,4135.34296769,4114.21712703,4118.73467567,4108.79937384,4109.33216358,4136.77967666,4111.03704427,4106.9184042,4111.8353833,4116.67842699,155.590855279
off_to_on,4121.30815372,4112.50837857,4105.50251908,4135.29793913,4114.55668662,4119.13055371,4108.76172303,4109.38310767,4136.81247092,4110.71612864,4106.53574427,4111.14639461,4115.97901409,174.16625018
off_to_on,4120.55234116,4112.19903167,4105.46819862,4135.24199548,4114.9384253,4119.58147619,4108.79651469,4109.50564277,4136.85147473,4110.41693371,4106.14375335,4110.52168371,4115.32164179,196.671816582
off_to_on,4119.8467141,4111.91822596,4105.53077291,4135.17678427,4115.35016809,4120.06415418,4108.8966073,4109.69251376,4136.8960379,4110.15202637,4105.75045499,4109.97855247,4114.71996108,223.141641408
off_to_on,4119.20245204,4111.66696903,4105.67557904,4135.10420957,4115.77913895,4120.55465905,4109.05337423,4109.93507137,4136.94536939,4109.93294709,4105.36382537,4109.53213223,4114.18637122,253.464443681
off_to_on,4118.62931535,4111.44567957,4105.88695556,4135.02636235,4116.21240721,4121.02914755,4109.25700993,4110.22348347,4136.99855766,4109.76969123,4104.99151771,4109.1947167,4113.73148626,287.383653215
off_to_on,4118.13527022,4111.25417232,4106.1487422,4134.94544601,4116.6373322,4121.46457525,4109.49687213,4110.54697987,4137.0545942,4109.67024836,4104.64060394,4108.97518588,4113.36366131,324.502943148
off_to_on,4117.72617062,4111.09166851,4106.44478412,4134.8637001,4117.04198769,4121.83937572,4109.76184448,4110.89412134,4137.11239938,4109.64021706,4104.31734282,4108.87854418,4113.08859771,364.297034381
off_to_on,4117.40550867,4110.95682987,4106.75942272,4134.78332537,4117.41554939,4122.13408345,4110.04070268,4111.25308267,4137.17085003,4109.68250977,4104.02698217,4108.90559177,4112.9090432,406.127389684
off_to_on,4117.17424258,4110.84781311,4107.077956,4134.70641276,4117.74863024,4122.33188081,4110.32246779,4111.61193948,4137.22880786,4109.79715841,4103.77360145,4109.05274279,4112.82459912,449.26222925
off_to_on,4117.03070849,4110.76234101,4107.38705229,4134.63487877,4118.0335504,4122.41905218,4110.59673134,4111.95894871,4137.28514794,4109.98122793,4103.55999957,4109.31199898,4112.83164263,492.900136742
off_to_on,4116.97061997,4110.69778553,4107.67510344,4134.57040913,4118.26453203,4122.38533128,4110.85393933,4112.28281374,4137.33878646,4110.2288408,4103.38763028,4109.67108109,4112.92336776,536.196390807
off_to_on,4116.98715549,4110.65125797,4107.93250555,4134.51441236,4118.43781187,4122.22413224,4111.08562509,4112.57292618,4137.38870689,4110.53131092,4103.25658643,4110.11371473,4113.08994426,578.291055282
off_to_on,4117.0711317,4110.61970123,4108.15185835,4134.46798428,4118.55166858,4121.93265868,4111.28458377,4112.81957796,4137.43398393,4110.87738173,4103.16563175,4110.62006162,4113.31878859,618.337796023
off_to_on,4117.21125701,4110.59997939,4108.32807764,4134.43188442,4118.6063658,4121.51188956,4111.44498548,4113.01413934,4137.47380448,4111.25355961,4103.11227754,4111.1672821,4113.59493732,655.532367611
off_to_on,4117.39445748,4110.58896024,4108.45841835,4134.40652449,4118.60401575,4120.96644516,4111.56242674,4113.14919977,4137.50748509,4111.64453083,4103.09289999,4111.7302107,4113.90150954,689.139729145
off_to_on,4117.60626417,4110.58358704,4108.54240942,4134.3919692,4118.54837172,4120.30433998,4111.63392344,4113.21867032,4137.53448555,4112.03364738,4103.10289263,4112.2821223,4114.22024127,718.518802499
off_to_on,4117.83124843,4110.58093598,4108.58170477,4134.38794897,4118.44456093,4119.53663304,4111.65784979,4113.21784712,4137.55441836,4112.40346444,4103.13684672,4112.79556322,4114.53207245,743.143977009
off_to_on,4118.05348961,4110.57825702,4108.57985763,4134.39388375,4118.29877143,4118.67698918,4111.63382929,4113.14343623,4137.56705388,4112.73630996,4103.18875225,4113.24321806,4114.81776459,762.622589551
off_to_on,4118.25705845,4110.57299644,4108.54202883,4134.40891686,4118.11790837,4117.74116771,4111.56258459,4112.99354076,4137.57232141,4113.01486536,4103.25221099,4113.59878192,4115.05852652,776.707762725
off_to_on,4118.4264996,4110.5628016,4108.4746422,4134.43195732,4117.90923593,4116.74645736,4111.44575407,4112.76761246,4137.57030603,4113.2227363,4103.32065342,4113.83780751,4115.23662571,785.306158642
off_to_on,4118.54729755,4110.54551019,4108.38500273,4134.46172891,4117.68002131,4115.71107856,4111.28568472,4112.46637101,4137.56124157,4113.34499313,4103.38755193,4113.93849807,4115.33596463,788.480395393
off_to_on,4118.60631163,4110.51912758,4108.28089501,4134.49682403,4117.4371966,4114.65357542,4111.08521217,4112.09169578,4137.54549991,4113.3686624,4103.44662315,4113.88241969,4115.34260313,786.446071943
off_to_on,4118.59216727,4110.48179717,4108.17018013,4134.53576038,4117.18705292,4113.59221951,4110.84744002,4111.64649632,4137.52357703,4113.28315289,4103.49201336,4113.65511001,4115.24521068,779.563546719
off_to_on,4118.49559234,4110.43176876,4108.06040918,4134.57703834,4116.93497933,4112.54444695,4110.5755306,4111.13456833,4137.49607639,4113.08060188,4103.51846186,4113.24656363,4115.03543443,768.324806327
off_to_on,4118.30968889,4110.36736967,4107.95847071,4134.6191971,4116.68525633,4111.52634764,4110.27251831,4110.56044205,4137.46369021,4112.75613043,4103.52143793,4112.65157899,4114.70817162,753.335937067
off_to_on,4118.03013236,4110.28698252,4107.87028741,4134.66086747,4116.44091091,4110.55222246,4109.94115389,4109.92922895,4137.42717948,4112.30799896,4103.49724841,4111.86995505,4114.261738,735.295868278
off_to_on,4117.6552921,4110.18903252,4107.80057462,4134.70081955,4116.20363653,4109.6342203,4109.58378496,4109.24647085,4137.38735317,4111.73765779,4103.44311331,4110.90653124,4113.69792646,714.972186857
off_to_on,4117.18626888,4110.07198584,4107.7526698,4134.73800367,4115.97377856,4108.78206261,4109.20227481,4108.51799411,4137.34504742,4111.04969098,4103.35720873,4109.77106799,4113.021954,693.174920149
off_to_on,4116.62684756,4109.93435954,4107.72843857,4134.77158328,4115.75038209,4108.00285969,4108.79795917,4107.74977025,4137.30110521,4110.25165537,4103.238677,4108.47797131,4112.24229872,670.729247168
off_to_on,4115.98336555,4109.77474281,4107.72825897,4134.8009588,4115.53129665,4107.30101952,4108.37163905,4106.94778392,4137.25635706,4109.3538212,4103.08760537,4107.04586957,4111.37043231,648.448125464
off_to_on,4115.26450032,4109.59182822,4107.75108209,4134.82578166,4115.31333016,4106.6782473,4107.92360667,4106.11790933,4137.21160331,4108.3688247,4102.904976,4105.49705691,4110.42045752,627.105811665
off_to_on,4114.48098198,4109.38445127,4107.79456414,4134.84595842,4115.09244256,4106.13363151,4107.45370079,4105.26579654,4137.16759838,4107.31124629,4102.69259041,4103.85682219,4109.40866307,607.413207067
off_to_on,4113.64523945,4109.15163542,4107.85526177,4134.86164491,4114.86396856,4105.66380937,4106.96138643,4104.39676865,4137.12503741,4106.19713122,4102.45297267,4102.15268648,4108.35301104,589.9958786
off_to_on,4112.77099121,4108.89263909,4107.92888075,4134.87323092,4114.6228578,4105.26320231,4106.44585287,4103.5157311,4137.08454558,4105.04347035,4102.18925556,4100.41357457,4107.27257345,575.375495917
off_to_on,4111.87279365,4108.60700073,4108.01056515,4134.88131626,4114.3639205,4104.92430933,4105.90612226,4102.62709307,4137.04667027,4103.86765963,4101.90505424,4098.66894782,4106.18693647,563.955291748
off_to_on,4110.96556191,4108.29457782,4108.09521329,4134.88667915,4114.08206664,4104.63804443,4105.34116053,4101.73470086,4137.01187599,4102.68695669,4101.6043318,4096.94792581,4105.11559053,556.009997544
off_to_on,4110.06407883,4107.9555756,4108.17780417,4134.89023845,4113.77252699,4104.39410268,4104.74998145,4100.84178215,4136.98054212,4101.51795179,4101.29126071,4095.27842424,4104.07732558,551.680533883
off_to_on,4109.1825078,4107.59056203,4108.25371798,4134.89301115,4113.43104522,4104.18133876,4104.13173526,4099.95089968,4136.9529632,4100.37606926,4100.97008408,4093.68633481,4103.08964918,550.973551762
off_to_on,4108.33392494,4107.20046527,4108.31903315,4134.89606688,4113.05403169,4103.98814218,4103.48577415,4099.06391273,4136.92935138,4099.27511348,4100.64497985,4092.19477131,4102.16824472,553.765734283
off_to_on,4107.52988454,4106.78655142,4108.37078373,4134.90048143,4112.63867136,4103.80279418,4102.81168901,4098.18194532,4136.90984101,4098.2268721,4100.31993109,4090.82340369,4101.32648508,559.812586636
off_to_on,4106.78003085,4106.350381,4108.40716169,4134.90729089,4112.18298156,4103.61379414,4102.10931436,4097.30536076,4136.89449461,4097.2407866,4099.99860516,4089.58789927,4100.57501621,568.761275806
off_to_on,4106.09176794,4105.89374476,4108.42765222,4134.91744805,4111.68581776,4103.41014555,4101.37870158,4096.43374352,4136.88331007,4096.32369891,4099.68424484,4088.49948764,4099.92142329,580.166940802
off_to_on,4105.4699978,4105.4185809,4108.43309357,4134.93178252,4111.14682949,4103.1815954,4100.62006341,4095.56589026,4136.87622844,4095.47967997,4099.3795743,4087.56466199,4099.36999049,593.511784626
off_to_on,4104.91693515,4104.92687737,4108.42565805,4134.95096577,4110.5663706,4102.91882309,4099.83369471,4094.69981266,4136.87314193,4094.7099437,4099.08672279,4086.78502576,4098.92156239,608.226179252
off_to_on,4104.43200492,4104.42056387,4108.40875571,4134.97548197,4109.9453713,4102.61357814,4099.01987627,4093.83275446,4136.8739017,4094.01284669,4098.8071684,4086.15728843,4098.57351233,623.710961987
off_to_on,4104.01182562,4103.90139847,4108.38686655,4135.00560545,4109.28518039,4102.25876771,4098.17876885,4092.96122538,4136.87832496,4093.38397092,4098.54170345,4085.67340912,4098.31981858,639.360078169
off_to_on,4103.65027896,4103.37085401,4108.36531108,4135.04138534,4108.587388,4101.84849686,4097.31030512,4092.0810534,4136.8862012,4092.81628397,4098.29042215,4085.32088118,4098.15124536,654.582734984
off_to_on,4103.33866288,4102.83000924,4108.34997254,4135.08263781,4107.85363927,4101.37806597,4096.41408727,4091.18745709,4136.89729733,4092.30036874,4098.05273013,4085.08314654,4098.05562216,668.824273894
off_to_on,4103.06592301,4102.27944974,4108.34698847,4135.12894604,4107.08545003,4100.8439314,4095.48929772,4090.27513855,4136.91136146,4091.82471339,4097.82737482,4084.94012414,4098.01821099,681.585039854
off_to_on,4102.81895614,4101.7191845,4108.3624372,4135.1796679,4106.28403562,4100.24363689,4094.53463104,4089.338398,4136.92812549,4091.37605168,4097.61249503,4084.86883442,4098.02214963,692.436619064
off_to_on,4102.58297939,4101.14858492,4108.4020567,4135.23395146,4105.45016414,4099.57572542,4093.54825578,4088.37127184,4136.94730647,4090.93974523,4097.40568869,4084.8441011,4098.04895783,701.034927525
off_to_on,4102.34196092,4100.56635522,4108.47104808,4135.29075785,4104.58404625,4098.83964425,4092.5278173,4087.367698,4136.96860701,4090.50020137,4097.20409802,4084.83931278,4098.07909443,707.129752718
off_to_on,4102.07910974,4099.97054436,4108.57402711,4135.34889135,4103.68527329,4098.03565749,4091.47049348,4086.32171381,4136.99171479,4090.04132319,4097.00451255,4084.82722898,4098.09255466,710.570474141
off_to_on,4101.77742377,4099.35861009,4108.71519126,4135.40703611,4102.75281493,4097.16478168,4090.3731155,4085.22769233,4137.01630172,4089.54699002,4096.80349046,4084.78081731,4098.06949738,711.30781491
off_to_on,4101.42029417,4098.72754425,4108.89876263,4135.46379868,4101.78508531,4096.22875893,4089.23236303,4084.08062169,4137.04202284,4089.0015669,4096.59749868,4084.67410915,4097.990893,709.391608725
off_to_on,4100.9921621,4098.07406569,4109.12975136,4135.5177554,4100.78008342,4095.23007955,4088.0450397,4082.87642972,4137.06851558,4088.39044084,4096.38307148,4084.48306098,4097.83918247,704.96470447
off_to_on,4100.47921965,4097.39488336,4109.41505999,4135.56750334,4099.73560914,4094.17206236,4086.80842952,4081.61235251,4137.09539946,4087.70057957,4096.15698589,4084.18640722,4097.59893844,698.253270623
off_to_on,4099.87014238,4096.68702689,4109.76492059,4135.61171312,4098.6495518,4093.05899613,4085.5207292,4080.28734162,4137.12227671,4086.92110531,4095.91645099,4083.76648834,4097.25752089,689.553897078
off_to_on,4099.15683525,4095.94823712,4110.19462483,4135.64918172,4097.52024234,4091.89633956,4084.18154507,4078.90250024,4137.14873413,4086.04387292,4095.65930616,4083.21003568,4096.80571975,679.218016497
off_to_on,4098.33516871,4095.1774031,4110.72647519,4135.67888328,4096.34685557,4090.69097142,4082.79243655,4077.46153351,4137.17434619,4085.06403766,4095.38422193,4082.50889217,4096.23837638,667.634274696
off_to_on,4097.40567625,4094.37502713,4111.39185495,4135.70001571,4095.12984344,4089.45147615,4081.35748207,4075.97119402,4137.19867965,4083.98059448,4095.09089519,4081.66064571,4095.55497266,655.20956451
off_to_on,4096.37418117,4093.54369447,4112.23328754,4135.71204085,4093.87137708,4088.18844516,4079.88383782,4074.44169893,4137.22129978,4082.79686687,4094.78022942,4080.66915051,4094.76017217,642.349495712
off_to_on,4095.2523171,4092.68852079,4113.30633554,4135.71471655,4092.57577193,4086.91477017,4078.38225571,4072.88709191,4137.24177787,4081.52092129,4094.4544897,4079.54491056,4093.86429267,629.439101634
off_to_on,4094.05790717,4091.81754873,4114.6811776,4135.70811862,4091.24986953,4085.64590219,4076.86752522,4071.32552196,4137.2597002,4080.16588134,4094.11742242,4078.30530008,4092.883685,616.824579279
off_to_on,4092.81516783,4090.94206446,4116.44370016,4135.69265131,4089.90334959,4084.40004975,4075.35880377,4069.77941056,4137.27467788,4078.75011623,4093.77432974,4076.97459805,4091.84098981,604.796823478
off_to_on,4091.55470754,4090.07680675,4118.69595009,4135.66904534,4088.54894756,4083.19829058,4073.8798026,4068.27548072,4137.2863575,4077.2972798,4093.43209031,4075.58381725,4090.76524228,593.577447977
off_to_on,4090.31329603,4089.24004371,4121.55581407,4135.6383428,4087.20255557,4082.06457281,4072.45879867,4066.84462454,4137.29443207,4075.83617908,4093.09911919,4074.17031325,4089.6917947,583.307889656
off_to_on,4089.13338686,4088.45349663,4125.15582002,4135.60186911,4085.88318853,4081.02558515,4071.12844829,4065.52159047,4137.29865173,4074.40045551,4092.78526169,4072.77716462,4088.66202918,574.042069987
off_to_on,4088.06238406,4087.74209554,4129.64099269,4135.56119265,4084.61280181,4080.11047924,4069.92538478,4064.34447707,4137.29883385,4073.02806761,4092.50161823,4071.45232213,4087.7228368,565.742945244
off_to_on,4087.15165352,4087.13355749,4135.16573976,4135.51807371,4083.41595277,4079.35043321,4068.88959019,4063.35402758,4137.29487203,4071.76056997,4092.26029952,4070.24753288,4086.92584593,558.28311952
off_to_on,4086.45528973,4086.65778645,4141.88979185,4135.47440434,4082.31930501,4078.77805218,4068.06354052,4062.59272726,4137.28674356,4070.64219201,4092.07411446,4069.21705344,4086.32639137,551.449528726
off_to_on,4086.02865977,4086.34610192,4149.97327033,4135.43214168,4081.35098103,4078.4266094,4067.49113377,4062.10371493,4137.27451502,4069.71872814,4091.95619594,4068.41617536,4085.98222666,544.952036331
off_to_on,4085.92675764,4086.2303123,4159.57100587,4135.39323707,4080.53977662,4078.32914055,4067.2164209,4061.92952975,4137.25834581,4069.03626115,4091.91957341,4067.89959554,4085.95199452,538.435619424
off_to_on,4086.20241253,4086.34165754,4170.82627742,4135.3595638,4079.91425734,4078.51741196,4067.28217116,4062.11072402,4137.23848929,4068.63974925,4091.97670367,4067.71967272,4086.2934832,531.495673582
off_to_on,4086.90440448,4086.70965356,4183.86418223,4135.33284617,4079.50176516,4079.02079245,4067.72831353,4062.6843827,4137.21529155,4068.57151662,4092.13897461,4067.92461931,4087.06171001,523.695833261
off_to_on,4088.07554854,4087.36087748,4198.78488169,4135.31459263,4079.32736865,4079.86506581,4068.59030628,4063.68259853,4137.18918733,4068.86969402,4092.41619881,4068.55668443,4088.30688503,514.58759635
off_to_on,4089.75081467,4088.31773837,4215.6569915,4135.30603547,4079.412796,4081.07122732,4069.89749387,4065.13095868,4137.16069349,4069.56666258,4092.81611549,4069.65038863,4090.07231939,503.730961902
off_to_on,4091.95555359,4089.59728153,4234.51139893,4135.30807961,4079.77539262,4082.65431232,4071.67151633,4067.04710301,4137.13039954,4070.68755739,4093.34392079,4071.23087397,4092.39235097,490.715242033
off_to_on,4094.7039001,4091.21007662,4255.33579087,4135.32126228,4080.4271472,4084.62230763,4073.92483892,4069.4394163,4137.09895571,4072.24889024,4094.00184657,4073.31243409,4095.29036773,475.179194756
off_to_on,4097.99742307,4093.15923922,4278.07016648,4135.34572531,4081.37382957,4086.97519695,4076.65946949,4072.30591549,4137.06705849,4074.25735036,4094.78880788,4075.89728741,4098.77701236,456.829644731
off_to_on,4101.82408671,4095.43963362,4302.6035845,4135.38120115,4082.61428116,4089.70418956,4079.86592799,4075.63338918,4137.03543405,4076.70883944,4095.70013787,4078.97465204,4102.84865224,435.457812804
off_to_on,4106.15758011,4098.03729988,4328.77236078,4135.42701326,4084.13989523,4092.79117747,4083.52252594,4079.39684039,4137.00481985,4079.58779191,4096.72742677,4082.52017433,4107.48619526,410.952660716
off_to_on,4110.95706088,4100.92914174,4356.3598857,4135.48209102,4085.93431756,4096.20845916,4087.5950045,4083.55927406,4136.97594506,4082.86682328,4097.85847847,4086.49575288,4112.65432389,383.310671033
off_to_on,4116.16734583,4104.08290356,4385.09817615,4135.54499889,4087.97339151,4099.91875949,4092.0365679,4088.07186008,4136.94951013,4086.50673941,4099.07739424,4090.84978758,4118.30120841,352.641619716
off_to_on,4121.71956637,4107.45745401,4414.67121473,4135.61397906,4090.22536251,4103.8755648,4096.78833528,4092.87448968,4136.92616637,4090.45692708,4100.36478865,4095.51786939,4124.3587447,319.170054211
off_to_on,4127.53228977,4111.00338326,4444.72006238,4135.68700647,4092.65134793,4108.02378085,4101.78021866,4097.89672873,4136.90649612,4094.65613298,4101.6981377,4100.42391048,4130.74334374,283.232357378
off_to_on,4133.51309072,4114.66390823,4474.84966182,4135.76185448,4095.20606861,4112.30070863,4106.93221877,4103.05915687,4136.89099408,4099.03362402,4103.05225397,4105.48169893,4137.35727983,245.269450291
off_to_on,4139.56054086,4118.37606888,4504.63718165,4135.83616905,4097.83882816,4116.6373212,4112.15611443,4108.27506554,4136.88005068,4103.51070721,4104.3998785,4110.59684535,4144.09058294,205.815357936
off_to_on,4145.56656755,4122.07218636,4533.64168705,4135.90754883,4100.49471667,4120.95981203,4117.35750506,4113.45247363,4136.87393806,4108.00257333,4105.71237396,4115.66907352,4150.82343883,165.482024511
off_to_on,4151.4191176,4125.68154293,4561.41486484,4135.97362815,4103.11600587,4125.19137425,4122.43815133,4118.49640504,4136.87279914,4112.4204145,4106.96049906,4120.59479205,4157.42903915,124.940912771
off_to_on,4157.00504838,4129.13223342,4587.5124817,4136.03215975,4105.64369431,4129.25415932,4127.29854513,4123.31136042,4136.8766404,4116.67375386,4108.11524015,4125.26987115,4163.77680361,84.902048917
off_to_on,4162.21315749,4132.35312959,4611.50621605,4136.08109407,4108.0191545,4133.07135532,4131.84062919,4127.80390552,4136.8853287,4120.67291488,4109.14867251,4129.59253802,4169.73587883,46.0912759746
off_to_on,4166.93725443,4135.27589273,4632.99547835,4136.11865212,4110.18582825,4136.56931826,4135.97057764,4131.88529147,4136.89859238,4124.33155043,4110.03482186,4133.46629695,4175.17880385,9.22655039992
off_to_on,4171.07917366,4137.83696608,4651.61882387,4136.14338898,4112.09091355,4139.67968529,4139.60154385,4135.47401873,4136.91602677,4127.56914695,4110.75049534,4136.80277642,4179.98522247,-25.00584387
off_to_on,4174.55162839,4139.9794781,4667.06456484,4136.15424575,4113.68698473,4142.34139732,4142.65627977,4138.49825583,4136.93710396,4130.31341797,4111.27605191,4139.52440567,4184.04551673,-55.9742840254
off_to_on,4177.28080782,4141.65498934,4679.08020824,4136.15058799,4114.93348862,4144.50255912,4145.06953297,4140.89802705,4136.96118677,4132.5025034,4111.5960833,4141.56682736,4187.26423509,-83.1231480412
off_to_on,4179.20862848,4142.82502043,4687.48037783,4136.13222913,4115.79806258,4146.1220693,4146.79013353,4142.62708964,4136.98754646,4134.08689637,4111.69997965,4142.88096022,4189.5631931,-105.991714528
off_to_on,4180.2945606,4143.46230555,4692.15292565,4136.09943812,4116.2576258,4147.17095904,4147.78269263,4143.65443103,4137.01538366,4135.03102758,4111.58235722,4143.43463674,4190.88413305,-124.229921244
off_to_on,4180.51696454,4143.55172516,4693.06299607,4136.05293092,4116.29920263,4147.63338824,4148.02884784,4143.96532904,4137.04385193,4135.31444825,4111.24333043,4143.21375485,4191.19084234,-137.610392074
off_to_on,4179.87388802,4143.09088233,4690.25487237,4135.99384616,4115.92044618,4147.50725871,4147.52800575,4143.56193296,4137.0720832,4134.93256631,4110.68861564,4142.22289875,4190.47064723,-146.036268542
off_to_on,4178.38329245,4142.09029932,4683.85151084,4135.92370581,4115.12984035,4146.80441722,4146.2975501,4142.46334057,4137.09921421,4133.89690559,4109.92945985,4140.48540217,4188.7352195,-149.54451921
off_to_on,4176.08269598,4140.57322438,4674.05174546,4135.84436248,4113.94657009,4145.55043515,4144.37250256,4140.70516356,4137.12441317,4132.23487447,4108.98239382,4138.04284657,4186.02065606,-148.30454922
off_to_on,4173.0282401,4138.5750521,4661.12522696,4135.75793526,4112.40006079,4143.78396628,4141.80464223,4138.338592,4137.14690565,4129.98904728,4107.86881533,4134.95400563,4182.38681656,-142.6120946
off_to_on,4169.29320627,4136.14237483,4645.40523838,4135.66673668,4110.52919974,4141.55569973,4138.66110875,4135.42898596,4137.16599881,4127.21597896,4106.61441438,4131.29326679,4177.91592948,-132.878559646
off_to_on,4164.96602754,4133.33169506,4627.27960393,4135.57319348,4108.38126344,4138.92693965,4135.02253171,4132.05403848,4137.18110329,4123.98458966,4105.24845805,4127.14857818,4172.71050244,-119.61613122
off_to_on,4160.14785698,4130.20784124,4607.17997451,4135.47976436,4106.0105854,4135.96785717,4130.98074602,4128.30156888,4137.19175169,4120.37417119,4103.80295789,4122.61898573,4166.89059725,-103.419168727
off_to_on,4154.94976941,4126.84213912,4585.56983069,4135.38885775,4103.47700764,4132.75547209,4126.63616724,4124.26701791,4137.19761337,4116.47208057,4102.31174717,4117.81183925,4160.59055259,-84.9425144038
off_to_on,4149.48968492,4123.31039913,4562.93158889,4135.30275283,4100.84416698,4129.3714313,4122.09491295,4120.0507266,4137.19850464,4112.37119675,4100.80949864,4112.83975742,4153.95525693,-64.8774930935
off_to_on,4143.88911181,4119.69078636,4539.75322756,4135.22352684,4098.17767233,4125.89965763,4117.46576483,4115.7550877,4137.19439434,4108.16722514,4099.33071592,4107.81744991,4147.13609075,-43.926472404
off_to_on,4138.26981223,4116.06164301,4516.51486698,4135.15299144,4095.54323288,4122.42394718,4112.85707046,4111.48166253,4137.18540431,4103.9559395,4097.90873261,4102.85849943,4140.28666914,-22.7769264985
off_to_on,4132.75049627,4112.49933494,4493.67573737,4135.09264028,4093.00479808,4119.02559392,4108.373686,4107.32835658,4137.17180488,4099.8304534,4096.57475273,4098.07220786,4133.55852327,-2.07598202399
off_to_on,4127.44364896,4109.07619223,4471.66195561,4135.04360969,4090.62276955,4115.78111946,4104.11405881,4103.3867449,4137.15400548,4095.87861212,4095.35696488,4093.56060839,4127.09686211,17.5935802509
off_to_on,4122.45258947,4105.85860978,4450.85550194,4135.00665344,4088.45234221,4112.76018129,4100.16754448,4099.7396325,4137.13254071,4092.18059142,4094.2797596,4089.41573937,4121.03655286,35.7349381042
off_to_on,4117.86885347,4102.9053677,4431.58474406,4134.9821324,4086.54202712,4110.02372642,4096.61204435,4096.45892699,4137.10805225,4088.80678223,4093.36307556,4085.71726614,4115.49845085,51.9556055977
off_to_on,4113.76997778,4100.26622204,4414.11680079,4134.97001898,4084.93240198,4107.62244839,4093.51203806,4093.60388911,4137.08126734,4085.81602902,4092.62189557,4082.53052443,4110.58619709,65.9818429614
off_to_on,4110.21775229,4097.98080659,4398.65197122,4134.96991592,4083.65512704,4105.59559452,4090.91707145,4091.21981364,4137.05297446,4083.25427669,4092.0659076,4079.90504337,4106.38358426,77.6685127141
off_to_on,4107.25698794,4096.07787426,4385.32038194,4134.98108805,4082.73225477,4103.97015745,4088.86074328,4089.33717685,4137.02399716,4081.15366507,4091.69934033,4077.87358891,4102.95257192,87.0039666665
off_to_on,4104.91483145,4094.57489482,4374.18092669,4135.00250542,4082.17585063,4102.760471,4087.36021652,4087.97127015,4136.99516679,4079.53209338,4091.52097594,4076.45174958,4100.33200792,94.1097366027
off_to_on,4103.20063888,4093.47801247,4365.22249264,4135.03289543,4081.98793183,4101.96821606,4086.41626101,4087.12232182,4136.9672954,4078.39325952,4091.52433698,4075.63806715,4098.53708852,99.2350014763
off_to_on,4102.10640096,4092.78235474,4358.36738867,4135.07080152,4082.16071961,4101.5828274,4086.01381593,4086.77609134,4136.94114973,4077.72716149,4091.69803796,4075.41469579,4097.55956375,102.746007376
off_to_on,4101.60769441,4092.47267201,4353.47681619,4135.11464567,4082.67718967,4101.5822786,4086.12304208,4086.9049048,4136.91742738,4077.51103189,4092.02628685,4075.74855489,4097.36866908,105.110813544
off_to_on,4101.6651163,4092.52427647,4350.35815478,4135.16279197,4083.51189547,4101.93420914,4086.70081792,4087.46908502,4136.89673631,4077.71066112,4092.48951661,4076.59292481,4097.91273972,106.879921035
off_to_on,4102.22614297,4092.90423994,4348.77377621,4135.21360857,4084.63202966,4102.59734619,4087.69261811,4088.41871714,4136.87957833,4078.28205239,4093.06512283,4077.88942021,4099.1214418,108.663504469
off_to_on,4103.22734199,4093.57280259,4348.45105239,4135.2655257,4085.99868141,4103.52316436,4089.03470187,4089.6956808,4136.86633731,4079.17334093,4093.72828041,4079.57026531,4100.90853432,111.1061045
off_to_on,4104.5968553,4094.48493848,4349.09318742,4135.31708783,4087.56824171,4104.65771984,4090.65652883,4091.23587188,4136.8572726,4080.32690258,4094.4528098,4081.56078639,4103.17505995,114.859741834
off_to_on,4106.25706389,4095.5920208,4350.39048245,4135.36699806,4089.29390469,4105.94359114,4092.48331407,4092.97153298,4136.85251764,4081.68157162,4095.21206256,4083.7820323,4105.81284981,120.556479335
off_to_on,4108.1273399,4096.84352723,4352.03163439,4135.41415367,4091.12721099,4107.32185647,4094.4386308,4094.83360954,4136.85208386,4083.17488621,4095.97979551,4086.15343156,4108.70821886,128.781485717
off_to_on,4110.12679053,4098.18872712,4353.71467672,4135.45767168,4093.01957926,4108.73403876,4096.44696869,4096.75404995,4136.85586927,4084.74528033,4096.73100418,4088.59539517,4111.74572481,140.047640976
off_to_on,4112.17689996,4099.57829358,4355.15719111,4135.49690393,4094.92377363,4110.12395191,4098.43615952,4098.66797195,4136.86367128,4086.33414499,4097.44268746,4091.03177882,4114.81186274,154.772668629
off_to_on,4114.20398076,4100.96578846,4356.10545277,4135.53144163,4096.79525865,4111.43938789,4100.33958877,4100.5156243,4136.87520275,4087.88768815,4098.09451884,4093.39212428,4117.79857295,173.259685855
off_to_on,4116.14135502,4102.30897386,4356.34221783,4135.5611095,4098.59339915,4112.63359259,4102.09812183,4102.24408233,4136.89011028,4089.35853192,4098.66940291,4095.6136101,4120.6064478,195.681935026
off_to_on,4117.93119691,4103.57091178,4355.69291663,4135.58595037,4100.28246959,4113.66648788,4103.66168639,4103.8086274,4136.90799373,4090.70699748,4099.15390056,4097.64265393,4123.14753702,222.072303242
off_to_on,4119.52598255,4104.72082251,4354.03007959,4135.60620106,4101.83244563,4114.50560859,4104.99046691,4105.17377353,4136.92842571,4091.90204137,4099.53851131,4099.43612303,4125.34766716,252.318054868
off_to_on,4120.88950848,4105.73468172,4351.27589072,4135.62226088,4103.21956014,4115.12673414,4106.05568281,4106.31391817,4136.95097013,4092.92182093,4099.81780682,4100.96212507,4127.14821046,286.161003435
off_to_on,4121.99745674,4106.59554671,4347.40283348,4135.6346543,4104.42661503,4115.51420672,4106.83993854,4107.21360866,4136.97519879,4093.75388131,4099.9904151,4102.2003674,4128.50725918,323.203142952
off_to_on,4122.83750181,4107.29361202,4342.43246453,4135.64398932,4105.44304964,4115.66093876,4107.33715012,4107.8674297,4137.00070527,4094.39497107,4100.05886042,4103.14208872,4129.40018401,362.917552222
off_to_on,4123.40897143,4107.82600452,4336.43241772,4135.65091366,4106.26477572,4115.56812429,4107.55206815,4108.27953131,4137.0271156,4094.85050731,4100.02926933,4103.78958322,4129.81957779,404.6641855
off_to_on,4123.72208983,4108.19633743,4329.51180305,4135.65607066,4106.89379752,4115.24467816,4107.49943165,4108.46282895,4137.05409525,4095.13372409,4099.91095763,4104.15535097,4129.77460764,447.709977067
off_to_on,4123.79684646,4108.41405067,4321.81522007,4135.66005677,4107.33764264,4114.70643655,4107.20279919,4108.43791879,4137.08135243,4095.26454928,4099.71591727,4104.26092194,4129.28981943,491.252524919
off_to_on,4123.66154626,4108.493572,4313.51565036,4135.6633828,4107.60863596,4113.97515924,4106.6931137,4108.23176031,4137.10863768,4095.26826423,4099.45822505,4104.13541078,4128.40345704,534.446485305
off_to_on,4123.35110793,4108.45333878,4304.80652848,4135.66644059,4107.72305279,4113.07737952,4106.00706545,4107.87618538,4137.13574019,4095.17400768,4099.15339751,4103.81386839,4127.16537429,576.431708699
off_to_on,4122.90518402,4108.31472347,4295.89331303,4135.66947665,4107.70019056,4112.0431515,4105.18532265,4107.40629746,4137.16248119,4095.01318956,4098.81771748,4103.3355011,4125.63463026,616.362083327
off_to_on,4122.36618092,4108.1009082,4286.98488947,4135.67257399,4107.56139913,4110.90474603,4104.27070198,4106.85882683,4137.18870523,4094.81788207,4098.4675584,4102.74183059,4123.87686664,653.434028473
off_to_on,4121.77725808,4107.83575353,4278.28513335,4135.67564273,4107.32910913,4109.69534587,4103.30635072,4106.27050664,4137.21426989,4094.61925341,4098.11873157,4102.0748668,4121.9615704,686.913596647
off_to_on,4121.18038367,4107.54270487,4269.98494732,4135.67841995,4107.02589556,4108.44778807,4102.33400865,4105.67653109,4137.23903489,4094.44610571,4097.78587992,4101.37536202,4119.95932543,716.161198684
off_to_on,4120.6145192,4107.24377732,4262.25505878,4135.6804786,4106.67361024,4107.19339748,4101.39241204,4105.10915144,4137.26285133,4094.32357207,4097.48193943,4100.68120862,4117.93915299,740.653057267
off_to_on,4120.11399851,4106.95865495,4255.23982848,4135.68124497,4106.29261178,4105.96094937,4100.51589452,4104.59645809,4137.28555181,4094.27202006,4097.21768643,4100.02603472,4115.96603465,759.998620095
off_to_on,4119.70715713,4106.70393504,4249.05227541,4135.68002391,4105.90111676,4104.77579271,4099.73323003,4104.16138843,4137.30694235,4094.30619906,4097.00138501,4099.43804294,4114.09870075,773.953318295
off_to_on,4119.41525668,4106.49254105,4243.77047195,4135.67603064,4105.51468984,4103.65915843,4099.06675234,4103.82099055,4137.32679647,4094.43465876,4096.8385452,4098.93912591,4112.38775505,782.426230973
off_to_on,4119.25173696,4106.33332035,4239.43540705,4135.6684277,4105.1458842,4102.62766896,4098.53177348,4103.58596203,4137.34485235,4094.6594542,4096.73179776,4098.54428096,4110.87419083,785.482406767
off_to_on,4119.2218149,4106.23083537,4236.05035731,4135.65636551,4104.80403723,4101.69305747,4098.13631136,4103.4604723,4137.3608132,4094.97614173,4096.68088728,4098.26133402,4109.58833765,783.339792063
off_to_on,4119.32243701,4106.18534908,4233.58174743,4135.63902503,4104.49522007,4100.86209663,4097.88112453,4103.44226572,4137.37435132,4095.37405894,4096.68278093,4098.09097119,4108.54926068,776.360915194
off_to_on,4119.54257833,4106.19299841,4231.96142573,4135.61566068,4104.22233361,4100.13672924,4097.76004102,4103.5230326,4137.38511581,4095.83687116,4096.73188595,4098.02706508,4107.76461748,765.039666896
off_to_on,4119.86386884,4106.24614222,4231.0902284,4135.58564216,4103.98533824,4099.51438544,4097.76055763,4103.68902487,4137.39274392,4096.3433576,4096.82036556,4098.05727225,4107.23095992,749.983693299
off_to_on,4120.2615153,4106.33386393,4230.84266033,4135.54849334,4103.78160051,4098.98846502,4097.86467632,4103.92188453,4137.39687564,4096.86840108,4096.93853884,4098.16386823,4106.93445263,731.893073667
off_to_on,4120.70547631,4106.44260299,4231.07248136,4135.50392674,4103.60633584,4098.5489576,4098.04993583,4104.19964436,4137.39717124,4097.3841378,4097.07534743,4098.3247783,4106.85196455,711.536084818
off_to_on,4121.1618381,4106.55688511,4231.6189577,4135.45187206,4103.45312391,4098.18316871,4098.29058976,4104.49785433,4137.39333091,4097.86121782,4097.21886931,4098.51475525,4106.95247712,689.722951435
off_to_on,4121.59433242,4106.66011795,4232.31351834,4135.39249743,4103.31447108,4097.87651698,4098.55887819,4104.79078276,4137.38511583,4098.27012327,4097.35685821,4098.70665141,4107.19874282,667.27854347
off_to_on,4121.96593301,4106.73541708,4232.98654774,4135.32622229,4103.18239372,4097.61336632,4098.82633827,4105.05264029,4137.37236946,4098.58248986,4097.47728665,4098.87272985,4107.54912047,645.015008443
off_to_on,4122.24046539,4106.7664274,4233.47404774,4135.25372115,4103.04899649,4097.3778574,4099.06510012,4105.25877513,4137.35503801,4098.77237854,4097.56887092,4098.98596067,4107.95951016,623.70531641
off_to_on,4122.3841661,4106.73810631,4233.62391388,4135.1759178,4102.90702113,4097.15470478,4099.24911694,4105.38679169,4137.33318877,4098.8174468,4097.62155741,4099.0212507,4108.38530964,604.058647928
off_to_on,4122.36713046,4106.63743792,4233.30159312,4135.09397001,4102.75034351,4096.92992905,4099.35528268,4105.41754852,4137.3070251,4098.69997424,4097.62695175,4098.95656013,4108.78331669,586.698473627
off_to_on,4122.16459409,4106.45405117,4232.39491978,4135.00924488,4102.57439961,4096.69149773,4099.36439629,4105.33599822,4137.27689691,4098.40770349,4097.57867497,4098.7738659,4109.11350689,572.144063737
off_to_on,4121.75800071,4106.18071975,4230.81796386,4134.92328579,4102.37652444,4096.42985297,4099.26193882,4105.13183896,4137.24330576,4097.93446506,4097.47263417,4098.45993932,4109.34062343,560.796031631
off_to_on,4121.13581795,4105.81372621,4228.51376806,4134.83777205,4102.15619189,4096.13830965,4099.03863809,4104.79995551,4137.20690372,4097.28056321,4097.30719845,4098.00691308,4109.43552452,552.926359748
off_to_on,4120.294073,4105.35307865,4225.45589593,4134.75447249,4101.91514764,4095.81331341,4098.69080478,4104.34063692,4137.16848573,4096.45290902,4097.08327499,4097.41262203,4109.37624469,548.673183262
off_to_on,4119.23659163,4104.8025742,4221.64876148,4134.67519485,4101.65743189,4095.45455388,4098.2204336,4103.75956734,4137.1289753,4095.4648969,4096.80428372,4096.68071062,4109.14873863,548.040423432
off_to_on,4117.97493587,4104.16970976,4217.12675868,4134.60173225,4101.38929304,4095.06493452,4097.63507318,4103.06759614,4137.08940356,4094.33603084,4096.47603331,4095.82050999,4108.7472891,550.90217633
off_to_on,4116.52804787,4103.46544673,4211.9522556,4134.53580878,4101.11899824,4094.65040584,4096.94747754,4102.28030289,4137.05088236,4093.0913172,4096.10650497,4094.84669678,4108.17457493,557.01158167
off_to_on,4114.92161913,4102.70384263,4206.21256061,4134.4790258,4100.85655046,4094.21967408,4096.17506051,4101.41738104,4137.01457167,4091.76045032,4095.70555421,4093.77875484,4107.44140828,566.013730909
off_to_on,4113.18721516,4101.9015678,4200.01600562,4134.4328108,4100.61332604,4093.78380203,4095.339182,4100.50187121,4136.98164253,4090.37682622,4095.28454416,4092.64026895,4106.56616359,577.46203397
off_to_on,4111.36119498,4101.07732991,4193.48732219,4134.39837076,4100.40164951,4093.35572307,4094.4643009,4099.55928047,4136.95323648,4088.97642611,4094.85592638,4091.45808576,4105.57393175,590.8373552
off_to_on,4109.48347175,4100.2512323,4186.76250918,4134.37665146,4100.23432464,4092.94969173,4093.57703295,4098.61662698,4136.93042283,4087.59661603,4094.43278697,4090.26138099,4104.49544217,605.569149719
off_to_on,4107.59616586,4099.44409334,4179.98340507,4134.36830427,4100.1241418,4092.58069568,4092.70515377,4097.70145049,4136.91415544,4086.27491064,4094.02837625,4089.08067349,4103.36580215,621.057778848
off_to_on,4105.74220355,4098.67675472,4173.29218339,4134.37366145,4100.08338202,4092.26385372,4091.87658718,4096.84082865,4136.90523064,4085.04774888,4093.65564046,4087.94682581,4102.22310748,636.697160135
off_to_on,4103.96391467,4097.96940526,4166.82598709,4134.39272092,4100.12333761,4092.01382404,4091.11841749,4096.06043708,4136.90424832,4083.94932692,4093.32677311,4086.89006892,4101.10698029,651.896917528
off_to_on,4102.30168121,4097.34094504,4160.71190562,4134.42514081,4100.25386829,4091.84424557,4090.45596259,4095.38368807,4136.91157788,4083.01052957,4093.05280222,4085.93908444,4100.0570899,666.103240097
off_to_on,4100.79268399,4096.80841136,4155.06247984,4134.47024424,4100.48300991,4091.76723307,4089.91194046,4094.83097827,4136.92733097,4082.25799634,4092.84322767,4085.12017348,4099.11171061,678.817728431
off_to_on,4099.46978981,4096.38648475,4149.97189365,4134.5270339,4100.81665043,4091.79294361,4089.50575773,4094.41906994,4136.95134245,4081.71335164,4092.70572046,4084.45653585,4098.30636613,689.613601406
off_to_on,4098.36061433,4096.08708929,4145.51298011,4134.59421612,4101.25828496,4091.92922833,4089.25294287,4094.1606248,4136.98316081,4081.39262225,4092.64589267,4083.96767812,4097.67260567,698.148746499
off_to_on,4097.4867883,4095.91909735,4141.73513458,4134.67023364,4101.80885837,4092.18137947,4089.16474075,4094.0639025,4137.0220489,4081.30585762,4092.66714459,4083.66896371,4097.23695057,704.175216855
off_to_on,4096.86344656,4095.8881448,4138.66318958,4134.75330598,4102.46670078,4092.55197875,4089.24787804,4094.13262967,4137.06699545,4081.45696107,4092.77059186,4083.57131272,4097.02004312,707.544901662
off_to_on,4096.49895032,4095.99655869,4136.29726786,4134.84147621,4103.22755781,4093.04084861,4089.50450204,4094.36603845,4137.11673741,4081.84373235,4092.95507324,4083.68105374,4097.03602147,708.211222853
off_to_on,4096.39484505,4096.2433951,4134.61359186,4134.93266279,4104.08471368,4093.64510446,4089.93228783,4094.75906707,4137.16979267,4082.45811439,4093.21723625,4083.99992494,4097.29213573,706.226843162
off_to_on,4096.54604774,4096.62458169,4133.56619184,4135.02471473,4105.02920229,4094.35930188,4090.5247025,4095.3027089,4137.22450225,4083.28663039,4093.55169542,4084.52521686,4097.78861176,701.737508609
off_to_on,4096.94124968,4097.13315617,4133.089422,4135.1154687,4106.05009752,4095.17567006,4091.27140961,4095.98449165,4137.27908083,4084.31099105,4093.9512555,4085.25004562,4098.51876067,694.972288372
do_nothing,4097.56351363,4097.75958916,4133.1011648,4135.20280636,4107.13487178,4096.08442007,4092.15879319,4096.78906413,4137.3316738,4085.50884638,4094.40719015,4086.16374129,4099.46932379,686.230610535
do_nothing,4098.39103794,4098.49217784,4133.50658051,4135.28471029,4108.26980916,4097.07411475,4093.17057735,4097.69886551,4137.38041898,4086.85465223,4094.90956472,4087.25233378,4100.62103507,675.866616813
do_nothing,4099.39805583,4099.31749511,4134.20224122,4135.35931722,4109.44045813,4098.13208605,4094.28851568,4098.69484985,4137.42351068,4088.32061832,4095.44759104,4088.49911606,4101.94937637,664.271466841
do_nothing,4100.55583425,4100.22087767,4135.08047814,4135.42496684,4110.6321081,4099.24488497,4095.49312388,4099.75723797,4137.45926393,4089.87770278,4096.01000099,4089.88526345,4103.42549464,651.854307687
do_nothing,4101.8337348,4101.18693627,4136.03376677,4135.48024515,4111.8302731,4100.39874887,4096.76442827,4100.86626827,4137.48617618,4091.49661695,4096.5854257,4091.39048675,4105.01724541,639.022682503
do_nothing,4103.20029824,4102.20007047,4136.95897744,4135.52402106,4113.02116632,4101.58007063,4098.0827037,4102.00291853,4137.50298427,4093.1488052,4097.16276704,4092.99369701,4106.69032326,626.163180378
do_nothing,4104.62431377,4103.24497079,4137.76132796,4135.55547524,4114.19214916,4102.77585405,4099.42917497,4103.14957195,4137.5087144,4094.80736539,4097.73154908,4094.67366013,4108.40943764,613.623125705
do_nothing,4106.07583618,4104.30709182,4138.35789041,4135.57412059,4115.33213936,4103.97414009,4100.78665748,4104.29060301,4137.50272297,4096.44787889,4098.28223778,4096.40962022,4110.13949195,601.694069107
do_nothing,4107.52711586,4105.37308063,4138.68052452,4135.57981363,4116.43196386,4105.16438904,4102.14011496,4105.41286153,4137.48472657,4098.04912235,4098.80651881,4098.1818722,4111.84672413,590.597774327
do_nothing,4108.95341099,4106.43114696,4138.6781354,4135.57275671,4117.48464378,4106.33780506,4103.47711479,4106.50603759,4137.45481994,4099.59363811,4099.29752464,4099.97226578,4113.49976931,580.475298675
do_nothing,4110.33365575,4107.47136353,4138.31818185,4135.55349075,4118.48560123,4107.48759096,4104.7881653,4107.56289424,4137.41348083,4101.0681455,4099.75000395,4101.76462568,4115.0706085,571.379642399
do_nothing,4111.65096458,4108.48588743,4137.58739241,4135.5228788,4119.43278012,4108.60912418,4106.06692346,4108.57936062,4137.36156138,4102.46378114,4100.16042862,4103.54507572,4116.5353717,563.272299508
do_nothing,4112.89295874,4109.4690967,4136.49167879,4135.48208053,4120.32667674,4109.70004774,4107.310267,4109.5544838,4137.30026626,4103.77616332,4100.52703547,4105.30225841,4117.87497012,556.023884863
do_nothing,4114.05190917,4110.41763914,4135.05526832,4135.43251851,4121.17027908,4110.76027344,4108.5182305,4110.49024378,4137.23111797,4105.00528152,4100.84980286,4107.02744553,4119.0755386,549.418846104
do_nothing,4115.12469652,4111.33039429,4133.31910796,4135.37583688,4121.9689173,4111.7918983,4109.69381108,4111.39124251,4137.15591062,4106.15521981,4101.13036458,4108.71453998,4120.12867763,543.16410118
do_nothing,4116.11259711,4112.20835285,4131.33862063,4135.31385372,4122.73003169,4112.79903813,4110.84265497,4112.26428316,4137.0766535,4107.23372871,4101.37186586,4110.35997373,4121.03149226,536.901279658
do_nothing,4117.02091001,4113.05442105,4129.18091894,4135.24850821,4123.46286668,4113.78758586,4111.97264132,4113.11786079,4136.99550657,4108.25166676,4101.57876886,4111.96251135,4121.78643378,530.222095433
do_nothing,4117.85844596,4113.87316054,4126.92160105,4135.18180418,4124.17810311,4114.76490483,4113.09338363,4113.96158963,4136.91471012,4109.22233777,4101.75661674,4113.52297297,4122.40095789,522.686246231
do_nothing,4118.63690347,4114.67047612,4124.64126747,4135.11575147,4124.88744193,4115.73946979,4114.21567234,4114.80559451,4136.83651092,4110.16075388,4101.91176678,4115.04389327,4122.88701962,513.841126838
do_nothing,4119.37016043,4115.45326539,4122.42190556,4135.05230699,4125.60315476,4116.72046952,4115.35088339,4115.65989499,4136.76308774,4111.08285606,4102.05110393,4116.52913497,4123.26043091,503.242562884
do_nothing,4120.07351177,4116.22904447,4120.34329084,4134.99331688,4126.33761683,4117.71738595,4116.51037753,4116.53381022,4136.69647879,4112.00472436,4102.18174626,4117.983476,4123.54010966,490.475723732
do_nothing,4120.76288454,4117.00556445,4118.47955003,4134.94046182,4127.10283828,4118.7395643,4117.70491373,4117.43541026,4136.63851369,4112.94180914,4102.31075314,4119.41218857,4123.74725188,475.17535844
do_nothing,4121.45406157,4117.79043247,4116.8960215,4134.89520693,4127.91000943,4119.79578873,4118.9440978,4118.37103679,4136.59075252,4113.90821206,4102.44484676,4120.82062744,4123.90445883,457.044518841
do_nothing,4122.16194329,4118.59075011,4115.64653385,4134.85875797,4128.76907455,4120.89387725,4120.23588489,4119.34491273,4136.55443405,4114.91604303,4102.59015596,4122.21384291,4124.03485128,435.87098756
do_nothing,4122.89987478,4119.41278088,4114.77120387,4134.83202529,4129.68834753,4122.04030885,4121.58615189,4120.35885583,4136.53043513,4115.97487492,4102.75199034,4123.59623172,4124.16120121,411.540714285
do_nothing,4123.6790613,4120.26165654,4114.29483244,4134.81559683,4130.6741815,4123.23989482,4122.99835293,4121.41210711,4136.51924256,4117.0913133,4102.93465125,4124.97123677,4124.30510954,384.047677442
do_nothing,4124.50809169,4121.14113053,4114.22595099,4134.80972123,4131.7307029,4124.49550489,4124.47326827,4122.50127983,4136.52093857,4118.26869374,4103.14128438,4126.34110407,4124.48625541,353.499725941
do_nothing,4125.3925837,4122.05338503,4114.55654429,4134.81430185,4132.8596187,4125.8078575,4126.00885365,4123.62042957,4136.53520029,4119.50691395,4103.37377759,4127.70670316,4124.72173925,320.120111517
do_nothing,4126.33496073,4122.99889632,4115.26244809,4134.82890217,4134.060104,4127.17538183,4127.60019378,4124.76124101,4136.5613133,4120.80240377,4103.63270569,4129.06741509,4125.02553863,284.244589999
do_nothing,4127.33436412,4123.9763618,4116.30439338,4134.85276263,4135.32877434,4128.59415752,4129.2395609,4125.91332247,4136.59819855,4122.14823098,4103.91732291,4130.42108988,4125.40809158,246.314143071
do_nothing,4128.38670088,4124.98269047,4117.62964492,4134.88482873,4136.659745,4130.057936,4130.91657605,4127.06459533,4136.64445186,4123.53433666,4104.22560221,4131.76407347,4125.87601818,206.863543646
do_nothing,4129.48482223,4126.01305741,4119.1741594,4134.92378947,4138.0447762,4131.55824477,4132.61846833,4128.2017618,4136.69839427,4124.9478897,4104.55431941,4133.09130219,4126.43198661,166.506151269
do_nothing,4130.61882385,4127.06102102,4120.86516988,4134.968125,4139.47350014,4133.08457309,4134.33042363,4129.31083149,4136.75813153,4126.37374571,4104.8991789,4134.39646032,4127.07472473,125.915472303
do_nothing,4131.77645446,4128.1186998,4122.6240879,4135.0161617,4140.93372278,4134.62463444,4136.0360115,4130.37768462,4136.82162063,4127.79499247,4105.25497617,4135.67219451,4127.79917321,85.804147414
do_nothing,4132.94361496,4129.17700368,4124.36960399,4135.06613275,4142.41178989,4136.16469795,4137.71767512,4131.38864814,4136.88674082,4129.19356114,4105.61579163,4136.91037659,4128.5967715,46.9011308485
do_nothing,4134.1049271,4130.22591253,4126.02086122,4135.1162418,4143.89300529,4137.68997844,4139.35726794,4132.33106095,4136.9513668,4130.55088078,4105.97520905,4138.10240479,4129.45586344,9.92789841747
do_nothing,4135.24434814,4131.25479303,4127.50057585,4135.16472756,4145.36208649,4139.18507245,4140.93661805,4133.19380526,4137.01344154,4131.84855253,4106.32655162,4139.23953239,4130.36220578,-24.4254389402
do_nothing,4136.34580592,4132.25274347,4128.73798291,4135.20992684,4146.80364189,4140.63442537,4142.43810165,4133.96778291,4137.07104631,4133.06901975,4106.66312813,4140.31321159,4131.29955939,-55.5232330445
do_nothing,4137.39382823,4133.20895472,4129.67149327,4135.25033401,4148.20265287,4142.0228137,4143.84520587,4134.6463177,4137.12246561,4134.19621075,4106.97848133,4141.31544044,4132.25034077,-82.8057528086
do_nothing,4138.37414077,4134.11307544,4130.25096227,4135.28465467,4149.54494315,4143.33582562,4145.14306253,4135.22546783,4137.16624491,4135.21613204,4107.2666305,4142.23910003,4133.19630978,-105.808200577
do_nothing,4139.27420998,4134.95556905,4130.43948664,4135.31185178,4150.81761892,4144.56032257,4146.318935,4135.7042364,4137.20123936,4136.11739178,4107.52230042,4143.07827003,4134.11926844,-124.176585288
do_nothing,4140.08370984,4135.72805066,4130.2146668,4135.33118247,4152.0094634,4145.68486571,4147.36264227,4136.08467155,4137.22665166,4136.89163587,4107.74112875,4143.8285112,4135.00174621,-137.679858718
do_nothing,4140.79489566,4136.42359241,4129.56929371,4135.34222415,4153.11127186,4146.70009127,4148.26690575,4136.37185248,4137.24205815,4137.5338816,4107.91984484,4144.48710438,4135.82764707,-146.217847607
do_nothing,4141.40287173,4137.03698675,4128.51144253,4135.34488863,4154.11611469,4147.5990213,4149.0276071,4136.57376163,4137.24742187,4138.04273759,4108.056413,4145.05323722,4136.58283573,-149.824652096
do_nothing,4141.90574444,4137.56495823,4127.06397889,4135.33942338,4155.01951934,4148.37729808,4149.64394771,4136.70104753,4137.24309254,4138.42050203,4108.15013462,4145.52813098,4137.25564188,-148.66733021
do_nothing,4142.30465618,4138.00631566,4125.26350613,4135.3263996,4155.81956516,4149.03333368,4150.11850391,4136.76668731,4137.22979305,4138.67313545,4108.20170441,4145.91510151,4137.83726472,-143.039850861
do_nothing,4142.60370077,4138.36203846,4123.15880329,4135.3066871,4156.51688829,4149.56836901,4150.45717541,4136.78556134,4137.20859335,4138.81010835,4108.21321762,4146.21955072,4138.32206325,-133.352471977
do_nothing,4142.80972531,4138.63529279,4120.80882236,4135.28141679,4157.11459776,4149.98643989,4150.66902789,4136.77395613,4137.1808723,4138.84412828,4108.18812679,4146.44888642,4138.70772239,-120.116876278
do_nothing,4142.93202811,4138.83137523,4118.28032957,4135.25193188,4157.61810678,4150.29425124,4150.76603404,4136.74901396,4137.14826894,4138.790755,4108.13114837,4146.61237122,4138.99528965,-103.927562685
do_nothing,4142.98196673,4138.95758446,4115.6452876,4135.21972943,4158.03488671,4150.50096339,4150.76272082,4136.72814971,4137.11262495,4138.66791602,4108.04812138,4146.72090325,4139.18908218,-85.4401376365
do_nothing,4142.97249316,4139.02302331,4112.97808419,4135.18639451,4158.37415369,4150.61789828,4150.67573436,4136.72845638,4137.07592006,4138.49533873,4107.94582239,4146.7867341,4139.296469,-65.3472757419
do_nothing,4142.91763615,4139.03833657,4110.35271642,4135.15352927,4158.64650041,4150.65817559,4150.52333635,4136.76612114,4137.04020289,4138.29391827,4107.83174259,4146.82313211,4139.32753809,-44.3532215255
do_nothing,4142.83195233,4139.01539209,4107.8400398,4135.12267984,4158.86348743,4150.63629141,4150.32484908,4136.85587331,4137.00751941,4138.08504271,4107.71383438,4146.84400101,4139.29466259,-23.1477770756
do_nothing,4142.72996863,4138.96691497,4105.50518697,4135.0952641,4159.03720998,4150.56765402,4150.1000678,4137.01048442,4136.97984161,4137.889899,4107.60023636,4146.86346625,4139.21198395,-2.38075634715
do_nothing,4142.62563834,4138.90608716,4103.4052521,4135.07250322,4159.17985714,4150.46809246,4149.86866063,4137.24033854,4136.9589988,4137.72878362,4107.49898645,4146.8954427,4139.09483332,17.3621174126
do_nothing,4142.53183168,4138.84612569,4101.58732514,4135.05535995,4159.30328048,4150.35335435,4149.64957674,4137.55308819,4136.94661391,4137.62044219,4107.41773378,4146.95319863,4138.9591145,35.5809376417
do_nothing,4142.45987974,4138.79985424,4100.08694461,4135.04448653,4159.41858827,4150.23860941,4149.46048277,4137.95340721,4136.94404691,4137.58146072,4107.36345991,4147.04893112,4138.82067291,51.8801106604
do_nothing,4142.4191875,4138.77928255,4098.92701978,4135.04018461,4159.53577971,4150.13797416,4149.31724629,4138.44284809,4136.95234743,4137.62572956,4107.34221987,4147.19336722,4138.69467482,65.9828849103
do_nothing,4142.41692875,4138.79520807,4098.11725394,4135.04237942,4159.66343148,4150.06407265,4149.23348249,4139.01980662,4136.97221796,4137.76399754,4107.35891285,4147.39540435,4138.59502023,77.7413229334
do_nothing,4142.45783174,4138.85685348,4097.65407996,4135.05060978,4159.80844647,4150.02764612,4149.220178,4139.67959275,4137.00398903,4138.00353096,4107.41709111,4147.66180141,4138.53381084,87.1412963723
do_nothing,4142.54406115,4138.9715525,4097.52109965,4135.06403493,4159.97587169,4150.03722338,4149.28540206,4140.41460233,4137.04760697,4138.3478877,4107.51881485,4147.99693055,4138.52089218,94.3022726353
do_nothing,4142.67519793,4139.14449511,4097.6899991,4135.08145859,4160.16879022,4150.09886163,4149.43411235,4141.21458104,4137.10263448,4138.79681266,4107.66455854,4148.40259762,4138.56348571,99.4718623024
do_nothing,4142.84831486,4139.37854124,4098.12189461,4135.10136967,4160.388289,4150.21596594,4149.66805937,4142.06696823,4137.16826386,4139.34625641,4107.85317299,4148.87793662,4138.66592329,103.015300325
do_nothing,4143.05814213,4139.67410949,4098.7690482,4135.12199871,4160.63350194,4150.38919322,4149.98579028,4142.95730645,4137.24334209,4139.98851444,4108.08190485,4149.41938143,4138.8294918,105.400231779
do_nothing,4143.29731379,4140.02914506,4099.57687901,4135.14138797,4160.90172527,4150.61644454,4150.38275048,4143.86970076,4137.32640668,4140.7124804,4108.34647354,4150.02071576,4139.05239218,107.177357038
do_nothing,4143.55668359,4140.43916844,4100.4861871,4135.15747279,4161.18859939,4150.89294704,4150.85147881,4144.78731136,4137.41573095,4141.50400357,4108.64120331,4150.67320052,4139.32981254,108.957655996
do_nothing,4143.82569678,4140.89740414,4101.43550016,4135.16817098,4161.48834988,4151.2114241,4151.38189003,4145.69286327,4137.50937697,4142.34633813,4108.95920642,4151.36577647,4139.65411217,111.387049046
do_nothing,4144.09280335,4141.39498654,4102.36345114,4135.17147632,4161.79407768,4151.56235014,4151.96163604,4146.56915773,4137.60525448,4143.22066985,4109.29261172,4152.08533894,4140.01510946,115.119456713
do_nothing,4144.3458977,4141.92123808,4103.21109574,4135.16555242,4162.09808749,4151.93428332,4152.57653499,4147.39957082,4137.70118373,4144.10670442,4109.63283123,4152.81707969,4140.40046426,120.789286376
do_nothing,4144.57276953,4142.46401206,4103.9240835,4135.1488226,4162.39224161,4152.31426665,4153.21105507,4148.16852631,4137.79496037,4144.98330015,4109.97085633,4153.54488955,4140.79614169,128.984402399
do_nothing,4144.76155111,4143.01009073,4104.45460331,4135.12005188,4162.66832529,4152.68828481,4153.84883717,4148.8619307,4137.88442044,4145.82912689,4110.29757357,4154.2518133,4141.18694188,140.220623311
do_nothing,4144.90114664,4143.54562642,4104.76303508,4135.07841752,4162.91840964,4153.04176185,4154.47323896,4149.46755982,4137.96750334,4146.6233322,4110.60408955,4154.92054576,4141.55707743,154.91873522
do_nothing,4144.98163051,4144.05661193,4104.81925177,4135.02356476,4163.13519793,4153.360083,4155.06788164,4149.97538782,4138.04231103,4147.34619543,4110.88205349,4155.53395647,4141.89077839,173.384917126
do_nothing,4144.99460285,4144.52936516,4104.603531,4134.95564532,4163.31234203,4153.62912295,4155.61718102,4150.37785117,4138.1071617,4147.97975081,4111.1239662,4156.07562848,4142.1729033,195.795346408
do_nothing,4144.93349244,4144.95101192,4104.10705141,4134.87533657,4163.44471707,4153.83576278,4156.10684545,4150.67004231,4138.16063618,4148.50836125,4111.32346431,4156.53039568,4142.38953468,222.185596012
do_nothing,4144.79379959,4145.30995101,4103.3319656,4134.78384043,4163.52864433,4153.96837832,4156.52432534,4150.84983019,4138.20161583,4148.91922614,4111.47556944,4156.88486265,4142.52853775,252.445253118
do_nothing,4144.5732737,4145.59628619,4102.29105791,4134.68286154,4163.56205454,4154.01728421,4156.85920123,4150.91790667,4138.22931078,4149.20280814,4111.57689285,4157.12789073,4142.58006252,286.317990093
do_nothing,4144.27202237,4145.8022102,4101.00701127,4134.57456512,4163.54458667,4153.97511922,4157.1035001,4150.87776015,4138.24327776,4149.35316633,4111.62578789,4157.25103474,4142.53697188,323.407111765
do_nothing,4143.89255083,4145.9223276,4099.5113211,4134.46151573,4163.47761984,4153.83716079,4157.25193184,4150.73557914,4138.24342698,4149.36818574,4111.62244384,4157.24891534,4142.39518051,363.186395971
do_nothing,4143.43973157,4145.95390433,4097.84290706,4134.34659874,4163.36423819,4153.6015582,4157.30204014,4150.50008973,4138.23001817,4149.24969581,4111.56891734,4157.11951346,4142.15389264,405.015843269
do_nothing,4142.9207059,4145.89703356,4096.04648314,4134.2329274,4163.20913106,4153.26947618,4157.2542641,4150.18233144,4138.20364575,4149.00347318,4111.46909899,4156.8643745,4141.81572953,448.161765089
do_nothing,4142.34471999,4145.75470964,4094.17075381,4134.12373839,4163.01843252,4152.84514262,4157.1119086,4149.7953765,4138.16521392,4148.63912654,4111.32861551,4156.48871154,4141.38674103,491.820476269
do_nothing,4141.72290012,4145.53280461,4092.26650905,4134.02227973,4162.79950661,4152.33579696,4156.88102373,4149.35399788,4138.11590239,4148.16986456,4111.15466962,4156.00139962,4140.87629878,535.144723505
do_nothing,4141.06797338,4145.23994551,4090.3846929,4133.93169498,4162.56068647,4151.75153913,4156.57019593,4148.87429236,4138.05712392,4147.61215082,4110.95582243,4155.41485579,4140.29687323,577.271879106
do_nothing,4140.39394267,4144.88729506,4088.57451968,4133.85490793,4162.31097776,4151.1050827,4156.19025701,4148.37326647,4137.99047512,4146.98525402,4110.74172547,4154.74480458,4139.6637009,617.352864082
do_nothing,4139.71572653,4144.48824275,4086.88170897,4133.79451207,4162.05973857,4150.41142012,4155.75392093,4147.86839485,4137.91768201,4146.31070615,4110.52281166,4154.00993266,4138.99435314,654.580739865
do_nothing,4139.04877591,4144.05801717,4085.34690406,4133.75266906,4161.81634916,4149.68741068,4155.27536188,4147.37716255,4137.84054226,4145.61168492,4110.30995634,4153.23144165,4138.30822151,688.217924078
do_nothing,4138.40868061,4143.6132335,4084.00433023,4133.73102017,4161.58988489,4148.95130516,4154.76974936,4146.91660397,4137.76086593,4144.91233998,4110.11412065,4152.43251149,4137.62593805,717.621040214
do_nothing,4137.81077802,4143.17139248,4082.88073804,4133.73061413,4161.38880584,4148.22222249,4154.25275744,4146.50285154,4137.68041675,4144.2370845,4109.94599018,4151.63769048,4136.96875074,742.26250207
do_nothing,4137.26977636,4142.7503484,4081.99466465,4133.75185446,4161.22067504,4147.51959534,4153.74006544,4146.15070705,4137.60085588,4143.60987474,4109.81562185,4150.87223001,4136.35787568,761.748059268
do_nothing,4136.79940339,4142.36776473,4081.35603276,4133.79446853,4161.09191626,4146.86260244,4153.24686714,4145.87324848,4137.52368992,4143.05350037,4109.73211166,4150.16138434,4135.81384818,775.829684565
do_nothing,4136.4120904,4142.04057615,4080.96609302,4133.85749987,4161.00762037,4146.26960613,4152.78740547,4145.68148429,4137.45022521,4142.58890839,4109.7032951,4149.52969699,4135.35589476,784.413359075
do_nothing,4136.11870019,4141.78447569,4080.81770231,4133.93932442,4160.9714074,4145.75761378,4152.37454883,4145.58406691,4137.38152967,4142.23458248,4109.73549082,4149.0002966,4135.00134745,787.561501779
do_nothing,4135.92830601,4141.61344444,4080.89591756,4134.03769064,4160.98534954,4145.34178151,4152.01942452,4145.58707589,4137.31840363,4142.00599813,4109.83329642,4148.59422518,4134.76512061,785.489989082
do_nothing,4135.84802692,4141.53933973,4081.17887282,4134.14978246,4161.04995791,4145.03497726,4151.73112283,4145.69387984,4137.2613607,4141.91517192,4109.99944338,4148.32982106,4134.65926774,778.559910361
do_nothing,4135.88292301,4141.5715553,4081.63889717,4134.27230311,4161.1642335,4144.84741844,4151.51648292,4145.9050839,4137.21061941,4141.97031994,4110.23471551,4148.22217721,4134.69263298,767.264397289
do_nothing,4136.03595139,4141.71676374,4082.24382231,4134.40157731,4161.32577996,4144.78639613,4151.37996825,4146.21856698,4137.16610601,4142.1756369,4110.53793298,4148.28269289,4134.87060785,752.211041472
do_nothing,4136.30798121,4141.97874845,4082.95842256,4134.53366855,4161.53097317,4144.85609471,4151.32363566,4146.62960937,4137.12746854,4142.53120325,4110.90600141,4148.51873362,4135.19499993,734.100571839
do_nothing,4136.6978638,4142.35832862,4083.7459259,4134.66450771,4161.77518024,4145.05751234,4151.34719808,4147.13110792,4137.09410192,4143.03302287,4111.33402323,4148.93341029,4135.66401572,713.702593891
do_nothing,4137.20255199,4142.85337784,4084.56953372,4134.79002871,4162.05301858,4145.38848423,4151.44817681,4147.71387203,4137.06518314,4143.67318958,4111.81546649,4149.52548462,4136.27235616,691.829291078
do_nothing,4137.81726161,4143.45893389,4085.3938881,4134.90630665,4162.35864372,4145.84380745,4151.62213529,4148.36699009,4137.03971562,4144.44017623,4112.34238421,4150.28940346,4137.01141971,669.308051468
do_nothing,4138.53566748,4144.16739441,4086.18642973,4135.00969365,4162.68605328,4146.4154628,4151.86298332,4149.07825334,4137.01658102,4145.31923598,4112.90567628,4151.21546075,4137.86960446,646.954010244
do_nothing,4139.35012537,4144.96879098,4086.91859521,4135.09694755,4163.0293938,4147.09292603,4152.16333813,4149.83462153,4136.9945966,4146.29290242,4113.49538428,4152.29008207,4138.83269816,625.543489239
do_nothing,4140.25191153,4145.85113158,4087.5668103,4135.16534883,4163.38325672,4147.86355805,4152.51492718,4150.62271391,4136.97257582,4147.34157167,4114.1010091,4153.49622254,4139.88434222,605.789267814
do_nothing,4141.2314708,4146.80079944,4088.11324508,4135.21280127,4163.74295053,4148.71306083,4152.90901662,4151.42930757,4136.94938952,4148.44414768,4114.71184052,4154.81386582,4141.00655381,588.31853803
do_nothing,4142.27866546,4147.80299465,4088.5463072,4135.23791265,4164.10473688,4149.62598335,4153.33684869,4152.24182554,4136.92402505,4149.57872932,4115.31728785,4156.22060841,4142.1802885,573.654287111
do_nothing,4143.38301679,4148.84220329,4088.86086052,4135.24005218,4164.46602029,4150.58625978,4153.79007031,4153.04879675,4136.8956404,4150.72331663,4115.90720094,4157.69231069,4143.38602408,562.200716047
do_nothing,4144.53393254,4149.90267797,4089.05816781,4135.21938232,4164.82548279,4151.5777601,4154.26113514,4153.84027048,4136.86361094,4151.8565121,4116.47217104,4159.20379357,4144.6043456,554.233147538
do_nothing,4145.72091369,4150.96891252,4089.1455669,4135.17686348,4165.18315704,4152.58483244,4154.74366168,4154.60816951,4136.82756634,4152.9581929,4117.00380168,4160.72955788,4145.81651077,549.892703278
do_nothing,4146.93373482,4152.02609409,4089.1359003,4135.11423095,4165.54043387,4153.59281642,4155.2327314,4155.34656766,4136.78741574,4154.01013045,4117.49494079,4162.24450255,4147.00497567,549.185846639
do_nothing,4148.16259362,4153.06051639,4089.0467274,4135.03394457,4165.90000316,4154.58850759,4155.72511347,4156.05188098,4136.74335997,4154.99653598,4117.93986646,4163.72461769,4148.15386221,551.988699712
do_nothing,4149.39822676,4154.05993941,4088.8993568,4134.93911249,4166.26572961,4155.56055547,4156.21940532,4156.72296434,4136.69588995,4155.90451282,4118.33442047,4165.14762987,4149.24935077,558.055861604
do_nothing,4150.63199097,4155.01388311,4088.71774268,4134.83339132,4166.64246758,4156.49977957,4156.71608147,4157.36110903,4136.6457713,4156.72440005,4118.67608544,4166.49357858,4150.27998513,567.033288056
do_nothing,4151.85591002,4155.91384551,4088.52729383,4134.72086599,4167.03582204,4157.39939164,4157.21744754,4157.96994031,4136.59401568,4157.44999571,4118.96400367,4167.74530554,4151.23688004,578.474651337
do_nothing,4153.06268998,4156.75343825,4088.3536466,4134.6059135,4167.4518646,4158.25511567,4157.72750003,4158.55521787,4136.54184033,4158.07865276,4119.19893788,4168.88884191,4152.1138262,591.86048944
do_nothing,4154.24570613,4157.52843663,4088.2214534,4134.49305531,4167.89681562,4159.06520189,4158.25169684,4159.12454553,4136.49061738,4158.61124541,4119.38317631,4169.91368236,4152.90729164,606.619373291
do_nothing,4155.39896588,4158.23674403,4088.15323668,4134.3868038,4168.3767055,4159.83033502,4158.79664719,4159.68700057,4136.44181526,4159.05200864,4119.52038649,4170.81293891,4153.61632295,622.150267728
do_nothing,4156.51705312,4158.87827454,4088.16835474,4134.29150833,4168.89702879,4160.55344139,4159.36973249,4160.2526957,4136.39693477,4159.40825815,4119.61542403,4171.58337217,4154.24235411,637.845238644
do_nothing,4157.59505977,4159.45476082,4088.28212016,4134.21120644,4169.46240587,4161.2394032,4159.97867268,4160.83228998,4136.35744263,4159.69000275,4119.67410407,4172.22530215,4154.78893431,653.111668765
do_nothing,4158.62851121,4159.96949785,4088.5051048,4134.14948557,4170.07626668,4161.89469205,4160.63105473,4161.43646692,4136.32470543,4159.90946535,4119.70294483,4172.74240499,4155.26138976,667.393187562
do_nothing,4159.61329235,4160.42703575,4088.84265717,4134.10936005,4170.74057006,4162.52693777,4161.33384282,4162.07539986,4136.29992696,4160.08053181,4119.70889317,4173.14140655,4155.66643671,680.188591825
do_nothing,4160.54558054,4160.83283729,4089.29464893,4134.09316785,4171.45557165,4163.14445131,4162.09289111,4162.75822601,4136.28409173,4160.21814995,4119.69904308,4173.43168684,4156.01176435,691.068127279
do_nothing,4161.42179112,4161.19291695,4089.85545773,4134.1024905,4172.21965084,4163.755723,4162.91248165,4163.49255047,4136.27791704,4160.33770264,4119.680358,4173.62481252,4156.30560684,699.686612606
do_nothing,4162.23854023,4161.51347919,4090.51418396,4134.13809897,4173.02920577,4164.36891851,4163.79490978,4164.28400133,4136.2818159,4160.45437998,4119.65940764,4173.73401693,4156.55632378,705.793007567
do_nothing,4162.99262841,4161.80057342,4091.25508975,4134.19992724,4173.87862272,4164.99139513,4164.74013854,4165.13585509,4136.29587239,4160.58257581,4119.64212944,4173.77364899,4156.77200763,709.236150811
do_nothing,4163.68104754,4162.05978228,4092.05823971,4134.28707416,4174.76032409,4165.62926058,4165.74554147,4166.04874983,4136.31983044,4160.73533289,4119.63362373,4173.75861308,4156.96013522,709.966519737
do_nothing,4164.30101224,4162.29595769,4092.90031537,4134.39783344,4175.66489619,4166.28699515,4166.80574972,4167.02049987,4136.35309683,4160.92385874,4119.63799021,4173.7038218,4157.12727845,708.033997163
do_nothing,4164.85001558,4162.51301697,4093.75556867,4134.52975039,4176.58129531,4166.96715532,4167.91261514,4168.04602192,4136.39475804,4161.15713112,4119.65821168,4173.62368222,4157.27888595,703.581767773
do_nothing,4165.32590732,4162.71380756,4094.5968745,4134.67970349,4177.49712708,4167.67017352,4169.05529588,4169.11737822,4136.44361067,4161.44160722,4119.69608863,4173.53163386,4157.41914421,696.836607365
do_nothing,4165.7269917,4162.90004575,4095.39683901,4134.84400772,4178.39899107,4168.39426371,4170.22046519,4170.22393687,4136.49820389,4161.78104614,4119.75222649,4173.43975377,4157.55092218,688.095963498
do_nothing,4166.05214008,4163.0723305,4096.12891825,4135.01853617,4179.27287931,4169.13543752,4171.39263845,4171.35264517,4136.55689247,4162.17644874,4119.82607442,4173.35844055,4157.67579925,677.712350648
do_nothing,4166.30091299,4163.23022942,4096.7685017,4135.19885557,4180.10461512,4169.88762962,4172.55460847,4172.48840679,4136.61789804,4162.62611359,4119.91601277,4173.29618489,4157.79417151,666.075690418
do_nothing,4166.47368447,4163.37243029,4097.29391727,4135.38037107,4180.88031649,4170.64292663,4173.68797388,4173.61454935,4136.67937598,4163.12580216,4120.01948382,4173.25942974,4157.90542652,653.594312237
do_nothing,4166.57176143,4163.49694724,4097.68731733,4135.5584751,4181.58686717,4171.39188816,4174.77374078,4174.71336501,4136.73948534,4163.6690014,4120.13315825,4173.25251861,4158.00817274,640.67538804
do_nothing,4166.59748911,4163.60136819,4097.93541068,4135.72869527,4182.21237742,4172.12394458,4175.79297348,4175.76670256,4136.79645863,4164.2472671,4120.25312839,4173.27772565,4158.10050589,627.70560243
do_nothing,4166.55433403,4163.68312715,4098.03001128,4135.88683609,4182.74661651,4172.82785225,4176.72746647,4176.75658721,4136.84866875,4164.85062824,4120.37511808,4173.33535769,4158.1802928,615.032855849
do_nothing,4166.44693561,4163.73978395,4097.96838226,4136.02910953,4183.18139911,4173.4921842,4177.56040866,4177.66584203,4136.8946903,4165.46803042,4120.49469845,4173.4239157,4158.24545245,602.949761971
do_nothing,4166.28111874,4163.76929368,4097.75336177,4136.15225034,4183.51090882,4174.10583299,4178.27701066,4178.47868563,4136.9333528,4166.08779666,4120.60749922,4173.54030192,4158.29421511,591.679632753
do_nothing,4166.06386119,4163.7702489,4097.39326625,4136.25361199,4183.73194399,4174.65850211,4178.86506785,4179.18128178,4136.96378371,4166.69808448,4120.70940596,4173.68005891,4158.32534263,581.365547814
do_nothing,4165.80321165,4163.74207948,4096.90157553,4136.33124057,4183.84407353,4175.14116255,4179.31543443,4179.76221872,4136.98543973,4167.28732037,4120.79673467,4173.83762724,4158.33829626,572.062982687
do_nothing,4165.50815628,4163.68519719,4096.29641274,4136.38392436,4183.84969344,4175.54645262,4179.62238683,4180.2128988,4136.99812521,4167.84459504,4120.86637671,4174.00660973,4158.333342,563.736327786
do_nothing,4165.18843409,4163.60107548,4095.59984006,4136.41121788,4183.75397862,4175.86900094,4179.78385924,4180.52782244,4137.00199725,4168.36000524,4120.91590846,4174.18003092,4158.31158733,556.259472473
do_nothing,4164.85430407,4163.49225797,4094.83699856,4136.41344007,4183.5647287,4176.10565645,4179.80153861,4180.70475416,4136.99755731,4168.82493113,4120.94366229,4174.35058236,4158.27494749,549.420462728
do_nothing,4164.51626964,4163.36229374,4094.03512664,4136.39164701,4183.29211108,4176.25561335,4179.68081251,4180.74476351,4136.98563,4169.23224109,4120.9487569,4174.51084557,4158.22604324,542.93007345
do_nothing,4164.18476904,4163.21560107,4093.22249623,4136.34758048,4182.94830909,4176.32042501,4179.43056909,4180.65213869,4136.96732991,4169.57641917,4120.93108732,4174.65348657,4158.16803585,536.433974298
do_nothing,4163.86984226,4163.05726562,4092.42730956,4136.28359452,4182.54708742,4176.30390626,4179.06285464,4180.43417572,4136.944018,4169.85361312,4120.89127663,4174.77141726,4158.10440837,529.528017855
do_nothing,4163.5807873,4162.89278277,4091.6766005,4136.20256272,4182.10329063,4176.21192874,4178.59240074,4180.10085137,4136.91724915,4170.0616047,4120.83059281,4174.85792128,4158.03870525,521.776047146
do_nothing,4163.32581976,4162.7277571,4090.99518469,4136.1077699,4181.63229391,4176.05211971,4178.03603882,4179.66439308,4136.88871298,4170.19970696,4120.75083612,4174.90674365,4157.9742452,512.729511479
do_nothing,4163.11175103,4162.56757527,4090.40470069,4136.00279207,4181.14942778,4175.83347881,4177.41202661,4179.13876404,4136.86016999,4170.26859737,4120.65420386,4174.91214667,4157.91382446,501.948099907
do_nothing,4162.94370084,4162.41707038,4089.92278114,4135.89136921,4180.66940038,4175.56593226,4176.73931558,4178.53908581,4136.83338536,4170.27009933,4120.54314044,4174.86893679,4157.85942961,489.020553599
do_nothing,4162.82485944,4162.28019741,4089.56238729,4135.77727539,4180.20574169,4175.2598472,4176.03679244,4177.88102432,4136.81006282,4170.2069275,4120.42018214,4174.77246952,4157.81197913,473.584804103
do_nothing,4162.75631391,4162.15973883,4089.33133379,4135.66419094,4179.77029381,4174.92553082,4175.32252865,4177.18016647,4136.79178077,4170.08241445,4120.28780559,4174.61864101,4157.77111245,455.346604666
do_nothing,4162.73695003,4162.05705842,4089.23202212,4135.55558126,4179.37276989,4174.57274012,4174.61307146,4176.45141517,4136.77993316,4169.90023678,4120.14828908,4174.40387521,4157.73504243,434.095875536
do_nothing,4162.76343797,4161.97191891,4089.26139206,4135.45458645,4179.02040143,4174.21022708,4173.92280777,4175.70842921,4136.77567693,4169.66415797,4120.00359477,4174.12511524,4157.7004842,409.720069628
do_nothing,4162.83030523,4161.90237499,4089.41109103,4135.36392571,4178.71769031,4173.84534276,4173.26342908,4174.96313244,4136.77988814,4169.37780352,4119.85527818,4173.77982586,4157.66266841,382.213978439
do_nothing,4162.93009588,4161.84474994,4089.66785157,4135.28581969,4178.46627709,4173.4837203,4172.64352144,4174.22531306,4136.79312808,4169.04448083,4119.70442984,4173.36601185,4157.61544217,351.685535337
do_nothing,4163.05361048,4161.79369902,4090.01405895,4135.22193327,4178.26493205,4173.12905321,4172.06829874,4173.50233018,4136.81562078,4168.66705301,4119.55165164,4172.88225463,4157.55145606,318.357328666
do_nothing,4163.19021764,4161.74235924,4090.42848299,4135.17334042,4178.10967021,4172.78298014,4171.53949165,4172.79893948,4136.8472425,4168.24787192,4119.39706843,4172.32776709,4157.46243063,282.563704405
do_nothing,4163.32822439,4161.68258075,4090.8871424,4135.14051182,4177.99398571,4172.44508195,4171.05539721,4172.11724509,4136.88752365,4167.78877188,4119.24037353,4171.70246471,4157.33949157,244.743510654
do_nothing,4163.45529032,4161.60523149,4091.36426483,4135.12332488,4177.90919565,4172.11299158,4170.61108737,4171.45677893,4136.93566308,4167.29112206,4119.08090483,4171.00704908,4157.17355924,205.428707115
do_nothing,4163.55886827,4161.50056338,4091.83330302,4135.12109495,4177.84487863,4171.78261111,4170.19876698,4170.81470304,4136.99055416,4166.75593162,4118.91774652,4170.24309828,4156.95577471,165.229225256
do_nothing,4163.62665356,4161.35862513,4092.26796595,4135.1326256,4177.78938837,4171.4484254,4169.80826476,4170.1861245,4137.05082167,4166.18399848,4118.74985009,4169.41315688,4156.67794268,124.814612512
do_nothing,4163.64702385,4161.16970458,4092.6432242,4135.15627527,4177.73041958,4171.10389636,4169.42763411,4169.56450749,4137.1148684,4165.57609009,4118.57616714,4168.52081715,4156.33296988,84.8931208655
do_nothing,4163.6094532,4160.92478197,4092.93625085,4135.19003715,4177.65560024,4170.74191751,4169.04383513,4168.9421618,4137.18092959,4164.93314277,4118.39578594,4167.57078295,4155.91527809,46.1890015391
do_nothing,4163.50488524,4160.61597487,4093.12726285,4135.23162863,4177.55308349,4170.35530522,4168.64346508,4168.31078421,4137.24713355,4164.25646541,4118.20806349,4166.56890778,4155.42117147,9.4188393604
do_nothing,4163.32605258,4160.23695525,4093.20023238,4135.27858698,4177.41211193,4169.93730041,4168.21350247,4167.66202611,4137.31156624,4163.54793337,4118.01274515,4165.52219983,4154.84913991,-24.7322001284
do_nothing,4163.06773162,4159.7833204,4093.14344344,4135.32836727,4177.22352847,4169.4820538,4167.74202938,4166.98806019,4137.37233748,4162.81015929,4117.81006484,4164.438788,4154.20008293,-55.6333319736
do_nothing,4162.72692468,4159.25290067,4092.94987566,4135.37843921,4176.98021036,4168.98506869,4167.21889831,4166.2821191,4137.42764659,4162.04662902,4117.60081967,4163.32784506,4153.47744181,-82.7294708374
do_nothing,4162.30296378,4158.64598968,4092.61740382,4135.42637923,4176.67740648,4168.44357732,4166.63631273,4165.53898058,4137.47584495,4161.26179283,4117.38641459,4162.19946605,4152.68723196,-105.560117651
do_nothing,4161.79753369,4157.96548558,4092.14880948,4135.46995475,4176.31296251,4167.85683069,4165.98929457,4164.75537586,4137.51549336,4160.46110449,4117.16887399,4161.06450271,4151.83797143,-123.775112923
do_nothing,4161.21461462,4157.21693571,4091.55160787,4135.50719779,4175.88742366,4167.22628616,4165.27601752,4163.93030199,4137.54541208,4159.6510039,4116.95081929,4159.93435679,4150.94050642,-137.146666862
do_nothing,4160.56034842,4156.40848104,4090.83770086,4135.53646578,4175.40401047,4166.5556824,4164.49799127,4163.06522317,4137.56472191,4158.83884183,4116.73541304,4158.82073796,4150.00773917,-145.577202529
do_nothing,4159.84283471,4155.55070119,4090.02287298,4135.55648778,4174.86846921,4165.85099737,4163.6600897,4162.16415222,4137.57287481,4158.03274932,4116.5262723,4157.73539442,4149.05426828,-149.102685258
do_nothing,4159.07186605,4154.65636472,4089.12615354,4135.56639518,4174.28880468,4165.12029056,4162.77042294,4161.23360922,4137.56967322,4157.24145715,4116.32735523,4156.68982602,4148.09595551,-147.891260207
do_nothing,4158.25861304,4153.74009358,4088.1690722,4135.56573643,4173.67490869,4164.37343667,4161.8400606,4160.28245999,4137.55527748,4156.47407373,4116.1428265,4155.69499124,4147.14943592,-142.237181935
do_nothing,4157.4152713,4152.8179533,4087.1748389,4135.55447586,4173.03810283,4163.62176232,4160.88261929,4159.32164283,4137.53020122,4155.73983158,4115.9769078,4154.76101995,4146.23159068,-132.550193258
do_nothing,4156.5546834,4151.90698357,4086.16748095,4135.5329775,4172.39061751,4162.87760204,4159.91373333,4158.36379602,4137.49529516,4155.04781401,4115.83372028,4153.89694343,4145.35900261,-119.340686032
do_nothing,4155.68994873,4151.02468545,4085.17097088,4135.5019748,4171.74503256,4162.1537925,4158.95043211,4157.4228032,4137.45171981,4154.40667364,4115.71712605,4153.1104524,4144.54741499,-103.201141329
do_nothing,4154.83403385,4150.18848267,4084.2083783,4135.46252807,4171.11370544,4161.46312686,4158.01045155,4156.51327646,4137.40090845,4153.82435437,4115.63057554,4152.40769181,4143.81121328,-84.7844923582
do_nothing,4153.99939524,4149.41517507,4083.30107718,4135.4159714,4170.50821389,4160.81779237,4157.11150894,4155.64999888,4137.34452148,4153.30782678,4115.57696701,4151.79309886,4143.16294802,-64.780177999
do_nothing,4153.19762493,4148.72040224,4082.46803699,4135.36385134,4169.93883816,4160.22881511,4156.27057172,4154.84734929,4137.28439397,4152.86284626,4115.55852369,4151.26928867,4142.61291513,-43.8887564129
do_nothing,4152.43912845,4148.11813493,4081.72522252,4135.30785952,4169.41410585,4159.70553493,4155.50315019,4154.11873206,4137.22247809,4152.49374142,4115.57669326,4150.83698983,4142.16880789,-22.7960204477
do_nothing,4151.73284355,4147.62021124,4081.08512197,4135.24976201,4168.94041899,4159.25513256,4154.82264307,4153.47603395,4137.16078237,4152.20323937,4115.63207348,4150.49503031,4141.83545203,-2.14759162412
do_nothing,4151.08600663,4147.23593275,4080.55641793,4135.19132779,4168.52177916,4158.88222831,4154.23976225,4152.92912911,4137.10130956,4151.99233347,4115.72436641,4150.2403726,4141.61463247,17.4750354912
do_nothing,4150.50397272,4146.97173403,4080.14380926,4135.13425921,4168.15962196,4158.58856911,4153.76205945,4152.48545073,4137.04599516,4151.86019723,4115.85236273,4150.0681952,4141.50501711,35.5760702793
do_nothing,4149.99009276,4146.83093597,4079.84798564,4135.08012679,4167.85276734,4158.37281747,4153.39357359,4152.14964565,4136.99664817,4151.80414743,4116.01395619,4149.97201609,4141.50217905,51.7637767636
do_nothing,4149.54565063,4146.81359125,4079.66575063,4135.03031088,4167.59748743,4158.23045273,4153.13461273,4151.92332513,4136.95489608,4151.81965754,4116.2061872,4149.94385282,4141.59871551,65.7648663975
do_nothing,4149.16986004,4146.91642663,4079.59028252,4134.98595243,4167.38768838,4158.15379136,4152.98167973,4151.80492138,4136.92213544,4151.90042199,4116.42531329,4149.97441317,4141.78445837,77.4343479977
do_nothing,4148.85991993,4147.1328843,4079.61151795,4134.94791455,4167.21519756,4158.13212889,4152.92754519,4151.789656,4136.89948965,4152.03847026,4116.66690346,4150.05330993,4142.04676819,86.7604200217
do_nothing,4148.61112492,4147.45326107,4079.71663803,4134.91675647,4167.07014272,4158.15200202,4152.96146572,4151.86962206,4136.88777506,4152.22432834,4116.92595222,4150.16929283,4142.37090065,93.8641780555
do_nothing,4148.41702589,4147.86494086,4079.89063401,4134.89272078,4166.94140524,4158.19756432,4153.06953967,4152.03397796,4136.88747656,4152.44722379,4117.1970089,4150.31049081,4142.74043225,98.9941099259
do_nothing,4148.26963456,4148.35271318,4080.11692675,4134.87573434,4166.81712625,4158.25106457,4153.23518704,4152.2692465,4136.89873327,4152.69532923,4117.47431676,4150.46465797,4143.13772986,102.515553779
do_nothing,4148.15966454,4148.89916716,4080.37801368,4134.86542274,4166.68524189,4158.29341216,4153.43973488,4152.55970941,4136.92133499,4152.95603791,4117.75195688,4150.61941711,4143.54444772,104.895491025
do_nothing,4148.07680106,4149.48514876,4080.65611673,4134.86113742,4166.53402322,4158.3048102,4153.66308522,4152.88788353,4136.9547295,4153.21626409,4118.02399143,4150.76249566,4143.94203491,106.683228937
do_nothing,4148.00999085,4150.0902671,4080.93380662,4134.86199444,4166.3525963,4158.26543436,4153.8844399,4153.23506251,4136.99804076,4153.46276037,4118.28460177,4150.8819496,4144.31223682,108.487691204
do_nothing,4147.94774413,4150.69343456,4081.19458094,4134.86692292,4166.1314199,4158.15613382,4154.08305421,4153.58190513,4137.05009746,4153.68244333,4118.5282172,4150.96637144,4144.63757487,110.95217163
do_nothing,4147.87844073,4151.27342496,4081.4233769,4134.87472115,4165.86270014,4157.95912932,4154.23899041,4153.90904933,4137.10947112,4153.8627181,4118.74963075,4151.00507913,4144.90179018,114.727509286
