label,COUNTER,INTERPOLATED,AF3,F7,F3,FC5,T7,P7,O1,O2,P8,T8,FC6,F4,F8,AF4,RAW_CQ,GYROX,GYROY,MARKER,SYNC,TIME_STAMP_s,TIME_STAMP_ms,CQ_AF3,CQ_F7,CQ_F3,CQ_FC5,CQ_T7,CQ_P7,CQ_O1,CQ_O2,CQ_P8,CQ_T8,CQ_FC6,CQ_F4,CQ_F8,CQ_AF4,CQ_CMS,CQ_DRL
off_to_on,4149.9089805,4160.37885529,4146.72627344,4135.73912634,4137.67460755,4150.34643324,4150.57901589,4142.81956526,4136.87168889,4149.18116157,4106.33405794,4149.36098693,4146.23725869,785.808625432
off_to_on,4150.90656547,4162.13039273,4147.98810051,4135.7220855,4138.22901318,4152.65015499,4152.92004076,4144.92637747,4136.89905075,4151.36673778,4107.02812825,4151.31997237,4147.45677165,771.463237117
off_to_on,4151.64623558,4163.45642822,4148.92773785,4135.70001258,4138.71071604,4154.67945088,4154.93174164,4146.77015904,4136.92782542,4153.25670223,4107.56699718,4153.00983156,4148.4526664,753.844103244
off_to_on,4152.12866836,4164.34976754,4149.54154185,4135.67295892,4139.1120802,4156.39608281,4156.58191897,4148.3274855,4136.95696184,4154.83015459,4107.94879441,4154.42171142,4149.22089903,733.722900878
off_to_on,4152.36111148,4164.81427606,4149.83468262,4135.6411799,4139.42819995,4157.77124839,4157.84869783,4149.58381305,4136.98542723,4156.07411276,4108.17552107,4155.55301543,4149.76289798,711.920131038
off_to_on,4152.35686177,4164.86437318,4149.82073922,4135.60514274,4139.65695805,4158.78626042,4158.72089856,4150.53357224,4137.01224295,4156.9834874,4108.25280988,4156.40702248,4150.08524769,689.277306044
off_to_on,4152.13456933,4164.52421759,4149.52103297,4135.56552381,4139.79898822,4159.43289389,4159.1980679,4151.1799595,4137.03651772,4157.560828,4108.18958778,4156.99235748,4150.19923668,666.628867209
off_to_on,4151.717395,4163.82661746,4148.96372583,4135.52319519,4139.85754521,4159.71339416,4159.29017937,4151.5344437,4137.05747704,4157.81585854,4107.99765556,4157.32234101,4150.12028868,644.774839097
off_to_on,4151.13205299,4162.81170812,4148.18271805,4135.47920102,4139.83828934,4159.64015132,4159.01702134,4151.61601401,4137.07448776,4157.76482633,4107.6912008,4157.41424735,4149.86729862,624.455185841
off_to_on,4150.407774,4161.52544565,4147.21638558,4135.43472448,4139.74899506,4159.23505678,4158.40730045,4151.45020367,4137.08707703,4157.42969294,4107.28626188,4157.28850177,4149.46189719,606.326758168
off_to_on,4149.57522626,4160.0179701,4146.10620248,4135.391047,4139.59919595,4158.52856851,4157.49749608,4151.06793097,4137.09494507,4156.83719891,4106.80016182,4156.9678477,4148.92766933,590.943610616
off_to_on,4148.6654327,4158.34189524,4144.89529744,4135.34950133,4139.3997804,4157.55852053,4156.33050806,4150.50420389,4137.09797133,4156.01783725,4106.25093068,4156.47651335,4148.28935299,578.741333774
off_to_on,4147.70872209,4156.55058301,4143.62699512,4135.31142095,4139.16255376,4156.3687204,4154.95414501,4149.79673776,4137.09621406,4155.00477157,4105.65673535,4155.83940509,4147.57204418,570.025893125
off_to_on,4146.73374988,4154.69646031,4142.34339303,4135.27808801,4138.89978313,4155.00738433,4153.41950403,4148.98453634,4137.08990332,4153.83273466,4105.03533408,4155.08135183,4146.80043324,564.967299034
off_to_on,4145.76662096,4152.8294328,4141.08402256,4135.25068241,4138.62374158,4153.52546467,4151.77929435,4148.10648612,4137.07942799,4152.53694268,4104.40357224,4154.22642104,4145.99809519,563.598255277
off_to_on,4144.83014201,4150.99544584,4139.88463888,4135.23023438,4138.3462675,4151.97492724,4150.08615804,4147.20001138,4137.06531717,4151.15205759,4103.77693352,4153.29732319,4145.1868544,565.817749456
off_to_on,4143.94322607,4149.23523644,4138.77617955,4135.21758277,4138.07835462,4150.40703711,4148.39104023,4146.29983416,4137.04821695,4149.71122826,4103.16915899,4152.31491752,4144.38624057,571.399361397
off_to_on,4143.12046599,4147.58331235,4137.78392494,4135.2133407,4137.82978618,4148.87071001,4146.74165866,4145.43687837,4137.02886348,4148.24523692,4102.59194356,4151.29782776,4143.61304976,580.003881684
off_to_on,4142.371887,4146.06718603,4136.92688594,4135.21786984,4137.60882544,4147.41098342,4145.18111864,4144.63735129,4137.00805333,4146.78177348,4102.05471688,4150.2621723,4142.88102016,591.195664279
off_to_on,4141.70288202,4144.70688107,4136.2174357,4135.23126416,4137.42197213,4146.06765597,4143.74671405,4143.92202819,4136.98661243,4145.34485519,4101.56451198,4149.22140894,4142.200628,604.461999582
off_to_on,4141.11432579,4143.5147187,4135.66119245,4135.25334331,4137.2737917,4144.87413765,4142.46894832,4143.30575813,4136.96536465,4143.95440312,4101.12592217,4148.18628979,4141.57900455,619.234696061
off_to_on,4140.60285711,4142.49538096,4135.25715087,4135.28365532,4137.1668217,4143.85654518,4141.37080161,4142.79720055,4136.94510131,4142.6259813,4100.74114313,4147.1649183,4141.01997079,634.912998414
off_to_on,4140.16131234,4141.64623791,4134.99804978,4135.32148814,4137.10155632,4143.03306788,4140.46726234,4142.3987944,4136.92655265,4141.3706984,4100.41009453,4146.16289691,4140.52418263,650.886943179
off_to_on,4139.77928779,4140.9579167,4134.87095566,4135.36588901,4137.07650755,4142.41361917,4139.76513261,4142.10695347,4136.91036233,4140.19526672,4100.13061317,4145.18355138,4140.08937616,666.560258358
off_to_on,4139.44380472,4140.41508328,4134.85803389,4135.41569062,4137.08833833,4141.99977837,4139.26310803,4141.91247432,4136.89706587,4139.10220825,4099.89870715,4144.22821619,4139.71069998,681.371954731
off_to_on,4139.14004752,4139.99740049,4134.93747335,4135.46954309,4137.13206073,4141.78501708,4138.95212376,4141.80113577,4136.88707357,4138.09019328,4099.70885936,4143.29656447,4139.3811192,694.81583221
off_to_on,4138.85214342,4139.68062171,4135.08452555,4135.52595041,4137.20128979,4141.75519519,4138.81594986,4141.75446322,4136.88065873,4137.154493,4099.5543668,4142.3869655,4139.09187412,706.457228841
off_to_on,4138.56395187,4139.43777555,4135.27261606,4135.58331022,4137.28854228,4141.88930317,4138.8320115,4141.75062564,4136.87795126,4136.28752476,4099.42770198,4141.49685366,4138.83297555,715.946465165
off_to_on,4138.25983203,4139.24039522,4135.47448441,4135.63995561,4137.38556806,4142.16042037,4138.97240285,4141.76542994,4136.87893678,4135.47946613,4099.32088197,4140.62309359,4138.59371818,723.028574605
off_to_on,4137.92535897,4139.05974603,4135.66330877,4135.69419788,4137.48370122,4142.5368523,4139.20505785,4141.77337495,4136.88346132,4134.71891292,4099.22583114,4139.7623283,4138.36319331,727.549052949
off_to_on,4137.54796218,4138.86800583,4135.81377317,4135.74436913,4137.57421758,4142.98340499,4139.49503652,4141.74872658,4136.8912411,4133.99355546,4099.13472465,4138.91129864,4138.13078314,729.455500867
off_to_on,4137.11746404,4138.63935639,4135.90303851,4135.78886395,4137.64868529,4143.4627497,4139.80588192,4141.66657567,4136.90187691,4133.29084799,4099.04030037,4138.06712493,4137.8866195,728.795172174
off_to_on,4136.62650017,4138.35094813,4135.91158302,4135.82617938,4137.69929529,4143.93682887,4140.10100081,4141.50384158,4136.91487257,4132.59864695,4098.93612913,4137.22754279,4137.62199153,725.708579079
off_to_on,4136.07080836,4137.98370641,4135.82388382,4135.85495269,4137.7191596,4144.36825323,4140.34502043,4141.2401869,4136.92965653,4131.90579563,4098.81683466,4136.39108725,4137.32968857,720.419443553
off_to_on,4135.44937767,4137.52295411,4135.62891726,4135.87399636,4137.70256656,4144.72164098,4140.50507499,4140.85881211,4136.94560575,4131.20263501,4098.67825685,4135.55722056,4137.0042667,713.221416933
off_to_on,4134.76445403,4136.9588328,4135.32046329,4135.88232973,4137.64518398,4144.9648531,4140.55197796,4140.34710377,4136.96207092,4130.48142361,4098.51755449,4134.72640117,4136.64223025,704.462111895
off_to_on,4134.02140463,4136.28651329,4134.89720641,4135.87920674,4137.54420336,4145.07008339,4140.46124042,4139.69711527,4136.97840198,4129.73665289,4098.33324591,4133.90009346,4136.24212245,694.525095891
off_to_on,4133.22844844,4135.50619503,4134.36263486,4135.86413922,4137.39842109,4145.01476831,4140.21390176,4138.90586574,4136.99397302,4128.96524872,4098.12518907,4133.08072048,4135.80452381,683.810577724
off_to_on,4132.39626655,4134.62290344,4133.72474788,4135.83691509,4137.20825493,4144.78228969,4139.79714576,4137.97544955,4137.00820552,4128.16665501,4097.89450504,4132.27156429,4135.33196051,672.715574814
off_to_on,4131.53751104,4133.64610285,4132.99558956,4135.79761105,4136.97569728,4144.36245235,4139.20468427,4136.91295667,4137.02058923,4127.34280041,4097.64345143,4131.47662121,4134.82872954,661.61437462
off_to_on,4130.66623577,4132.58915067,4132.19063498,4135.74659925,4136.70420933,4143.75172797,4138.43689977,4135.73021156,4137.03069985,4126.49795466,4097.37525455,4130.70042114,4134.30065123,650.840097747
off_to_on,4129.79727566,4131.46862466,4131.32806009,4135.68454763,4136.39856299,4142.95326604,4137.50074779,4134.44334563,4137.03821284,4125.63848601,4097.09391042,4129.94782176,4133.75476289,640.668132
off_to_on,4128.94560319,4130.30355927,4130.42793103,4135.61241373,4136.0646394,4141.976681,4136.40942938,4133.07222444,4137.04291321,4124.77253521,4096.80396587,4129.22378927,4133.19897012,631.302136965
off_to_on,4128.12569115,4129.11462938,4129.51135046,4135.53143186,4135.70919451,4140.83763228,4135.18185186,4131.63975577,4137.04470063,4123.90962496,4096.51029135,4128.53317746,4132.64167376,622.863219925
off_to_on,4127.35091015,4127.92331969,4128.59959932,4135.44309373,4135.3396028,4139.55721993,4133.84190302,4130.17110839,4137.04359017,4123.06022582,4096.21785668,4127.8805163,4132.0913913,615.382759715
off_to_on,4126.63298705,4126.75111632,4127.71331069,4135.34912254,4134.96359089,4138.16122335,4132.41756992,4128.69287328,4137.03970845,4122.23530087,4095.93152015,4127.26982055,4131.55639149,608.799210284
off_to_on,4125.98154746,4125.61875358,4126.87170949,4135.251441,4134.58897207,4136.67921414,4130.93993831,4127.23220018,4137.0332856,4121.44585103,4095.65584018,4126.70442704,4131.04435913,602.959055892
off_to_on,4125.40376061,4124.54554386,4126.09194733,4135.15213369,4134.22339213,4135.14357618,4129.44211158,4125.81594141,4137.02464356,4120.70248136,4095.39491658,4126.18686737,4130.56210511,597.621921629
off_to_on,4124.90409982,4123.54881242,4125.38855575,4135.05340422,4133.87409565,4133.58846777,4127.95808972,4124.46983316,4137.01418094,4120.01500615,4095.15226638,4125.71878061,4130.11533318,592.469672907
off_to_on,4124.48422632,4122.64345263,4124.77303495,4134.95752801,4133.54772032,4132.0487606,4126.52164878,4123.21774172,4137.00235555,4119.3921073,4094.93073704,4125.3008682,4129.70847164,587.119172959
off_to_on,4124.14299815,4121.84161034,4124.25358829,4134.86680129,4133.25012556,4130.55898972,4125.16525982,4122.08099817,4136.98966493,4118.84105706,4094.7324573,4124.93289111,4129.34457426,581.138214718
off_to_on,4123.87660056,4121.15249975,4123.83500599,4134.78348733,4132.98625959,4129.15234673,4123.91908373,4121.07784137,4136.97662603,4118.36751292,4094.55882434,4124.61370769,4129.02529138,574.064009335
off_to_on,4123.67878881,4120.58234686,4123.51869473,4134.70976093,4132.76006754,4127.8597456,4122.81007472,4120.22298411,4136.96375466,4117.97538879,4094.41052434,4124.34134888,4128.75090848,565.423503377
off_to_on,4123.54122979,4120.13445107,4123.30284392,4134.64765231,4132.57444111,4126.70898687,4121.86122022,4119.52731258,4136.95154564,4117.66680322,4094.28758218,4124.11312598,4128.52044658,554.75471525
off_to_on,4123.45392453,4119.80935027,4123.1827133,4134.59899185,4132.43120866,4125.72404169,4121.09093864,4118.99772396,4136.94045437,4117.4421018,4094.18943525,4123.92576473,4128.3318162,541.62823198
off_to_on,4123.40569108,4119.60507101,4123.15102248,4134.56535708,4132.33116284,4124.92447277,4120.51264973,4118.63710169,4136.93088035,4117.2999476,4094.11502544,4123.77555817,4128.18201385,525.667992315
off_to_on,4123.38468519,4119.51744277,4123.19841904,4134.54802356,4132.27412161,4124.32500458,4120.13452464,4118.44442238,4136.92315339,4117.23747018,4094.06290273,4123.65852962,4128.06734871,506.570502027
off_to_on,4123.37893523,4119.54045396,4123.31399999,4134.54792107,4132.25901728,4123.93525005,4119.95941573,4118.41498327,4136.91752276,4117.25046146,4094.03133358,4123.57059646,4127.98368585,484.121681511
off_to_on,4123.37686817,4119.66662752,4123.48586027,4134.56559686,4132.28400711,4123.75959619,4119.98495955,4118.54073496,4136.91414963,4117.33360491,4094.01840752,4123.50772526,4127.92669211,458.210632316
off_to_on,4123.36780396,4119.88739525,4123.70164262,4134.6011874,4132.34659864,4123.79724609,4120.20384069,4118.81070032,4136.91310309,4117.48072374,4094.02213582,4123.4660695,4127.89207155,428.839724704
off_to_on,4123.34239746,4120.19345162,4123.94906385,4134.65439988,4132.44378227,4124.04240974,4120.60419915,4119.21145835,4136.9143597,4117.6850336,4094.04053726,4123.44208206,4127.87577823,396.130548125
off_to_on,4123.2930097,4120.5750714,4124.21639533,4134.7245048,4132.57216425,4124.48463246,4121.17016005,4119.72767022,4136.91780647,4117.93938664,4094.07170691,4123.43259652,4127.87419629,360.325425135
off_to_on,4123.21399372,4121.0223784,4124.49287852,4134.81034019,4132.72809368,4125.10924513,4121.88246163,4120.34262465,4136.92324724,4118.23649492,4094.11386522,4123.4348738,4127.88427923,321.784360467
off_to_on,4123.10188464,4121.52555749,4124.76906086,4134.91032818,4132.90777835,4125.89791761,4122.71915576,4121.03878084,4136.93041199,4118.56912378,4094.1653857,4123.44661283,4127.90364319,280.977473879
off_to_on,4122.95548848,4122.07500616,4125.03704203,4135.02250399,4133.10738571,4126.82929347,4123.6563544,4121.7982892,4136.93896873,4118.93024795,4094.22480114,4123.46592654,4127.93061166,238.473141061
off_to_on,4122.77586876,4122.66142635,4125.29062561,4135.1445572,4133.32312641,4127.8796827,4124.66899549,4122.60347261,4136.94853749,4119.31316614,4094.29078921,4123.49128656,4127.96421185,194.922234394
off_to_on,4122.56623445,4123.27586132,4125.52537594,4135.27388465,4133.55131933,4129.02378728,4125.73160249,4123.43725445,4136.95870577,4119.71157239,4094.36213994,4123.52144187,4128.00412557,151.039007959
off_to_on,4122.33173673,4123.90968535,4125.7385841,4135.40765392,4133.7884383,4130.23543474,4126.81901344,4124.28352287,4136.96904499,4120.11958532,4094.43770852,4123.55531793,4128.0505996,107.57930313
off_to_on,4122.07918548,4124.55455693,4125.92915101,4135.54287578,4134.03114161,4131.48829548,4127.90705688,4125.12742428,4136.97912709,4120.5317385,4094.51635777,4123.59190397,4128.10432212,65.3168569512
off_to_on,4121.81669968,4125.20234762,4126.09739909,4135.67648376,4134.27628653,4132.75656118,4128.97315481,4125.95558258,4136.98854089,4120.94293734,4094.596895,4123.63013583,4128.16627262,25.018571384
off_to_on,4121.55330824,4125.84505988,4126.24482675,4135.80541841,4134.52093141,4134.0155646,4129.99683552,4126.75624335,4136.99690739,4121.34838905,4094.6780083,4123.66878185,4128.23755373,-12.5803556131
off_to_on,4121.29851987,4126.4747474,4126.37382225,4135.92671362,4134.76232871,4135.24232437,4130.96014317,4127.51934547,4137.00389365,4121.74351388,4094.75820737,4123.7063388,4128.3192135,-46.8005278727
off_to_on,4121.0618821,4127.08345106,4126.48735534,4136.03758235,4134.99791227,4136.41600258,4131.84793544,4128.23652557,4137.00922463,4122.12384707,4094.83577407,4123.74094399,4128.41206784,-77.0407948759
off_to_on,4120.8525495,4127.66316278,4126.58866558,4136.13549854,4135.22528238,4137.51826762,4132.6480659,4128.90106347,4137.01269257,4122.48494247,4094.90872797,4123.77030988,4128.51653322,-102.798219093
off_to_on,4120.67888116,4128.20582778,4126.68096617,4136.2182729,4135.44219168,4138.53355891,4133.35145283,4129.50777907,4137.01416379,4122.82228889,4094.97481173,4123.79168666,4128.63247948,-123.684835426
off_to_on,4120.54808585,4128.70339321,4126.76718061,4136.28411966,4135.64653525,4139.44925432,4133.95204112,4130.05289317,4137.01358242,4123.13125069,4095.03150041,4123.80185752,4128.75911246,-139.440588076
off_to_on,4120.46593077,4129.14790822,4126.8497272,4136.33171216,4135.83634724,4140.2557438,4134.44666762,4130.53386527,4137.01097133,4123.40704202,4095.07603738,4123.79716995,4128.89489418,-149.941963708
off_to_on,4120.43652711,4129.53167678,4126.93036335,4136.36022511,4136.00980619,4140.94641575,4134.83484385,4130.9492213,4137.00642988,4123.64474258,4095.1054978,4123.77360476,4129.03750654,-155.205981247
off_to_on,4120.46220164,4129.84746106,4127.01009785,4136.36936197,4136.16525046,4141.51756488,4135.1184719,4131.29838362,4137.00012901,4123.83935939,4095.11687869,4123.72688216,4129.18386248,-155.389344084
off_to_on,4120.54345966,4130.08872947,4127.08917548,4136.35936599,4136.30120419,4141.96823202,4135.30151139,4131.58151384,4136.99230368,4123.9859365,4095.10721319,4123.65260297,4129.3301662,-150.782713402
off_to_on,4120.67904019,4130.24993985,4127.16713401,4136.33101416,4136.41641336,4142.29998829,4135.38961553,4131.79937749,4136.98324304,4124.07971118,4095.07370473,4123.54642048,4129.47202193,-141.800227514
off_to_on,4120.86605928,4130.32684493,4127.24292903,4136.28559386,4136.50989052,4142.51667638,4135.38975436,4131.95323697,4136.9732788,4124.11631185,4095.01387586,4123.40423714,4129.60458829,-128.96457101
off_to_on,4121.10023288,4130.31680376,4127.31511757,4136.22486266,4136.58096592,4142.62412176,4135.30984172,4132.0447768,4136.96277219,4124.09198996,4094.92572489,4123.22241797,4129.72277246,-112.888077886
off_to_on,4121.37616594,4130.21908044,4127.38208757,4136.15099218,4136.62934161,4142.62982585,4135.15838067,4132.07606217,4136.95210009,4124.00387468,4094.80788269,4122.9980112,4129.82145603,-94.2505174237
off_to_on,4121.68769109,4130.03510982,4127.44231696,4136.0664977,4136.6551449,4142.54265179,4134.9441398,4132.04952937,4136.94164088,4123.85023676,4094.65976115,4122.72896536,4129.89574176,-73.7743485255
off_to_on,4122.02823749,4129.76870973,4127.4946442,4135.97415567,4136.65897677,4142.3725118,4134.67587045,4131.96800403,4136.9317604,4123.63074613,4094.48168435,4122.41433175,4129.94120925,-52.1983346007
off_to_on,4122.39120912,4129.42622049,4127.53853086,4135.87691167,4136.64195087,4142.1300636,4134.36207205,4131.8347414,4136.9227988,4123.34670677,4094.27499373,4122.05444157,4129.95416631,-30.250487941
off_to_on,4122.77035154,4129.01655481,4127.57429721,4135.77778204,4136.60571888,4141.82642233,4134.01081068,4131.6534814,4136.91505846,4123.00125271,4094.04211955,4121.65104789,4129.93188304,-8.62135579497
off_to_on,4123.16008725,4128.55114517,4127.6033133,4135.67975227,4136.55247873,4141.47289313,4133.62959297,4131.42851043,4136.90879364,4122.59949028,4093.78661203,4121.20742401,4129.87279624,12.0613364729
off_to_on,4123.55580201,4128.04378076,4127.62813053,4135.58567595,4136.4849628,4141.08072877,4133.22529534,4131.16472168,4136.90420211,4122.14857383,4093.5131276,4120.72841183,4129.77667288,31.255709289
off_to_on,4123.95406763,4127.51033154,4127.65254254,4135.49817775,4136.40640432,4140.66091523,4132.80414569,4130.86766533,4136.90141902,4121.65770475,4093.22736767,4120.22041541,4129.64472331,48.5255234198
off_to_on,4124.35279026,4126.96836304,4127.68156792,4135.41956433,4136.32048125,4140.22398655,4132.37175185,4130.54358048,4136.90051325,4121.13804696,4092.93596938,4119.69133719,4129.47965692,63.5559642122
off_to_on,4124.75127761,4126.43665181,4127.72135194,4135.35174661,4136.23123783,4139.77986908,4131.93316893,4130.19940124,4136.90148628,4120.60255552,4092.64634999,4119.1504563,4129.28567555,76.1647825316
off_to_on,4125.1502225,4125.93461691,4127.77898895,4135.2961767,4136.14298521,4139.3377537,4131.49299588,4129.84273043,4136.90427352,4120.06571902,4092.36650897,4118.60825064,4129.06840283,86.3083340632
off_to_on,4125.55160504,4125.48168826,4127.86227191,4135.25380208,4136.06018391,4138.90599447,4131.05549,4129.48177633,4136.90874818,4119.54322097,4092.10479397,4118.07616692,4128.8347507,94.0822520206
off_to_on,4125.95852006,4125.09663708,4127.9793797,4135.22503908,4135.9873115,4138.49203202,4130.62468806,4129.12524984,4136.91472719,4119.05152952,4091.86963911,4117.56634483,4128.59272739,99.7166930547
off_to_on,4126.37494,4124.79689633,4128.13851684,4135.20976666,4135.92872027,4138.10233972,4130.20452227,4128.78222149,4136.9219792,4118.60742901,4091.66928541,4117.09130393,4128.35119376,103.566305575
off_to_on,4126.80542663,4124.59790072,4128.34752271,4135.20734089,4135.88848984,4137.74239031,4129.79892017,4128.46194021,4136.93023412,4118.22751006,4091.51149458,4116.6636032,4128.11957714,106.09527536
off_to_on,4127.25480703,4124.5124751,4128.61346878,4135.21662943,4135.87028008,4137.41663948,4129.41187865,4128.17361725,4136.93919381,4117.92763722,4091.40326774,4116.29548461,4127.90755346,107.857995712
off_to_on,4127.72783024,4124.55029857,4128.94226306,4135.23606466,4135.87719004,4137.1285227,4129.04750448,4127.92618118,4136.94854367,4117.72241426,4091.35058031,4115.99851252,4127.72470933,109.476080949
off_to_on,4128.22882165,4124.71746813,4129.3382806,4135.26371324,4135.91162844,4136.88046138,4128.7100161,4127.72801148,4136.95796442,4117.6246676,4091.35814404,4115.78322088,4127.58019648,111.612587179
off_to_on,4128.76135186,4125.01618161,4129.80403807,4135.29735925,4135.9752014,4136.67387576,4128.40370419,4127.58666068,4136.96714385,4117.64496768,4091.42920564,4115.65877944,4127.48239112,114.944417056
off_to_on,4129.32793622,4125.44455479,4130.33992866,4135.33459762,4136.06862254,4136.50920324,4128.13285209,4127.50857631,4136.97578795,4117.79120656,4091.56539057,4115.63269003,4127.43857065,120.13395971
off_to_on,4129.92977951,4125.99658193,4130.94403166,4135.3729343,4136.19165019,4136.38592256,4127.90161973,4127.49883527,4136.98363111,4118.06824879,4091.76659837,4115.71052287,4127.45461985,127.801050341
off_to_on,4130.56657856,4126.66224402,4131.61200798,4135.4098892,4136.34305525,4136.30258552,4127.71389763,4127.56090361,4136.99044494,4118.47766962,4092.03095449,4115.89570221,4127.53477817,138.496325997
off_to_on,4131.2363926,4127.4277627,4132.33708954,4135.44309805,4136.52062264,4136.25685943,4127.57313984,4127.69643433,4136.99604555,4119.0175924,4092.35482146,4116.18934938,4127.68143826,152.677004991
off_to_on,4131.9355879,4128.27599301,4133.11016699,4135.47040924,4136.72118749,4136.24558361,4127.48218668,4127.90511507,4137.00029889,4119.6826334,4092.73287012,4116.59018995,4127.89500477,170.686027719
off_to_on,4132.6588601,4129.18694232,4133.91997534,4135.48997167,4136.94070643,4136.26484382,4127.44308933,4128.18457601,4137.00312413,4120.46395931,4093.15820977,4117.09452939,4128.17382001,192.735369973
off_to_on,4133.39933352,4130.13839806,4134.75337328,4135.50031031,4137.17436266,4136.31006698,4127.45694903,4128.53036634,4137.00449496,4121.34945857,4093.62257419,4117.69629985,4128.514161,218.894182545
off_to_on,4134.14873358,4131.10664211,4135.59570702,4135.50038596,4137.41670219,4136.37613691,4127.52378297,4128.93600507,4137.00443877,4122.32402375,4094.116558,4118.38717798,4128.91030957,249.082228919
off_to_on,4134.89762489,4132.06722603,4136.43124555,4135.48963673,4137.66179716,4136.4575297,4127.64242701,4129.39310861,4137.0030339,4123.36993805,4094.62989626,4119.15677128,4129.35469429,283.068891998
off_to_on,4135.63570418,4132.99577806,4137.24367035,4135.46799917,4137.90343084,4136.54846524,4127.81048272,4129.89159375,4137.00040503,4124.46735422,4095.15177788,4119.99286761,4129.83810004,320.477809032
off_to_on,4136.35213475,4133.86881112,4138.0165995,4135.43590799,4138.13529754,4136.64306945,4128.02431294,4130.41995074,4136.99671695,4125.59485043,4095.67118185,4120.88174,4130.34993782,360.796980839
off_to_on,4137.03590689,4134.66450016,4138.73412422,4135.39427422,4138.35120993,4136.73554119,4128.27908634,4130.96557682,4136.99216703,4126.73004386,4096.17722393,4121.8084963,4130.87856514,403.393995099
off_to_on,4137.67620781,4135.36339807,4139.38133479,4135.34444278,4138.54530546,4136.82031653,4128.56886838,4131.51515755,4136.98697671,4127.85024009,4096.6595009,4122.75746151,4131.41164466,447.535810647
off_to_on,4138.26278404,4135.94906169,4139.94481334,4135.28813125,4138.71224369,4136.89222336,4128.88675321,4132.05508021,4136.98138224,4128.93309476,4097.1084192,4123.71257938,4131.9365277,492.412377739
off_to_on,4138.78628054,4136.40856314,4140.41307246,4135.22735268,4138.8473866,4136.94661936,4129.22502958,4132.5718619,4136.9756253,4129.95726321,4097.51549511,4124.65781916,4132.44064764,537.163226197
off_to_on,4139.23854185,4136.73286644,4140.77692133,4135.16432571,4138.94695474,4136.97950702,4129.5753722,4133.05257403,4136.96994358,4130.90301405,4097.87361481,4125.57757371,4132.91190851,580.906044311
off_to_on,4139.61286295,4136.91705539,4141.02974453,4135.10137632,4139.00815295,4136.98762091,4129.92905029,4133.48524507,4136.96456184,4131.75278434,4098.17724418,4126.45703577,4133.3390543,622.766199127
off_to_on,4139.9041803,4136.96040547,4141.16768311,4135.04083558,4139.02926076,4136.96848396,4130.27714473,4133.85922479,4136.95968379,4132.49165684,4098.42258067,4127.2825409,4133.7120061,661.906115934
off_to_on,4140.10919654,4136.86629853,4141.18971186,4134.98493811,4139.00968391,4136.92043122,4130.6107662,4134.16549555,4136.95548498,4133.10774372,4098.60764219,4128.04186737,4134.02215602,697.553443806
off_to_on,4140.22643569,4136.6419861,4141.09761148,4134.93572577,4138.94996486,4136.84260115,4130.92126725,4134.39691912,4136.95210704,4133.5924654,4098.7322908,4128.72448578,4134.26260891,729.026984135
off_to_on,4140.25622935,4136.29821297,4140.8958389,4134.89496061,4138.85175207,4136.73489626,4131.20044205,4134.54841108,4136.94965341,4133.94071797,4098.79819176,4129.32175355,4134.42836548,755.759446745
off_to_on,4140.20063758,4135.84871841,4140.59130346,4134.86405079,4138.71772938,4136.59791636,4131.44070844,4134.61703793,4136.94818662,4134.15092693,4098.80871093,4129.82705182,4134.51644211,777.316219829
off_to_on,4140.06331137,4135.30963732,4140.19306008,4134.84399206,4138.55150868,4136.43286888,4131.63526722,4134.6020355,4136.94772735,4134.2249888,4098.76875551,4130.23586465,4134.52592547,793.409492169
off_to_on,4139.8493056,4134.69882717,4139.71193376,4134.83532715,4138.3574903,4136.2414615,4131.77823463,4134.50475017,4136.94825507,4134.16810584,4098.6845652,4130.54580146,4134.45796158,803.907242511
off_to_on,4139.56485309,4134.03514898,4139.16009201,4134.83812442,4138.14069687,4136.02578228,4131.86474449,4134.32850699,4136.94971027,4133.98852166,4098.56346191,4130.75656523,4134.31568119,808.836803532
off_to_on,4139.21711113,4133.33773173,4138.55058306,4134.85197631,4137.90658726,4135.78817333,4131.89101758,4134.07841171,4136.95199822,4133.69716841,4098.41356763,4130.86986948,4134.1040649,808.38290903
off_to_on,4138.81389206,4132.62524964,4137.89685873,4134.8760177,4137.66085773,4135.53110338,4131.85439722,4133.76109595,4136.95499388,4133.3072381,4098.24350063,4130.88930757,4133.82975303,802.880336539
off_to_on,4138.36338975,4131.91524075,4137.21230112,4134.90896315,4137.40923804,4135.25704552,4131.75335119,4133.38441689,4136.95854791,4132.83369289,4098.06206063,4130.82017888,4133.50080663,792.801455546
off_to_on,4137.87391308,4131.2234934,4136.50977167,4134.94916148,4137.15729022,4134.96836565,4131.58744169,4132.95712435,4136.96249348,4132.2927309,4097.87791405,4130.66927699,4133.12642766,778.739175207
off_to_on,4137.35363691,4130.56352423,4135.80120004,4134.99466542,4136.91021756,4134.66722707,4131.35726637,4132.48850923,4136.96665346,4131.70122548,4097.69929042,4130.4446464,4132.71664758,761.385948093
off_to_on,4136.81037944,4129.94616714,4135.09722837,4135.04331349,4136.67269084,4134.35551577,4131.0643749,4131.9880475,4136.97084792,4131.07615698,4097.53370077,4130.15531515,4132.28199483,741.509623639
off_to_on,4136.25141291,4129.37928728,4134.40692332,4135.09282066,4136.44869817,4134.03478958,4130.71116653,4131.46505381,4136.97490138,4130.43405651,4097.38768847,4129.81101188,4131.83315257,719.927051474
off_to_on,4135.68331204,4128.86762785,4133.73756481,4135.14087434,4136.24142364,4133.70625285,4130.30077501,4130.92835801,4136.97864979,4129.79048045,4097.26662121,4129.42187543,4131.38061786,697.476405776
off_to_on,4135.11184268,4128.41279117,4133.09451669,4135.18523168,4136.05315929,4133.37075689,4129.83694734,4130.38601662,4136.98194672,4129.15953355,4097.17453206,4128.9981657,4130.93437365,674.989235089
off_to_on,4134.54189063,4128.01334965,4132.4811805,4135.2238144,4135.88525345,4133.02882508,4129.32392298,4129.84506957,4136.98466879,4128.5534563,4097.11401463,4128.54998337,4130.50358392,653.263238238
off_to_on,4133.97742969,4127.66507743,4131.89903072,4135.25479713,4135.73809719,4132.68070046,4128.76631935,4129.31135104,4136.98671988,4127.98229002,4097.08617608,4128.08700659,4130.09632209,633.036726608
off_to_on,4133.42152669,4127.36128982,4131.34772708,4135.27668589,4135.61114939,4132.32641304,4128.16902913,4128.78936085,4136.98803429,4127.45363051,4097.09064891,4127.618252,4129.71934192,614.965656776
off_to_on,4132.87638082,4127.09327492,4130.8252974,4135.28838315,4135.50299926,4131.96586295,4127.53713338,4128.28220061,4136.98857842,4126.97247809,4097.12566054,4127.15186749,4129.3778991,599.604009019
off_to_on,4132.34339367,4126.85079891,4130.32838233,4135.28923701,4135.41146317,4131.59891515,4126.87583305,4127.79157578,4136.98835126,4126.54118817,4097.18815726,4126.69496257,4129.07563006,587.388153561
off_to_on,4131.82326561,4126.62266487,4129.85253126,4135.27907206,4135.33371156,4131.22550116,4126.19039938,4127.31786142,4136.98738343,4126.15952271,4097.27397707,4126.25348128,4128.81449234,578.625694165
off_to_on,4131.3161138,4126.39730327,4129.39253695,4135.2582006,4135.26641978,4130.84572265,4125.48614206,4126.86022667,4136.98573512,4125.82479888,4097.37806371,4125.8321206,4128.5947684,573.489112815
off_to_on,4130.82160676,4126.1633719,4128.94279535,4135.22741314,4135.20593646,4130.45995246,4124.76839313,4126.41681027,4136.98349278,4125.53212768,4097.49471313,4125.43429649,4128.41513251,572.01436314
off_to_on,4130.33911043,4125.91034339,4128.49767638,4135.18794824,4135.14846175,4130.06892864,4124.04250317,4125.98493758,4136.98076486,4125.2747325,4097.61784224,4125.06215845,4128.27277794,574.104377251
off_to_on,4129.86784086,4125.62905924,4128.0518916,4135.1414428,4135.09022829,4129.67383786,4123.3138466,4125.56136847,4136.97767688,4125.0443354,4097.7412696,4124.71665233,4128.16359988,579.537264413
off_to_on,4129.40701838,4125.31223092,4127.60084486,4135.08986458,4135.02767699,4129.27638464,4122.58783209,4125.14256435,4136.97436582,4124.83159689,4097.85899756,4124.39762998,4128.08242748,587.97879693
off_to_on,4128.95601824,4124.95486981,4127.14095245,4135.03543002,4134.95762066,4128.87884274,4121.86991428,4124.72496278,4136.97097426,4124.62659388,4097.96548559,4124.10400235,4128.02329658,598.998611199
off_to_on,4128.51451224,4124.55462953,4126.66992002,4134.9805107,4134.87738868,4128.48408506,4121.16560312,4124.30524782,4136.96764445,4124.41931884,4098.05590493,4123.83393066,4127.979753,612.089414795
off_to_on,4128.08259578,4124.11204642,4126.18696451,4134.92753273,4134.78494683,4128.09558881,4120.48046705,4123.88060487,4136.96451255,4124.20018216,4098.12636534,4123.58504801,4127.94517451,626.688392701
off_to_on,4127.66089478,4123.6306665,4125.69297104,4134.87887309,4134.67898737,4127.7174136,4119.82012635,4123.44894888,4136.96170323,4123.96049865,4098.17410516,4123.3547017,4127.91309869,642.199945871
off_to_on,4127.25064706,4123.11705127,4125.19057699,4134.8367577,4134.55898575,4127.35415097,4119.19023307,4123.00911555,4136.95932492,4123.69293842,4098.19763682,4123.14020448,4127.87754221,658.018868612
off_to_on,4126.8537532,4122.58065855,4124.68417832,4134.80316529,4134.42522124,4127.010845,4118.5964343,4122.56100619,4136.95746579,4123.39192221,4098.19684098,4122.93908196,4127.83329723,673.553077305
off_to_on,4126.47279297,4122.03359934,4124.17985638,4134.77974141,4134.27876092,4126.69288412,4118.0443164,4122.10567836,4136.95619068,4123.05394198,4098.17300372,4122.74930213,4127.77619045,688.245044417
off_to_on,4126.11100455,4121.49027634,4123.68522662,4134.76772608,4134.1214074,4126.40586506,4117.53932874,4121.64537665,4136.95553906,4122.67778934,4098.12879362,4122.5694734,4127.70329161,701.591167654
off_to_on,4125.77222525,4120.9669144,4123.20921385,4134.76789824,4133.95561279,4126.15543153,4117.08668687,4121.18350064,4136.95552402,4122.26467779,4098.06817752,4122.39899833,4127.61306043,713.158408124
off_to_on,4125.46079472,4120.4809978,4122.76176133,4134.78053933,4133.7843629,4125.94709096,4116.6912567,4120.72451008,4136.95613238,4121.81824927,4097.99627694,4122.23817266,4127.50542427,722.597655917
off_to_on,4125.18142352,4120.05063385,4122.35348437,4134.80541763,4133.61103702,4125.78601458,4116.35742267,4120.27377067,4136.95732583,4121.34446153,4097.91916985,4122.08822267,4127.38178203,729.653418463
off_to_on,4124.93903192,4119.69386615,4121.99528107,4134.84179416,4133.43924996,4125.67682704,4116.08894433,4119.83734675,4136.95904313,4120.85135917,4097.84364497,4121.95127749,4127.24493439,734.169568045
off_to_on,4124.73856562,4119.42796374,4121.69791528,4134.88844989,4133.27268348,4125.62339356,4115.88880694,4119.42174985,4136.96120307,4120.34873774,4097.77691855,4121.83027737,4127.09894406,736.091024086
off_to_on,4124.58479601,4119.26871391,4121.47158761,4134.94373316,4133.11491502,4125.62861331,4115.75907253,4119.03365457,4136.96370827,4119.84771629,4097.72632488,4121.72882267,4126.94893356,735.461382723
off_to_on,4124.48211357,4119.2297466,4121.32551088,4135.00562536,4132.96925158,4125.69422867,4115.70073869,4118.67959486,4136.96644947,4119.36023858,4097.69899357,4121.65097192,4126.80083096,732.416642758
off_to_on,4124.43432293,4119.32191691,4121.26750605,4135.07182184,4132.83857632,4125.82065969,4115.71361257,4118.36565561,4136.96931023,4118.89852736,4097.7015271,4121.60100036,4126.66107677,727.175313179
off_to_on,4124.44444881,4119.55277064,4121.30363362,4135.13982469,4132.72521512,4126.00687221,4115.79620767,4118.09717459,4136.97217181,4118.47451807,4097.7396921,4121.58313235,4126.53630612,720.025318763
off_to_on,4124.51456093,4119.92611422,4121.43787487,4135.20704345,4132.63082885,4126.25028668,4115.94567005,4117.87846959,4136.97491804,4118.09929924,4097.81813744,4121.60126252,4126.43302152,711.308240931
off_to_on,4124.64562608,4120.44170781,4121.67187563,4135.27089932,4132.55633613,4126.54673299,4116.1577395,4117.71260382,4136.97743994,4117.78258624,4097.94015092,4121.65868099,4126.35727142,701.401534929
off_to_on,4124.83739423,4121.09509583,4122.00476391,4135.3289287,4132.50186965,4126.89045444,4116.42675013,4117.60120093,4136.97963996,4117.53225305,4098.10746466,4121.75781768,4126.31434924,690.699446323
off_to_on,4125.08832466,4121.87758516,4122.43305077,4135.37888171,4132.46676783,4127.27416205,4116.74567375,4117.54431852,4136.98143569,4117.35394368,4098.32011781,4121.90001992,4126.3085266,679.593405325
off_to_on,4125.39555681,4122.77637616,4122.95062124,4135.41881172,4132.44960194,4127.68913882,4117.10620809,4117.54038663,4136.98276283,4117.25078159,4098.57638274,4122.08537574,4126.34283289,668.45270349
off_to_on,4125.75492904,4123.77484603,4123.54881911,4135.44715243,4132.44823746,4128.12539254,4117.49891049,4117.5862152,4136.98357741,4117.22319069,4098.87275874,4122.31259325,4126.41889096,657.606251808
off_to_on,4126.1610463,4124.85297803,4124.21662565,4135.46277946,4132.45992721,4128.57185473,4117.91337596,4117.67707138,4136.9838571,4117.26883702,4099.20403458,4122.57894408,4126.53681603,647.326181805
off_to_on,4126.60739548,4125.98792409,4124.94092854,4135.46505412,4132.4814323,4129.01662242,4118.33845672,4117.80682506,4136.98360165,4117.38269519,4099.56341902,4122.88027617,4126.69518234,637.813982634
off_to_on,4127.08650493,4127.15468194,4125.70687321,4135.4538479,4132.50916599,4129.44723826,4118.76251861,4117.96815781,4136.98283242,4117.55723795,4099.94273543,4123.21109814,4126.89105835,629.189769828
off_to_on,4127.59014214,4128.3268631,4126.49828477,4135.42954678,4132.53935447,4129.85100295,4119.17372827,4118.15282785,4136.98159105,4117.78274212,4100.33267458,4123.56473433,4127.12010881,621.485158718
off_to_on,4128.10954208,4129.47752324,4127.29814575,4135.39303543,4132.56820816,4130.21531254,4119.56036403,4118.3519814,4136.97993733,4118.04769883,4100.72309704,4123.93354631,4127.37675878,614.640072409
off_to_on,4128.63565713,4130.58002352,4128.0891118,4135.34566187,4132.59209623,4130.52801202,4119.91114222,4118.55649883,4136.97794642,4118.33931106,4101.1033746,4124.3092129,4127.65441202,608.503656203
off_to_on,4129.15941928,4131.60889039,4128.85404659,4135.28918385,4132.60771709,4130.77775528,4120.21554999,4118.75736254,4136.9757055,4118.64405756,4101.46275858,4124.68305795,4127.94571409,602.839303796
off_to_on,4129.67200496,4132.54064095,4129.57655608,4135.22569889,4132.61225769,4130.95436089,4120.46417518,4118.94603283,4136.97330997,4118.94829927,4101.79076123,4125.04641238,4128.24284871,597.333632347
off_to_on,4130.16509303,4133.35454334,4130.24150302,4135.15756078,4132.6035347,4131.04915229,4120.64902337,4119.11481739,4136.97085948,4119.2389018,4102.07753618,4125.39099518,4128.537855,591.609080316
off_to_on,4130.63110734,4134.03328427,4130.83548344,4135.0872857,4132.58011161,4131.05527097,4120.76381238,4119.25722009,4136.9684538,4119.5038472,4102.31424342,4125.709297,4128.82295249,585.239650749
off_to_on,4131.06343562,4134.56351973,4131.34724855,4135.01745197,4132.54138662,4130.96795131,4120.80423427,4119.36825546,4136.9661888,4119.73280769,4102.49338479,4125.99494895,4129.09086092,577.769189549
off_to_on,4131.45661754,4134.93628985,4131.76805717,4134.9505975,4132.48764743,4130.78474689,4120.76817577,4119.44471568,4136.96415271,4119.9176558,4102.60909734,4126.24305963,4129.3351019,568.731478872
off_to_on,4131.8064961,4135.14728386,4132.09194645,4134.88911937,4132.42009042,4130.50569966,4120.6558882,4119.48537903,4136.96242268,4120.05288767,4102.65739277,4126.45050422,4129.55027054,557.671344727
off_to_on,4132.11032749,4135.19694738,4132.31591133,4134.83517971,4132.34080311,4130.13344511,4120.47009896,4119.49114991,4136.96106199,4120.13593984,4102.63633377,4126.6161513,4129.73226605,544.165928495
off_to_on,4132.36684629,4135.09042981,4132.43998655,4134.79062189,4132.25271012,4129.67324817,4120.216058,4119.46512337,4136.96011772,4120.16738473,4102.54613998,4126.74101521,4129.8784727,527.845256753
off_to_on,4132.576284,4134.83737586,4132.4672284,4134.75690048,4132.15948417,4129.13296697,4119.90151372,4119.4125691,4136.95961923,4120.15099492,4102.38921898,4126.82832487,4129.9878839,508.411263051
off_to_on,4132.74033994,4134.45157003,4132.40359658,4134.73502795,4132.06542459,4128.52294305,4119.53661505,4119.34083265,4136.95957735,4120.09367159,4102.17012035,4126.88350254,4130.061165,485.654468712
off_to_on,4132.86210486,4133.95044773,4132.25773984,4134.72554022,4131.97530741,4127.85581912,4119.13373802,4119.25915439,4136.95998435,4120.00523833,4101.89541365,4126.91404969,4130.10065238,459.4676151
off_to_on,4132.94593908,4133.35449112,4132.04069218,4134.72848269,4131.89421192,4127.1462877,4118.70723785,4119.17840999,4136.96081457,4119.89810633,4101.5734938,4126.92934032,4130.11028848,429.855653949
off_to_on,4132.99730859,4132.6865312,4131.76548992,4134.74341686,4131.82732987,4126.41077593,4118.27313027,4119.11077908,4136.96202589,4119.78682266,4101.21432019,4126.94032579,4130.09549483,396.941640631
off_to_on,4133.02258416,4131.97098103,4131.4467226,4134.7694472,4131.77976455,4125.6670739,4117.84870876,4119.06935212,4136.96356173,4119.68751803,4100.82909832,4126.95915951,4130.06298715,360.968232331
off_to_on,4133.02881025,4131.23302751,4131.10003387,4134.80526667,4131.75632739,4124.9339155,4117.45210719,4119.06768834,4136.96535362,4119.61727519,4100.42991533,4126.99875342,4130.02053852,322.294662623
off_to_on,4133.02345137,4130.49781066,4130.74159025,4134.84921851,4131.76134008,4124.23052264,4117.1018202,4119.1193398,4136.96732415,4119.5934431,4100.02934253,4127.07228265,4129.97669924,281.389239326
off_to_on,4133.01412528,4129.78961996,4130.38753768,4134.89937146,4131.79845039,4123.57612532,4116.81619609,4119.23735902,4136.96939035,4119.63292508,4099.64001977,4127.19265743,4129.94048313,238.817586669
off_to_on,4133.00833242,4129.1311371,4130.05346633,4134.95360467,4131.87046922,4122.98947176,4116.61291855,4119.43380866,4136.97146703,4119.75147097,4099.27423727,4127.37198387,4129.92103217,195.227018961
off_to_on,4133.01319211,4128.5427522,4129.75390433,4135.0096987,4131.97923627,4122.48834388,4116.50849494,4119.71929244,4136.9734703,4119.96300357,4098.94353085,4127.62103658,4129.92727173,151.327584501
off_to_on,4133.03519562,4128.04197805,4129.50185991,4135.06542858,4132.12552014,4122.08909391,4116.51776863,4120.10252621,4136.97532088,4120.2790085,4098.65830593,4127.94876636,4129.96756965,107.870449427
off_to_on,4133.07998602,4127.64298245,4129.30842978,4135.11865483,4132.30895802,4121.80621787,4116.65347234,4120.58996693,4136.97694718,4120.70801422,4098.42750438,4128.36186535,4130.04941208,65.6243965416
off_to_on,4133.15217372,4127.3562541,4129.18248869,4135.16740908,4132.528038,4121.65198067,4116.92583818,4121.18551493,4136.97828805,4121.25518486,4098.25832671,4128.86441052,4130.17910893,25.3512896482
off_to_on,4133.25519502,4127.18841192,4129.13047166,4135.20997066,4132.78012579,4121.63610567,4117.34227757,4121.89030244,4136.97929496,4121.92204399,4098.15601976,4129.45760317,4130.36154039,-12.2186031604
off_to_on,4133.39121908,4127.14216156,4129.15625622,4135.24493162,4133.06153528,4121.76553913,4117.90714193,4122.70257752,4136.97993372,4122.70634118,4098.12373743,4130.13961802,4130.59995464,-46.4105252513
off_to_on,4133.56110646,4127.21639659,4129.26114709,4135.27124772,4133.36764085,4122.0442966,4118.6215718,4123.61768875,4136.98018559,4123.60206658,4098.16247887,4130.90557036,4130.89582417,-76.6275101542
off_to_on,4133.76441971,4127.40643592,4129.44396116,4135.28827381,4133.69302742,4122.47339479,4119.48343858,4124.62817196,4136.98004764,4124.59961208,4098.27110531,4131.74760438,4131.24876558,-102.370206556
off_to_on,4133.99948455,4127.70438319,4129.70120599,4135.29578242,4134.03167286,4123.05086916,4120.48737979,4125.72393562,4136.97953266,4125.68607026,4098.44643342,4132.65509986,4131.65652464,-123.253523117
off_to_on,4134.26349797,4128.09958899,4130.02734106,4135.29396507,4134.37715587,4123.77187402,4121.62492518,4126.89253764,4136.97866824,4126.84565688,4098.68339986,4133.61498927,4132.11502576,-139.019482138
off_to_on,4134.55267766,4128.57919306,4130.4151076,4135.28341655,4134.72288147,4124.62885913,4122.88470802,4128.11954246,4136.97749543,4128.06023716,4098.97528888,4134.61217212,4132.61848222,-149.54580334
off_to_on,4134.86244595,4129.12872073,4130.8559105,4135.26510296,4135.06231542,4125.61181444,4124.25275313,4129.38894426,4136.97606682,4129.30993262,4099.31401251,4135.63000967,4133.15956165,-154.849878999
off_to_on,4135.1876403,4129.73270663,4131.34023395,4135.24031531,4135.38921852,4126.70857284,4125.71283116,4130.68364015,4136.9744442,4130.57378261,4099.69043105,4136.65087968,4133.72959947,-155.087945643
off_to_on,4135.5227418,4130.3753187,4131.85807198,4135.21061064,4135.69787182,4127.90515994,4127.24686699,4131.98593567,4136.97269594,4131.83043357,4100.09470009,4137.65676881,4134.31885198,-150.549408934
off_to_on,4135.86211285,4131.04095624,4132.39935491,4135.17774344,4135.98328408,4129.1861787,4128.83538912,4133.27806416,4136.9708941,4133.05882838,4100.51662984,4138.62987891,4134.91677961,-141.646443219
off_to_on,4136.20023497,4131.71479804,4132.95435332,4135.14359012,4136.24137349,4130.53521654,4130.45800558,4134.54270111,4136.96911152,4134.2388692,4100.94604209,4139.55322283,4135.51235044,-128.899165138
off_to_on,4136.5319377,4132.38327913,4133.51404316,4135.11006976,4136.46911632,4131.93526232,4132.09389154,4135.76345511,4136.96741886,4135.35202853,4101.37311057,4140.4111861,4136.09435352,-112.916860331
off_to_on,4136.85261,4133.03447918,4134.070417,4135.07906424,4136.66465655,4133.36912012,4133.72227355,4136.92531791,4136.96588186,4136.38188652,4101.78867178,4141.19003251,4136.65171193,-94.3759066378
off_to_on,4137.15838604,4133.65841,4134.61673015,4135.05234101,4136.8273717,4134.81980777,4135.32289627,4138.01505837,4136.9645588,4137.31457606,4102.18449478,4141.8783343,4137.17378609,-73.9951740636
off_to_on,4137.44629862,4134.24719499,4135.14767285,4135.03148136,4136.9578921,4136.27092848,4136.87645895,4139.02154771,4136.96349835,4138.13912246,4102.55350097,4142.46731128,4137.65065854,-52.5097884029
off_to_on,4137.71439466,4134.79513889,4135.65946404,4135.01781719,4137.05807248,4137.70700504,4138.36501069,4139.93600672,4136.96273777,4138.84766897,4102.88992712,4142.95106759,4138.07339272,-30.6442226497
off_to_on,4137.96180899,4135.29869116,4136.14986559,4135.01237838,4137.1309172,4139.1137675,4139.77229579,4140.75216932,4136.9623017,4139.43558465,4103.18942785,4143.32671928,4138.43425905,-9.08572412592
off_to_on,4138.18879381,4135.75631074,4136.61811921,4135.01585294,4137.18046171,4140.47838665,4141.08404212,4141.46635986,4136.96220142,4139.9014559,4103.44911619,4143.59441129,4138.72692287,11.540911014
off_to_on,4138.39670263,4136.16824412,4137.06481158,4135.02856127,4137.211615,4141.7896474,4142.28818758,4142.0774852,4136.96243463,4140.24696752,4103.66754356,4143.75722668,4138.94658999,30.6962432994
off_to_on,4138.58792875,4136.53623161,4137.49167602,4135.05044557,4137.2299687,4143.03805855,4143.37504155,4142.5869451,4136.96298587,4140.47668331,4103.84462297,4143.82099582,4139.09010693,47.9458818675
off_to_on,4138.7657999,4136.86315929,4137.90134142,4135.08107482,4137.24157984,4144.21589779,4144.33738013,4142.99846722,4136.9638273,4140.59773969,4103.98150151,4143.79401642,4139.15601432,62.9761841944
off_to_on,4138.93443192,4137.15267565,4138.29704157,4135.1196651,4137.25273533,4145.31719357,4145.17047601,4143.31787527,4136.96492015,4140.61946814,4104.08039002,4143.68669786,4139.14455295,75.6053325252
off_to_on,4139.09854641,4137.40879293,4138.68229924,4135.16511431,4137.26970661,4146.33764819,4145.87206504,4143.55280044,4136.9662164,4140.55296347,4104.14435911,4143.5111451,4139.05762298,85.7893301344
off_to_on,4139.2632583,4137.6354929,4139.06060064,4135.21604975,4137.29850389,4147.27450872,4146.44225357,4143.71234789,4136.9676609,4140.41061591,4104.17711175,4143.28069817,4138.89869778,93.6226535346
off_to_on,4139.43384083,4137.83635631,4139.43507568,4135.27088602,4137.34463901,4148.1263946,4146.88337186,4143.80673109,4136.9691937,4140.20562504,4104.18274312,4143.0094445,4138.67269505,99.3335010492
off_to_on,4139.61547637,4138.01423356,4139.80819939,4135.32789082,4137.41290596,4148.8930925,4147.19978066,4143.84688767,4136.97075249,4139.95151327,4104.16549882,4142.71172148,4138.38580876,103.2737871
off_to_on,4139.81300197,4138.17097198,4140.18152836,4135.3852556,4137.50718728,4149.57533055,4147.39763935,4143.84409042,4136.97227517,4139.66165626,4104.12954231,4142.40162689,4138.04530733,105.904236762
off_to_on,4140.03065918,4138.30721197,4140.55548477,4135.44116812,4137.63029357,4150.17454485,4147.48464459,4143.80956687,4136.97370225,4139.34884601,4104.07874179,4142.09255382,4137.65930376,107.775127051
off_to_on,4140.27185764,4138.42226111,4140.92919805,4135.49388424,4137.78384215,4150.69265144,4147.46974917,4143.75414001,4136.97497922,4139.0249008,4104.01648602,4141.79676527,4137.23650496,109.503392423
off_to_on,4140.53896166,4138.51405151,4141.30041184,4135.54179612,4137.96817961,4151.13183655,4147.36287072,4143.68790125,4136.97605855,4138.70033342,4103.94553665,4141.5250221,4136.78594752,111.746956562
off_to_on,4140.83310912,4138.57918211,4141.66546145,4135.58349423,4138.18235132,4151.49437663,4147.17460019,4143.61992549,4136.97690145,4138.38408671,4103.86792326,4141.2862754,4136.31672852,115.17726478
off_to_on,4141.15407098,4138.6130449,4142.0193244,4135.61782093,4138.4241198,4151.78249819,4146.91591992,4143.55803622,4136.97747927,4138.08334272,4103.78488525,4141.08743246,4135.83773984,120.451065357
off_to_on,4141.50015896,4138.61003054,4142.35574368,4135.64391372,4138.6900315,4151.9982847,4146.59794052,4143.50862674,4136.97777439,4137.80340921,4103.6968627,4140.93320287,4135.35741551,128.182520972
off_to_on,4141.86818793,4138.56380668,4142.66742106,4135.66123676,4138.97553003,4152.14363569,4146.23166498,4143.47654177,4136.9777807,4137.54768501,4103.60353663,4140.82602905,4134.88350176,138.916722959
off_to_on,4142.25349749,4138.46765937,4142.94627492,4135.66959967,4139.27511187,4152.22027949,4145.82778678,4143.46502156,4136.97750363,4137.31770352,4103.50391687,4140.76610298,4134.42285904,153.105631687
off_to_on,4142.6500358,4138.31488534,4143.18375454,4135.66916331,4139.58251892,4152.2298381,4145.39652694,4143.47570865,4136.97695972,4137.11325098,4103.39647394,4140.75146819,4133.98130518,171.087376473
off_to_on,4143.05050625,4138.09922055,4143.37120039,4135.66043206,4139.89096056,4152.1739393,4144.94751244,4143.50871498,4136.97617568,4136.93255391,4103.27930919,4140.77820348,4133.56350666,193.069721596
off_to_on,4143.44657528,4137.81528804,4143.50023754,4135.64423326,4140.19335702,4152.05436747,4144.48969642,4143.56274469,4136.97518721,4136.77252721,4103.15035553,4140.84068186,4133.17292403,219.118347628
off_to_on,4143.82913725,4137.45904665,4143.56318759,4135.62168436,4140.48259476,4151.87324228,4144.0313182,4143.63526626,4136.97403734,4136.62907276,4103.00759952,4140.93189583,4132.81181449,249.150415417
off_to_on,4144.18862968,4137.02822131,4143.55348317,4135.59414915,4140.75178442,4151.63321175,4143.57989965,4143.72272605,4136.97277461,4136.49741654,4102.84931423,4141.04383743,4132.48129289,282.93367949
off_to_on,4144.51538962,4136.52269523,4143.46606823,4135.56318496,4140.9945116,4151.33764473,4143.14227297,4143.82079395,4136.97145106,4136.3724713,4102.6742918,4141.16791968,4132.18144941,320.091206291
off_to_on,4144.80003902,4135.94484488,4143.29776677,4135.5304828,4141.20507094,4150.99080768,4142.72463359,4143.92463142,4136.97012007,4136.24921068,4102.48206388,4141.29542334,4131.91151935,360.111540049
off_to_on,4145.03388486,4135.29979948,4143.04760296,4135.49780305,4141.37867472,4150.59801107,4142.3326106,4144.029171,4136.96883422,4136.1230396,4102.2730984,4141.41795191,4131.67009749,402.363953487
off_to_on,4145.20931753,4134.59560898,4142.71705616,4135.46690923,4141.51162796,4150.16571222,4141.97134612,4144.12939591,4136.96764327,4135.99014542,4102.04896145,4141.52787602,4131.4553863,446.118228551
off_to_on,4145.32019013,4133.84330688,4142.31023644,4135.43950248,4141.60146352,4149.70156364,4141.64557454,4144.22060856,4136.96659221,4135.84781393,4101.81243419,4141.61874853,4131.26546531,490.568241221
off_to_on,4145.362161,4133.05685796,4141.83396814,4135.41715938,4141.64703207,4149.21439817,4141.35969264,4144.29867649,4136.9657196,4135.69469547,4101.56757612,4141.68567212,4131.09856677,534.858482373
off_to_on,4145.33298231,4132.25298443,4141.29777287,4135.40127538,4141.6485437,4148.71414605,4141.11781289,4144.36024574,4136.96505617,4135.53100747,4101.31972807,4141.72560232,4130.95334211,578.112538595
off_to_on,4145.23271911,4131.45086889,4140.71374631,4135.39301605,4141.60755977,4148.21168243,4140.92379355,4144.40291302,4136.96462377,4135.35866212,4101.07545082,4141.73757105,4130.82910319,619.462485633
off_to_on,4145.06388591,4130.67173701,4140.09632828,4135.39327777,4141.52693585,4147.71860845,4140.78124206,4144.42535015,4136.9644347,4135.18131075,4100.8423974,4141.72281869,4130.72602347,658.078115301
off_to_on,4144.83149124,4129.93832818,4139.4619697,4135.40265928,4141.41071856,4147.24697288,4140.69349005,4144.42737693,4136.96449139,4135.00429993,4100.62912078,4141.68482625,4130.64528557,693.194926579
off_to_on,4144.54298516,4129.27426777,4138.82870517,4135.42144495,4141.2640008,4146.80894541,4140.66354087,4144.40998072,4136.96478655,4134.83453864,4100.44482123,4141.62924408,4130.58916478,724.139862512
off_to_on,4144.20810896,4128.70335931,4138.21564429,4135.44960022,4141.09274172,4146.41645533,4140.69399229,4144.37528345,4136.96530361,4134.68028,4100.29904126,4141.56371784,4130.56104085,750.353862843
off_to_on,4143.83865069,4128.24881933,4137.64239865,4135.48677905,4140.90355845,4146.08081169,4140.78693884,4144.32645868,4136.9660176,4134.55082528,4100.20131859,4141.49761762,4130.56533428,771.410424513
off_to_on,4143.44811396,4127.93248099,4137.12846413,4135.53234282,4140.70349802,4145.81232204,4140.94385964,4144.26760298,4136.96689631,4134.45616156,4100.16081028,4141.44168006,4130.60736718,787.029514591
off_to_on,4143.05131114,4127.77399487,4136.6925807,4135.58538959,4140.49979811,4145.61992699,4141.165499,4144.2035682,4136.96790168,4134.40654738,4100.18590293,4141.40757762,4130.69315222,797.086356802
off_to_on,4142.66389505,4127.7900569,4136.35209281,4135.64479221,4140.29964572,4145.51086752,4141.45174775,4144.13976217,4136.96899147,4134.41206337,4100.28382491,4141.40743206,4130.82911746,801.614805294
off_to_on,4142.30184594,4127.99369352,4136.12233437,4135.70924338,4140.10994288,4145.4904,4141.80153388,4144.08192717,4136.97012095,4134.48214625,4100.4602774,4141.45329192,4131.02177789,800.805220183
off_to_on,4141.98093272,4128.39363326,4136.01606166,4135.77730557,4139.93708793,4145.56157202,4142.21273095,4144.03590603,4136.97124481,4134.62512606,4100.71910075,4141.55659549,4131.27736791,794.996962444
off_to_on,4141.71616877,4128.99379209,4136.04295689,4135.8474636,4139.78678012,4145.72506917,4142.6820924,4144.00740609,4136.97231885,4134.84778658,4101.06199168,4141.72764182,4131.60145121,784.665823043
off_to_on,4141.52128279,4129.79289661,4136.20922256,4135.91817779,4139.66385433,4145.97914019,4143.20521858,4144.0017707,4136.97330181,4135.15496867,4101.48828555,4141.975092,4131.9985261,770.406884042
off_to_on,4141.40822502,4130.78426484,4136.51728434,4135.98793548,4139.57215059,4146.31960443,4143.77656176,4144.02376729,4136.97415684,4135.54923428,4101.99481508,4142.30552219,4132.47164527,752.913471099
off_to_on,4141.38672744,4131.95575889,4136.96561543,4136.0552991,4139.51442228,4146.73994236,4144.38947216,4144.07739964,4136.97485294,4136.030607,4102.57585485,4142.72304709,4133.02206874,732.952992736
off_to_on,4141.46393414,4133.28991769,4137.54869139,4136.11894912,4139.49228454,4147.2314664,4145.03628573,4144.16575052,4136.97536603,4136.5964015,4103.223157,4143.22903003,4133.64896797,711.340567113
off_to_on,4141.64411572,4134.76427111,4138.25707889,4136.17772047,4139.50620343,4147.7835664,4145.70845232,4144.29085913,4136.97567974,4137.24115041,4103.92608028,4143.82189157,4134.34919694,688.91140684
off_to_on,4141.92847757,4136.35182967,4139.07765672,4136.23063134,4139.55552464,4148.38402102,4146.3967003,4144.45363579,4136.97578592,4137.95663325,4104.67181067,4144.49702466,4135.11714341,666.492964425
off_to_on,4142.31506875,4138.02173759,4139.99396272,4136.2769038,4139.63853907,4149.01936423,4147.0912323,4144.65381453,4136.97568478,4138.73200763,4105.44566758,4145.24681974,4135.94466997,644.877836011
off_to_on,4142.79879414,4139.74006998,4140.98665523,4136.31597554,4139.75258172,4149.67529409,4147.78194531,4144.88994284,4136.9753847,4139.5540387,4106.2314867,4146.06079909,4136.82115123,624.798379631
off_to_on,4143.37152889,4141.47074981,4142.03407349,4136.347503,4139.89415898,4150.33710962,4148.45866748,4145.15940664,4136.97490174,4140.40741964,4107.01206675,4146.92585554,4137.73360944,606.903927051
off_to_on,4144.02233044,4143.1765551,4143.11287762,4136.37135581,4140.05909895,4150.99016018,4149.11140363,4145.45848805,4136.97425883,4141.27517202,4107.76966546,4147.82658656,4138.66694727,591.741359072
off_to_on,4144.73774007,4144.82018301,4144.1987457,4136.38760331,4140.24271871,4151.62029108,4149.73058083,4145.7824533,4136.97348474,4142.13911264,4108.4865276,4148.74571138,4139.60427246,579.73967989
off_to_on,4145.5021629,4146.36533475,4145.26710333,4136.39649392,4140.44000224,4152.21426839,4150.30728546,4146.12566703,4136.97261279,4142.98037053,4109.14542638,4149.66455568,4140.52730499,571.199073667
off_to_on,4146.29831291,4147.77778381,4146.29385952,4136.39842853,4140.64578226,4152.76016676,4150.833483,4146.48172918,4136.97167947,4143.77993599,4109.73019848,4150.56358577,4141.41685389,566.28476078
off_to_on,4147.10770723,4149.02639023,4147.2561229,4136.39392935,4140.85491924,4153.24770495,4151.3022119,4146.84362955,4136.97072291,4144.51922185,4110.22625279,4151.42297256,4142.25334766,565.025795631
off_to_on,4147.91119286,4150.08402497,4148.13287236,4136.38360594,4141.06247088,4153.66851601,4151.70774367,4147.20391483,4136.96978135,4145.18061662,4110.62103354,4152.22316483,4143.01739979,567.318765628
off_to_on,4148.68948767,4150.92837121,4148.90555815,4136.36812008,4141.26384555,4154.01634125,4152.04570244,4147.55486264,4136.96889163,4145.74800901,4110.90442036,4152.94545129,4143.69038945,572.936165392
off_to_on,4149.42371745,4151.54257337,4149.55861182,4136.34815132,4141.45493411,4154.28714061,4152.31313862,4147.88865727,4136.96808775,4146.2072651,4111.06905011,4153.57249193,4144.25503653,581.539037734
off_to_on,4150.09593129,4151.91570974,4150.07984704,4136.32436481,4141.63221537,4154.47911511,4152.50855379,4148.1975623,4136.96739961,4146.54664119,4111.11054872,4154.08880116,4144.69595008,592.693305872
off_to_on,4150.68957898,4152.04307116,4150.46073777,4136.29738317,4141.79283171,4154.59264169,4152.63187587,4148.47408592,4136.96685189,4146.75711838,4111.02766433,4154.48116745,4145.00013022,605.889084503
off_to_on,4151.18993609,4151.92623574,4150.69656555,4136.26776355,4141.93463323,4154.63012424,4152.68438652,4148.71113569,4136.96646321,4146.83264857,4110.8222975,4154.73899783,4145.15740557,620.562159732
off_to_on,4151.58446541,4151.57293823,4150.78643333,4136.23598103,4142.05618998,4154.59576918,4152.66860499,4148.90216042,4136.96624551,4146.77030512,4110.49942775,4154.85457859,4145.16079077,636.116768289
off_to_on,4151.8631063,4150.99674062,4150.73314925,4136.2024192,4142.15677346,4154.49529711,4152.58813458,4149.0412777,4136.96620372,4146.57033561,4110.06694029,4154.82324727,4145.00675224,651.948780322
off_to_on,4152.01848652,4150.21651892,4150.54298883,4136.16736807,4142.23631009,4154.33560505,4152.44747947,4149.12338632,4136.96633572,4146.23611728,4109.53536037,4154.64347398,4144.69537394,667.468396893
off_to_on,4152.04605411,4149.25578745,4150.22534865,4136.13102932,4142.2953098,4154.12439578,4152.25184042,4149.144263,4136.96663257,4145.77401976,4108.9175063,4154.31685353,4144.23041829,682.121515801
off_to_on,4151.94412947,4148.14188794,4149.79230881,4136.09352826,4142.33477475,4153.86979168,4152.00689833,4149.10064299,4136.96707902,4145.19318199,4108.22807492,4153.84801249,4143.61928127,695.408996341
off_to_on,4151.71388092,4146.9050753,4149.25812449,4136.0549316,4142.35609308,4153.5799516,4151.71859512,4148.99028387,4136.96765422,4144.5052135,4107.48317524,4153.24443813,4142.87284389,706.903158902
off_to_on,4151.35922895,4145.57753539,4148.63866938,4136.01526971,4142.36092373,4153.26270854,4151.39292066,4148.81201203,4136.9683327,4143.72383221,4106.69982741,4152.51623873,4142.00522551,716.260981039
off_to_on,4150.88668668,4144.19237207,4147.95085529,4135.97456193,4142.35107831,4152.92524544,4151.0357147,4148.56575114,4136.96908543,4142.86445305,4105.89544493,4151.675846,4141.03344719,723.233589786
off_to_on,4150.30514509,4142.78260119,4147.21205188,4135.93284337,4142.32840594,4152.57382371,4150.65249149,4148.25253209,4136.9698811,4141.94374282,4105.08731842,4150.73767184,4139.97701619,727.671792197
off_to_on,4149.62561211,4141.38018775,4146.43952939,4135.89019156,4142.29468692,4152.21357603,4150.24829413,4147.87448426,4136.97068734,4140.97915732,4104.29211856,4149.71773169,4138.85744422,729.527526313
off_to_on,4148.86091509,4140.0151595,4145.64994526,4135.84675144,4142.25154018,4151.8483717,4149.8275843,4147.43480808,4136.97147209,4139.98847674,4103.52543519,4148.63324704,4137.6977142,728.851252477
off_to_on,4148.025376,4138.7148259,4144.85889224,4135.80275698,4142.20034915,4151.48075858,4149.39417097,4146.93772929,4136.9722048,4138.98935448,4102.80136752,4147.50223883,4136.52171095,725.785442051
off_to_on,4147.13446847,4137.50312588,4144.08052218,4135.75854797,4142.14220932,4151.11198248,4148.95117997,4146.38843535,4136.97285766,4137.99889333,4102.13217832,4146.34312305,4135.35363208,720.55445692
off_to_on,4146.20446529,4136.40012151,4143.32725555,4135.71458078,4142.07789978,4150.74208021,4148.5010638,4145.79299472,4136.97340657,4137.03326118,4101.52802184,4145.17431821,4134.21739542,713.451244386
off_to_on,4145.25208444,4135.42164848,4142.6095823,4135.67143185,4142.00787945,4150.37003893,4148.04564934,4145.15825991,4136.97383209,4136.10735627,4100.9967524,4144.01387377,4133.13605899,704.821392305
off_to_on,4144.29414034,4134.57912716,4141.93595534,4135.6297934,4141.93230763,4149.99401122,4147.58621948,4144.49175564,4136.97412007,4135.23452939,4100.54381704,4142.87912629,4132.13126913,695.045192456
off_to_on,4143.34720657,4133.87953208,4141.31277334,4135.59046107,4141.85108689,4149.61157292,4147.12362331,4143.80155364,4136.97426208,4134.4263678,4100.1722327,4141.78638949,4131.22275096,684.518441026
off_to_on,4142.4272949,4133.32551112,4140.74444571,4135.55431384,4141.76392559,4149.22000901,4146.65840808,4143.09613624,4136.97425567,4133.69254295,4099.88264495,4140.7506823,4130.42785409,673.63275935
off_to_on,4141.54955491,4132.91564088,4140.23352907,4135.52228686,4141.67041615,4148.81661208,4146.19096543,4142.38425072,4136.97410429,4133.04072195,4099.67346285,4139.78549818,4129.76116479,662.756242531
off_to_on,4140.72799771,4132.64480012,4139.78092214,4135.49533834,4141.57012439,4148.39897768,4145.72168386,4141.67475717,4136.97381704,4132.47654003,4099.54106143,4138.90261775,4129.23419363,652.215236516
off_to_on,4139.97524681,4132.50463976,4139.38610411,4135.47441194,4141.4626847,4147.96528116,4145.25109927,4140.97647241,4136.97340822,4132.00362976,4099.48004141,4138.11196534,4128.85514534,642.278004963
off_to_on,4139.30231903,4132.48412553,4139.04740107,4135.4603962,4141.34789525,4147.51452225,4144.78003544,4140.29801321,4136.9728966,4131.62370024,4099.48353364,4137.42150894,4128.62877495,633.140977015
off_to_on,4138.71843751,4132.57012713,4138.76226426,4135.45408287,4141.22580752,4147.0467248,4144.309727,4139.64764157,4136.97230464,4131.33665816,4099.54353435,4136.83720166,4128.5563314,624.918168012
off_to_on,4138.23087909,4132.74802752,4138.52754492,4135.45612617,4141.0968046,4146.56308157,4143.84191791,4139.03311543,4136.97165748,4131.14076135,4099.65125671,4136.36296187,4128.63558695,617.634241059
off_to_on,4137.84485766,4133.00232591,4138.33975119,4135.46700484,4140.96166329,4146.06603661,4143.37892957,4138.46154768,4136.97098188,4131.03279523,4099.79748416,4136.00068859,4128.86094864,611.221532845
off_to_on,4137.56344559,4133.31721025,4138.19527496,4135.48698884,4140.82159607,4145.55930051,4142.92369403,4137.93927628,4136.9703052,4131.00826249,4099.97291181,4135.75030836,4129.22364595,605.521208025
off_to_on,4137.38753494,4133.67707807,4138.09057909,4135.51611253,4140.67826948,4145.04779711,4142.47974883,4137.47174794,4136.9696542,4131.06157716,4100.16846344,4135.60984944,4129.7119877,600.288539079
off_to_on,4137.31584032,4134.0669885,4138.0223387,4135.5541553,4140.53379698,4144.53754288,4142.05119194,4137.06341765,4136.96905408,4131.1862551,4100.37557361,4135.5755392,4130.31167992,595.202139799
off_to_on,4137.34494498,4134.47303348,4137.98753341,4135.60063091,4140.39070534,4144.03546351,4141.64259698,4136.71766581,4136.96852749,4131.37509432,4100.58642619,4135.6419208,4131.00619631,589.876817194
off_to_on,4137.46939123,4134.88262077,4137.98349097,4135.65478584,4140.25187512,4143.5491551,4141.25889127,4136.43673495,4136.96809365,4131.62034008,4100.79414333,4135.80198509,4131.77719183,583.879555551
off_to_on,4137.68181558,4135.28466666,4138.00788537,4135.71560692,4140.12045717,4143.08660037,4140.90520135,4136.22168728,4136.96776773,4131.91383161,4100.99292081,4136.04731481,4132.60494994,576.74801371
off_to_on,4137.9731278,4135.66970024,4138.05869525,4135.78183826,4139.9997683,4142.65585305,4140.58667222,4136.07238426,4136.96756029,4132.24712833,4101.1781084,4136.36823759,4133.46885305,568.010808072
off_to_on,4138.33273137,4136.02988487,4138.13412979,4135.85200716,4139.8931704,4142.26470481,4140.30826809,4135.98748848,4136.96747698,4132.61161514,4101.34623561,4136.75398542,4134.34786526,557.208773849
off_to_on,4138.74878126,4136.35896534,4138.23253078,4135.92445859,4139.80393774,4141.92035015,4140.07456328,4135.96448746,4136.96751842,4132.99858671,4101.49498516,4137.19285782,4135.22101592,543.916349092
off_to_on,4139.20847254,4136.65215148,4138.35225958,4135.9973973,4139.73511808,4141.62906436,4139.88953259,4135.9997389,4136.96768027,4133.3993121,4101.62311822,4137.67238719,4136.0678724,527.762212151
off_to_on,4139.69835224,4136.90595066,4138.49157779,4136.06893673,4139.68939335,4141.39590935,4139.75635091,4136.08853614,4136.96795352,4133.80508161,4101.7303573,4138.17950485,4136.86899101,508.44832423
off_to_on,4140.20464557,4137.11796293,4138.6485306,4136.13715315,4139.66894586,4141.22448124,4139.67721177,4136.22519325,4136.96832497,4134.20723895,4101.81723426,4138.70070741,4137.60633558,485.76658376
off_to_on,4140.71358782,4137.28665387,4138.82084098,4136.20014354,4139.6753365,4141.11671251,4139.65317436,4136.40314906,4136.96877779,4134.59720337,4101.88491257,4139.22222418,4138.26365493,459.612386461
off_to_on,4141.21175374,4137.41112117,4139.00582337,4136.25608534,4139.70940066,4141.07274003,4139.68404758,4136.61508991,4136.96929231,4134.96648751,4101.93499418,4139.73018784,4138.82681219,429.994500732
off_to_on,4141.68637693,4137.49087119,4139.20032463,4136.30329607,4139.77116773,4141.09084749,4139.76831864,4136.85309088,4136.96984682,4135.30671803,4101.96932214,4140.21081115,4139.28406066,397.040807859
off_to_on,4142.12565287,4137.52562146,4139.40069906,4136.34029052,4139.85980892,4141.1674877,4139.90313145,4137.10877513,4136.97041852,4135.60966617,4101.98979039,4140.65057341,4139.62626266,360.999614909
off_to_on,4142.51901912,4137.51514334,4139.60282289,4136.3658336,4139.97361711,4141.29738574,4140.08431802,4137.3734904,4136.97098441,4135.86729536,4101.99817127,4141.03641974,4139.8470492,322.236418864
off_to_on,4142.85740716,4137.4591564,4139.80215141,4136.37898637,4140.11002092,4141.47372004,4140.30648309,4137.63850093,4136.97152222,4136.07183167,4101.9959705,4141.35597511,4139.94291962,281.226176728
off_to_on,4143.13346027,4137.35728288,4139.99381942,4136.37914381,4140.26563398,4141.68837429,4140.56313962,4137.89519184,4136.97201125,4136.21586176,4101.98431764,4141.59777413,4139.91328147,238.541311054
off_to_on,4143.34171285,4137.20906626,4140.17278303,4136.36606252,4140.43633831,4141.93224997,4140.84689016,4138.13528229,4136.97243319,4136.29246108,4101.96389791,4141.75150508,4139.76043192,194.835846697
off_to_on,4143.47872698,4137.01405457,4140.33399852,4136.33987752,4140.61739983,4142.19562621,4141.14964682,4138.35104231,4136.9727728,4136.29535313,4101.93492907,4141.80826554,4139.48948299,150.826226032
off_to_on,4143.54318297,4136.77194425,4140.47263112,4136.30110748,4140.80361212,4142.46855112,4141.46288109,4138.53550745,4136.9730184,4136.21909811,4101.89718445,4141.76082447,4139.1082338,107.269480423
off_to_on,4143.53592142,4136.48277713,4140.58428492,4136.25064809,4140.98946354,4142.74124692,4141.7778933,4138.68268456,4136.97316228,4136.0593067,4101.85006038,4141.6038841,4138.62699376,64.9395403368
off_to_on,4143.45993468,4136.14717836,4140.66524303,4136.18975403,4141.16932151,4143.00451,4142.08609137,4138.78774178,4136.97320095,4135.81287188,4101.79268401,4141.33433289,4138.05836096,24.6025410089
off_to_on,4143.3203066,4135.76662006,4140.71270529,4136.12000995,4141.3376272,4143.25008699,4142.37926813,4138.84717572,4136.97313513,4135.47820917,4101.72405491,4140.95147933,4137.41696043,-13.0079777226
off_to_on,4143.12409991,4135.34369219,4140.7250103,4136.04329138,4141.48909299,4143.47100885,4142.64986699,4138.85894897,4136.97296968,4135.05549349,4101.64321167,4140.45725502,4136.71914658,-47.2150716337
off_to_on,4142.8801917,4134.88236076,4140.70182803,4135.96171665,4141.61889524,4143.66186763,4142.89122627,4138.82259145,4136.97271331,4134.54687912,4101.54941347,4139.85637471,4135.98267408,-77.4207140078
off_to_on,4142.59905908,4134.38819297,4140.64431031,4135.87759096,4141.72285485,4143.81902357,4143.09779337,4138.73925994,4136.9723781,4133.95668865,4101.44232511,4139.15644104,4135.22634154,-103.125621835
off_to_on,4142.29251851,4133.86853014,4140.5551886,4135.7933443,4141.79759822,4143.94073427,4143.26530109,4138.61175072,4136.97197905,4133.29155645,4101.32219364,4138.36798222,4134.46961249,-123.945860692
off_to_on,4141.973424,4133.33259174,4140.43881063,4135.71146457,4141.84069195,4144.02720189,4143.39089967,4138.44446119,4136.97153332,4132.5605128,4101.19000512,4137.50441214,4133.73221888,-139.62561969
off_to_on,4141.65533117,4132.79149681,4140.30111082,4135.63442808,4141.85074504,4144.08053791,4143.4732394,4138.24329784,4136.97105957,4131.7749966,4101.04761067,4136.58190419,4133.03375298,-150.045681508
off_to_on,4141.35213535,4132.25819365,4140.14951252,4135.56462908,4141.8274739,4144.10464877,4143.51250005,4138.01552932,4136.97057717,4130.94878671,4100.89781281,4135.61917298,4132.39325444,-155.227253718
off_to_on,4141.07769367,4131.74729318,4139.99276371,4135.50431062,4141.77172664,4144.10504834,4143.51036552,4137.76958576,4136.97010541,4130.09784528,4100.74440521,4134.63716133,4131.82880018,-155.330972594
off_to_on,4140.84544199,4131.27480639,4139.84071122,4135.45549871,4141.68546528,4144.08860549,4143.46994343,4137.51480777,4136.96966275,4129.24007026,4100.59216101,4133.6586342,4131.35710506,-150.65104275
off_to_on,4140.66801825,4130.8577911,4139.70402135,4135.41994194,4141.57170599,4144.06323669,4143.39563198,4137.26115116,4136.96926609,4128.39495774,4100.44676765,4132.70768525,4130.99314185,-141.604641266
off_to_on,4140.55690374,4130.51391757,4139.59385744,4135.39905839,4141.43441951,4144.03755434,4143.29293759,4137.01885548,4136.96893017,4127.5831792,4100.31470849,4131.80916617,4130.74978873,-128.716892989
off_to_on,4140.5220931,4130.26096645,4139.52152624,4135.39389148,4141.27839496,4144.02048293,4143.16824871,4136.79808631,4136.96866698,4126.82608204,4100.20309379,4130.98805239,4130.63751254,-112.601903253
off_to_on,4140.57180245,4130.11627564,4139.49810589,4135.40507605,4141.10907166,4144.02085567,4143.02857217,4136.60856243,4136.96848539,4126.14512554,4100.11944623,4130.26876224,4130.66409531,-93.9404981867
off_to_on,4140.71222363,4130.09615536,4139.53406865,4135.43281576,4140.93234498,4144.04700535,4142.88124028,4136.45917984,4136.96839085,4125.56126759,4100.07144831,4129.67444918,4130.8344111,-73.4554590592
off_to_on,4140.94733084,4130.21529233,4139.63891121,4135.47687244,4140.75435291,4144.10636415,4142.73359803,4136.35764567,4136.96838523,4125.09432019,4100.06666078,4129.22628883,4131.15025929,-51.8851429905
off_to_on,4141.27874429,4130.48616545,4139.82080501,4135.53656785,4140.58125139,4144.20508787,4142.59268117,4136.31013491,4136.96846685,4124.76229436,4100.11222326,4128.94278378,4131.61025962,-29.9564586078
off_to_on,4141.70565397,4130.91849545,4140.08627804,4135.61079788,4140.41898684,4144.34772026,4142.46489738,4136.32098348,4136.96863061,4124.58075659,4100.21454888,4128.83911004,4132.2098132,-8.35820794602
off_to_on,4142.22480468,4131.51875047,4140.4399388,4135.6980591,4140.27307456,4144.53691251,4142.35572297,4136.39243039,4136.96886826,4124.56222059,4100.37902593,4128.92652878,4132.9411327,12.284191528
off_to_on,4142.83054252,4132.28972862,4140.8842514,4135.79648691,4140.14839175,4144.77321123,4142.26942863,4136.52442144,4136.9691688,4124.71559883,4100.60973943,4129.21188698,4133.79334441,31.431631043
off_to_on,4143.51492148,4133.23023627,4141.41936956,4135.90390447,4140.04899322,4145.05492566,4142.20884732,4136.7144858,4136.96951899,4125.04573828,4100.9092258,4129.69722916,4134.75266371,48.6509871505
off_to_on,4144.26786822,4134.33487869,4142.04303593,4136.01788116,4139.97795777,4145.37808218,4142.17519756,4136.95769599,4136.96990388,4125.55306425,4101.27827288,4130.37954093,4135.80264459,63.6307733327
off_to_on,4145.07740231,4135.59397648,4142.75055129,4136.13579881,4139.93727182,4145.73647068,4142.16797368,4137.2467191,4136.97030749,4126.23335388,4101.71577654,4131.2506419,4136.92450234,76.1921376498
off_to_on,4145.92990828,4136.99361756,4143.53481709,4136.25492378,4139.92775592,4146.12178429,4142.18491251,4137.57196472,4136.97071342,4127.07765678,4102.21866258,4132.29724115,4138.09750649,86.2947526872
off_to_on,4146.81045477,4138.51585018,4144.38645234,4136.37248258,4139.94903788,4146.5238498,4142.22204261,4137.92183072,4136.97110555,4128.07237564,4102.78188062,4133.50116317,4139.29943859,94.0373378728
off_to_on,4147.70315472,4140.13901688,4145.29398415,4136.48573858,4139.99957415,4146.93094298,4142.27381799,4138.28304327,4136.97146863,4129.19951245,4103.39847282,4134.83974533,4140.50710687,99.6527592682
off_to_on,4148.59155857,4141.83822435,4146.24410805,4136.59206748,4140.07671868,4147.33017912,4142.33333384,4138.64108307,4136.97178889,4130.43707984,4104.05971796,4136.28640125,4141.69690751,103.497861472
off_to_on,4149.45907154,4143.58593838,4147.22201246,4136.68902899,4140.1768364,4147.70796613,4142.39261787,4138.98068489,4136.97205457,4131.75966953,4104.75534766,4137.8113372,4142.84541938,106.038391832
off_to_on,4150.28938447,4145.35268815,4148.21175871,4136.77443272,4140.29545651,4148.0505046,4142.44298666,4139.28639399,4136.97225631,4133.13916329,4105.47382878,4139.38240159,4143.93001777,107.829569251
off_to_on,4151.06690741,4147.10785966,4149.19670672,4136.84639637,4140.42745904,4148.34431667,4142.47545318,4139.54315944,4136.97238747,4134.54556536,4106.20270335,4140.96604198,4144.92949013,109.49302088
off_to_on,4151.7771945,4148.82055446,4150.15997448,4136.90339453,4140.56728695,4148.57678412,4142.48116867,4139.73694183,4136.97244438,4135.94792943,4106.92897469,4142.52833822,4145.82463617,111.690954436
off_to_on,4152.40734846,4150.46048661,4151.08491825,4136.94429679,4140.70917504,4148.73667472,4142.45187993,4139.85531104,4136.97242635,4137.31534822,4107.63952606,4144.03607649,4146.59883329,115.098545751
off_to_on,4152.94639279,4151.99888839,4151.9556191,4136.96839414,4140.84738628,4148.81463632,4142.38038199,4139.88800929,4136.9723357,4138.61796997,4108.32155681,4145.45782603,4147.23854832,120.375594555
off_to_on,4153.38559969,4153.40939385,4152.75736059,4136.97541289,4140.97644601,4148.80363948,4142.26094609,4139.82745538,4136.97217757,4139.82800398,4108.9630196,4146.7649788,4147.73377647,128.138533636
off_to_on,4153.71876216,4154.66886882,4153.47708165,4136.96551582,4141.09136493,4148.69935163,4142.08970425,4139.66916806,4136.97195967,4140.92067679,4109.55304166,4147.93271287,4148.07838993,138.933867333
off_to_on,4153.94239969,4155.75815675,4154.10378901,4136.93929055,4141.18784194,4148.50042848,4141.86497328,4139.41208978,4136.97169191,4141.87510193,4110.08231367,4148.94084256,4148.27038048,153.21406492
off_to_on,4154.05588842,4156.66271159,4154.62891402,4136.89772554,4141.26243933,4148.20871125,4141.58750409,4139.05879554,4136.97138595,4142.67502887,4110.54343026,4149.77452205,4148.31198312,171.316843526
off_to_on,4154.0615084,4157.37309161,4155.04659963,4136.84217456,4141.31272337,4147.82932105,4141.26064464,4138.6155759,4136.97105472,4143.30944045,4110.9311679,4150.4247739,4148.20967152,193.448647406
off_to_on,4153.96440271,4157.88529224,4155.35390483,4136.77431061,4141.33736473,4147.37064439,4140.89040752,4138.09238686,4136.9707119,4143.772973,4111.24268765,4150.8888195,4147.97401943,219.672972019
off_to_on,4153.7724457,4158.20090038,4155.55091563,4136.69607123,4141.33619417,4146.84420678,4140.48543608,4137.50266377,4136.97037131,4144.0661384,4111.4776528,4151.17019462,4147.61942659,249.903998523
off_to_on,4153.49601987,4158.32705911,4155.64075435,4136.60959665,4141.31021042,4146.26443398,4140.05686522,4136.86300029,4136.97004639,4144.1953345,4111.63825438,4151.27864051,4147.16371209,283.905802755
off_to_on,4153.14770504,4158.27623844,4155.62948256,4136.51716339,4141.26153901,4145.64830364,4139.61807661,4136.19269849,4136.96974969,4144.17263741,4111.72914133,4151.22976874,4146.62758312,321.297190639
off_to_on,4152.74188631,4158.06581589,4155.52589755,4136.42111536,4141.19334252,4145.01489336,4139.18435137,4135.51320098,4136.96949235,4144.01537797,4111.75725574,4151.04450683,4146.03399229,361.561998706
off_to_on,4152.29429196,4157.71747842,4155.34122671,4136.323795,4141.10968529,4144.38483493,4138.77242718,4134.84742115,4136.96928374,4143.7455134,4111.73157785,4150.74834045,4145.40740146,404.064492275
off_to_on,4151.82147508,4157.2564648,4155.08872899,4136.22747673,4141.01535707,4143.77968793,4138.39997066,4134.21899193,4136.96913108,4143.38881359,4111.66278922,4150.37037604,4144.77297455,448.069301383
off_to_on,4151.34025581,4156.7106741,4154.78321613,4136.13430506,4140.91566267,4143.22124969,4138.08497942,4133.65145746,4136.96903922,4142.97388916,4111.56286569,4149.94225539,4144.15572559,492.765163346
off_to_on,4150.86714281,4156.10967137,4154.4405103,4136.04623911,4140.81618553,4142.73082171,4137.84513187,4133.16743468,4136.96901053,4142.53109547,4111.4446152,4149.49696,4143.57965088,537.291598678
off_to_on,4150.41775433,4155.48362655,4154.07685766,4135.96500521,4140.72253498,4142.32845609,4137.69710588,4132.78777437,4136.96904482,4142.0913522,4111.32117763,4149.06754822,4143.06687627,580.767539232
off_to_on,4150.00625993,4154.86222573,4153.70831985,4135.89205885,4140.64008777,4142.03220784,4137.6558906,4132.53075222,4136.96913947,4141.68492273,4111.20550602,4148.68587175,4142.63685122,622.320856519
off_to_on,4149.64486466,4154.2735965,4153.35016752,4135.82855648,4140.57373491,4141.85742121,4137.73411762,4132.41132084,4136.96928957,4141.34019996,4111.10984969,4148.38132013,4142.30562093,661.117706802
off_to_on,4149.34335663,4153.7432896,4153.01630074,4135.77533764,4140.52764539,4141.81607823,4137.94143909,4132.44045268,4136.96948812,4141.08254643,4111.04526009,4148.17964216,4142.08520639,696.390620146
off_to_on,4149.10873774,4153.2933579,4152.71872068,4135.73291715,4140.50505737,4141.91623699,4138.28398017,4132.62460169,4136.9697262,4140.93323577,4111.02113984,4148.10189148,4141.98311924,727.464312187
off_to_on,4148.94495409,4152.94157017,4152.46707513,4135.70148683,4140.5081067,4142.16158484,4138.76389184,4132.96530776,4136.96999318,4140.90853954,4111.04485384,4148.16354008,4142.00203398,753.778286574
off_to_on,4148.85273871,4152.7007916,4152.26829687,4135.68092604,4140.5377009,4142.55112813,4139.37902729,4133.45896352,4136.97027681,4141.01899859,4111.12141927,4148.37379723,4142.13963457,774.905419036
off_to_on,4148.82957454,4152.57855605,4152.12634998,4135.67082006,4140.59344482,4143.07903612,4140.12276115,4134.09675733,4136.97056323,4141.26891131,4111.2532878,4148.73516372,4142.38864556,790.565867486
off_to_on,4148.86978079,4152.57684681,4152.04209446,4135.67048535,4140.67362207,4143.73465089,4140.98396556,4134.86479987,4136.97083701,4141.6560629,4111.44023004,4149.24324229,4142.7370504,800.635830019
do_nothing,4148.96472098,4152.692094,4152.01327464,4135.67900059,4140.77523406,4144.50266917,4141.94715171,4135.74443557,4136.97108105,4142.17171046,4111.6793275,4149.88681517,4143.16849226,805.150865938
do_nothing,4149.10312649,4152.91538791,4152.03463208,4135.69524267,4140.89409577,4145.36349497,4142.99277862,4136.71273248,4136.97127652,4142.80082847,4111.96507346,4150.64818936,4143.66284511,804.303696691
do_nothing,4149.27152529,4153.23289906,4152.09813921,4135.71792652,4141.02498535,4146.2937554,4144.09772476,4137.7431382,4136.9714028,4143.52260973,4112.2895794,4151.50380038,4144.19693643,798.436607312
do_nothing,4149.45476216,4153.62648844,4152.19334551,4135.74564829,4141.16184207,4147.26696601,4145.235911,4138.80628257,4136.9714374,4144.31120671,4112.64288,4152.42505569,4144.74539728,788.028766846
do_nothing,4149.63659407,4154.07448437,4152.3078247,4135.77693102,4141.29800549,4148.25432598,4146.37905784,4139.87090265,4136.97135615,4145.13668997,4113.01332564,4153.37939011,4145.281611,773.678969501
do_nothing,4149.80034211,4154.55259736,4152.42770778,4135.8102722,4141.42648678,4149.2256187,4147.49755365,4140.90486032,4136.9711333,4145.96619171,4113.38804846,4154.33149755,4145.77872781,756.084460226
do_nothing,4149.92958012,4155.03493945,4152.53828428,4135.84419243,4141.54026204,4150.15018872,4148.56140623,4141.87621879,4136.970742,4146.76519513,4113.7534848,4155.24469623,4146.2107106,736.01664454
do_nothing,4150.00883906,4155.49511144,4152.62465199,4135.87728374,4141.63257621,4150.99796258,4149.54124553,4142.75434116,4136.97015482,4147.49892377,4114.09593441,4156.0823788,4146.55337479,714.29458778
do_nothing,4150.02430558,4155.90731921,4152.67239359,4135.90825649,4141.69724601,4151.74047907,4150.40934285,4143.51097284,4136.96934456,4148.13377998,4114.40213515,4156.80949459,4146.78538553,691.757278466
do_nothing,4149.96449322,4156.24747905,4152.66825771,4135.93598292,4141.72894984,4152.35189338,4151.14061038,4144.12126905,4136.96828517,4148.63877842,4114.65983084,4157.39400899,4146.88917586,669.235662291
do_nothing,4149.82086449,4156.49427232,4152.60082091,4135.9595361,4141.7234932,4152.80991974,4151.71354444,4144.5647301,4136.96695296,4148.98691923,4114.85830985,4157.80828487,4146.85175165,647.525447838
do_nothing,4149.58838284,4156.63011083,4152.46110702,4135.97822269,4141.67803845,4153.09667892,4152.11107703,4144.82600948,4136.96532784,4149.15644662,4114.98889289,4158.03033252,4146.66535231,627.361643158
do_nothing,4149.26597433,4156.64197697,4152.24314064,4135.9916085,4141.59128914,4153.19941901,4152.32130221,4144.89556345,4136.96339467,4149.13194124,4115.04535027,4158.04487848,4146.32794075,609.39570447
do_nothing,4148.85688015,4156.52210621,4151.94441227,4135.99953567,4141.46362017,4153.11108186,4152.33804699,4144.77011521,4136.9611447,4148.90519997,4115.02423122,4157.84420921,4145.8435011,594.176068383
do_nothing,4148.36888351,4156.26848465,4151.56623505,4136.00213109,4141.29714676,4152.83069153,4152.16126052,4144.45291196,4136.95857688,4148.47586296,4114.92509116,4157.42875279,4145.22212958,582.132704022
do_nothing,4147.81439687,4155.88514055,4151.11397531,4135.99980536,4141.09572724,4152.36354682,4151.79720084,4143.95375989,4136.9556991,4147.85175709,4114.75060658,4156.8073712,4144.47991044,573.566168173
do_nothing,4147.2103997,4155.38221615,4150.59714361,4135.99324214,4140.86489716,4151.72120595,4151.25840495,4143.28882917,4136.95252922,4147.04893507,4114.5065715,4155.9973467,4143.6385775,568.641479965
do_nothing,4146.57822116,4154.77581415,4150.02933731,4135.98337802,4140.61173476,4150.92125851,4150.56343614,4142.48023,4136.94909584,4146.09140159,4114.20177447,4155.02405731,4142.72496936,567.386955116
do_nothing,4145.94316705,4154.08762182,4149.42803106,4135.97137318,4140.34466122,4149.98688729,4149.73641099,4141.55536958,4136.94543871,4145.01053071,4113.84775974,4153.9203487,4141.77029428,569.697956868
do_nothing,4145.33399533,4153.3443235,4148.81421702,4135.95857355,4140.07318154,4148.94623033,4148.80631726,4140.54610909,4136.94160873,4143.84419064,4113.45848081,4152.72562138,4140.80922787,575.345334597
do_nothing,4144.78224971,4152.57682021,4148.21190216,4135.94646562,4139.80757514,4147.83156127,4147.80614295,4139.48774812,4136.93766761,4142.63560459,4113.04985872,4151.48466328,4139.87887254,583.988138448
do_nothing,4144.32146578,4151.81928223,4147.64747533,4135.93662507,4139.55854718,4146.67831337,4146.77184445,4138.4178714,4136.93368694,4141.43198618,4112.63926127,4150.24626742,4139.01761324,595.190031254
do_nothing,4143.98626924,4151.10806694,4147.14896219,4135.93066088,4139.33685358,4145.5239784,4145.74118837,4137.37509835,4136.92974692,4140.28299789,4112.24492241,4149.06168313,4138.26390785,608.438682461
do_nothing,4143.81139018,4150.48053911,4146.74519057,4135.93015668,4139.15291366,4144.40691708,4144.75250736,4136.39778048,4136.92593453,4139.23908765,4111.8853233,4147.98295556,4137.65505356,623.16733156
do_nothing,4143.83062151,4149.97383494,4146.46489296,4135.93661122,4139.01642512,4143.36512142,4143.84341383,4135.52269341,4136.92234142,4138.34976457,4111.57855835,4147.06121307,4137.22597151,638.777649352
do_nothing,4144.07575286,4149.62361334,4146.33577578,4135.95137998,4138.93599577,4142.43497144,4143.04951809,4134.78377144,4136.91906133,4137.6618774,4111.34171,4146.3449641,4137.00805214,654.662999422
do_nothing,4144.57551382,4149.46283884,4146.38358754,4135.97561987,4138.91880654,4141.65003014,4142.40319764,4134.21093092,4136.91618732,4137.21795975,4111.19025576,4145.87846517,4137.02810133,670.231209073
do_nothing,4145.35456201,4149.52064002,4146.63121873,4136.01023906,4138.97031902,4141.03991926,4141.93246294,4133.82902606,4136.91380878,4137.05470428,4111.13752974,4145.70021921,4137.30742425,684.926001354
do_nothing,4146.4325514,4149.82128462,4147.09786645,4136.05585357,4139.09403927,4140.62931641,4141.6599616,4133.65697598,4136.9120084,4137.20162311,4111.19425885,4145.84165848,4137.86107922,698.246316775
do_nothing,4147.82331471,4150.38330861,4147.79829468,4136.11275243,4139.29134784,4140.43711029,4141.60215789,4133.70709583,4136.91085914,4137.67994544,4111.3681907,4146.32605986,4138.69732799,709.762858607
do_nothing,4149.5341912,4151.21883095,4148.74221837,4136.18087278,4139.56140298,4140.47574512,4141.76871845,4133.98465749,4136.91042138,4138.5017943,4111.66382681,4147.16773157,4139.81730249,719.13132174
do_nothing,4151.56552639,4152.33307909,4149.93383537,4136.25978612,4139.90112144,4140.75077833,4142.16212824,4134.48769691,4136.91074034,4139.6696743,4112.08227069,4148.37150049,4141.21490075,726.101903658
do_nothing,4153.91036532,4153.72414233,4151.37152472,4136.3486967,4140.30523809,4141.26066775,4142.77755186,4135.20707621,4136.91184388,4141.17629029,4112.62119573,4149.93251806,4142.8769165,730.524838887
do_nothing,4156.55435418,4155.38296162,4153.04772404,4136.44645266,4140.76644282,4141.99679585,4143.60294669,4136.12679874,4136.91374078,4143.00470435,4113.27493317,4151.83639077,4144.78339875,732.351839235
do_nothing,4159.47585798,4157.29355512,4154.94899152,4136.55156991,4141.27559022,4142.94373031,4144.61942467,4137.22456569,4136.91641959,4145.12882527,4114.03467572,4154.05962875,4146.90822879,731.633460636
do_nothing,4162.64629406,4159.4334697,4157.05625148,4136.66226834,4141.82197507,4144.07971173,4145.80185041,4138.47255405,4136.91984811,4147.51421242,4114.88878769,4156.57039419,4149.21989399,728.512555336
do_nothing,4166.03067375,4161.7744398,4159.34521512,4136.77651925,4142.39366426,4145.37735167,4147.11965479,4139.83838727,4136.92397352,4150.11916377,4115.82320834,4159.3295197,4151.68243024,723.214105101
do_nothing,4169.58833661,4164.28322713,4161.78696175,4136.89210246,4142.97787381,4146.80451691,4148.53783536,4141.28626369,4136.92872327,4152.89604745,4116.82193158,4162.29175704,4154.25649853,716.03186291
do_nothing,4173.2738548,4166.92260748,4164.34865989,4137.00667139,4143.56137812,4148.32536899,4150.0181085,4142.77820199,4136.93400657,4155.79282693,4117.8675423,4165.40720794,4156.90055581,707.31235112
do_nothing,4177.0380786,4169.65246544,4166.99440203,4137.11782365,4144.13093707,4149.90152314,4151.52017274,4144.27535871,4136.93971656,4158.75472265,4118.94178717,4168.62288221,4159.57207624,697.436867379
do_nothing,4180.82928936,4172.43095409,4169.68612348,4137.22317514,4144.67372639,4151.49328553,4153.00303857,4145.73937,4136.94573308,4161.72594803,4120.02615721,4171.88432413,4162.22877752,686.802230405
do_nothing,4184.59442207,4175.21567495,4172.38457267,4137.32043496,4145.1777556,4153.06092518,4154.42637729,4147.13366809,4136.95192599,4164.6514554,4121.10245881,4175.13724653,4164.8298066,675.801051751
do_nothing,4188.28031832,4177.96483398,4175.0502994,4137.40747891,4145.63225862,4154.5659347,4155.75184058,4148.42472378,4136.95815877,4167.47862745,4122.15335147,4178.32911237,4167.33684179,664.802343806
do_nothing,4191.83496948,4180.63833164,4177.64462744,4137.48241888,4146.02804222,4155.97223385,4156.944303,4149.58316813,4136.96429254,4170.15885279,4123.16283212,4181.41060695,4169.71507212,654.133266629
do_nothing,4195.20871104,4183.19874867,4180.1305795,4137.54366617,4146.35777946,4157.24727206,4157.97298314,4150.58475173,4136.97019014,4172.64892899,4124.11664919,4184.33694858,4171.93402041,644.062776444
do_nothing,4198.35533146,4185.61219455,4182.47372474,4137.58998623,4146.61623707,4158.36298982,4158.81240329,4151.4111059,4136.97572026,4174.91224337,4125.00263253,4187.06899264,4173.96818307,634.787867583
do_nothing,4201.2330619,4187.84899161,4184.64292274,4137.62054307,4146.80042838,4159.29660577,4159.44315417,4152.05027859,4136.98076144,4176.91969072,4125.81092965,4189.57409212,4175.79746702,626.422999949
do_nothing,4203.80541785,4189.88417488,4186.61094192,4137.63493149,4146.90968662,4160.03120398,4159.852439,4152.49702609,4136.98520578,4178.65029694,4126.53414212,4191.82668782,4177.40741213,618.993179172
do_nothing,4206.04186915,4191.69779566,4188.35493532,4137.63319569,4146.94565605,4160.55610526,4160.03437978,4152.75285222,4136.98896223,4180.09152916,4127.16736046,4193.80861233,4178.78919623,612.431011462
do_nothing,4207.91832087,4193.27502499,4189.85676255,4137.61583325,4146.91220184,4160.86701439,4159.99007863,4152.82579594,4136.9919594,4181.23928532,4127.70809977,4195.50910384,4179.93942858,606.577895455
do_nothing,4209.41739507,4194.60606198,4191.10315258,4137.58378406,4146.81524236,4160.96594389,4159.72743643,4152.72997903,4136.99414773,4182.09756907,4128.15614266,4196.92453795,4180.85974666,601.18934551
do_nothing,4210.52851137,4195.68586071,4192.08570892,4137.5384041,4146.66251039,4160.86092249,4159.26074014,4152.48493399,4136.99550093,4182.67786846,4128.51329975,4198.05789761,4181.55623963,595.944271733
do_nothing,4211.24777212,4196.51369776,4192.80076505,4137.48142469,4146.46325227,4160.56550387,4158.61003752,4152.11474073,4136.99601669,4182.99826908,4128.78310183,4198.91801218,4182.03872919,590.45787851
do_nothing,4211.57766616,4197.09260951,4193.24910463,4137.41489828,4146.22787645,4160.09809769,4157.80032463,4151.64700646,4136.9957166,4183.08234256,4128.97044049,4199.51860603,4182.3199446,584.297692162
do_nothing,4211.52661185,4197.42873413,4193.43556585,4137.34113236,4145.96756441,4159.48115016,4156.86057645,4151.11172898,4136.99464532,4182.95786016,4129.08117632,4199.87720459,4182.41463272,577.002095833
do_nothing,4211.10836543,4197.53059625,4193.36855372,4137.26261367,4145.69385834,4158.74020554,4155.82265561,4150.54008646,4136.99286893,4182.65538766,4129.12173425,4200.01395103,4182.33864577,568.100641407
do_nothing,4210.34132406,4197.40837342,4193.05948602,4137.1819251,4145.41824061,4157.90288313,4154.72013756,4149.96319977,4136.99047263,4182.20682201,4129.09870609,4199.95038906,4182.10804946,557.135328682
do_nothing,4209.24775436,4197.07318156,4192.52219893,4137.10165831,4145.1517207,4156.99780704,4153.58709376,4149.41091377,4136.98755785,4181.64393093,4129.01847882,4199.70826715,4181.73829164,543.681994538
do_nothing,4207.85297691,4196.53641261,4191.77233738,4137.02432519,4144.90444459,4156.05352758,4152.45687606,4148.91064396,4136.98423876,4180.99695543,4128.88690488,4199.30841579,4181.24346707,527.37094166
do_nothing,4206.18453572,4195.80915206,4190.82675231,4136.95227135,4144.68534165,4155.09747382,4151.36094633,4148.48633201,4136.98063848,4180.29333039,4128.70902815,4198.76974406,4180.63570785,507.905957977
do_nothing,4204.27137912,4194.90169737,4189.70292448,4136.88759517,4144.50182196,4154.15497638,4150.32779419,4148.15754984,4136.97688502,4179.55657216,4128.48887557,4198.10839446,4179.92472178,485.080933824
do_nothing,4202.1430758,4193.82319199,4188.41843114,4136.83207529,4144.35953541,4153.2483969,4149.3819825,4147.93878573,4136.97310701,4178.80537346,4128.22932063,4197.33708651,4179.1174932,458.793371692
do_nothing,4199.82908703,4192.58138337,4186.99046941,4136.78710985,4144.26220105,4152.39639669,4148.54335556,4147.83893871,4136.96942962,4178.052937,4127.93202138,4196.46467168,4178.21815319,429.054199859
do_nothing,4197.35811255,4191.18250782,4185.43544712,4136.75366976,4144.21151211,4151.61337121,4147.82643835,4147.86103875,4136.96597052,4177.30656925,4127.59743233,4195.49591262,4177.22801899,395.993441677
do_nothing,4194.75752498,4189.63130008,4183.76864962,4136.73226816,4144.20711899,4150.90907017,4147.24004771,4148.00220126,4136.96283623,4176.56754548,4127.22488621,4194.43149106,4176.14579538,359.861451175
do_nothing,4192.05290381,4187.93112078,4182.00398843,4136.72294754,4144.24668959,4150.28841579,4146.78712756,4148.25381465,4136.96011889,4175.83124665,4126.81273932,4193.26823907,4174.96792412,321.025596757
do_nothing,4189.26767694,4186.0841911,4180.15383488,4136.72528498,4144.32604338,4149.75152346,4146.46481152,4148.60195082,4136.95789353,4175.08755891,4126.35857152,4191.9995797,4173.68906235,279.962451139
do_nothing,4186.42287433,4184.09192043,4178.22893991,4136.73841566,4144.43935327,4149.29392128,4146.26470725,4149.02797983,4136.95621608,4174.3215163,4125.85943044,4190.61615492,4172.30266565,237.24572057
do_nothing,4183.53699437,4181.95530979,4176.23843832,4136.7610735,4144.5794067,4148.90695637,4146.17338833,4149.50936248,4136.95512196,4173.51415941,4125.3121082,4189.10661199,4170.80164846,193.530312627
do_nothing,4180.62598042,4179.67541123,4174.18993345,4136.79164748,4144.73791529,4148.5783686,4146.17307178,4150.02058845,4136.95462542,4172.6435744,4124.71343793,4187.45851338,4169.17909196,149.533093119
do_nothing,4177.70330099,4177.25382159,4172.08965555,4136.82825133,4144.90586068,4148.29300565,4146.24245271,4150.53422233,4136.95471973,4171.68607067,4124.06059742,4185.65933104,4167.4289684,106.011012834
do_nothing,4174.78012358,4174.69318699,4169.94268446,4136.86880361,4145.0738627,4148.03364812,4146.35766162,4151.02201649,4136.95537795,4170.61744984,4123.35140671,4183.6974818,4165.54684998,63.7373889467
do_nothing,4171.86556889,4171.99769387,4167.75322437,4136.91111495,4145.23255575,4147.78190973,4146.49330549,4151.45604693,4136.95655446,4169.41431427,4122.58460695,4181.56335849,4163.5305714,23.477199849
do_nothing,4168.96702952,4169.17352219,4165.52491673,4136.95297856,4145.37295893,4147.5191757,4146.62355083,4151.80982807,4136.9581871,4168.0553615,4121.76010825,4179.25031062,4161.38081601,-14.0377068607
do_nothing,4166.09053496,4166.2292379,4163.26117559,4136.99226026,4145.48682626,4147.22754152,4146.72320562,4152.05936297,4136.96019984,4166.52261026,4120.87919538,4176.75552954,4159.10159884,-48.1325870472
do_nothing,4163.241144,4163.17610359,4160.96552919,4137.02698393,4145.56696428,4146.89071518,4146.76875807,4152.18408896,4136.96250585,4164.80250624,4119.94468164,4174.08079622,4156.70062307,-78.2120754019
do_nothing,4160.42334501,4160.02829012,4158.64195161,4137.05540895,4145.60750602,4146.49484744,4146.73933285,4152.16768293,4136.96501089,4162.88686042,4118.96100304,4171.23305514,4154.18949198,-103.779947297
do_nothing,4157.6414454,4156.80297563,4156.2951691,4137.07609632,4145.60413167,4146.02925811,4146.61752938,4151.99869682,4136.96761689,4160.77357946,4117.9342475,4168.22478467,4151.58376361,-124.455643416
do_nothing,4154.89993231,4153.52032288,4153.93092684,4137.08796073,4145.5542288,4145.48703112,4146.39011178,4151.67100076,4136.97022546,4158.46715654,4116.87211614,4165.07414265,4148.90284189,-139.986951162
do_nothing,4152.20378891,4150.20333071,4151.55620378,4137.09030695,4145.45698702,4144.86545626,4146.04852652,4151.18401906,4136.97274125,4155.97890068,4115.78381679,4161.80487514,4146.16970454,-150.258371045
do_nothing,4149.55875246,4146.87756032,4149.17936537,4137.08284913,4145.31342487,4144.16630201,4145.58923016,4150.54275232,4136.975075,4153.32689343,4114.67989227,4158.44598637,4143.41047436,-155.294838099
do_nothing,4146.97150385,4143.57074237,4146.810247,4137.0657128,4145.12634883,4143.39590951,4145.0138179,4149.75758727,4136.97714592,4150.53567296,4113.57198905,4155.03117785,4140.65384713,-155.260613775
do_nothing,4144.44978092,4140.31227555,4144.46016372,4137.03942006,4144.90024733,4142.5651039,4144.32895067,4148.84390361,4136.97888356,4147.63565647,4112.47257423,4151.59807478,4137.93039511,-150.453316306
do_nothing,4142.00241141,4137.13263218,4142.1418449,4137.00485882,4144.64112429,4141.68892533,4143.54608669,4147.82149507,4136.98022889,4144.66232286,4111.3946111,4148.18726659,4135.27177019,-141.293222851
do_nothing,4139.63926421,4134.06268991,4139.86929545,4136.96323807,4144.35627926,4140.78618821,4142.68103045,4146.71382829,4136.98113471,4141.65518662,4110.35120546,4144.84119664,4132.70983497,-128.308154466
do_nothing,4137.3711206,4131.13301154,4137.6575871,4136.91603114,4144.05404257,4139.87888318,4141.7533187,4145.54716931,4136.98156537,4138.65660268,4109.35523594,4141.60294209,4130.27575292,-112.114433731
do_nothing,4135.20946984,4128.37309667,4135.52258591,4136.86490978,4143.74347543,4138.99144248,4140.78546883,4144.34961174,4136.98149598,4135.71044808,4108.41898227,4138.51492925,4127.99907049,-93.3945678752
do_nothing,4133.16623638,4125.8106301,4133.48062345,4136.81167182,4143.43404571,4138.14989444,4139.80211951,4143.15004441,4136.98091118,4132.8607311,4107.55376531,4135.6176328,4125.90682445,-72.8724453658
do_nothing,4131.25344852,4123.4707515,4131.54812111,4136.75816558,4143.13529083,4137.38093709,4138.82909713,4141.9770978,4136.97980361,4130.1501808,4106.76961224,4132.94830747,4124.02270706,-51.2869388587
do_nothing,4129.48286099,4121.37537062,4129.74117859,4136.70621405,4142.85647943,4136.71096415,4137.89244375,4140.85810969,4136.97817231,4127.61887043,4106.07495907,4130.53980015,4122.3663201,-29.3648827912
do_nothing,4127.86554583,4119.54254996,4128.07513864,4136.65754184,4142.60628344,4136.16507812,4137.01744323,4139.81814884,4136.97602112,4125.3029264,4105.47640125,4128.41948757,4120.95254567,-7.79443601565
do_nothing,4126.41146736,4117.98597507,4126.56414123,4136.61370778,4142.39247176,4135.76612551,4136.22768193,4138.87913355,4136.9733573,4123.23337042,4104.97850119,4126.60837947,4119.79105749,12.8001580136
do_nothing,4125.12905798,4116.71452876,4125.22068073,4136.5760457,4142.22163627,4135.53378896,4135.5441791,4138.05907781,4136.97019052,4121.43513666,4104.58365906,4125.1204214,4118.88599133,31.8814415102
do_nothing,4124.02481148,4115.73198232,4124.05517995,4136.54561571,4142.09895958,4135.48376982,4134.98461916,4137.37149318,4136.96653211,4119.9262983,4104.29205058,4123.96202309,4118.23578663,49.0183515079
do_nothing,4123.10291064,4115.03681282,4123.0755951,4136.52316757,4142.02803272,4135.62709198,4134.56271476,4136.82496851,4136.96239496,4118.71752939,4104.10163294,4123.13183031,4117.83320536,63.9017927495
do_nothing,4122.36490498,4114.62215142,4122.28706545,4136.50911745,4142.01072946,4135.96955457,4134.28772404,4136.42294282,4136.95779382,4117.81181905,4104.00821695,4122.62074876,4117.66552709,76.3555480002
do_nothing,4121.80945331,4114.47586457,4121.69162097,4136.50353836,4142.04714167,4136.51135599,4134.16413996,4136.16367955,4136.95274604,4117.20444533,4104.0056016,4122.41221963,4117.71491332,86.3420748726
do_nothing,4121.4321444,4114.58076611,4121.2879606,4136.50616416,4142.13557831,4137.24690572,4134.1915629,4136.04044226,4136.94727282,4116.8832069,4104.08576481,4122.48273731,4117.95892836,93.9629322054
do_nothing,4121.22540623,4114.91495525,4121.07131205,4136.51640631,4142.27262805,4138.16483418,4134.36476032,4136.04186413,4136.9414007,4116.82890116,4104.23910313,4122.80259097,4118.37119878,99.4537841467
do_nothing,4121.17851213,4115.4522727,4121.03338236,4136.53338221,4142.45328314,4139.2482037,4134.67390974,4136.15249566,4136.9351633,4117.01602856,4104.45471135,4123.33680334,4118.92218944,103.174139603
do_nothing,4121.27768827,4116.16286404,4121.16240555,4136.5559534,4142.67111989,4140.47491677,4135.10501367,4136.35350765,4136.92860312,4117.41369498,4104.72069296,4124.04623357,4119.5800703,105.592190177
do_nothing,4121.50632401,4117.0138376,4121.44329128,4136.58277166,4142.91852931,4141.81831046,4135.64046828,4136.62352028,4136.92177323,4117.98667752,4105.02449128,4124.88880516,4120.31164594,107.265301603
do_nothing,4121.84528253,4117.97000173,4121.85787506,4136.6123313,4143.18698942,4143.24791897,4136.259761,4136.93952391,4136.91473872,4118.6966146,4105.35323177,4125.82081668,4121.0833181,108.816884459
do_nothing,4122.27330565,4118.99466469,4122.38526755,4136.64302521,4143.46736952,4144.73037925,4136.94026784,4137.27785349,4136.90757779,4119.50327772,4105.69406544,4126.79829044,4121.86205104,110.91051399
do_nothing,4122.76750271,4120.05047869,4123.00229672,4136.67320306,4143.75025546,4146.23044902,4137.658117,4137.61517638,4136.90038224,4120.36588048,4106.0345041,4127.77831342,4122.61630982,114.222280317
do_nothing,4123.30390965,4121.1003083,4123.68403288,4136.70122953,4144.02628374,4147.71210151,4138.38908372,4137.92945266,4136.89325734,4121.24437952,4106.36273838,4128.72032513,4123.31694259,119.412423228
do_nothing,4123.85810129,4122.1081019,4124.40438319,4136.72554084,4144.28647234,4149.13965765,4139.10947998,4138.20082837,4136.88632106,4122.10072318,4106.66793005,4129.58730883,4123.9379803,127.097337355
do_nothing,4124.40583707,4123.03974457,4125.13673888,4136.74469785,4144.52253563,4150.47891465,4139.79700423,4138.41242519,4136.87970233,4122.90000556,4106.94047108,4130.34684656,4124.45732996,137.823023766
do_nothing,4124.92371859,4123.8638704,4125.85465601,4136.75743403,4144.72717152,4151.69822977,4140.43151812,4138.55099477,4136.87353875,4123.61148786,4107.17220286,4130.97200337,4124.85734117,152.041013039
do_nothing,4125.38983631,4124.55261254,4126.53254861,4136.76269689,4144.89431005,4152.76951925,4140.99572085,4138.60741157,4136.8679734,4124.20945389,4107.35658991,4131.44201309,4125.1252299,170.087693418
do_nothing,4125.78438217,4125.08227031,4127.14637152,4136.75968143,4145.01931366,4153.66913594,4141.47569607,4138.57698508,4136.86315101,4124.67387296,4107.48884402,4131.74274499,4125.25334782,192.167849253
do_nothing,4126.09020563,4125.43387388,4127.67426994,4136.7478547,4145.09912165,4154.3785933,4141.86131185,4138.4595797,4136.85921366,4124.99085086,4107.56599596,4131.8669387,4125.23929057,218.343056127
do_nothing,4126.29329198,4125.59362958,4128.09717279,4136.72697058,4145.1323334,4154.88511014,4142.14646049,4138.25953885,4136.85629601,4125.15285717,4107.58691367,4131.81420313,4125.0858431,248.525395742
do_nothing,4126.38314438,4125.55323179,4128.39930863,4136.69707456,4145.11922742,4155.18195689,4142.32913162,4137.98541793,4136.85452031,4125.15872591,4107.55226706,4131.59078302,4124.80076554,282.476751827
do_nothing,4126.35305445,4125.31003066,4128.56862546,4136.65849843,4145.0617159,4155.26859226,4142.41131943,4137.64953897,4136.85399144,4125.01343422,4107.46444158,4131.20910473,4124.39642794,319.813735922
do_nothing,4126.20025014,4124.86704941,4128.59709863,4136.61184531,4144.96323706,4155.15058619,4142.39877143,4137.26738672,4136.85479216,4124.72767188,4107.32740349,4130.68712032,4123.88930672,360.018078502
do_nothing,4125.92591458,4124.23284909,4128.48091535,4136.55796576,4144.82859003,4154.83933294,4142.30059272,4136.8568725,4136.85697867,4124.31722159,4107.14652165,4130.04747562,4123.29936025,402.452114783
do_nothing,4125.5350744,4123.42124362,4128.22052889,4136.49792602,4144.66371908,4154.35156521,4142.12872563,4136.43749771,4136.86057693,4123.80217671,4106.9283516,4129.31653377,4122.64930468,446.378802149
do_nothing,4125.03636147,4122.45087265,4127.82058027,4136.43296982,4144.47545637,4153.70868815,4141.89732943,4136.02945281,4136.86557969,4123.20602842,4106.68038902,4128.52329095,4121.96381401,490.985535151
do_nothing,4124.44165704,4121.3446444,4127.28969047,4136.36447517,4144.27123374,4152.93595862,4141.62208895,4135.6526909,4136.87194454,4122.55465927,4106.41080061,4127.69822416,4121.26867145,535.41088221
do_nothing,4123.76563185,4120.12906465,4126.64013092,4136.29390785,4144.05877547,4152.06154167,4141.31948351,4135.3260156,4136.87959309,4121.8752826,4106.12814115,4126.87211341,4120.58989969,578.773260672
do_nothing,4123.02520012,4118.8334717,4125.88738452,4136.22277315,4143.84578455,4151.11548044,4141.00604847,4135.0662227,4136.88841129,4121.19536863,4105.84106578,4126.07488096,4119.9528991,620.200496447
do_nothing,4122.23890806,4117.48919966,4125.04961346,4136.15256768,4143.63963519,4150.12861895,4140.69766122,4134.887332,4136.89825109,4120.54159764,4105.55804636,4125.33448863,4119.38162132,658.859183679
do_nothing,4121.42627991,4116.1286944,4124.14705282,4136.08473269,4143.44708372,4149.13151835,4140.40888121,4134.79994165,4136.90893321,4119.93887814,4105.28710059,4124.67593142,4118.89780464,693.982771047
do_nothing,4120.60714587,4114.78460769,4123.20135182,4136.02061057,4143.27400937,4148.15340668,4140.1523702,4134.8107316,4136.92025125,4119.40946461,4105.0355417,4124.12036122,4118.52029471,724.897353529
do_nothing,4119.8009765,4113.48889539,4122.23488571,4135.96140596,4143.12519489,4147.22120099,4139.93841473,4134.92213613,4136.93197673,4118.97220442,4104.80975599,4123.68436942,4118.26447063,751.044238212
do_nothing,4119.02624788,4112.27194556,4121.27006234,4135.90815266,4143.00415539,4146.35863691,4139.77456776,4135.13219844,4136.9438652,4118.64193798,4104.6150144,4123.37945078,4118.14179337,771.998476391
do_nothing,4118.29986069,4111.16176145,4120.32864737,4135.86168746,4142.91302182,4145.58553749,4139.66542077,4135.43461259,4136.95566299,4118.42906968,4104.45532355,4123.21166505,4118.15948835,787.482708169
do_nothing,4117.63663367,4110.18322266,4119.43113104,4135.82263183,4142.85248319,4144.91724678,4139.61251177,4135.81895064,4136.96711455,4118.3393204,4104.33332015,4123.18150538,4118.32037055,797.375843679
do_nothing,4117.04888943,4109.35744555,4118.5961574,4135.79138188,4142.8217892,4144.36424735,4139.61436886,4136.27106525,4136.97797002,4118.37366517,4104.25021158,4123.28397556,4118.62281493,801.716298782
do_nothing,4116.54614589,4108.70126059,4117.8400344,4135.76810692,4142.8188125,4143.93197317,4139.66668363,4136.77365113,4136.98799278,4118.52845215,4104.20576376,4123.50887061,4119.06087043,800.699705091
do_nothing,4116.13492257,4108.22682071,4117.17633915,4135.75275646,4142.84016756,4143.62082139,4139.7626034,4137.30694226,4136.99696685,4118.79569261,4104.19833596,4123.84124784,4119.62451107,794.671218109
do_nothing,4115.81866573,4107.94135044,4116.61562921,4135.74507492,4142.88138055,4143.42635906,4139.89312763,4137.84951648,4137.0047036,4119.16350505,4104.22496078,4124.26206868,4120.3000126,784.112745217
do_nothing,4115.59779125,4107.84704071,4116.16526574,4135.74462329,4142.93710305,4143.33971322,4140.04758948,4138.37917478,4137.01104778,4119.61669089,4104.28146579,4124.74898495,4121.07043917,769.625598475
do_nothing,4115.46983909,4107.94108979,4115.82934985,4135.75080648,4143.0013605,4143.34812596,4140.2142011,4138.87385936,4137.01588254,4120.13741492,4104.36263229,4125.27723772,4121.91622041,751.909239001
do_nothing,4115.42972856,4108.21588538,4115.60876898,4135.76290479,4143.06782494,4143.43565017,4140.38063844,4139.3125727,4137.01913319,4120.7059596,4104.46238484,4125.82063279,4122.8157968,731.736915566
do_nothing,4115.47009914,4108.65931917,4115.5013455,4135.7801082,4143.13010074,4143.58395613,4140.53464037,4139.67625955,4137.02076967,4121.30152063,4104.57400472,4126.35255368,4123.7463089,709.929104985
do_nothing,4115.58171895,4109.25522029,4115.50207637,4135.80155183,4143.18201152,4143.77321505,4140.66459648,4139.94861515,4137.02080753,4121.90301037,4104.69035929,4126.84697173,4124.68430542,687.325731007
do_nothing,4115.75394012,4109.98389138,4115.60344919,4135.8263511,4143.21787631,4143.98302211,4140.7600983,4140.11678592,4137.01930747,4122.48983639,4104.80413881,4127.27941354,4125.60644545,664.758169659
do_nothing,4115.97517951,4110.82272762,4115.79581791,4135.85363551,4143.23276335,4144.19332007,4140.81243013,4140.17193312,4137.01637329,4123.04262464,4104.90809241,4127.6278479,4126.49017086,643.022043061
do_nothing,4116.23340358,4111.74689767,4116.06782009,4135.88257971,4143.22271084,4144.38528404,4140.81497761,4140.10963512,4137.01214853,4123.54385966,4104.995255,4127.87345841,4127.31432763,622.851761134
do_nothing,4116.51659718,4112.73006457,4116.40681748,4135.91243093,4143.18490483,4144.54213016,4140.7635357,4139.93011046,4137.00681172,4123.97841912,4105.05915777,4128.00127385,4128.05971771,604.897692166
do_nothing,4116.81319907,4113.74512512,4116.79934303,4135.94253169,4143.11780676,4144.6498141,4140.65650186,4139.63825124,4137.00057046,4124.33398558,4105.09401603,4128.00063516,4128.70956721,589.706732748
do_nothing,4117.11248995,4114.7649479,4117.23153913,4135.97233726,4143.02122503,4144.69758985,4140.49494547,4139.24346399,4136.99365463,4124.60132497,4105.09488958,4127.86548591,4129.24990126,577.706911802
do_nothing,4117.40492219,4115.76309145,4117.68957426,4136.00142719,4142.89632734,4144.67840588,4140.28255068,4138.7593239,4136.98630882,4124.77442814,4105.05781213,4127.59448116,4129.66982037,569.196509142
do_nothing,4117.68238406,4116.71448657,4118.16002785,4136.02951094,4142.7455933,4144.58912336,4140.02543523,4138.20305592,4136.9787843,4124.85051843,4104.97988801,4127.19091755,4129.96167723,564.338000842
do_nothing,4117.93839459,4117.59606851,4118.63023521,4136.05642772,4142.57270943,4144.43054946,4139.73185428,4137.59486395,4136.97133094,4124.82993411,4104.8593556,4126.66249447,4130.12115709,563.15696585
do_nothing,4118.16822836,4118.38734702,4119.08858738,4136.08214086,4142.38241104,4144.20728803,4139.41180324,4136.95713559,4136.96418908,4124.71589978,4104.69561827,4126.02092281,4130.14726753,565.545904424
do_nothing,4118.3689725,4119.07090409,4119.5247826,4136.10672748,4142.18027794,4143.92741776,4139.07653845,4136.31355516,4136.95758196,4124.51420483,4104.48924445,4125.28140305,4130.04224634,571.272733318
do_nothing,4118.53952024,4119.63281071,4119.93002786,4136.13036371,4141.97249269,4143.6020159,4138.73803768,4135.68816092,4136.9517087,4124.23280966,4104.24193912,4124.46199834,4129.81139735,579.993541562
do_nothing,4118.68050657,4120.06295498,4120.29719024,4136.15330647,4141.76557152,4143.24455098,4138.40842478,4135.10438423,4136.94673827,4123.88140192,4103.95648912,4123.58293086,4129.46286452,591.269026034
do_nothing,4118.79419216,4120.35527441,4120.6208978,4136.1758723,4141.56607878,4142.87017292,4138.09938351,4134.58410821,4136.94280448,4123.47092475,4103.63668478,4122.66583035,4129.00735402,604.58389194
do_nothing,4118.88430175,4120.50788578,4120.89759021,4136.19841425,4141.38033638,4142.49493279,4137.82158572,4134.14678242,4136.94000237,4123.01309806,4103.28721972,4121.73296381,4128.45781325,619.368408121
do_nothing,4118.95582284,4120.52310646,4121.12551911,4136.22129769,4141.21414,4142.13496695,4137.58415797,4133.80862758,4136.93838583,4122.51995225,4102.91357099,4120.80647373,4127.8290746,635.021249528
do_nothing,4119.01477106,4120.40736286,4121.30469894,4136.24487618,4141.07249358,4141.80568188,4137.39420909,4133.58196081,4136.93796682,4122.00339166,4102.52186129,4119.9076511,4127.13747114,650.932734577
do_nothing,4119.06792846,4120.17098373,4121.43680976,4136.26946833,4140.95937329,4141.52097624,4137.25643874,4133.47466746,4136.93871596,4121.47480213,4102.11870565,4119.05626662,4126.40043113,666.507573113
do_nothing,4119.12256145,4119.82787929,4121.5250545,4136.29533659,4140.87753081,4141.29253444,4137.17284331,4133.48983979,4136.94056459,4120.94471435,4101.71104503,4118.26998093,4125.63605827,681.186283755
do_nothing,4119.18612529,4119.39511003,4121.57397414,4136.32266882,4140.82834439,4141.12922255,4137.1425321,4133.62559618,4136.94340813,4120.422531,4101.30596995,4117.56385118,4124.86270433,694.464516423
do_nothing,4119.26596219,4118.89235269,4121.5892253,4136.35156326,4140.8117239,4141.03661209,4137.16166207,4133.87508762,4136.94711064,4119.91632275,4100.91053751,4116.94994721,4124.09854128,705.909620497
do_nothing,4119.36899986,4118.34127441,4121.57732517,4136.3820173,4140.82607411,4141.01665087,4137.22349506,4134.22669107,4136.9515104,4119.43269492,4100.53158584,4116.43708659,4123.36114001,715.173923761
do_nothing,4119.5014582,4117.76482945,4121.54537015,4136.41392033,4140.86831788,4141.06749365,4137.31857685,4134.6643826,4136.95642626,4118.97672395,4100.1755502,4116.03069291,4122.66706346,722.004324033
do_nothing,4119.66857169,4117.18649703,4121.50073523,4136.44705064,4140.93397899,4141.18349812,4137.43503274,4135.16827667,4136.96166453,4118.55196034,4099.8482858,4115.73277754,4122.03148205,726.247935901
do_nothing,4119.8743359,4116.629482,4121.45076295,4136.48107624,4141.01732199,4141.35538508,4137.55896996,4135.71531239,4136.96702619,4118.16049226,4099.55490236,4115.5420407,4121.46781983,727.853673535
do_nothing,4120.12128683,4116.1159042,4121.40245174,4136.5155595,4141.11154442,4141.57055496,4137.67497316,4136.28006242,4136.97231414,4117.80306244,4099.29961584,4115.45408397,4120.98744006,726.869786511
do_nothing,4120.41032156,4115.66600402,4121.36215463,4136.54996527,4141.20901487,4141.81354715,4137.76667565,4136.83563615,4136.97734013,4117.47922918,4099.08562267,4115.46172319,4120.59937863,723.437501132
do_nothing,4120.74056848,4115.2973942,4121.33529993,4136.58367216,4141.30154813,4142.06662343,4137.81738592,4137.35464549,4136.98193129,4117.18756179,4098.91500156,4115.55538779,4120.31013334,717.781054496
do_nothing,4121.10931426,4115.02438701,4121.32614497,4136.6159868,4141.38070758,4142.31045198,4137.81074698,4137.81019945,4136.98593594,4116.92585932,4098.78864704,4115.72358995,4120.12351618,710.194538522
do_nothing,4121.51199336,4114.85742528,4121.33757387,4136.6461607,4141.43812315,4142.5248643,4137.7314038,4138.17689225,4136.98922847,4116.69138141,4098.70623813,4115.9534444,4120.04057397,701.0260904
do_nothing,4121.9422442,4114.80264249,4121.37094835,4136.67340967,4141.46581282,4142.68965472,4137.56565353,4138.4317496,4136.99171312,4116.48107962,4098.66624421,4116.23121814,4120.05958105,690.66006853
do_nothing,4122.39203377,4114.86157292,4121.42601929,4136.69693529,4141.45649514,4142.78539025,4137.30205255,4138.55509884,4136.99332669,4116.29181798,4098.66596846,4116.54288856,4120.17610581,679.49793377
do_nothing,4122.85185012,4115.03102793,4121.50090434,4136.71594807,4141.40388061,4142.79419918,4136.93195599,4138.53133112,4136.99403988,4116.12057289,4098.70162811,4116.87468849,4120.38315077,667.938610528
do_nothing,4123.31095949,4115.30314773,4121.59213431,4136.72969175,4141.30293079,4142.70050798,4136.44996734,4138.34952766,4136.99385743,4115.96460418,4098.76846922,4117.21361823,4120.6713641,656.359127649
do_nothing,4123.75772193,4115.66563173,4121.69476844,4136.73746789,4141.15007496,4142.49169909,4135.85427891,4138.00392687,4136.99281697,4115.82159105,4098.86091257,4117.54790617,4121.02931805,645.096333387
do_nothing,4124.17995682,4116.1021431,4121.80257591,4136.73866007,4140.94337615,4142.15866557,4135.14688836,4137.49421463,4136.99098669,4115.68972932,4098.97272607,4117.86740201,4121.44384789,634.430441465
do_nothing,4124.56534773,4116.59287649,4121.9082784,4136.7327567,4140.68264006,4141.69624268,4134.33368075,4136.82562628,4136.98846199,4115.56778844,4099.09721839,4118.16388987,4121.90044263,624.571097216
do_nothing,4124.90187357,4117.11527131,4122.00384642,4136.71937184,4140.36946278,4141.10350079,4133.42437076,4136.0088554,4136.98536115,4115.45512885,4099.2274476,4118.43131184,4122.38367705,615.646556269
do_nothing,4125.17825208,4117.64484681,4122.08083949,4136.6982629,4140.00721544,4140.38388848,4132.43230532,4135.05977149,4136.98182027,4115.35168227,4099.35643817,4118.6658963,4122.8776726,607.696446852
do_nothing,4125.38437966,4118.15613015,4122.13077866,4136.66934465,4139.60096644,4139.54522021,4131.37413175,4133.99895505,4136.97798777,4115.25789875,4099.47739934,4118.86618926,4123.36657374,600.668444993
do_nothing,4125.5117512,4118.62364399,4122.1455378,4136.63269883,4139.1573439,4138.59950824,4130.26934185,4132.85106527,4136.97401842,4115.17466554,4099.58393784,4119.03299039,4123.83502502,594.419035493
do_nothing,4125.55384302,4119.02291693,4122.11773867,4136.58857888,4138.68434331,4137.56264409,4129.139707,4131.64406146,4136.97006745,4115.10320351,4099.67025795,4119.16919908,4124.26863387,588.718366585
do_nothing,4125.50644298,4119.33147815,4122.04113416,4136.53740964,4138.19108751,4136.45394034,4128.00862316,4130.40830418,4136.96628466,4115.04494732,4099.73134228,4119.27957859,4124.65440399,583.259039519
do_nothing,4125.36791295,4119.5297971,4121.91096377,4136.47978172,4137.68754742,4135.29554851,4126.90038794,4129.17556687,4136.96280902,4115.00141552,4099.76310713,4119.37044917,4124.98112464,577.66851263
do_nothing,4125.13937143,4119.60213047,4121.72426585,4136.41644061,4137.18423374,4134.11177322,4125.83943412,4127.97799145,4136.9597637,4114.97407663,4099.76252675,4119.44932321,4125.23970251,571.524649426
do_nothing,4124.82478683,4119.53724159,4121.48013268,4136.34827038,4136.69187044,4132.92830711,4124.84954561,4126.84702365,4136.95725187,4114.96421735,4099.72772188,4119.52449742,4125.42342438,564.373808115
do_nothing,4124.43097519,4119.32896187,4121.17989625,4136.27627215,4136.22106175,4131.77141343,4123.95308268,4125.81236473,4136.95535343,4114.97281864,4099.65800916,4119.60461849,4125.52814163,555.750761206
do_nothing,4123.96749977,4118.97656987,4120.82723525,4136.20153764,4135.78196406,4130.6670856,4123.17024319,4124.90097568,4136.95412259,4115.00044552,4099.55390933,4119.6982402,4125.55237015,545.199652964
do_nothing,4123.4464735,4118.48497031,4120.42819701,4136.12521847,4135.38397417,4129.64021348,4122.51838542,4124.13616862,4136.95358656,4115.04715586,4099.4171139,4119.81339007,4125.49730231,532.295153036
do_nothing,4122.88226914,4117.864663,4119.99113085,4136.04849207,4135.03544456,4128.71378544,4122.01143679,4123.53681699,4136.95374528,4115.11243264,4099.2504115,4119.95716355,4125.36673076,516.66294851
do_nothing,4122.29114545,4117.13149999,4119.52653339,4135.97252546,4134.74343529,4127.90815434,4121.65940961,4123.11671244,4136.95457218,4115.1951431,4099.05757703,4120.13536245,4125.16688708,497.998734994
do_nothing,4121.69080144,4116.30623778,4119.04680959,4135.89843838,4134.51351085,4127.24039284,4121.46804242,4122.88409127,4136.95601593,4115.29352719,4098.8432278,4120.35219272,4124.90620125,476.084919249
do_nothing,4121.09987405,4115.41390003,4118.56595701,4135.8272671,4134.34958855,4126.72376099,4121.43858102,4122.8413482,4136.9580031,4115.40521672,4098.61265285,4120.61003462,4124.59499151,450.804329572
do_nothing,4120.53739687,4114.48297397,4118.09918428,4135.75993078,4134.25384305,4126.36730505,4121.56770921,4122.98494875,4136.96044154,4115.52728573,4098.37162231,4120.90929618,4124.24509643,422.150342222
do_nothing,4120.02223989,4113.54447085,4117.66247741,4135.69720161,4134.22666934,4126.17560231,4121.84763429,4123.30554551,4136.96322447,4115.65633178,4098.12618507,4121.24835766,4123.86946362,390.232968308
do_nothing,4119.57255045,4112.63088629,4117.27212986,4135.63968037,4134.26670456,4126.14866158,4122.26632708,4123.78829656,4136.96623492,4115.78858714,4097.88246297,4121.62361146,4123.48171083,355.280600328
do_nothing,4119.20521619,4111.77510033,4116.94425421,4135.58777858,4134.37090684,4126.28198332,4122.80791086,4124.41337746,4136.96935051,4115.92005751,4097.64645028,4122.02959784,4123.09567632,317.637284805
do_nothing,4118.93536969,4111.00925967,4116.69429374,4135.54170829,4134.53468754,4126.56677816,4123.45318808,4125.15667128,4136.97244828,4116.0466854,4097.42382659,4122.45923299,4122.72497529,277.755560676
do_nothing,4118.77595283,4110.36368511,4116.53655268,4135.50148009,4134.75209156,4126.99033593,4124.18028806,4125.99061428,4136.97540941,4116.16453341,4097.21979041,4122.90412181,4122.38257916,236.18507527
