label,COUNTER,INTERPOLATED,AF3,F7,F3,FC5,T7,P7,O1,O2,P8,T8,FC6,F4,F8,AF4,RAW_CQ,GYROX,GYROY,MARKER,SYNC,TIME_STAMP_s,TIME_STAMP_ms,CQ_AF3,CQ_F7,CQ_F3,CQ_FC5,CQ_T7,CQ_P7,CQ_O1,CQ_O2,CQ_P8,CQ_T8,CQ_FC6,CQ_F4,CQ_F8,CQ_AF4,CQ_CMS,CQ_DRL
off_to_on,4095.59558808,4100.51038004,4091.51760923,4131.32223711,4104.1853063,4099.23517718,4104.57274321,4100.2801038,4136.78324137,4095.39436916,4118.68090664,4099.31514877,4103.94812181,782.80728671
off_to_on,4095.50408022,4100.69672345,4091.58147958,4131.34564636,4104.27638728,4099.25038515,4105.26844373,4101.12689589,4136.79880614,4095.93926773,4118.76464289,4099.92369911,4104.25751882,790.503210534
off_to_on,4095.51625239,4100.97242605,4091.73302182,4131.37977667,4104.41689784,4099.32907354,4105.9564407,4101.94722429,4136.81620675,4096.5957407,4118.89840211,4100.59931069,4104.65198102,792.621554614
off_to_on,4095.62983892,4101.32065029,4091.96707716,4131.42427583,4104.60038543,4099.46716485,4106.61850392,4102.72032577,4136.83498607,4097.33819487,4119.07064457,4101.30823546,4105.10758352,789.401499089
off_to_on,4095.83942192,4101.7224543,4092.27613701,4131.47858694,4104.81923608,4099.65977032,4107.23711575,4103.42706224,4136.85465597,4098.13867549,4119.26876156,4102.0158178,4105.59897828,781.231578097
off_to_on,4096.13680954,4102.15765966,4092.65074077,4131.54192582,4105.06517405,4099.90156032,4107.79624634,4104.05074127,4136.87471552,4098.96808369,4119.47963761,4102.68800733,4106.10054898,768.635619429
off_to_on,4096.51150011,4102.60574796,4093.0799316,4131.61326391,4105.32977651,4100.18712845,4108.28207751,4104.57785125,4136.89466877,4099.79741554,4119.69021839,4103.29283376,4106.5875477,752.25414975
off_to_on,4096.95121075,4103.04674972,4093.55174992,4131.69131892,4105.60497723,4100.51132943,4108.68364125,4104.99867755,4136.9140418,4100.59897114,4119.88806104,4103.80178201,4107.03716617,732.821974077
off_to_on,4097.44244675,4103.46209049,4094.05374379,4131.7745551,4105.88353391,4100.86957307,4108.99334205,4105.30777127,4136.93239814,4101.3474844,4120.061845,4104.1910106,4107.42949773,711.142772121
off_to_on,4097.97108776,4103.83536098,4094.57347529,4131.86119462,4106.15943621,4101.25805917,4109.207338,4105.5042483,4136.94935236,4102.02112826,4120.20182346,4104.44236318,4107.74835208,688.06165395
off_to_on,4098.52296724,4104.15298266,4095.09900283,4131.94924088,4106.42823487,4101.67394259,4109.32576243,4105.59190396,4136.96458115,4102.60235648,4120.30019848,4104.54413277,4107.98189249,664.43668017
off_to_on,4099.08442343,4104.40474497,4095.61932154,4132.03651431,4106.68727668,4102.11542148,4109.35277598,4105.57913677,4136.97783177,4103.07855103,4120.35140644,4104.4915499,4108.12307349,641.110377667
off_to_on,4099.64280212,4104.58419657,4096.12474604,4132.12070015,4106.93583536,4102.58174653,4109.2964469,4105.47868282,4136.9889276,4103.44245316,4120.35230444,4104.286978,4108.16986685,618.882269547
off_to_on,4100.18689472,4104.68887889,4096.60722314,4132.19940752,4107.17513358,4103.07315308,4109.16846507,4105.30717056,4136.99777065,4103.69236569,4120.3022524,4103.93981226,4108.12527247,598.483386458
off_to_on,4100.70729801,4104.72039662,4097.06056512,4132.27023824,4107.40825729,4103.59072247,4108.98370277,4105.0845135,4137.00434111,4103.83212351,4120.20309001,4103.46609052,4107.99712006,580.553639239
off_to_on,4101.196686,4104.6843262,4097.48059802,4132.33086331,4107.63996853,4104.13618232,4108.75964137,4104.83316476,4137.00869413,4103.87083877,4120.05901193,4102.88783599,4107.79767543,565.622816197
off_to_on,4101.649988,4104.58996909,4097.86522283,4132.37910435,4107.87642788,4104.71165847,4108.51568846,4104.57726324,4137.01095392,4103.82243565,4119.87634827,4102.23216255,4107.54307283,554.095827067
off_to_on,4102.06447078,4104.44996269,4098.21439107,4132.41301689,4108.12484162,4105.31939292,4108.27241403,4104.34170511,4137.01130563,4103.70499799,4119.66326148,4101.53018208,4107.2526005,546.242652442
off_to_on,4102.4397261,4104.27976625,4098.52999917,4132.43097199,4108.39305194,4105.96144326,4108.05073635,4104.15117702,4137.00998533,4103.53995945,4119.42937334,4100.81576062,4106.94787165,542.193276359
off_to_on,4102.77756793,4104.09704343,4098.81570913,4132.43173228,4108.68909071,4106.63937922,4107.87109007,4104.02918859,4137.00726856,4103.35117148,4119.1853386,4100.12417489,4106.65191614,541.937687725
off_to_on,4103.08184672,4103.92096615,4099.07670542,4132.41451903,4109.02071875,4107.35399173,4107.75260921,4103.99714189,4137.00345797,4103.16388845,4118.94238342,4099.49072375,4106.3882301,545.330841589
off_to_on,4103.35819098,4103.77146715,4099.31940001,4132.37906638,4109.3949728,4108.10502958,4107.71235753,4104.07347462,4136.99887052,4103.00371195,4118.71182811,4098.94935002,4106.17982172,552.102282788
off_to_on,4103.61368946,4103.66846997,4099.55109968,4132.32565999,4109.8177421,4108.89097782,4107.7646381,4104.27291162,4136.99382473,4102.89553772,4118.50461395,4098.53132733,4106.04829065,561.869962801
off_to_on,4103.85652929,4103.63112593,4099.77965046,4132.25515747,4110.29339516,4109.70889129,4107.92041157,4104.60585592,4136.98862851,4102.86254815,4118.3308535,4098.26406393,4106.01297709,574.157635982
off_to_on,4104.09560707,4103.6770872,4100.01307506,4132.16898923,4110.82447494,4110.55429417,4108.18684941,4105.07794583,4136.98356804,4102.92529169,4118.19942288,4098.17007054,4106.09021317,588.41510847
off_to_on,4104.34013084,4103.82184325,4100.25921861,4132.06913891,4111.41147811,4111.42115437,4108.56704386,4105.68979846,4136.97889792,4103.10088661,4118.11761252,4098.26613295,4106.29270537,604.040530445
off_to_on,4104.59923008,4104.07814526,4100.52541734,4131.95810382,4112.05273044,4112.3019381,4109.05989,4106.43695318,4136.97483316,4103.40238099,4118.09085005,4098.56272158,4106.62907042,620.40386798
off_to_on,4104.88159016,4104.45553873,4100.81820315,4131.83883619,4112.74436612,4113.18774651,4109.66014811,4107.31002042,4136.97154301,4103.83829409,4118.1225062,4099.06366014,4107.10354114,636.870667297
off_to_on,4105.19512557,4104.96002039,4101.14305497,4131.71466686,4113.48041483,4114.06853282,4110.35868649,4108.29503321,4136.96914697,4104.41235567,4118.2137903,4099.76606501,4107.71585078,652.825235548
off_to_on,4105.54670384,4105.59382986,4101.50420541,4131.58921372,4114.25299479,4114.93339425,4111.14289673,4109.37399001,4136.96771294,4105.12345145,4118.3637384,4100.66055529,4108.46129752,667.692407637
off_to_on,4105.94192942,4106.35538138,4101.90450839,4131.46627754,4115.05260536,4115.77092983,4111.99726547,4110.52556962,4136.96725751,4105.96577358,4118.56929275,4101.73172258,4109.33098285,680.957143236
off_to_on,4106.38499344,4107.23933562,4102.34537074,4131.34972849,4115.86850765,4116.5696513,4112.90407916,4111.72599072,4136.96774838,4106.92916614,4118.82546778,4102.9588385,4110.31221101,692.181296919
off_to_on,4106.87859186,4108.23680581,4102.82674754,4131.24338729,4116.68917704,4117.31843121,4113.84423178,4112.94998229,4136.96910854,4107.99964715,4119.12559373,4104.31676821,4111.38902964,701.017021841
off_to_on,4107.42391092,4109.33568756,4103.34719853,4131.15090481,4117.50280798,4118.00696974,4114.7981,4114.17182525,4136.97122217,4109.16008088,4119.46162645,4105.77704948,4112.54288648,707.216395627
off_to_on,4108.02067568,4110.5210972,4103.90399998,4131.07564488,4118.29784857,4118.62625984,4115.74644663,4115.36642216,4136.9739418,4110.39096813,4119.82450884,4107.30909043,4113.75337227,710.63698966
off_to_on,4108.66725461,4111.77589949,4104.49330455,4131.02057425,4119.06354052,4119.16902952,4116.67131144,4116.51034966,4136.97709653,4111.67131744,4120.20456791,4108.88143449,4114.99901709,711.243238638
off_to_on,4109.36081114,4113.0813028,4105.11034001,4130.98816417,4119.79043969,4119.63014021,4117.55684862,4117.58284885,4136.98050077,4112.97955731,4120.59192984,4110.46303895,4116.25810607,709.103608387
off_to_on,4110.09749158,4114.41749808,4105.74963638,4130.98030714,4120.47089292,4120.0069214,4118.39007275,4118.56671084,4136.98396327,4114.29444858,4120.97693547,4112.02451369,4117.50948032,704.383706465
off_to_on,4110.87263822,4115.76431683,4106.40527074,4130.99825213,4121.0994486,4120.29942423,4119.16147932,4119.44901935,4136.98729596,4115.59595647,4121.3505383,4113.5392686,4118.73329054,697.335627785
off_to_on,4111.68101605,4117.10188355,4107.07111867,4131.04256065,4121.67318159,4120.51057951,4119.86551128,4120.22171796,4136.99032236,4116.86604426,4121.70466872,4114.98452276,4119.91167341,688.28396956
off_to_on,4112.51704174,4118.41123921,4107.74110141,4131.1130856,4122.19191616,4120.6462497,4120.50084995,4120.8819767,4136.99288509,4118.08935426,4122.03254955,4116.34213421,4121.02932476,677.60907971
off_to_on,4113.37500439,4119.67491363,4108.40941878,4131.20897389,4122.65833517,4120.71516816,4121.07051571,4121.43234122,4136.99485227,4119.25374754,4122.32895025,4117.59921714,4122.07394845,665.728213841
off_to_on,4114.249268,4120.87742762,4109.07075879,4131.32869323,4123.07796805,4120.72876348,4121.5817721,4121.88065684,4136.99612265,4120.35068041,4122.59037034,4118.74852224,4123.03656543,653.075362746
off_to_on,4115.13444755,4122.00570858,4109.72047599,4131.47008259,4123.4590553,4120.70087137,4122.0458353,4122.23976895,4136.99662919,4121.37540331,4122.81514509,4119.78856606,4123.91167391,640.08057048
off_to_on,4116.0255517,4123.04940721,4110.35473239,4131.63042496,4123.81229249,4120.64734132,4122.47739921,4122.52701053,4136.99634107,4122.32697599,4123.00347047,4120.723506,4124.69725765,627.149589163
off_to_on,4116.91808783,4124.00110701,4110.97059631,4131.80653994,4124.15046166,4120.58554985,4122.89399423,4122.76349619,4136.99526405,4123.20810128,4123.15734746,4121.56276809,4125.39464662,614.644709147
off_to_on,4117.8081268,4124.8564231,4111.56609661,4131.99489289,4124.48796336,4120.53383687,4123.3152052,4122.97325023,4136.9934393,4124.02478812,4123.28044915,4122.32044546,4126.00824022,602.867561459
off_to_on,4118.69232764,4125.61399086,4112.14023147,4132.19171671,4124.84026644,4120.5108852,4123.76178063,4123.18220351,4136.99094067,4124.78586245,4123.37791742,4123.01449541,4126.54510947,592.044614946
off_to_on,4119.5679239,4126.27534968,4112.69293332,4132.39314127,4125.22329687,4120.53506679,4124.25467091,4123.41709977,4136.9878707,4125.5023518,4123.45609864,4123.66577148,4127.01449989,582.315985737
off_to_on,4120.43267603,4126.84473036,4113.22499316,4132.59532584,4125.65278989,4120.62378098,4124.8140374,4123.70435684,4136.98435551,4126.1867753,4123.52223015,4124.29693446,4127.42726034,573.728045689
off_to_on,4121.28479536,4127.32875832,4113.73794949,4132.79458914,4126.14363172,4120.79281115,4125.45827581,4124.06893012,4136.98053877,4126.85237481,4123.58409113,4124.93129107,4127.79522611,566.230164383
off_to_on,4122.12284675,4127.73608682,4114.23394807,4132.98753196,4126.70921781,4121.05572549,4126.203097,4124.53322586,4136.97657515,4127.5123248,4123.64963304,4125.59161181,4128.13058527,559.675752223
off_to_on,4122.94563748,4128.07697675,4114.71557982,4133.17114756,4127.360854,4121.42334602,4127.06070584,4125.11610917,4136.97262341,4128.178959,4123.72660468,4126.29897959,4128.445257,553.827597046
off_to_on,4123.75210037,4128.36284011,4115.18570467,4133.34291551,4128.10722488,4121.90330715,4128.03911402,4125.83204727,4136.96883956,4128.86304985,4123.82218773,4127.07171872,4128.75030911,548.367310439
off_to_on,4124.54117903,4128.6057653,4115.64726929,4133.50087534,4128.95395035,4122.49972085,4129.14161647,4126.69042219,4136.9653702,4129.57317379,4123.94265707,4127.92444999,4129.0554392,542.908530142
off_to_on,4125.31172279,4128.81804177,4116.1031268,4133.64367711,4129.90324808,4123.21296153,4130.36645359,4127.69503969,4136.96234653,4130.31519101,4124.09307961,4128.86731175,4129.36854024,537.013368311
off_to_on,4126.06239822,4129.0117014,4116.55586597,4133.77060745,4130.95371458,4124.03957865,4131.70667373,4128.84385311,4136.95987907,4131.09186235,4124.27706331,4129.90537976,4129.69536757,530.21145871
off_to_on,4126.79162321,4129.19809228,4117.00765722,4133.88158994,4132.10023373,4124.97234065,4133.15020194,4130.12891234,4136.95805342,4131.90261998,4124.49656637,4131.03831014,4130.03931896,522.02084462
off_to_on,4127.49752846,4129.3874994,4117.4601217,4133.97716043,4133.33401622,4126.00040885,4134.68011297,4131.53653911,4136.95692712,4132.74350112,4124.75177377,4132.26022027,4130.40133471,511.969868233
off_to_on,4128.17794943,4129.58882423,4117.91422892,4134.05841836,4134.64276914,4127.10963464,4136.2750982,4133.0477213,4136.95652779,4133.60724722,4125.04104596,4133.55981326,4130.77991933,499.619174744
off_to_on,4128.83045051,4129.80933266,4118.37022689,4134.12695645,4136.01098971,4128.28296929,4137.91010872,4134.63871041,4136.95685256,4134.48356382,4125.3609415,4134.920741,4131.17128142,484.582932529
off_to_on,4129.45238087,4130.05447802,4118.82760753,4134.18477171,4137.42037339,4129.50097113,4139.55714975,4136.28179863,4136.95786876,4135.35952928,4125.70631257,4136.32219161,4131.56958297,466.548395052
off_to_on,4130.04095973,4130.32780229,4119.28510803,4134.23416173,4138.8503223,4130.74239201,4141.18619583,4137.94624515,4136.95951584,4136.22013359,4126.07046934,4137.73967684,4131.96728514,445.292989768
off_to_on,4130.59338696,4130.63091565,4119.74074757,4134.27761052,4140.27853657,4131.98482235,4142.76619164,4139.59931568,4136.96170849,4137.04892284,4126.44540672,4139.14598662,4132.35557292,420.698211811
off_to_on,4131.10697318,4130.96355141,4120.19189701,4134.31766873,4141.68166846,4133.20537195,4144.26610029,4141.20739576,4136.96434056,4137.82871955,4126.82208422,4140.5122704,4132.7248381,392.759722051
off_to_on,4131.57928248,4131.32369053,4120.63537803,4134.35683311,4143.03601691,4134.38136291,4145.65596014,4142.73713588,4136.96728993,4138.54238622,4127.19074787,4141.80919941,4133.06519731,361.593195295
off_to_on,4132.00827964,4131.70774784,4121.06758676,4134.39743001,4144.31823919,4135.491011,4146.90791121,4144.15658604,4136.97042385,4139.17359722,4127.54128147,4143.00816047,4133.36702066,327.435629163
off_to_on,4132.39247358,4132.11080984,4121.4846364,4134.44150769,4145.50605587,4136.5140728,4147.99715401,4145.43627827,4136.97360461,4139.70758434,4127.86357336,4144.08243054,4133.62144618,290.642000867
off_to_on,4132.73104851,4132.52691284,4121.88251254,4134.49074145,4146.57892587,4137.43243712,4148.90280568,4146.55021714,4136.97669535,4140.13182196,4128.14788435,4145.00828194,4133.82085634,251.677340802
off_to_on,4133.02397472,4132.94934904,4122.25723452,4134.54635566,4147.51866959,4138.2306419,4149.60862173,4147.47674206,4136.97956565,4140.43662115,4128.38520287,4145.7659712,4133.95929476,211.104471159
off_to_on,4133.27209161,4133.37098751,4122.60501627,4134.60906552,4148.31001978,4138.8963001,4150.10355598,4148.19922984,4136.9820968,4140.61560587,4128.56757363,4146.34056967,4134.03280436,169.567827736
off_to_on,4133.47715677,4133.78459711,4122.92241951,4134.67904137,4148.94108207,4139.42042148,4150.38213783,4148.70661282,4136.98418646,4140.66605,4128.68838794,4146.72260049,4134.03967195,127.773936924
off_to_on,4133.64185569,4134.18315859,4123.2064926,4134.75589704,4149.40369012,4139.79762113,4150.4446529,4148.99369556,4136.98575252,4140.5890605,4128.74262518,4146.90845539,4133.98056858,86.4692514735
off_to_on,4133.76976893,4134.56015357,4123.45488849,4134.83870313,4149.69364373,4140.02620968,4150.29712061,4149.06126144,4136.98673614,4140.38959887,4128.72703736,4146.9005739,4133.85857983,46.4161530094
off_to_on,4133.86529504,4134.90982009,4123.66595602,4134.92602462,4149.81082232,4140.10816427,4149.95107025,4148.91596888,4136.98710365,4140.07634075,4128.64027066,4146.70737841,4133.67912538,8.36800223941
off_to_on,4133.93353033,4135.22736556,4123.83880027,4135.01598124,4149.75917041,4140.04898385,4149.42312457,4148.5700451,4136.98684752,4139.66138092,4128.48292092,4146.34296914,4133.4497727,-26.9558432751
off_to_on,4133.98010905,4135.50913111,4123.97330884,4135.1063279,4149.5465559,4139.85743579,4148.73440744,4148.04079295,4136.98598609,4139.15979846,4128.25752233,4145.82659393,4133.17995502,-58.8941205678
off_to_on,4134.01101022,4135.75270343,4124.0701432,4135.1945517,4149.18450627,4139.54520486,4147.90979961,4147.34993389,4136.9845624,4138.58910352,4127.96847189,4145.18191832,4132.88060913,-86.865970909
off_to_on,4134.03233999,4135.95697334,4124.13069583,4135.27798097,4148.6878317,4139.12645862,4146.9770727,4146.52281613,4136.9826419,4137.96859278,4127.62189457,4144.43612978,4132.56375251,-110.390642755
off_to_on,4134.05010043,4136.12214279,4124.15701584,4135.35390175,4148.07414792,4138.6173462,4145.96593673,4145.58752179,4136.98030938,4137.31864464,4127.22545641,4143.61891784,4132.24202301,-129.10385909
off_to_on,4134.06995732,4136.24968421,4124.15170747,4135.41967642,4147.36331483,4138.03544932,4144.90703956,4144.57390979,4136.97766511,4136.65998765,4126.7881349,4142.76137626,4131.92820555,-142.770239254
off_to_on,4134.09702012,4136.34225785,4124.11780719,4135.4728591,4146.57680965,4137.39920544,4143.83095747,4143.51263188,4136.97482046,4136.01297579,4126.31995659,4141.89487602,4131.63477044,-151.291299907
off_to_on,4134.1356468,4136.40359387,4124.05864634,4135.51130304,4145.73705503,4136.72732293,4142.76721532,4142.43415823,4136.97189313,4135.39690268,4125.83171272,4141.04995733,4131.3734463,-154.708705673
off_to_on,4134.18928529,4136.43834645,4123.97770672,4135.5332551,4144.86672429,4136.03820748,4141.74337122,4141.36784623,4136.96900224,4134.82938316,4125.33466348,4140.25528618,4131.15484716,-153.202597322
off_to_on,4134.260361,4136.4519271,4123.87847673,4135.53743341,4143.98804611,4135.34941815,4140.78419696,4140.34108262,4136.96626338,4134.32582612,4124.84024062,4139.53671564,4130.98816914,-147.08499571
off_to_on,4134.35021721,4136.45032444,4123.76431529,4135.52308477,4143.12213166,4134.67716944,4139.91097933,4139.37852399,4136.96378404,4133.89901661,4124.35975719,4138.91648614,4130.8809673,-136.788460233
off_to_on,4134.45911208,4136.43991663,4123.63833006,4135.49001903,4142.28834606,4134.03589421,4139.14096207,4138.50145567,4136.96165927,4133.558819,4123.90413201,4138.41259092,4130.83901768,-122.850361569
off_to_on,4134.58627217,4136.42728248,4123.50327522,4135.43861902,4141.5037448,4133.43787934,4138.48694177,4137.72728387,4136.95996811,4133.31200705,4123.48363471,4138.03832493,4130.86626477,-105.893297904
off_to_on,4134.72999932,4136.4190162,4123.3614731,4135.36982534,4140.78259364,4132.89298372,4137.9570255,4137.0691706,4136.95877061,4133.16222037,4123.10765628,4137.80202688,4130.96484934,-86.6023335021
off_to_on,4134.88782467,4136.42155003,4123.21476237,4135.28509661,4140.13598764,4132.40844505,4137.55455227,4136.53581678,4136.95810572,4133.11004206,4122.78450879,4137.70701586,4131.13520826,-65.6998663914
off_to_on,4135.05670103,4136.44098821,4123.06447421,4135.1863471,4139.57158191,4131.98877991,4137.27817564,4136.13139421,4136.95799008,4133.15318687,4122.5212569,4137.75171623,4131.3762341,-43.919035846
off_to_on,4135.23322296,4136.48295489,4122.91143683,4135.07586435,4139.09344328,4131.63577841,4137.12209994,4135.85562329,4136.95841776,4133.28678578,4122.32358295,4137.92995737,4131.68548053,-21.9766537269
off_to_on,4135.41386252,4136.55245785,4122.75600676,4134.95621055,4138.70202813,4131.34859261,4137.07645833,4135.70398912,4136.95936084,4133.50374923,4122.19568672,4138.23142884,4132.05939794,-0.546678585407
off_to_on,4135.59520778,4136.65376956,4122.59812462,4134.83011212,4138.39428759,4131.12391452,4137.12781678,4135.66808517,4136.96077097,4133.79518927,4122.14022002,4138.64226656,4132.49358311,19.7647550059
off_to_on,4135.77419109,4136.79032674,4122.43739171,4134.70034252,4138.16389694,4130.95623682,4137.25978454,4135.73606978,4136.96258164,4134.15087929,4122.15825587,4139.14574176,4132.9830275,38.4417857255
off_to_on,4135.948295,4136.96464949,4122.27316312,4134.56960387,4138.00160154,4130.83818625,4137.45370848,4135.89321818,4136.96471119,4134.55972973,4122.24929141,4139.72302151,4133.52234992,55.0778721063
off_to_on,4136.1157245,4137.17828101,4122.10465254,4134.44041271,4137.89566735,4130.76091687,4137.68942639,4136.12254958,4136.96706621,4135.01025845,4122.41128294,4140.35396822,4134.10600081,69.3906773086
off_to_on,4136.27553653,4137.43174834,4121.93104373,4134.31499539,4137.83242002,4130.71454841,4137.94605247,4136.40550764,4136.96954533,4135.4910361,4122.64071135,4141.01794494,4134.72842825,81.2321870626
off_to_on,4136.42771963,4137.72454482,4121.75160345,4134.19519786,4137.79685269,4130.68863267,4138.20276747,4136.72267098,4136.97204302,4135.99108878,4122.93267532,4141.6945943,4135.38419826,90.5936343395
off_to_on,4136.57321904,4138.05513413,4121.56579053,4134.08241383,4137.77328006,4130.67263044,4138.4395856,4137.05447007,4136.97445332,4136.50024324,4123.28100956,4142.36456095,4136.06806511,97.6050010065
off_to_on,4136.71390525,4138.42097548,4121.37335601,4133.97753458,4137.74601355,4130.65638007,4138.6380718,4137.3818861,4136.97667318,4137.00940298,4123.67842486,4143.01013021,4136.77499031,102.529075714
off_to_on,4136.85248612,4138.81856905,4121.17442925,4133.88092264,4137.70003201,4130.63053982,4138.78198417,4137.68710842,4136.97860544,4137.51074672,4124.11666664,4143.61575945,4137.50011176,105.750259579
off_to_on,4136.99236553,4139.24352018,4120.96958547,4133.79241067,4137.62162168,4130.58698671,4138.85782001,4137.95412789,4136.98016111,4137.99784433,4124.58668832,4144.16848361,4138.23866754,107.758516508
off_to_on,4137.13745393,4139.69062066,4120.75989085,4133.71132555,4137.49896099,4130.51915706,4138.85524766,4138.1692463,4136.98126117,4138.46568911,4125.07883606,4144.65818177,4138.9858813,109.129055611
off_to_on,4137.29193898,4140.15394578,4120.54692237,4133.63653697,4137.32262729,4130.4223163,4138.76741078,4138.32148545,4136.98183759,4138.91064925,4125.5830416,4145.0776988,4139.73681955,110.498503275
off_to_on,4137.46002674,4140.62696577,4120.33276078,4133.56652843,4137.08600641,4130.2937488,4138.59109773,4138.40288389,4136.9818339,4139.33034621,4126.08901978,4145.42282297,4140.4862336,112.53846448
off_to_on,4137.6456658,4141.10267011,4120.11995645,4133.49948798,4136.78558897,4130.13286158,4138.32677348,4138.40867439,4136.98120514,4139.72347091,4126.58646798,4145.69212752,4141.22840058,115.927479232
off_to_on,4137.85226797,4141.57370324,4119.91146902,4133.43341479,4136.42114221,4129.94119881,4137.97847715,4138.33733968,4136.97991757,4140.08955233,4127.0652641,4145.88669072,4141.95697926,121.322446813
off_to_on,4138.08243978,4142.0325097,4119.71058304,4133.36623726,4135.9957504,4129.72236782,4137.55359324,4138.19054902,4136.97794796,4140.42869494,4127.51566049,4146.00971402,4142.6648959,129.330616973
off_to_on,4138.33773885,4142.47148678,4119.52080277,4133.29593743,4135.51572236,4129.48188024,4137.06250887,4137.97298241,4136.97528289,4140.74130289,4127.92847085,4146.0660625,4143.34427438,140.483231465
off_to_on,4138.61846834,4142.88314245,4119.34573064,4133.22067624,4134.99036956,4129.22691562,4136.5181736,4137.69205309,4136.97191801,4141.0278091,4128.29524763,4146.06175509,4143.98642298,155.211840014
off_to_on,4138.92352124,4143.26025647,4119.18893408,4133.13891383,4134.43166335,4128.96601763,4135.93558089,4137.35754219,4136.96785737,4141.28842683,4128.60844739,4146.00343365,4144.58188696,173.828214936
off_to_on,4139.25028367,4143.59604182,4119.05380651,4133.04951936,4133.8537846,4128.7087353,4135.33119308,4136.9811624,4136.96311309,4141.52293956,4128.86158166,4145.89784016,4145.12057267,196.508653863
off_to_on,4139.59460424,4143.88430336,4118.94342787,4132.95186483,4133.27258317,4128.46522402,4134.72233258,4136.57606898,4136.95770514,4141.73054242,4129.04935058,4145.75133026,4145.59194451,223.283295109
off_to_on,4139.95083312,4144.11958988,4118.86043066,4132.84589844,4132.70496803,4128.24582248,4134.1265623,4136.15633787,4136.95166154,4141.90974502,4129.16775667,4145.5694484,4145.98529166,254.030879588
off_to_on,4140.3119321,4144.29733556,4118.80687697,4132.73219341,4132.16825166,4128.06062256,4133.56107787,4135.73643086,4136.94501881,4142.0583419,4129.21419578,4145.35658628,4146.29005702,288.479185179
off_to_on,4140.6696533,4144.41398629,4118.7841517,4132.6119696,4131.67947384,4127.91904901,4133.04213238,4135.33066753,4136.93782264,4142.17345277,4129.18752223,4145.11574156,4146.49621698,326.211143868
off_to_on,4141.01478158,4144.46710651,4118.79287674,4132.4870864,4131.25473084,4127.82946517,4132.58451291,4134.9527228,4136.93012877,4142.25163084,4129.08808542,4144.84838818,4146.59469628,366.676436774
off_to_on,4141.33743213,4144.45546213,4118.83284981,4132.36000649,4130.90853581,4127.79882,4132.2010851,4134.61516698,4136.92200397,4142.28903337,4128.91773548,4144.55446331,4146.57779986,409.208153711
off_to_on,4141.62739258,4144.3790754,4118.90301124,4132.23373156,4130.65323512,4127.83234956,4131.90241936,4134.32906325,4136.91352691,4142.28164494,4128.67979594,4144.23246951,4146.43964067,453.043911052
off_to_on,4141.8744964,4144.23924857,4119.00144063,4132.11171201,4130.49850339,4127.93334497,4131.69650878,4134.10363457,4136.90478894,4142.22554077,4128.37900255,4143.87968422,4146.1765416,497.350653573
off_to_on,4142.06901331,4144.03855409,4119.12538485,4131.99773394,4130.45093709,4128.10299581,4131.58858513,4133.94600895,4136.89589456,4142.11717481,4128.02140812,4143.49246293,4145.78738992,541.252228458
off_to_on,4142.2020416,4143.78079068,4119.27131725,4131.89578733,4130.51376242,4128.3403156,4131.58103577,4133.86104884,4136.8869614,4141.95367605,4127.61425442,4143.06661773,4145.27392366,583.858716116
off_to_on,4142.26588722,4143.47090581,4119.43502729,4131.80992053,4130.68666876,4128.64215229,4131.67342013,4133.85126681,4136.87811981,4141.73313579,4127.16581343,4142.59784914,4144.64093213,624.296437283
off_to_on,4142.25441461,4143.11488643,4119.61173815,4131.74408621,4130.96577398,4129.0032832,4131.86258056,4133.9168264,4136.86951168,4141.45486904,4126.68520124,4142.08220623,4143.89635563,661.737533291
off_to_on,4142.16335517,4142.71962067,4119.79624878,4131.70198469,4131.34372269,4129.41659078,4132.14283837,4134.05562328,4136.86128872,4141.11963384,4126.18216888,4141.51654831,4143.05127295,695.428036422
off_to_on,4141.99056005,4142.292734,4119.98309537,4131.68691062,4131.80991338,4129.87331205,4132.50626246,4134.26343912,4136.85360995,4140.72979418,4125.66687486,4140.89898084,4142.11976961,724.713406898
off_to_on,4141.73618559,4141.84240401,4120.16672635,4131.70160888,4132.35084525,4130.36335205,4132.94299496,4134.53415718,4136.84663858,4140.28941401,4125.14964513,4140.22923885,4141.11868383,749.060610551
off_to_on,4141.4028013,4141.37715807,4120.34168377,4131.74814553,4132.95057082,4130.87564878,4133.44161655,4134.86002682,4136.84053821,4139.80427302,4124.64072612,4139.50899357,4140.06723274,768.075944299
off_to_on,4140.99541308,4140.90565887,4120.50278374,4131.82779894,4133.59123605,4131.39857504,4133.98953353,4135.23196313,4136.83546851,4139.28179812,4124.150037,4138.74206153,4138.9865257,781.517979332
off_to_on,4140.52139647,4140.43648284,4120.64528813,4131.94097588,4134.25368665,4131.92036115,4134.5733698,4135.63986771,4136.83158049,4138.7309087,4123.68692758,4137.9345002,4137.89897741,789.305175997
off_to_on,4139.99033836,4139.97789695,4120.7650604,4132.08715619,4134.91811662,4132.42952199,4135.1793495,4136.07295812,4136.82901156,4138.16177842,4123.2599481,4137.09458087,4136.82763835,791.517923256
off_to_on,4139.41378931,4139.53763973,4120.85869891,4132.26486877,4135.56473438,4132.91527241,4135.79365848,4136.52009481,4136.82788045,4137.58552107,4122.87663756,4136.23263569,4135.7954645,788.394963416
off_to_on,4138.80493234,4139.12271288,4120.9236424,4132.47170045,4136.1744215,4133.36791562,4136.40277577,4136.97009617,4136.82828234,4137.01381224,4122.54333672,4135.36078324,4134.82455281,780.324370913
off_to_on,4138.1781782,4138.73918968,4120.95824343,4132.70433803,4136.72935987,4133.77919022,4136.99376839,4137.41203346,4136.83028429,4136.45846282,4122.26503169,4134.49254331,4133.93537099,767.829452615
off_to_on,4137.5487004,4138.39204667,4120.96180732,4132.95864256,4137.21360504,4134.14256342,4137.55454454,4137.83549834,4136.83392127,4135.93096254,4122.04523304,4133.64235707,4133.1460119,751.550119416
off_to_on,4136.93192636,4138.08502414,4120.93459523,4133.22975386,4137.61358555,4134.45345946,4138.07406225,4138.23083727,4136.83919287,4135.44201381,4121.88589437,4132.82503359,4132.47150276,732.220440103
off_to_on,4136.34300301,4137.8205208,4120.87779192,4133.51222185,4137.91851132,4134.7094148,4138.54249218,4138.58934792,4136.84606104,4135.0010768,4121.78737328,4132.05514725,4131.92319828,710.643221935
off_to_on,4135.79625692,4137.59952636,4120.79343977,4133.80016072,4138.12067771,4134.9101545,4138.95133477,4138.90343486,4136.85444884,4134.61594624,4121.74843603,4131.34641314,4131.50828433,687.662561589
off_to_on,4135.30466962,4137.4215953,4120.684342,4134.08742078,4138.21565594,4135.05758645,4139.29349414,4139.16672324,4136.86424044,4134.29237984,4121.76630617,4130.71106892,4131.2294154,664.135372292
off_to_on,4134.87938833,4137.28486292,4120.55393914,4134.36777214,4138.20236461,4135.15571361,4139.56331208,4139.37413093,4136.87528231,4134.03379601,4121.83675591,4130.15929185,4131.08450427,640.902918118
off_to_on,4134.52929187,4137.18610415,4120.40616394,4134.63509422,4138.08302177,4135.210467,4139.75656716,4139.52190136,4136.88738581,4133.8410561,4121.9542377,4129.69867862,4131.06667717,618.76337341
off_to_on,4134.26062963,4137.12083385,4120.24528087,4134.88356418,4137.86298172,4135.22946568,4139.87044427,4139.60760035,4136.90033093,4133.71234324,4122.11205217,4129.33381346,4131.1644014,598.446373223
off_to_on,4134.07674952,4137.08344616,4120.07571709,4135.10783824,4137.55046497,4135.22171279,4139.90348069,4139.6300814,4136.91387127,4133.64314612,4122.30254799,4129.06594695,4131.36178616,580.590432939
off_to_on,4133.97792784,4137.06738939,4119.90189228,4135.303219,4137.15619401,4135.19723902,4139.85549426,4139.58942423,4136.92774011,4133.62635186,4122.51734757,4128.89280391,4131.63905085,565.723998115
off_to_on,4133.9613104,4137.06537162,4119.72805449,4135.46580321,4136.69295037,4135.16670683,4139.72749894,4139.48685147,4136.94165726,4133.65244784,4122.74759262,4128.80853372,4131.97314824,554.250744064
off_to_on,4134.0209697,4137.06959111,4119.55812882,4135.59260434,4136.17507089,4135.14098947,4139.52161189,4139.32462788,4136.95533668,4133.70982744,4122.98420208,4128.80381038,4132.33852373,546.439581223
off_to_on,4134.14807863,4137.07198448,4119.39558505,4135.68164543,4135.61790266,4135.13073962,4139.24095542,4139.10594638,4136.96849448,4133.78519058,4123.21813533,4128.86608349,4132.70798626,542.41964122
off_to_on,4134.33119613,4137.06448506,4119.24332923,4135.73201885,4135.03723677,4135.14596268,4138.88955628,4138.83480442,4136.98085709,4133.86402519,4123.44065291,4128.97997459,4133.05366131,542.180326696
off_to_on,4134.55665557,4137.03928336,4119.10362345,4135.74391077,4134.44874158,4135.19560986,4138.47224428,4138.51587447,4136.99216932,4133.93115244,4123.64356727,4129.12780657,4133.34799301,545.576313524
off_to_on,4134.80904251,4136.98908139,4118.97803634,4135.71858929,4133.86741529,4135.28720617,4137.99455172,4138.15437176,4137.002202,4133.97131516,4123.81947654,4129.29024828,4133.56475929,552.337205935
off_to_on,4135.07174423,4136.90733275,4118.86742528,4135.65835695,4133.30707665,4135.42652716,4137.46261479,4137.75592224,4137.01075897,4133.96978654,4123.96197444,4129.44705042,4133.68006289,562.081373686
off_to_on,4135.32755032,4136.78846054,4118.77195003,4135.56646923,4132.77991076,4135.61733692,4136.88307757,4137.32643304,4137.0176831,4133.91297467,4124.06583013,4129.57784462,4133.67326066,574.333356065
off_to_on,4135.55928114,4136.62804572,4118.69111548,4135.4470221,4132.29608427,4135.8611973,4136.26299887,4136.87196723,4137.02286121,4133.78899789,4124.12713252,4129.6629738,4133.52779537,588.544105007
off_to_on,4135.75041925,4136.42297903,4118.62384046,4135.30481274,4131.86344174,4136.15735559,4135.60976139,4136.39862404,4137.02622761,4133.58820679,4124.14339427,4129.68431991,4133.23189683,604.11325742
off_to_on,4135.88571874,4136.17157053,4118.56854791,4135.1451783,4131.48729164,4136.50271436,4134.93098198,4135.91242515,4137.02776617,4133.30362998,4124.11361221,4129.62609405,4132.77912316,620.412573072
off_to_on,4135.95176763,4135.87361208,4118.52327118,4134.97381839,4131.17028735,4136.89188422,4134.23442098,4135.41920714,4137.02751081,4132.93132352,4124.03828161,4129.47555476,4132.16871877,636.80965157
off_to_on,4135.93748048,4135.53038942,4118.48577041,4134.79660749,4130.91240488,4137.3173171,4133.52788825,4134.92452005,4137.02554442,4132.47060725,4123.91936351,4129.22362183,4131.40577136,652.691053966
off_to_on,4135.8345011,4135.14464257,4118.45365272,4134.61940392,4130.71101575,4137.76951451,4132.81914409,4134.43353214,4137.02199615,4131.92417585,4123.76020554,4128.86535713,4130.50115786,667.484000486
off_to_on,4135.63749869,4134.72047482,4118.42449008,4134.44786188,4130.56104991,4138.23730317,4132.1157934,4133.95094096,4137.01703726,4131.29807739,4123.56541777,4128.40028851,4129.47127681,680.675891024
off_to_on,4135.34434501,4134.26321243,4118.39592875,4134.28725336,4130.45524077,4138.70816727,4131.42517235,4133.48089108,4137.01087555,4130.60155721,4123.34070657,4127.83255885,4128.3375722,691.830994213
off_to_on,4134.95616484,4133.77921906,4118.36578498,4134.14230606,4130.38444134,4139.16862525,4130.75422727,4133.02689894,4137.00374869,4129.84677041,4123.09267071,4127.17088937,4127.12586186,700.603768639
off_to_on,4134.47725714,4133.27567079,4118.33212216,4134.01706292,4130.33799874,4139.60463735,4130.1093868,4132.59178555,4136.99591648,4129.04837155,4122.8285649,4126.42835371,4125.86549063,706.748408137
off_to_on,4133.91488938,4132.76029926,4118.29330601,4133.91476812,4130.30417238,4140.0020297,4129.49642945,4132.17761805,4136.98765258,4128.22299512,4122.55603751,4125.62196711,4124.58833617,710.124335616
off_to_on,4133.27897331,4132.24111254,4118.24803553,4133.837783,4130.2705801,4140.34692071,4128.92035024,4131.78566197,4136.97923572,4127.38864574,4122.28285037,4124.77210367,4123.32770158,710.697505359
off_to_on,4132.58163537,4131.72610397,4118.19534907,4133.78753432,4130.22465614,4140.62613655,4128.38523175,4131.41634639,4136.97094086,4126.56402145,4122.01658965,4123.90176236,4122.11713463,708.537514598
off_to_on,4131.83669998,4131.22296064,4118.13460658,4133.76449551,4130.15410505,4140.82760306,4127.89412611,4131.069245,4136.96303056,4125.7677973,4121.76437772,4123.03571019,4120.98921724,703.810671293
off_to_on,4131.05910796,4130.73878283,4118.06545067,4133.76820074,4130.04733637,4140.94070349,4127.44895478,4130.74307615,4136.95574681,4125.01789861,4121.53259638,4122.19953682,4119.97437118,696.769312198
off_to_on,4130.26429533,4130.27982581,4117.98775015,4133.79728976,4129.89386647,4140.95659235,4127.05043327,4130.43572444,4136.94930375,4124.33079392,4121.32663199,4121.41865912,4119.09972559,687.737806825
off_to_on,4129.46755961,4129.851274,4117.90153094,4133.84958089,4129.68467492,4140.86845731,4126.69802618,4130.14428569,4136.94388126,4123.72083685,4121.15065234,4120.7173166,4118.38809014,677.095812047
off_to_on,4128.68344052,4129.4570565,4117.80689954,4133.92216861,4129.41250491,4140.67172212,4126.38993685,4129.86513571,4136.93961991,4123.19968322,4121.00742421,4120.11759818,4117.85707317,665.259452406
off_to_on,4127.92514123,4129.09971059,4117.70396427,4134.01154165,4129.07209861,4140.36418481,4126.12313372,4129.59402192,4136.93661729,4122.7758062,4120.89817913,4119.63853962,4117.51837861,652.661187324
off_to_on,4127.20401344,4128.78029773,4117.59275959,4134.11371698,4128.6603607,4139.94608718,4125.8934138,4129.32617546,4136.93492579,4122.45412753,4120.82253255,4119.2953264,4117.37730769,639.729183862
off_to_on,4126.52912661,4128.49837401,4117.47317783,4134.22438475,4128.17644588,4139.42011354,4125.6955017,4129.05644031,4136.93455202,4122.23577747,4120.77846019,4119.09863282,4117.43248361,626.867039196
off_to_on,4125.90693747,4128.25201504,4117.34491268,4134.3390593,4127.62176892,4138.79131895,4125.52318168,4128.77941484,4136.93545779,4122.11799089,4120.76233242,4119.05412146,4117.6758083,614.434688895
off_to_on,4125.34107186,4128.03789303,4117.20741755,4134.45323105,4126.99993856,4138.06698987,4125.3694587,4128.48960067,4136.93756255,4122.09414207,4120.76900612,4119.16212144,4118.09265214,602.731294989
off_to_on,4124.83222636,4127.85140233,4117.05988161,4134.56251443,4126.31661969,4137.25644229,4125.22674384,4128.18155382,4136.94074735,4122.15391533,4120.79197111,4119.41749696,4118.66226909,591.980832985
off_to_on,4124.3781923,4127.686828,4116.90122512,4134.66278738,4125.57933039,4136.37076451,4125.08705881,4127.85003306,4136.94485988,4122.28360476,4120.82354666,4119.80971067,4119.35842213,582.320992051
off_to_on,4123.97400032,4127.53755086,4116.73011482,4134.75031836,4124.79718309,4135.4225138,4124.94225349,4127.49014085,4136.94972072,4122.46653126,4120.85512184,4120.32307969,4120.15019684,573.795871552
off_to_on,4123.61217859,4127.39628163,4116.54499952,4134.82187714,4123.98058074,4134.42537723,4124.78423014,4127.09745294,4136.95513033,4122.6835619,4120.87743218,4120.93721516,4121.00297484,566.352805175
off_to_on,4123.28311434,4127.2553166,4116.34416527,4134.87482655,4123.14088068,4133.39380857,4124.60516815,4126.66813388,4136.96087652,4122.91371356,4120.88086389,4121.62763057,4121.87953465,559.843477075
off_to_on,4122.97550465,4127.10680705,4116.12580915,4134.90719255,4122.29003981,4132.34265357,4124.39774346,4126.19903682,4136.96674232,4123.13482101,4120.85577648,4122.36649907,4122.74124402,554.029319686
off_to_on,4122.67687958,4126.94303529,4115.88813003,4134.91771104,4121.4402554,4131.28677644,4124.15533781,4125.68778768,4136.97251374,4123.32424863,4120.79283403,4123.12353583,4123.54930598,548.59100712
off_to_on,4122.37417882,4126.75669033,4115.62943455,4134.90585013,4120.60361643,4130.24070011,4123.87223454,4125.13285537,4136.9779873,4123.45962478,4120.68333547,4123.8669785,4124.26602025,543.141688783
off_to_on,4122.05436178,4126.54113671,4115.34825576,4134.87180762,4119.79177962,4129.21827253,4123.54379842,4124.53361067,4136.98297712,4123.51957774,4120.51953449,4124.56463589,4124.8560215,537.24345189
off_to_on,4121.70503021,4126.29067084,4115.04348196,4134.81648397,4119.0156838,4128.23236984,4123.16663864,4123.8903776,4136.98732132,4123.48445324,4120.29493982,4125.18497389,4125.28745771,530.426365467
off_to_on,4121.31504265,4126.00075948,4114.71449289,4134.74143214,4118.28531398,4127.29464628,4122.73875419,4123.20448088,4136.99088768,4123.3369943,4120.00458753,4125.69820586,4125.5330735,522.209347889
off_to_on,4120.87510004,4125.66825561,4114.36129981,4134.64878633,4117.609524,4126.41533823,4122.25966097,4122.47829268,4136.99357852,4123.06296547,4119.64527718,4126.07735485,4125.57116644,512.122019573
off_to_on,4120.37828235,4125.29158661,4113.98468558,4134.54117262,4116.99592317,4125.60312776,4121.73049937,4121.71528079,4136.99533468,4122.65170498,4119.21576446,4126.29925474,4125.38638739,499.726655581
off_to_on,4119.82051705,4124.87091009,4113.58634004,4134.42160537,4116.45082891,4124.86506859,4121.15412066,4120.92005877,4136.99613859,4122.09659016,4118.7169039,4126.34545896,4124.97036018,484.639341551
off_to_on,4119.20096186,4124.40823241,4113.16898517,4134.29337365,4115.97928403,4124.20657548,4120.53515014,4120.09843748,4136.99601623,4121.39540317,4118.15173601,4126.20302705,4124.32210041,466.549461185
off_to_on,4118.52228683,4123.90748589,4112.73648462,4134.15992233,4115.58513419,4123.63147556,4119.88002522,4119.25747576,4136.99503794,4120.55058633,4117.52551464,4125.86516256,4123.44821911,445.236703439
off_to_on,4117.79084366,4123.37456084,4112.29393158,4134.02473271,4115.27115886,4123.14211879,4119.19700634,4118.40552689,4136.99331789,4119.56937888,4116.84567157,4125.33167964,4122.36290262,420.584870386
off_to_on,4117.0167138,4122.81728961,4111.84770969,4133.89120738,4115.03924649,4122.73954203,4118.49615831,4117.55227596,4136.99101212,4118.46382899,4116.12171713,4124.60927964,4121.08766679,392.591888633
off_to_on,4116.21363049,4122.24538071,4111.40552154,4133.76256358,4114.89060301,4122.42367963,4117.7892995,4116.70876185,4136.98831498,4117.25067807,4115.36507702,4123.71162476,4119.65088998,361.375573364
off_to_on,4115.39877409,4121.67030151,4110.97638055,4133.64173897,4114.82598141,4122.19361108,4117.08991571,4115.88737709,4136.98545422,4115.95111681,4114.58886774,4122.65920087,4118.08713594,327.1748587
off_to_on,4114.59244415,4121.10510985,4110.57056215,4133.5313128,4114.84591911,4122.04783415,4116.41303597,4115.10183789,4136.98268449,4114.59041599,4113.80761439,4121.4789689,4116.43628415,290.346384533
off_to_on,4113.81761616,4120.56423527,4110.19951179,4133.43344464,4114.95097,4121.98455119,4115.77506748,4114.36711767,4136.98027954,4113.19743794,4113.03691717,4120.20381022,4114.74249163,251.35651129
off_to_on,4113.09939434,4120.06321264,4109.87570813,4133.34983217,4115.14191825,4122.00195491,4115.19358853,4113.69933787,4136.97852308,4111.8040383,4112.29307402,4118.87177855,4113.05301536,210.769012946
off_to_on,4112.46437561,4119.61837176,4109.61248105,4133.28168811,4115.41996182,4122.09850025,4114.6870989,4113.11561122,4136.97769848,4110.44437024,4111.59266917,4117.52517715,4111.41692958,169.228868036
off_to_on,4111.93994247,4119.24648803,4109.42378542,4133.22973616,4115.78685502,4122.27314881,4114.27472913,4112.63383408,4136.97807738,4109.15410644,4110.9521386,4116.20948543,4109.88377528,127.442721623
off_to_on,4111.5535051,4118.96440051,4109.32393308,4133.19422454,4116.24500072,4122.52557305,4113.97591062,4112.27242585,4136.97990755,4107.96959627,4110.38732457,4114.97216416,4108.50218171,86.156722198
off_to_on,4111.3317149,4118.78860495,4109.32728685,4133.17495534,4116.79748515,4122.85630904,4113.81000996,4112.05001539,4136.98340019,4106.9269778,4109.91303258,4113.86137249,4107.31850083,46.1325412298
off_to_on,4111.29967279,4118.73483063,4109.44792191,4133.17132741,4117.44805044,4123.26684824,4113.79593195,4111.98507652,4136.9887171,4106.06126595,4109.54260411,4112.92463304,4106.37549522,8.12245545175
off_to_on,4111.48015597,4118.81761091,4109.69926169,4133.18238995,4118.20100289,4123.75966119,4113.95169701,4112.0955167,4136.99595812,4105.40543971,4109.28751864,4112.20748392,4105.71111888,-27.1555896724
off_to_on,4111.89288669,4119.04985815,4110.09369656,4133.20690421,4119.06105808,4124.33814917,4114.29399999,4112.39822608,4137.00514934,4104.98955212,4109.1570377,4111.75215746,4105.35742742,-59.0420140047
off_to_on,4112.55386574,4119.44245457,4110.64219558,4133.24341023,4120.03312667,4125.00652257,4114.83775897,4112.90859644,4137.01623267,4104.83988734,4109.15790295,4111.5963257,4105.33965052,-86.9578456305
off_to_on,4113.47479204,4120.00387088,4111.35392268,4133.29029605,4121.12204807,4125.76960855,4115.59566455,4113.64002296,4137.02905729,4104.97818951,4109.29409868,4111.77195184,4105.67545507,-110.424350377
off_to_on,4114.66258815,4120.73982544,4112.2358696,4133.34586691,4122.33228176,4126.6325936,4116.57774157,4114.60340452,4137.04337349,4105.42098715,4109.566688,4112.30428473,4106.37442214,-129.07932193
off_to_on,4116.11904894,4121.65299642,4113.29251912,4133.40841199,4123.66756856,4127.6007104,4117.79093712,4115.80666029,4137.0588295,4106.17903621,4109.97372972,4113.21103057,4107.43775492,-142.689425603
off_to_on,4117.84062753,4122.74279938,4114.52555193,4133.47626685,4125.13057612,4128.67888119,4119.23874943,4117.25428241,4137.07497167,4107.25690223,4110.51028118,4114.5017309,4108.85822826,-151.158123413
off_to_on,4119.81836901,4124.00524152,4115.93361101,4133.54786967,4126.7225445,4129.8713324,4120.92091312,4118.9469443,4137.09124843,4108.65269902,4111.1684891,4116.17737028,4110.62038281,-154.528853768
off_to_on,4122.03799782,4125.43286212,4117.51213602,4133.62180983,4128.44294848,4131.18119717,4122.83315545,4120.881184,4137.10701809,4110.35799646,4111.93776805,4118.23022923,4112.70095887,-152.983296197
off_to_on,4124.48016014,4127.01476595,4119.25327906,4133.6968674,4130.2891935,4132.61012384,4124.96703747,4123.04917931,4137.12156079,4112.35790527,4112.80506287,4120.64399011,4115.06955703,-146.834721504
off_to_on,4127.12081732,4128.73675371,4121.1459108,4133.77204264,4132.25636128,4134.1579084,4127.30989174,4125.43862957,4137.13409429,4114.63134062,4113.75518836,4123.39409506,4117.68950477,-136.516607848
off_to_on,4129.9317811,4130.58154987,4123.17572303,4133.84657444,4134.33701981,4135.82216917,4129.84486565,4128.03275479,4137.14379341,4117.15146084,4114.77123657,4126.44834678,4120.51890129,-122.566883877
off_to_on,4132.88137651,4132.52912494,4125.32543027,4133.9199476,4136.52111026,4137.59808003,4132.55107617,4130.81041969,4137.14981278,4119.88627202,4115.83503962,4129.76773517,4123.51180692,-105.60832905
off_to_on,4135.9352137,4134.55710565,4127.57506957,4133.99188852,4138.7959206,4139.47817719,4135.40387866,4133.74638622,4137.15131216,4122.7993834,4116.92767376,4133.30746518,4126.61953866,-86.3258105287
off_to_on,4139.0570458,4136.64126306,4129.90239347,4134.06235008,4141.14615298,4141.45225199,4138.37524871,4136.81169452,4137.14748365,4125.85089371,4118.02998914,4137.01815487,4129.79203061,-65.4411634619
off_to_on,4142.20968703,4138.75606596,4132.28334734,4134.13148613,4143.55408876,4143.5073396,4141.4342727,4139.97416824,4137.13757997,4128.99838375,4119.12314848,4140.8471669,4132.97921604,-43.6866251603
off_to_on,4145.35596237,4140.87528384,4134.69261856,4134.19961673,4145.99985098,4145.62781022,4144.54773869,4143.19903583,4137.12094268,4132.19798681,4120.18915741,4144.74003211,4136.13238751,-21.7778068395
off_to_on,4148.45965869,4142.97262173,4137.10424127,4134.26718567,4148.46176048,4147.7955656,4147.68081586,4146.44965499,4137.09702947,4135.40550501,4121.2113693,4148.6419207,4139.20549249,-0.3872213606
off_to_on,4151.48644658,4145.02236751,4139.49223801,4134.33471185,4150.91677747,4149.99033926,4150.79780675,4149.68832308,4137.06543945,4138.57753783,4122.17494772,4152.4991144,4142.15632413,19.880621401
off_to_on,4154.40474221,4147.0000309,4141.83127705,4134.40273698,4153.3410162,4152.19009435,4153.86295341,4152.87715245,4137.02593526,4141.67258785,4123.06727106,4156.26043294,4144.94757034,38.5115867345
off_to_on,4157.18648033,4148.88295346,4144.09732329,4134.47177185,4155.71031713,4154.37150855,4156.84127557,4155.97898584,4136.97846118,4144.65210858,4123.87826497,4159.87856858,4147.54768882,55.1008754326
off_to_on,4159.80777157,4150.65086898,4146.26825928,4134.542244,4158.00085719,4156.51053115,4159.6994163,4158.95832389,4136.92315641,4147.48146052,4124.60065097,4163.31128542,4149.93158172,69.3678155314
off_to_on,4162.24942113,4152.28639508,4148.32445394,4134.61444937,4160.18977658,4158.58299323,4162.40646882,4161.78223459,4136.86036257,4150.13074373,4125.23010148,4166.52244348,4152.08104968,81.1658834319
off_to_on,4164.4972907,4153.77543922,4150.24925742,4134.68851062,4162.25579861,4160.56524926,4164.93475706,4164.4212133,4136.79062518,4152.57547894,4125.76529516,4169.48281356,4153.98501327,90.4875315052
off_to_on,4166.54249117,4155.10750508,4152.02940323,4134.76434447,4164.17981871,4162.43482612,4167.26054301,4166.84996225,4136.71468862,4154.79711439,4126.20786981,4172.17065581,4155.63949789,97.4635963778
off_to_on,4168.38140019,4156.27588904,4153.65530202,4134.84163994,4165.94543931,4164.17105581,4169.36463541,4169.0480603,4136.63348444,4156.78334214,4126.56227399,4174.57204358,4157.0473868,102.357271271
off_to_on,4170.01550505,4157.27776041,4155.12121551,4134.91984894,4167.53942935,4165.75566788,4171.23287701,4171.00049714,4136.5481133,4158.52821419,4126.8355225,4176.68092322,4158.2179554,105.552838165
off_to_on,4171.45107832,4158.11412289,4156.42530371,4134.99819003,4168.95208921,4167.17331923,4172.85649107,4172.69805022,4136.45982079,4160.03205644,4127.03686448,4178.49891108,4159.16620752,107.539560766
off_to_on,4172.6986994,4158.78965894,4157.56954303,4135.07566505,4170.17750606,4168.41204046,4174.23227205,4174.13748808,4136.36996784,4161.30118545,4127.17737633,4180.03483781,4159.91204099,108.891329525
off_to_on,4173.77264125,4159.31246307,4158.55951832,4135.15108836,4171.21368799,4169.46358081,4175.36261011,4175.32158982,4136.27999642,4162.3474398,4127.26949433,4181.30406049,4160.47927589,110.242819439
off_to_on,4174.69014624,4159.69367338,4159.40409632,4135.22312719,4172.06257031,4170.32363741,4176.2553452,4176.25897682,4136.19139172,4163.18754448,4127.32650429,4182.32757076,4160.89458277,112.263062673
off_to_on,4175.47061927,4159.94701488,4160.11499275,4135.29035147,4172.72989219,4170.99195896,4176.92345214,4176.96375957,4136.10564186,4163.84233208,4127.36200715,4183.13093504,4161.18635155,115.627443441
off_to_on,4176.13476879,4160.08827016,4160.70624928,4135.35129105,4173.22494687,4171.47231878,4177.38456505,4177.45500918,4136.02419647,4164.33584955,4127.3893805,4183.74310828,4161.38354276,120.989188383
off_to_on,4176.70372854,4160.13469604,4161.19363973,4135.40449743,4173.56021362,4171.77235748,4177.66035574,4177.75607003,4135.94842546,4164.69438265,4127.42125596,4184.19516706,4161.51456284,128.95145086
off_to_on,4177.19819256,4160.10440589,4161.59402782,4135.44860735,4173.75088457,4171.90330035,4177.77578662,4177.89373544,4135.87957948,4164.94543313,4127.46903216,4184.51901044,4161.60620359,140.041070724
off_to_on,4177.63759563,4160.01573882,4161.92470025,4135.48240477,4173.81430358,4171.87955953,4177.75826361,4177.89731393,4135.81875322,4165.11668488,4127.54244131,4184.74607748,4161.68268263,154.685030644
off_to_on,4178.03936881,4159.88663731,4162.20269979,4135.50487858,4173.76933791,4171.71823532,4177.63671826,4177.79761747,4135.76685308,4165.23499587,4127.64918576,4184.90612985,4161.76481762,173.19052913
off_to_on,4178.41829674,4159.73405414,4162.44418332,4135.51527308,4173.63570603,4171.43853434,4177.44065036,4177.62590626,4135.72457009,4165.32545107,4127.7946579,4185.02614458,4161.86936158,195.729454563
off_to_on,4178.78599934,4159.57340865,4162.66382837,4135.51312907,4173.4332863,4171.06112532,4177.1991637,4177.4128263,4135.69235923,4165.41050916,4127.98175387,4185.12935709,4162.0085198,222.327878782
off_to_on,4179.15055543,4159.41811042,4162.87430996,4135.49831369,4173.18143179,4170.6074551,4176.94002739,4177.18737601,4135.67042585,4165.50927183,4128.21078742,4185.23448849,4162.18966204,252.860997678
off_to_on,4179.5162808,4159.27916606,4163.08586691,4135.47103766,4172.89831621,4170.09904872,4176.68879394,4176.97593741,4135.6587197,4165.63689959,4128.47950663,4185.35518307,4162.41523586,287.053737789
off_to_on,4179.88366699,4159.16488211,4163.30597323,4135.43185951,4172.60033425,4169.5568176,4176.4680032,4176.80140481,4135.65693681,4165.80419224,4128.78321189,4185.4996738,4162.68287958,324.487032243
off_to_on,4180.24948088,4159.08067325,4163.53912633,4135.38167645,4172.30157742,4169.0003992,4176.29649792,4176.68244074,4135.6645293,4166.01734575,4129.11496989,4185.67068381,4162.98572589,364.609554344
off_to_on,4180.60701903,4159.02898145,4163.78675894,4135.32170286,4172.01340333,4168.44755091,4176.18887257,4176.63288414,4135.68072266,4166.2778902,4129.4659145,4185.86556247,4163.31287943,406.754489221
off_to_on,4180.94650444,4159.00930707,4164.0472769,4135.2534371,4171.74411288,4167.9136182,4176.15507204,4176.66133049,4135.70454014,4166.58280645,4129.8256222,4186.07664493,4163.65004592,450.16073181
off_to_on,4181.25560815,4159.01834877,4164.31621995,4135.17861844,4171.49874572,4167.4110953,4176.20015155,4176.77089712,4135.73483336,4166.92481208,4130.18254682,4186.29181504,4163.98028396,493.997732301
off_to_on,4181.52007292,4159.05024496,4164.58653743,4135.09917549,4171.27900003,4166.9492922,4176.3242029,4176.95918031,4135.770318,4167.29280076,4130.52449598,4186.49524357,4164.28484692,537.393073965
off_to_on,4181.72441254,4159.09690539,4164.84896678,4135.01716849,4171.08327822,4166.53411789,4176.52244702,4177.21840396,4135.8096137,4167.67241358,4130.83912999,4186.66826682,4164.54407881,579.461766149
off_to_on,4181.85265731,4159.14841832,4165.09249832,4134.93472732,4170.90685511,4166.16798519,4176.78548653,4177.53575301,4135.85128646,4168.04671609,4131.1144631,4186.79036516,4164.73832652,619.336171591
off_to_on,4181.88911455,4159.19351583,4165.30490672,4134.85398787,4170.74216102,4165.84983739,4177.09970698,4177.89387823,4135.89389238,4168.39695143,4131.33934691,4186.84019784,4164.84883088,656.195466139
off_to_on,4181.81911303,4159.22007801,4165.47332694,4134.77702894,4170.57916787,4165.57529353,4177.44780989,4178.27155308,4135.93602117,4168.7033375,4131.50391703,4186.79664838,4164.85856054,689.293550521
off_to_on,4181.62970102,4159.21565605,4165.58485088,4134.70581198,4170.40586261,4165.33690452,4177.80945669,4178.64445846,4135.97633797,4168.94587563,4131.59998516,4186.63983549,4164.75295591,717.984395078
off_to_on,4181.31027041,4159.16799387,4165.62712049,4134.64212582,4170.20878964,4165.1245094,4178.16199954,4178.9860668,4136.01362218,4169.10513872,4131.62136195,4186.35204722,4164.52055503,741.743897151
off_to_on,4180.85308246,4159.0655291,4165.58889358,4134.58753814,4169.97364108,4164.92567808,4178.48127374,4179.26859481,4136.04680196,4169.16300911,4131.56409828,4185.91855994,4164.1534789,760.187465074
off_to_on,4180.25367535,4158.89785542,4165.46056012,4134.54335527,4169.68587267,4164.72622474,4178.74242532,4179.46399187,4136.07498322,4169.10333973,4131.42663664,4185.32831014,4163.64776044,773.082706427
off_to_on,4179.51113862,4158.65613003,4165.23458916,4134.51059148,4169.33132201,4164.51077411,4178.92074756,4179.54493033,4136.09747248,4168.9125158,4131.20986763,4184.5743934,4163.0035078,780.356783026
off_to_on,4178.62824479,4158.33341259,4164.90588922,4134.48994839,4168.89680594,4164.26336131,4178.99249992,4179.4857642,4136.11379248,4168.57989959,4130.91709046,4183.65437322,4162.2248995,782.098194362
off_to_on,4177.61143459,4157.92492465,4164.47206889,4134.48180505,4168.37067479,4163.96804475,4178.93568366,4179.26342378,4136.12369058,4168.09814559,4130.55388014,4182.5703904,4161.32001592,778.552958995
off_to_on,4176.47065781,4157.42822218,4163.93358825,4134.48621855,4167.74330288,4163.60951172,4178.73075006,4178.85821642,4136.12713941,4167.46337963,4130.12786772,4181.3290732,4160.30051786,770.115371212
off_to_on,4175.21907773,4156.84327725,4163.29379645,4134.50293495,4167.00749774,4163.17365647,4178.36121961,4178.254507,4136.12433008,4166.67524132,4129.64844351,4179.94125674,4159.18118953,757.313708366
off_to_on,4173.87265209,4156.17246862,4162.55885512,4134.53140989,4166.15881379,4162.64811203,4177.8141937,4177.4412562,4136.11565832,4165.73679464,4129.12639607,4178.42152853,4157.97936778,740.791445701
off_to_on,4172.44960863,4155.42048427,4161.73755204,4134.57083817,4165.19576044,4162.02271895,4177.08074414,4176.41239948,4136.10170402,4164.65431634,4128.57350228,4176.78762371,4156.714284,721.284695404
off_to_on,4170.96983686,4154.59414239,4160.84101363,4134.62019101,4164.11989888,4161.28991659,4176.15617014,4175.16705535,4136.08320513,4163.43697619,4128.0020856,4175.05969914,4155.40634728,699.596718699
off_to_on,4169.45422129,4153.70214026,4159.88232879,4134.67825995,4162.93582671,4160.4450466,4175.04011807,4173.70955836,4136.06102694,4162.09642684,4127.42456079,4173.25952038,4154.07639947,676.570457428
off_to_on,4167.923943,4152.75474322,4158.87610019,4134.74370586,4161.65105388,4159.4865613,4173.73656501,4172.04931872,4136.03612785,4160.64632429,4126.85298336,4171.40959845,4152.74497291,653.060092069
off_to_on,4166.39977734,4151.76342758,4157.83794121,4134.81511157,4160.27577788,4158.41613411,4172.25367279,4170.20051789,4136.00952282,4159.10180189,4126.29862209,4169.53231526,4151.43158075,629.902656427
off_to_on,4164.90141498,4150.74049252,4156.78393929,4134.8910363,4158.82256944,4157.23867163,4170.60352384,4168.18165524,4135.9822461,4157.47892228,4125.77157124,4167.64907622,4150.15406747,607.890724507
off_to_on,4163.44683215,4149.69865633,4155.7301065,4134.97007006,4157.30598307,4155.96222986,4168.80175314,4166.0149662,4135.95531424,4155.79413107,4125.28041752,4165.77952701,4148.92804395,587.747131401
off_to_on,4162.05173354,4148.6506521,4154.69183889,4135.05088592,4155.74210857,4154.59783894,4166.86709253,4163.725736,4135.9296909,4154.06373523,4124.83197395,4163.94086797,4147.76642718,570.102600733
off_to_on,4160.72908823,4147.60883725,4153.6834051,4135.13228825,4154.14808153,4153.15924268,4164.82084425,4161.34153562,4135.90625454,4152.30342672,4124.43109012,4162.14729483,4146.67909976,555.477032779
off_to_on,4159.48877509,4146.58483039,4152.71748348,4135.2132547,4152.54157143,4151.66256131,4162.68630112,4158.89140836,4135.88577018,4150.52786893,4124.08054478,4160.40958844,4145.6726994,544.265064799
off_to_on,4158.33734931,4145.58918714,4151.80476476,4135.29297039,4150.94026623,4150.12588717,4160.4881311,4156.40503574,4135.86886594,4148.75036004,4123.7810233,4158.73486887,4144.75054241,536.726351249
off_to_on,4157.27793686,4144.63112485,4150.95363455,4135.37085244,4149.36137178,4148.5688254,4158.25174415,4153.91191183,4135.85601534,4146.9825829,4123.53117925,4157.12652181,4143.91268052,532.980830335
off_to_on,4156.31025868,4143.71830418,4150.16994689,4135.44656388,4147.82114297,4147.01199277,4156.00265932,4151.4405536,4135.84752553,4145.23444718,4123.32777582,4155.58429734,4143.1560841,533.009051672
off_to_on,4155.43078137,4142.85667292,4149.456896,4135.52001592,4146.33446167,4145.47648893,4153.76588998,4149.01777335,4135.84353201,4143.51402519,4123.16589986,4154.10457389,4142.474941,536.657445696
off_to_on,4154.63298649,4142.05037541,4148.81498998,4135.59135834,4144.91447448,4143.98335547,4151.5653647,4146.6680362,4135.84399969,4141.82757869,4123.03923853,4152.6807733,4141.86105572,543.648227726
off_to_on,4153.90774593,4141.30172848,4148.24212599,4135.66095829,4143.57230028,4142.55303813,4149.42340033,4144.41292279,4135.84873007,4140.17967063,4122.94040617,4151.30390677,4141.30433052,553.593458676
off_to_on,4153.2437867,4140.61126199,4147.73376266,4135.72936828,4142.31681511,4141.20486782,4147.36024219,4142.27071243,4135.85737417,4138.57335235,4122.8613073,4149.96322611,4140.79330733,566.012640714
off_to_on,4152.62822503,4139.97781996,4147.2831815,4135.7972847,4141.15451882,4139.95657536,4145.39368361,4140.25609782,4135.86945064,4137.01041371,4122.79352027,4148.64694984,4140.31574744,580.353114431
off_to_on,4152.04714723,4139.39871565,4146.88182571,4135.86549872,4140.08948476,4138.8238535,4143.53877353,4138.38003634,4135.88436801,4135.49168123,4122.72868558,4147.34303077,4139.85922437,596.012442853
off_to_on,4151.48621302,4138.86993248,4146.51970204,4135.93484154,4139.12339094,4137.81997807,4141.80761707,4136.64973737,4135.90145048,4134.0173469,4122.65888267,4146.03992913,4139.41170524,612.361914855
off_to_on,4150.93125688,4138.38636085,4146.18582859,4136.00612633,4138.25562803,4136.95549801,4140.20926993,4135.0687792,4135.91996586,4132.58730929,4122.57697994,4144.7273553,4138.96209656,628.770278794
off_to_on,4150.36886319,4137.94206031,4145.86871039,4136.08008953,4137.48347677,4136.23800123,4138.74972347,4133.63734338,4135.93915483,4131.20150793,4122.47694359,4143.39694691,4138.50073194,644.626830313
off_to_on,4149.78689274,4137.53053616,4145.55682338,4136.157334,4136.80234478,4135.67196101,4137.43197405,4132.35255066,4135.95826027,4129.86023241,4122.35409324,4142.0428481,4138.01978232,659.363025648
off_to_on,4149.17494065,4137.1450193,4145.23908782,4136.23827687,4136.20605089,4135.25866473,4136.25616751,4131.20887834,4135.97655558,4128.56438921,4122.20529402,4140.66216319,4137.51357269,672.471868398
off_to_on,4148.52470935,4136.77873908,4144.90531274,4136.32310455,4135.68714359,4134.99622474,4135.21980772,4130.19863764,4135.993371,4127.31571163,4122.02907847,4139.25526293,4136.97879397,683.524418528
off_to_on,4147.83028442,4136.42517984,4144.54659467,4136.41173713,4135.2372395,4134.87966849,4134.31801748,4129.31248799,4136.00811698,4126.11690126,4121.82569387,4137.82592875,4136.41460365,692.182891635
off_to_on,4147.08830535,4136.07831321,4144.15565634,4136.50380386,4134.84736795,4134.90110384,4133.54383999,4128.53996583,4136.02030382,4124.97169343,4121.59707472,4136.38132812,4135.82261426,698.209946529
off_to_on,4146.29802786,4135.73279955,4143.72711337,4136.59863098,4134.5083081,4135.04995293,4132.88856963,4127.87000662,4136.02955694,4123.88484287,4121.34674247,4134.93182236,4135.20677379,701.473893225
off_to_on,4145.46127847,4135.38415368,4143.25766012,4136.69524268,4134.21090641,4135.31324722,4132.34210143,4127.29144035,4136.03562733,4122.86203026,4121.0796383,4133.49061565,4134.57314671,701.949690413
off_to_on,4144.58230625,4135.02887113,4142.74616909,4136.79237555,4133.94636326,4135.67597383,4131.89328849,4126.79344308,4136.03839698,4121.90969408,4120.8018968,4132.07326126,4133.92960825,699.715743464
off_to_on,4143.66754057,4134.66451282,4142.19370163,4136.88850611,4133.70647959,4136.12146239,4131.53029719,4126.36592963,4136.03787912,4121.03479601,4120.52057095,4130.6970478,4133.28546764,694.946660869
off_to_on,4142.72526741,4134.28974754,4141.60343114,4136.98189076,4133.48385574,4136.63180016,4131.24095031,4125.99987571,4136.03421351,4120.24453156,4120.24332073,4129.38029315,4132.65103868,687.90227441
off_to_on,4141.76523967,4133.90435293,4140.98048352,4137.07061691,4133.27203766,4137.18826335,4131.01304971,4125.68756089,4136.02765706,4119.5460004,4119.97807859,4128.1415781,4132.03717738,678.913369682
off_to_on,4140.79823931,4133.5091772,4140.33170244,4137.15266347,4133.06560762,4137.77175255,4130.83467213,4125.42272811,4136.01857027,4118.94585293,4119.73270621,4126.99895397,4131.4548072,668.364701967
off_to_on,4139.83561079,4133.10606478,4139.66535025,4137.22596862,4132.86021984,4138.36322127,4130.69443345,4125.20065904,4136.00740015,4118.44993113,4119.51465675,4125.96915888,4130.91445209,656.675981706
off_to_on,4138.88878573,4132.6977502,4138.99075749,4137.28850265,4132.65258412,4138.94408786,4130.58171919,4125.01816866,4135.99466028,4118.06292207,4119.3306566,4125.06687697,4130.42579655,644.281598362
off_to_on,4137.96881864,4132.28772521,4138.31793596,4137.33834285,4132.44040299,4139.49662244,4130.48688012,4124.87352556,4135.980909,4117.7880419,4119.18641932,4124.3040725,4129.99729,631.609907063
off_to_on,4137.08595254,4131.8800848,4137.65717154,4137.37374796,4132.22227001,4140.00430176,4130.40139276,4124.76630735,4135.96672653,4117.62676701,4119.0864032,4123.68942715,4129.63581049,619.062925837
off_to_on,4136.24923105,4131.47935808,4137.01861326,4137.39322882,4131.99753815,4140.45212642,4130.3179852,4124.69720203,4135.95269186,4117.57862674,4119.03362166,4123.2279048,4129.34639984,606.99728086
off_to_on,4135.46617148,4131.09033019,4136.41187511,4137.39561252,4131.76616803,4140.82689584,4130.23072878,4124.66776787,4135.93936044,4117.64106942,4119.02951342,4122.92046212,4129.13207935,595.707192696
off_to_on,4134.7425098,4130.7178614,4135.84566587,4137.38009715,4131.52856603,4141.11743777,4130.13509683,4124.68016532,4135.92724347,4117.80941043,4119.07387696,4122.76391726,4128.99375146,585.410219368
off_to_on,4134.08202509,4130.36670902,4135.32746086,4137.34629492,4131.28542204,4141.3147904,4130.02799165,4124.73687449,4135.91678938,4118.07686672,4119.16487084,4122.75098227,4128.93018878,576.236364918
off_to_on,4133.48644705,4130.0413572,4134.86322684,4137.2942617,4131.03755603,4141.41233629,4129.90774129,4124.84041198,4135.90836841,4118.43467848,4119.29907875,4122.87045719,4128.93810808,568.221029134
off_to_on,4132.95544642,4129.74585898,4134.45720946,4137.22451158,4130.78578113,4141.40588771,4129.77406725,4124.9930593,4135.90226059,4118.87231382,4119.47163522,4123.10757705,4129.01232284,561.302120411
off_to_on,4132.48670437,4129.48369431,4134.1117891,4137.13801576,4130.53078991,4141.29372352,4129.62802363,4125.19661359,4135.89864757,4119.37774807,4119.67640554,4123.44449567,4129.14596416,555.321485632
off_to_on,4132.07605398,4129.25764699,4133.82740855,4137.03618539,4130.27306806,4141.07657721,4129.47190788,4125.45216906,4135.89760852,4119.93780527,4119.90621102,4123.86088411,4129.33075733,550.030635164
off_to_on,4131.71768403,4129.06970281,4133.60257304,4136.92083876,4130.01283806,4140.75757585,4129.30914251,4125.75993508,4135.89912005,4120.53854648,4120.15308938,4124.33461649,4129.55733873,545.100564916
off_to_on,4131.4043935,4128.92097084,4133.43392011,4136.79415347,4129.75003322,4140.34212975,4129.14412711,4126.11909427,4135.90306024,4121.16568685,4120.40857865,4124.84251258,4129.815597,540.135308058
off_to_on,4131.12788393,4128.81162878,4133.31635476,4136.65860521,4129.48430015,4139.83777302,4128.98206052,4126.52770158,4135.90921618,4121.80502237,4120.66401257,4125.36110483,4130.09502172,534.688693518
off_to_on,4130.87907625,4128.74089326,4133.24324291,4136.51689469,4129.21502663,4139.25395654,4128.8287337,4126.98262372,4135.91729504,4122.44284764,4120.9108153,4125.86739766,4130.38504437,528.283653147
off_to_on,4130.64843897,4128.70701523,4133.20665501,4136.3718654,4128.94139041,4138.60179565,4128.69029556,4127.47951709,4135.92693776,4123.06634661,4121.14078386,4126.33958894,4130.67535754,520.433310231
off_to_on,4130.4263155,4128.70730057,4133.19765006,4136.22641494,4128.66242402,4137.89377686,4128.5729958,4128.01284177,4135.93773498,4123.66394125,4121.3463478,4126.75772685,4130.95620114,510.663003213
off_to_on,4130.20323973,4128.73815547,4133.20658962,4136.0834031,4128.37709067,4137.14342908,4128.48291054,4128.5759094,4135.9492445,4124.22558527,4121.52079718,4127.10427955,4131.21860708,498.532353577
off_to_on,4129.97023047,4128.79515589,4133.22347052,4135.94556015,4128.08436583,4136.36496707,4128.42565869,4129.16096244,4135.96100947,4124.74299337,4121.65847152,4127.36460013,4131.45459647,483.656477668
off_to_on,4129.71905701,4128.87313993,4133.23826474,4135.81539871,4127.78332003,4135.57291577,4128.40611818,4129.75928232,4135.97257662,4125.20979952,4121.75490443,4127.52727413,4131.65732648,465.725469241
off_to_on,4129.44246954,4128.96632128,4133.24125463,4135.69513241,4127.47319801,4134.78172589,4128.4281525,4130.3613238,4135.98351388,4125.62164078,4121.80692078,4127.58434222,4131.82118618,444.521341828
off_to_on,4129.13438957,4129.06842135,4133.22335217,4135.58660431,4127.15348992,4134.00539129,4128.49435822,4130.95687241,4135.99342658,4125.97616601,4121.81268491,4127.53139517,4131.94184307,419.93171501
off_to_on,4128.79005684,4129.17281687,4133.17639135,4135.49122803,4126.82399052,4133.25707922,4128.60584435,4131.53522159,4136.00197184,4126.27297217,4121.77170082,4127.36754355,4132.01624391,391.959652725
off_to_on,4128.40613025,4129.27269921,4133.09338408,4135.40994363,4126.48484286,4132.54878368,4128.76205351,4132.08536611,4136.0088704,4126.51347332,4121.68476679,4127.09526868,4132.04257508,360.729209807
off_to_on,4127.98074211,4129.36124133,4132.96873109,4135.34319021,4126.13656365,4131.89101211,4128.96063453,4132.59620841,4136.01391566,4126.70071059,4121.55388895,4126.72016616,4132.02018917,326.486409131
off_to_on,4127.51350613,4129.43176829,4132.79838132,4135.29089639,4125.7800484,4131.29251446,4129.19737447,4133.05677433,4136.01697967,4126.83911361,4121.38215928,4126.25059703,4131.94950558,289.595549487
off_to_on,4127.00548144,4129.47792699,4132.5799353,4135.2524893,4125.41655579,4130.76006247,4129.46619681,4133.45643516,4136.01801576,4126.93422568,4121.17360521,4125.69726485,4131.83189346,250.530926362
off_to_on,4126.45909594,4129.49385107,4132.31269012,4135.22692195,4125.04767163,4130.29828598,4129.75923004,4133.78513224,4136.01705798,4126.99240625,4120.93301808,4125.07273895,4131.66954509,209.864227172
off_to_on,4125.87803335,4129.47431645,4131.99762599,4135.21271838,4124.6752542,4129.90957106,4130.06694862,4134.03360057,4136.01421736,4127.02052427,4120.6657682,4124.3909453,4131.46534742,168.24803183
off_to_on,4125.26708931,4129.41488328,4131.63733648,4135.20803517,4124.30136381,4129.59402358,4130.37838546,4134.19358697,4136.00967522,4127.02565593,4120.37761424,4123.66664594,4131.22275785,126.396002338
off_to_on,4124.63200197,4129.31201998,4131.23590632,4135.2107373,4123.92818045,4129.34949981,4130.6814118,4134.25805852,4136.00367395,4127.01479872,4120.0745141,4122.91492697,4130.9456895,85.0604752361
off_to_on,4123.97926353,4129.16320562,4130.79874252,4135.21848572,4123.55791416,4129.17170382,4130.96307726,4134.2213961,4135.99650557,4126.99461274,4119.76244373,4122.15071314,4130.63840903,45.0082732944
off_to_on,4123.31591899,4128.96700729,4130.33236588,4135.22883335,4123.19271316,4129.05434934,4131.20999956,4134.07956768,4135.9884988,4126.97119761,4119.44722985,4121.38832441,4130.30544928,6.99562364132
off_to_on,4122.64935841,4128.72312988,4129.84417102,4135.23932595,4122.83457489,4128.98938141,4131.40879007,4133.83027541,4135.98000484,4126.94991125,4119.13440115,4120.64108688,4129.95153669,-28.2568938647
off_to_on,4121.98710878,4128.43243622,4129.34216373,4135.24760382,4122.48526477,4128.96725103,4131.54649985,4133.47307039,4135.97138288,4126.93523471,4118.8290615,4119.92100733,4129.58153281,-60.0884433342
off_to_on,4121.33663111,4128.09693665,4128.83468502,4135.25150028,4122.14624695,4128.97723382,4131.61106881,4133.0094292,4135.96298555,4126.93068403,4118.53578771,4119.23851738,4129.20038747,-87.9201845912
off_to_on,4120.70512776,4127.71974745,4128.33013135,4135.24913296,4121.81863062,4129.00778254,4131.5917609,4132.44278681,4135.95514509,4126.93876861,4118.25855327,4118.60228989,4128.81310051,-111.274858473
off_to_on,4120.09936453,4127.30501875,4127.83668042,4135.23898405,4121.50313456,4129.04690171,4131.47956795,4131.77852172,4135.94816079,4126.96099282,4118.00067841,4118.01912753,4128.42468823,-129.792982388
off_to_on,4119.52551152,4126.85783347,4127.36203204,4135.21996646,4121.20007157,4129.08253213,4131.26756677,4131.02389027,4135.94228796,4126.99789669,4117.76480604,4117.49392061,4128.0401509,-143.245053788
off_to_on,4118.98900607,4126.38407984,4126.91317254,4135.19147301,4120.90935369,4129.10293262,4130.95121543,4130.18790966,4135.93772907,4127.0491305,4117.55290216,4117.02966954,4127.66443779,-151.539295407
off_to_on,4118.49444078,4125.89030088,4126.49617089,4135.15340671,4120.63051807,4129.09704644,4130.52857784,4129.28119087,4135.93462721,4127.1135577,4117.36627847,4116.62756609,4127.30240751,-154.72462319
off_to_on,4118.04547921,4125.38352558,4126.11601344,4135.1061908,4120.36277274,4129.05484071,4130.00046765,4128.31572528,4135.93306207,4127.18938056,4117.20563438,4116.28712619,4126.95878199,-152.988675985
off_to_on,4117.64480131,4124.87108681,4125.77648266,4135.05075783,4120.10506043,4128.96760836,4129.37050571,4127.30463037,4135.93304859,4127.2742825,4117.07111493,4116.00636685,4126.63809359,-146.6509168
off_to_on,4117.29407981,4124.36043164,4125.48008381,4134.98851792,4119.85613814,4128.82822358,4128.64508747,4126.26186179,4135.93453826,4127.36558092,4116.96238078,4115.7820183,4126.34462552,-136.150995924
off_to_on,4116.9939876,4123.85892955,4125.22802113,4134.9213071,4119.6146685,4128.63134362,4127.83325997,4125.20189989,4135.93742285,4127.46038388,4116.87868594,4115.60976214,4126.08234573,-122.032746885
off_to_on,4116.74423482,4123.373684,4125.02022304,4134.85131753,4119.37931889,4128.37355121,4126.94651104,4124.13942,4135.94154051,4127.55574412,4116.81895895,4115.48448546,4125.85483564,-104.92435486
off_to_on,4116.54363304,4122.91135222,4124.85541392,4134.78101199,4119.14886319,4128.0534338,4125.99847636,4123.08895644,4135.9466838,4127.64880421,4116.7818829,4115.40054107,4125.66521492,-85.5153856885
off_to_on,4116.39018291,4122.47797815,4124.73122828,4134.71302611,4118.92228101,4127.6715976,4125.00457321,4122.0645703,4135.95260933,4127.73692754,4116.76597045,4115.35200447,4125.51606474,-64.5314899384
off_to_on,4116.28118075,4122.07884278,4124.64436111,4134.65006185,4118.69884901,4127.23061625,4123.98157243,4121.07953097,4135.95904865,4127.81781066,4116.76963009,4115.33291909,4125.40935214,-42.7076985752
off_to_on,4116.21333934,4121.71833632,4124.59074758,4134.59477662,4118.4782189,4126.73491572,4122.94712192,4120.14602044,4135.96571975,4127.88957372,4116.79122116,4115.33752224,4125.34635888,-20.7612979746
off_to_on,4116.18291753,4121.39985567,4124.56576353,4134.54967235,4118.26047694,4126.19059848,4121.91923654,4119.27486833,4135.9723389,4127.95082654,4116.8290956,4115.36044519,4125.32761833,0.634695302605
off_to_on,4116.18585374,4121.12573003,4124.56443837,4134.5169889,4118.0461802,4125.60521194,4120.9157698,4118.47532381,4135.97863218,4128.00070872,4116.88162583,4115.39688173,4125.35286393,20.8764482827
off_to_on,4116.21789805,4120.89717686,4124.58167103,4134.49860606,4117.83636609,4124.98746788,4119.95388371,4117.7548694,4135.98434638,4128.03890326,4116.94721886,4115.44272066,4125.42099269,39.4516507232
off_to_on,4116.2747386,4120.71428904,4124.61244053,4134.49595798,4117.63253311,4124.34692205,4119.04953353,4117.11907979,4135.9892587,4128.06562345,4117.02431781,4115.49463857,4125.53004671,55.958403439
off_to_on,4116.35211823,4120.5760539,4124.65200274,4134.50996359,4117.43659218,4123.69362497,4118.21698435,4116.57152822,4135.99318502,4128.08157452,4117.11139257,4115.55015104,4125.67721532,70.1199035842
off_to_on,4116.44593812,4120.48040353,4124.69606587,4134.54097573,4117.25079008,4123.03775653,4117.46837593,4116.1137412,4135.99598645,4128.08789228,4117.20692206,4115.60762196,4125.85886021,81.7943303816
off_to_on,4116.55234605,4120.42429544,4124.74093845,4134.58875129,4117.07760759,4122.38925772,4116.8133507,4115.74520168,4135.99757378,4128.08606249,4117.30937113,4115.66623267,4126.07056548,90.9795145578
off_to_on,4116.6678075,4120.40382143,4124.78364453,4134.6524436,4116.9196366,4121.75747285,4116.25875776,4115.46339962,4135.99790992,4128.07782575,4117.41716514,4115.72591452,4126.30721347,97.8121722484
off_to_on,4116.78915878,4120.41434163,4124.82200255,4134.7306175,4116.77944182,4121.15081553,4115.80844332,4115.2639281,4135.99701019,4128.06507335,4117.52866564,4115.78724946,4126.56308663,102.56169349
off_to_on,4116.91364198,4120.45063989,4124.8546659,4134.82128676,4116.65941375,4120.57647023,4115.46313503,4115.14062217,4135.99494053,4128.0497398,4117.64215067,4115.85134508,4126.83199412,105.61868766
off_to_on,4117.038923,4120.50709632,4124.8811252,4134.9219724,4116.561621,4120.04014071,4115.22042434,4115.08573713,4135.99181382,4128.03369806,4117.75580283,4115.91969133,4127.10742125,107.478693003
off_to_on,4117.16309481,4120.57787226,4124.90167413,4135.02977987,4116.4876702,4119.54585471,4115.07484868,4115.09016243,4135.98778468,4128.01866362,4117.86770823,4115.99400766,4127.38269866,108.721647093
off_to_on,4117.28466942,4120.65710322,4124.91734307,4135.14149211,4116.43858263,4119.09583337,4115.01807193,4115.14366755,4135.98304294,4128.00611317,4117.97586901,4116.07609011,4127.65118807,109.987883911
off_to_on,4117.4025627,4120.73909507,4124.92980603,4135.25367525,4116.41469573,4118.69043161,4115.03915949,4115.23517561,4135.9778063,4127.9972235,4118.07823135,4116.16766808,4127.90648048,111.951563638
off_to_on,4117.51607658,4120.81851833,4124.94126795,4135.36279294,4116.41559723,4118.32815379,4115.12494118,4115.35306079,4135.9723127,4127.99283481,4118.17272992,4116.27027973,4128.14260232,115.292545753
off_to_on,4117.6248829,4120.8905956,4124.95433996,4135.46532537,4116.44009798,4118.00574613,4115.26045256,4115.48546437,4135.96681267,4127.99344139,4118.25734843,4116.38517354,4128.35422404,120.66778085
off_to_on,4117.72901223,4120.95127652,4124.97191006,4135.55788848,4116.48624766,4117.7183638,4115.42944208,4115.62062379,4135.96156226,4127.99921075,4118.33019466,4116.5132418,4128.53686453,128.683320939
off_to_on,4117.82884969,4120.99739481,4124.99701635,4135.63734919,4116.5513951,4117.45980769,4115.6149289,4115.74720781,4135.95681677,4128.01003038,4118.38958665,4116.65498924,4128.68708423,139.868030209
off_to_on,4117.92513823,4121.02680181,4125.03272894,4135.70093244,4116.63229226,4117.22282224,4115.79979355,4115.85464973,4135.95282561,4128.02557932,4118.43414606,4116.81053761,4128.80265861,154.650016913
off_to_on,4118.01898828,4121.03847136,4125.08204547,4135.74631628,4116.72523867,4116.99944327,4115.96738205,4115.93347013,4135.94982849,4128.04542035,4118.4628934,4116.97966472,4128.88272405,173.336705376
off_to_on,4118.1118914,4121.03257151,4125.14780405,4135.77171165,4116.82626079,4116.78138266,4116.10210302,4115.97558,4135.94805292,4128.06910701,4118.47533968,4117.16187424,4128.92788789,196.099330769
off_to_on,4118.20573543,4121.01049928,4125.23261617,4135.77592405,4116.93131932,4116.56043481,4116.18999718,4115.97455517,4135.94771298,4128.09629876,4118.4715686,4117.35649078,4128.94029565,222.962473018
off_to_on,4118.30281761,4120.97487602,4125.33882096,4135.75839502,4117.03653558,4116.32888891,4116.21925918,4115.92587292,4135.94900923,4128.12687697,4118.45230385,4117.56277355,4128.92364944,253.799054746
off_to_on,4118.40585259,4120.92950191,4125.46846101,4135.71922185,4117.1384272,4116.07993042,4116.18069296,4115.82710244,4135.9521295,4128.1610541,4118.41895666,4117.7800406,4128.88317306,288.33101946
off_to_on,4118.5179713,4120.87926948,4125.62327845,4135.65915503,4117.23414255,4115.80801553,4116.06808407,4115.67804113,4135.95725025,4128.19946849,4118.37364917,4118.0077952,4128.8255211,326.1356905
off_to_on,4118.64270663,4120.83003709,4125.8047288,4135.57957342,4117.32168298,4115.50920323,4115.87847545,4115.4807902,4135.96453821,4128.24325712,4118.31921066,4118.24584505,4128.75863109,366.657596223
off_to_on,4118.78396178,4120.78846449,4126.0140085,4135.48243825,4117.40010212,4115.18143171,4115.61233682,4115.2397646,4135.97415193,4128.29409979,4118.25914402,4118.49440524,4128.69151933,409.225339048
off_to_on,4118.94595752,4120.76181395,4126.25209135,4135.37022747,4117.46967253,4114.82472752,4115.27362207,4114.96163438,4135.98624283,4128.35422834,4118.19756152,4118.75417556,4128.63402313,453.072894037
off_to_on,4119.13315598,4120.75772151,4126.51976862,4135.24585327,4117.53201056,4114.4413388,4114.8697128,4114.65519663,4136.00095567,4128.42639633,4118.13908975,4119.02638451,4128.59649459,497.364555837
off_to_on,4119.3501597,4120.78394458,4126.81768735,4135.11256546,4117.59015172,4114.03578615,4114.41125031,4114.33117953,4136.01842782,4128.51380667,4118.08874545,4119.31279334,4128.58945332,541.222616841
off_to_on,4119.6015868,4120.84809339,4127.14638212,4134.97384479,4117.6485703,4113.61482749,4113.91186136,4114.00198179,4136.03878761,4128.61999669,4118.05178526,4119.61565647,4128.62320839,583.756757548
off_to_on,4119.8919247,4120.95735473,4127.50629578,4134.83328995,4117.7131388,4113.18733627,4113.38778633,4113.68135346,4136.06215119,4128.74868362,4118.03353403,4119.93763722,4128.70746232,624.094066779
off_to_on,4120.2253666,4121.11821773,4127.89778601,4134.69450263,4117.79102507,4112.764095,4112.85742102,4113.38402556,4136.08861837,4128.90357561,4118.03919802,4120.28168126,4128.85091219,661.408588659
off_to_on,4120.60563672,4121.33621193,4128.3211156,4134.56097471,4117.89052749,4112.35750962,4112.3407859,4113.12529863,4136.11826712,4129.08815688,4118.07367049,4120.65085317,4129.06086411,694.949315123
do_nothing,4121.03581122,4121.6156682,4128.77642579,4134.43598155,4118.02085163,4111.98125295,4111.85893931,4112.92060175,4136.15114719,4129.30545725,4118.14133808,4121.04814462,4129.34287869,724.065604116
do_nothing,4121.51814306,4121.95951312,4129.26369352,4134.32248498,4118.19183399,4111.64984862,4111.43335301,4112.78503508,4136.18727312,4129.55781859,4118.24589696,4121.47626461,4129.70046417,748.229102654
do_nothing,4122.05389907,4122.36910624,4129.78267457,4134.22304917,4118.41362166,4111.37820943,4111.08527019,4112.73291018,4136.22661676,4129.84667153,4118.39018765,4121.9374241,4130.13483357,767.051388414
do_nothing,4122.64321764,4122.84412888,4130.33283592,4134.13977197,4118.69631843,4111.18114651,4110.83506719,4112.777303,4136.26910004,4130.17233662,4118.57605696,4122.43312814,4130.64474009,780.296707264
do_nothing,4123.28499553,4123.38253117,4130.91328187,4134.07423364,4119.04961005,4111.0728669,4110.70164042,4112.92963495,4136.31458813,4130.53386359,4118.80425494,4122.96398899,4131.22640256,787.889369067
do_nothing,4123.97681136,4123.98054203,4131.5226792,4134.02746403,4119.48238281,4111.06647801,4110.70183909,4113.19929693,4136.36288366,4130.92892144,4119.07437281,4123.52957319,4131.87352945,789.915563343
do_nothing,4124.71489269,4124.63274438,4132.15918783,4133.99992886,4120.00235022,4111.17351692,4110.84996251,4113.59333013,4136.41372232,4131.35374991,4119.38482667,4124.12829425,4132.57744572,786.619564261
do_nothing,4125.494132,4125.33221489,4132.82040322,4133.99153479,4120.61570324,4111.40352164,4111.15733754,4114.11617573,4136.46677033,4131.80318035,4119.73288934,4124.75736067,4133.32732249,778.394502254
do_nothing,4126.30815475,4126.07072479,4133.50331692,4134.00165248,4121.32679921,4111.76365986,4111.63198875,4114.76950273,4136.52162402,4132.27073034,4120.11477059,4125.41278633,4134.11050479,765.768077592
do_nothing,4127.14944059,4126.83899543,4134.20430063,4134.02915633,4122.13790346,4112.25842908,4112.27840995,4115.55212036,4136.57781197,4132.74877304,4120.52574397,4126.08946663,4134.91292783,749.383772671
do_nothing,4128.00949605,4127.62699918,4134.91911816,4134.07247885,4123.04899593,4112.88943945,4113.09744213,4116.4599783,4136.63479958,4133.22877767,4120.96031583,4126.78132059,4135.71960795,729.978279796
do_nothing,4128.87907475,4128.42429462,4135.64296807,4134.12967737,4124.05765239,4113.65528767,4114.08625932,4117.48625459,4136.69199641,4133.70161399,4121.41243052,4127.48149531,4136.51519044,708.355993315
do_nothing,4129.74843878,4129.22038286,4136.37055816,4134.19851018,4125.15900672,4114.55152728,4115.23846062,4118.62152814,4136.74876589,4134.1579099,4121.87570342,4128.18262542,4137.28453319,685.361512643
do_nothing,4130.60765262,4130.00507102,4137.0962112,4134.27651919,4126.34579722,4115.57073702,4116.5442629,4119.85402956,4136.80443726,4134.58844791,4122.3436725,4128.87713752,4138.01330295,661.85116328
do_nothing,4131.44689944,4130.76882816,4137.8139994,4134.36111593,4127.60849652,4116.70268563,4117.99078529,4121.16996103,4136.85831931,4134.98458362,4122.81005765,4129.55758593,4138.68855926,638.664566411
do_nothing,4132.25680787,4131.50311894,4138.51790329,4134.44966768,4128.93552123,4117.93458746,4119.56241262,4122.55387299,4136.90971545,4135.33866722,4123.26901636,4130.21700438,4139.2993011,616.597273091
do_nothing,4133.02877634,4132.20070109,4139.20198911,4134.53958082,4130.31351455,4119.2514403,4121.24122229,4123.9890833,4136.95793941,4135.64444799,4123.71538437,4130.84925612,4139.83695164,596.375425412
do_nothing,4133.75528172,4132.85587395,4139.86059721,4134.6283784,4131.72769157,4120.63643335,4123.00745699,4125.4581229,4137.00233121,4135.89744168,4124.14488992,4131.44936483,4140.29575847,578.633318022
do_nothing,4134.43015875,4133.46466758,4140.48853316,4134.71376961,4133.16223523,4122.07141124,4124.84002533,4126.9431913,4137.04227258,4136.09524131,4124.55433141,4132.01380861,4140.67308993,563.894615109
do_nothing,4135.04883769,4134.02496428,4141.08125222,4134.79370887,4134.60072815,4123.53737791,4126.71701272,4128.42660569,4137.07720138,4136.23775437,4124.9417099,4132.54076078,4140.96961203,552.557835583
do_nothing,4135.60852868,4134.5365473,4141.63502827,4134.86644345,4136.02660467,4125.01502345,4128.61618623,4129.89122836,4137.1066245,4136.32735189,4125.30630974,4133.0302637,4141.18933559,544.886555186
do_nothing,4136.10834329,4135.0010745,4142.14709803,4134.93054831,4137.42360631,4126.48525682,4130.51547919,4131.32085916,4137.13012878,4136.36891913,4125.64872296,4133.48432444,4141.33952879,541.004592941
do_nothing,4136.54934628,4135.42197802,4142.61577304,4134.98494815,4138.77622426,4127.92972744,4132.39344344,4132.70058209,4137.1473896,4136.36980196,4125.97081573,4133.90692545,4141.43049588,540.896257536
do_nothing,4136.93453381,4135.80429384,4143.04051308,4135.02892646,4140.0701134,4129.33131979,4134.22965965,4134.01705773,4137.15817698,4136.33964763,4126.27563771,4134.30394724,4141.47522906,544.411535125
do_nothing,4137.26873717,4136.15442846,4143.4219566,4135.06212231,4141.29246415,4130.67460628,4136.00509914,4135.25875646,4137.16235894,4136.29014394,4126.56727753,4134.68300457,4141.48894577,551.275912372
do_nothing,4137.55845451,4136.47987214,4143.76190578,4135.08451558,4142.43232059,4131.94624545,4137.70243313,4136.41613035,4137.15990222,4136.23466493,4126.85067036,4135.05320162,4141.48852897,561.104357856
do_nothing,4137.81161572,4136.78886996,4144.06326564,4135.09640187,4143.48083547,4133.13531385,4139.30628803,4137.48172427,4137.15087043,4136.18783581,4127.13136521,4135.42481531,4141.49189159,573.418841495
do_nothing,4138.03728853,4137.09006389,4144.32993837,4135.09835851,4144.43145523,4134.23356233,4140.80344681,4138.45022847,4137.13541973,4136.16503312,4127.4152615,4135.80891868,4141.51729007,587.668660201
do_nothing,4138.24533621,4137.39211948,4144.56667601,4135.09120325,4145.28003017,4135.23558914,4142.18299749,4139.31847649,4137.11379248,4136.18183899,4127.70832556,4136.21695866,4141.58261326,603.252757101
do_nothing,4138.44603914,4137.70335159,4144.77889629,4135.07594724,4146.02484744,4136.13892456,4143.43643023,4140.0853928,4137.08630898,4136.25347013,4128.01629855,4136.66030407,4141.70467427,619.54316929
do_nothing,4138.64969438,4138.03136314,4144.97246803,4135.05374405,4146.66658703,4136.94402439,4144.55768448,4140.75189535,4137.0533579,4136.3942036,4128.34440745,4137.14978068,4141.89853265,635.908717694
do_nothing,4138.86620808,4138.38271075,4145.15347433,4135.02583621,4147.20820373,4137.65417252,4145.54314872,4141.32075915,4137.01538566,4136.6168215,4128.69709095,4137.69521122,4142.17687331,651.738065982
do_nothing,4139.10469691,4138.76260989,4145.32796323,4134.9935012,4147.6547404,4138.27529589,4146.39161541,4141.79644726,4136.97288529,4136.93209686,4129.07775141,4138.30497791,4142.54946684,666.461322793
do_nothing,4139.37311426,4139.1746906,4145.50169628,4134.95799843,4148.01308095,4138.81569832,4147.10419515,4142.18491639,4136.92638505,4137.34834084,4129.48854344,4138.98562537,4143.02273277,679.569437883
do_nothing,4139.67791669,4139.62081327,4145.67990644,4134.92051905,4148.29165301,4139.28572251,4147.68419414,4142.49340379,4136.87643734,4137.87102994,4129.93020807,4139.74151987,4143.59942357,690.630743037
do_nothing,4140.02378418,4140.10095117,4145.86707584,4134.88214044,4148.50009232,4139.69735144,4148.13695899,4142.73020221,4136.82360816,4138.50252764,4130.40196029,4140.57457934,4144.27844227,699.304107214
do_nothing,4140.41340587,4140.61314404,4146.06674383,4134.84378703,4148.64888161,4140.06376283,4148.46969299,4142.9044285,4136.76846738,4139.2419118,4130.9014351,4141.48408554,4145.05480132,705.34830439
do_nothing,4140.84734014,4141.15352463,4146.2813541,4134.80619903,4148.74897725,4140.39885098,4148.69124755,4143.02579094,4136.71158007,4140.08491413,4131.42469531,4142.46658653,4145.91972464,708.627325487
do_nothing,4141.32395559,4141.71641743,4146.51214853,4134.76991064,4148.8114369,4140.71673245,4148.81189255,4143.10435998,4136.6534991,4141.02397411,4131.96630175,4143.51589462,4146.86088951,709.111501437
do_nothing,4141.83945625,4142.29450681,4146.75911332,4134.73523837,4148.84706084,4141.03125196,4148.84306962,4143.15034602,4136.59475897,4142.04840534,4132.51944423,4144.62318127,4147.86279983,706.874445173
do_nothing,4142.38799132,4142.87906918,4147.02098083,4134.70228047,4148.86605875,4141.35550539,4148.79713218,4143.17388762,4136.53587096,4143.14466813,4133.07612929,4145.77716704,4148.90727736,702.085966085
do_nothing,4142.96184621,4143.46026206,4147.29528801,4134.67092725,4148.87775234,4141.70139573,4148.68707648,4143.1848525,4136.47731952,4144.2967388,4133.62741846,4146.9644017,4149.97405372,695.001256934
do_nothing,4143.55170877,4144.02746053,4147.57849001,4134.64088202,4148.8903227,4142.0792368,4148.526268,4143.19265364,4136.41955982,4145.48656265,4134.16370899,4148.16962593,4151.04144224,685.946793863
do_nothing,4144.14700146,4144.56963036,4147.86612492,4134.61169198,4148.91060942,4142.49741793,4148.32816805,4143.2060827,4136.36301622,4146.69457569,4134.67504735,4149.37620383,4152.08706649,675.303518096
do_nothing,4144.73626789,4145.07572556,4148.15302384,4134.58278784,4148.9439669,4142.96214075,4148.10606586,4143.23316304,4136.30808159,4147.90027774,4135.15146471,4150.56661284,4153.08862022,663.487977006
do_nothing,4145.30760019,4145.53509738,4148.43355804,4134.55353075,4148.99418074,4143.47723678,4147.87282153,4143.28102448,4136.25511716,4149.08283873,4135.58332266,4151.72297533,4154.02463267,650.932186964
do_nothing,4145.84909138,4145.93790046,4148.70191331,4134.52326472,4149.06344547,4144.04407149,4147.64062445,4143.35580162,4136.20445284,4150.22171877,4135.96165691,4152.82761459,4154.87521234,638.063036407
do_nothing,4146.34929602,4146.27548197,4148.95238018,4134.49137222,4149.15240208,4144.66153723,4147.42077171,4143.46255674,4136.15638761,4151.29728205,4136.2785066,4153.86361599,4155.62274291,625.282071694
do_nothing,4146.79768107,4146.54073873,4149.17964742,4134.4573304,4149.2602319,4145.32613405,4147.22346988,4143.60522771,4136.11119014,4152.29138488,4136.52721697,4154.81537308,4156.25250563,612.946498916
do_nothing,4147.18504896,4146.72842807,4149.37908549,4134.42076504,4149.38480106,4146.03213396,4147.05766334,4143.78660055,4136.06909941,4153.18791815,4136.70270353,4155.66909788,4156.75320426,601.352191526
do_nothing,4147.50391522,4146.83541891,4149.54700682,4134.38149926,4149.52284843,4146.77182164,4146.93089214,4144.00830618,4136.03032531,4153.97328574,4136.80166718,4156.41327442,4157.11737116,590.719417833
do_nothing,4147.7488247,4146.86087174,4149.68089016,4134.33959427,4149.67020838,4147.5358019,4146.84918202,4144.27084011,4135.99504936,4154.63680203,4136.82275118,4157.03903629,4157.34163718,581.181896655
do_nothing,4147.91659279,4146.80633859,4149.77955828,4134.29537935,4149.82205948,4148.31336257,4146.81696971,4144.57360442,4135.96342554,4155.17099481,4136.76663316,4157.54045118,4157.42685274,572.779657884
do_nothing,4148.00646132,4146.67577794,4149.84330008,4134.24946921,4149.97318949,4149.09287986,4146.83706593,4144.91497093,4135.93558118,4155.57180329,4136.63604814,4157.91469918,4157.37805415,565.45603245
do_nothing,4148.02016221,4146.47548261,4149.87393071,4134.20276685,4150.11826704,4149.86225163,4146.91065853,4145.29236451,4135.91161809,4155.8386652,4136.43574095,4158.16213573,4157.20427531,559.058929413
do_nothing,4147.96188572,4146.2139223,4149.87478611,4134.1564513,4150.25211038,4150.60934289,4147.03735587,4145.70236467,4135.8916138,4155.97449078,4136.17234955,4158.2862348,4156.91821169,553.346383376
do_nothing,4147.83815369,4145.90150572,4149.85065083,4134.11194998,4150.36994389,4151.32242734,4147.21526944,4146.14082272,4135.87562298,4155.98552508,4135.85422305,4158.2934124,4156.53574958,547.996180246
do_nothing,4147.65760196,4145.55027036,4149.80762103,4134.07089639,4150.46763328,4151.99060837,4147.44113278,4146.60299111,4135.86367906,4155.88110411,4135.49118071,4158.19273561,4156.075379,542.619200821
do_nothing,4147.43067975,4145.17351081,4149.75290721,4134.0350746,4150.54189149,4152.60420452,4147.71045301,4147.08366105,4135.85579584,4155.6733137,4135.09422026,4157.99552739,4155.55751348,536.77596672
do_nothing,4147.16927702,4144.78535913,4149.69458366,4134.00635258,4150.59044812,4153.15508547,4148.0176908,4147.5773046,4135.85196933,4155.37656375,4134.67518555,4157.71488248,4155.00374375,529.995738205
do_nothing,4146.88629373,4144.40033222,4149.64129382,4133.98660715,4150.61217649,4153.63694709,4148.3564644,4148.07821762,4135.85217939,4155.00709339,4134.24640502,4157.36511373,4154.43605482,521.79740412
do_nothing,4146.59516733,4144.03286245,4149.60192278,4133.97764371,4150.60717375,4154.04551682,4148.71977311,4148.58066067,4135.85639138,4154.58242514,4133.82031336,4156.96115199,4153.87603725,511.711325041
do_nothing,4146.30937642,4143.69682848,4149.58524923,4133.9811142,4150.57679127,4154.37868342,4149.10023529,4149.07899521,4135.86455759,4154.12078776,4133.40906953,4156.51792481,4153.34412322,499.301245176
do_nothing,4146.04193978,4143.40510275,4149.5995905,4133.99843676,4150.52361416,4154.63654819,4149.49033522,4149.56781308,4135.87661833,4153.64052813,4133.02418387,4156.04974022,4152.85887633,484.185378448
do_nothing,4145.80493036,4143.169132,4149.65245473,4134.0307208,4150.45139102,4154.82139798,4149.88267273,4150.04205733,4135.89250268,4153.15953281,4132.67616714,4155.56970196,4152.43636183,466.055800133
do_nothing,4145.60902368,4142.99856594,4149.75021429,4134.07870085,4150.36491662,4154.93760321,4150.27020891,4150.49713285,4135.91212882,4152.69467901,4132.37421312,4155.08918117,4152.08962064,444.695336411
do_nothing,4145.4630991,4142.9009474,4149.89781418,4134.14268249,4150.26987275,4154.99144691,4150.64650111,4150.92900542,4135.93540371,4152.26133394,4132.12592579,4154.61736752,4151.82826603,419.991237772
do_nothing,4145.37391089,4142.88147532,4150.09852812,4134.22250324,4150.17263343,4154.99089281,4151.00592007,4151.33428824,4135.9622224,4151.87291905,4131.93710029,4154.16091927,4151.65821764,391.945044776
do_nothing,4145.34584322,4142.94284866,4150.35377317,4134.31751064,4150.08004261,4154.9453024,4151.34384232,4151.71031512,4135.99246672,4151.54055292,4131.81156517,4153.7237274,4151.58158108,360.678201229
do_nothing,4145.38075995,4143.08519663,4150.66299196,4134.42655911,4149.99917291,4154.86511162,4151.65681131,4152.05519955,4136.02600346,4151.27278325,4131.75109131,4153.30680406,4151.59667597,326.433134596
do_nothing,4145.47795589,4143.30609704,4151.02360831,4134.54802619,4149.93707481,4154.7614792,4151.94266135,4152.36787894,4136.06268225,4151.07541486,4131.7553701,4152.90830025,4151.69820906,289.569699815
do_nothing,4145.63421198,4143.60068156,4151.43105958,4134.67984799,4149.9005259,4154.64591875,4152.20059924,4152.64814301,4136.10233297,4150.95143704,4131.82206132,4152.52365246,4151.87758351,250.557063618
do_nothing,4145.84395185,4143.96182333,4151.87890548,4134.81957257,4149.89578933,4154.52992768,4152.43123945,4152.896645,4136.14476318,4150.90105001,4131.94690823,4152.14585269,4152.12333028,209.96128478
do_nothing,4146.09949335,4144.3803998,4152.3590103,4134.96442953,4149.92839024,4154.42462538,4152.63659008,4153.11489416,4136.18975547,4150.92178694,4132.12391555,4151.76583111,4152.42164302,168.429014347
do_nothing,4146.39138484,4144.8456209,4152.86179239,4135.1114129,4150.00291733,4154.34041302,4152.81998799,4153.30522751,4136.23706501,4151.00872453,4132.34558326,4151.37293632,4152.75699411,126.667892175
do_nothing,4146.7088125,4145.34541053,4153.37653191,4135.25737429,4150.12285575,4154.28666562,4152.98598308,4153.47075889,4136.28641754,4151.15477218,4132.60318784,4150.95549392,4153.11280698,85.4243461079
do_nothing,4147.04006262,4145.86682752,4153.8917255,4135.39912239,4150.29045521,4154.27146477,4153.14017264,4153.61530292,4136.33750801,4151.35102718,4132.88710039,4150.50142103,4153.47215783,45.4596026813
do_nothing,4147.37301989,4146.39651093,4154.39547464,4135.53352514,4150.50663624,4154.30137859,4153.28898825,4153.74327206,4136.38999989,4151.58718093,4133.18712979,4149.99887196,4153.8184791,7.52478949305
do_nothing,4147.69568152,4146.92113324,4154.87589274,4135.65761044,4150.77093589,4154.381293,4153.43943907,4153.85954546,4136.44352563,4151.85195962,4133.49287835,4149.4368882,4154.13623728,-27.6639534498
do_nothing,4147.99666609,4147.42784476,4155.3215154,4135.76866167,4151.08149346,4154.5142968,4153.59881732,4153.96930913,4136.49768807,4152.1335812,4133.79409649,4148.80602537,4154.41155853,-59.4494343049
do_nothing,4148.26569577,4147.90469272,4155.72169789,4135.86430447,4151.43507577,4154.70162126,4153.77437362,4154.07786865,4136.5520632,4152.4202103,4134.08102351,4148.09892963,4154.63277744,-87.2555564027
do_nothing,4148.49403219,4148.34099908,4156.06698419,4135.94258168,4151.8271405,4154.94263364,4153.97297181,4154.19043687,4136.60620413,4152.70039249,4134.34470179,4147.31083722,4154.79088704,-110.606833507
do_nothing,4148.67484784,4148.72768329,4156.34943338,4136.00201389,4152.25193535,4155.23488234,4154.20073509,4154.31190155,4136.65964638,4152.96345092,4134.57725284,4146.43997364,4154.87987248,-129.144552001
do_nothing,4148.80351791,4149.05751836,4156.56289065,4136.04164353,4152.70262949,4155.57419026,4154.46269704,4154.44657996,4136.71191435,4153.19983018,4134.77210579,4145.48783302,4154.89691511,-142.638978216
do_nothing,4148.87782112,4149.3253116,4156.70319281,4136.06106147,4153.17147306,4155.9547916,4154.76247254,4154.5979703,4136.76252901,4153.40137579,4134.92417065,4144.45932364,4154.84245989,-150.997143942
do_nothing,4148.89804126,4149.5280045,4156.76830068,4136.06041541,4153.64997981,4156.36950601,4155.10196385,4154.76851127,4136.81101648,4153.56154054,4135.02995118,4143.36277143,4154.72014426,-154.265888818
do_nothing,4148.86696542,4149.6646892,4156.75835361,4136.04040047,4154.12912706,4156.80994326,4155.48111601,4154.95936245,4136.85691735,4153.67551276,4135.08759497,4142.20977939,4154.53659223,-152.629995273
do_nothing,4148.78977821,4149.73654228,4156.67564416,4136.00223251,4154.5995671,4157.26673056,4155.89773427,4155.17021801,4136.89979649,4153.74026475,4135.09688049,4141.01494711,4154.30108292,-146.405421284
do_nothing,4148.67385584,4149.74667958,4156.52451397,4135.94760578,4155.05184359,4157.72975462,4156.34737393,4155.39916569,4136.93925307,4153.75452346,4135.05914365,4139.79545981,4154.02510778,-136.027815837
do_nothing,4148.52846691,4149.69993954,4156.31117501,4135.8786365,4155.47660708,4158.18841104,4156.82331084,4155.64260157,4136.9749303,4153.71866853,4134.97714864,4138.57056203,4153.72183519,-122.036682042
do_nothing,4148.36439142,4149.60260486,4156.04346277,4135.79779473,4155.864824,4158.63185446,4157.3165985,4155.89520985,4137.00652464,4153.63456637,4134.85491023,4137.3609359,4153.40550568,-105.055721033
do_nothing,4148.19347191,4149.46207594,4155.73053125,4135.70782707,4156.2079744,4159.04924428,4157.81621489,4156.15001466,4137.03379407,4153.50535195,4134.69747664,4136.18800829,4153.09078376,-85.7700382053
do_nothing,4148.02811457,4149.28651092,4155.38250128,4135.61167313,4156.49823447,4159.42998212,4158.30929913,4156.39850836,4137.05656504,4153.33517225,4134.51068339,4135.07321489,4152.79209486,-64.9010196851
do_nothing,4147.88075978,4149.0844494,4155.01007629,4135.51237851,4156.72864059,4159.76393817,4158.78147518,4156.63085814,4137.07473796,4153.12890732,4134.30088973,4134.03725121,4152.5229766,-43.1797892678
do_nothing,4147.76334316,4148.86443671,4154.62414051,4135.41300739,4156.8932325,4160.04166493,4159.21725579,4156.83618869,4137.08829087,4152.89188472,4134.07470929,4133.09934108,4152.29547269,-21.3202277343
do_nothing,4147.68676813,4148.63466524,4154.23535513,4135.31655711,4156.98717363,4160.25459692,4159.60051695,4157.00293512,4137.0972814,4152.62960278,4133.83874631,4132.27655177,4152.11959563,0.00743020556331
do_nothing,4147.66041012,4148.40264776,4153.85376792,4135.22587734,4157.00684707,4160.39523526,4159.91502873,4157.11925603,4137.10184688,4152.34747585,4133.59934797,4131.58318188,4152.00288034,20.2014139444
do_nothing,4147.69167128,4148.17493517,4153.48845069,4135.14359585,4156.94992615,4160.45731568,4160.14502545,4157.17349288,4137.1022026,4152.05061262,4133.36238212,4131.03024464,4151.95004644,38.7506900501
do_nothing,4147.78560235,4147.9568892,4153.14717757,4135.07205272,4156.81541868,4160.43595755,4160.27579442,4157.15465865,4137.09863831,4151.7436357,4133.13304811,4130.62506485,4151.96278157,55.2538162624
do_nothing,4147.94460627,4147.75251717,4152.83615562,4135.01324453,4156.60368395,4160.32779098,4160.29426082,4157.05293606,4137.09151283,4151.43054807,4132.91572687,4130.37100342,4152.03965273,69.4336250071
do_nothing,4148.16823513,4147.56437349,4152.55981686,4134.96877968,4156.31642198,4160.13105822,4160.1895449,4156.86016453,4137.081247,4151.11464934,4132.71387392,4130.26731884,4152.17614749,81.147139475
do_nothing,4148.453089,4147.3935293,4152.32067855,4134.93984578,4155.95663454,4159.84568512,4159.95346823,4156.57029449,4137.06831497,4150.79850227,4132.52995771,4130.30917001,4152.36484164,90.3903038285
do_nothing,4148.79282154,4147.23960862,4152.1192759,4134.92718962,4155.52855798,4159.47331883,4159.58098669,4156.17978819,4137.05323401,4150.48394715,4132.36544288,4130.48776014,4152.59568506,97.2973054366
do_nothing,4149.17825352,4147.10088661,4151.95416868,4134.93111002,4155.03756855,4159.01732776,4159.07053014,4155.68794735,4137.03655318,4150.17215927,4132.22081677,4130.79061563,4152.8563928,102.134475355
do_nothing,4149.59759164,4146.97444315,4151.82202063,4134.95146325,4154.49006165,4158.48276124,4158.42423216,4155.09715061,4137.01884084,4149.86374223,4132.09565523,4131.20198926,4153.13292467,105.288964632
do_nothing,4150.03674658,4146.85636312,4151.71774805,4134.9876806,4153.89330752,4157.876267,4157.64803696,4154.4129863,4137.00067159,4149.55884851,4131.98872261,4131.70337189,4153.41003303,107.252598125
do_nothing,4150.47974066,4146.74197316,4151.63473168,4135.0387971,4153.25528684,4157.20596631,4156.75167595,4153.64427027,4136.98261264,4149.25731734,4131.89809944,4132.27409331,4153.67185661,108.601496768
do_nothing,4150.90919242,4146.62610405,4151.56508403,4135.10349018,4152.58451072,4156.48128807,4155.74851111,4152.80294296,4136.96521023,4148.95881994,4131.82133078,4132.89199,4153.90253653,109.972227836
do_nothing,4151.30686268,4146.50336691,4151.49996215,4135.18012659,4151.88983047,4155.71276473,4154.6552483,4151.90384495,4136.9489763,4148.66300232,4131.75558737,4133.53411532,4154.08683057,112.035383236
do_nothing,4151.65424429,4146.36843143,4151.42991479,4135.26681583,4151.18024287,4154.91179443,4153.49152864,4150.9643754,4136.93437583,4148.36961644,4131.69783221,4134.17746704,4154.21070202,115.467590586
do_nothing,4151.93317599,4146.21629431,4151.34525126,4135.36146802,4150.46469718,4154.09037521,4152.27941079,4150.0040426,4136.9218152,4148.07863159,4131.64498456,4134.79970641,4154.26186046,120.923027169
do_nothing,4152.1264594,4146.04252649,4151.23641911,4135.46185419,4149.75190946,4153.26081792,4151.042761,4149.04392045,4136.91163202,4147.79031883,4131.59407444,4135.37984378,4154.23023344,129.005531951
do_nothing,4152.21845778,4145.843489,4151.09437677,4135.56566712,4149.05018994,4152.43544581,4149.80657074,4148.10602811,4136.90408661,4147.50530303,4131.54238106,4135.89886672,4154.1083509,140.242393865
do_nothing,4152.19565522,4145.61650832,4150.91094821,4135.6705804,4148.36728832,4151.62628892,4148.59622438,4147.2126539,4136.89935551,4147.22457887,4131.48754961,4136.34028925,4153.89162728,155.060834345
do_nothing,4152.04715645,4145.36000439,4150.67914681,4135.77430425,4147.71026143,4150.84478271,4147.43674145,4146.38564678,4136.89752731,4146.94948933,4131.42768247,4136.69060404,4153.57853122,173.768101481
do_nothing,4151.76510956,4145.07356672,4150.39345735,4135.87463604,4147.08536707,4150.10147996,4146.35201932,4145.64570098,4136.89860084,4146.68166775,4131.36140188,4136.93962346,4153.17063717,196.535957972
do_nothing,4151.34503659,4144.75797647,4150.05006662,4135.96950442,4146.49798632,4149.40578547,4145.36410255,4145.0116599,4136.90248602,4146.42294651,4131.2878831,4137.0807004,4152.67255889,223.390179994
do_nothing,4150.78606048,4144.41517513,4149.6470348,4136.057006,4145.95257532,4148.76572193,4144.49250454,4144.4998654,4136.90900721,4146.17523804,4131.20685822,4137.11082449,4152.09176947,254.205493658
do_nothing,4150.09102006,4144.04818242,4149.18440246,4136.13543404,4145.45264608,4148.18773451,4143.75360521,4144.12357692,4136.91790917,4145.94039545,4131.11859232,4137.03059448,4151.43831735,288.706168127
do_nothing,4149.2664685,4143.66096847,4148.66422941,4136.20329939,4145.00077404,4147.67654047,4143.16014611,4143.8924827,4136.92886543,4145.72006168,4131.02383479,4136.84407212,4150.72445174,326.47226966
do_nothing,4148.32255444,4143.2582866,4148.09056436,4136.2593439,4144.5986292,4147.23502817,4142.72084029,4143.81232196,4136.94148875,4145.51551656,4130.92374954,4136.55852639,4149.96417379,366.951366507
do_nothing,4147.2727883,4142.84547469,4147.46934587,4136.30254722,4144.24702627,4146.8642085,4142.44011025,4143.88463238,4136.95534363,4145.32753098,4130.81982844,4136.18408071,4149.17273191,409.475267321
do_nothing,4146.13370006,4142.42823352,4146.80823743,4136.33212796,4143.94598866,4146.56321951,4142.31796174,4144.10663203,4136.96996015,4145.15623655,4130.71379273,4135.73327752,4148.36608118,453.281184106
do_nothing,4144.92439811,4142.01239124,4146.1164012,4136.34754023,4143.69482052,4146.32938282,4142.34999543,4144.47123962,4136.98484908,4145.00101822,4130.6074872,4135.22057704,4147.56032679,497.536544017
do_nothing,4143.66604209,4141.60366301,4145.40421731,4136.34846662,4143.49218078,4146.15830822,4142.52755292,4144.96723096,4136.99951745,4144.86043565,4130.50277185,4134.66180838,4146.77117221,541.366538243
do_nothing,4142.38124543,4141.20741511,4144.68295686,4136.33480862,4143.3361535,4146.04404102,4142.83798884,4145.57952495,4137.01348431,4144.73217814,4130.40141591,4134.07359201,4146.01339133,583.883394025
do_nothing,4141.09342615,4140.82844215,4143.96441897,4136.30667503,4143.22430953,4145.97924593,4143.26505638,4146.28958785,4137.0262961,4144.61305594,4130.3049985,4133.47275333,4145.30034336,624.216292036
do_nothing,4139.82612616,4140.4707655,4143.26054296,4136.26436898,4143.15375579,4145.95542051,4143.78939101,4147.07594078,4137.03754102,4144.49902948,4130.21482011,4132.87574667,4144.64354626,661.540829909
do_nothing,4138.60232056,4140.13745991,4142.58300823,4136.20837362,4143.12117007,4145.96313094,4144.38907408,4147.91475228,4137.04686213,4144.38527577,4130.13182817,4132.29810793,4144.05232207,695.106953744
do_nothing,4137.44373865,4139.83051368,4141.94283485,4136.13933674,4143.12282084,4145.99226264,4145.0402563,4148.78049557,4137.05396851,4144.26628951,4130.05655921,4131.7539523,4143.53352353,724.264339879
do_nothing,4136.37021809,4139.55072632,4141.34999849,4136.05805436,4143.15457335,4146.03227805,4145.7178202,4149.64664825,4137.05864428,4144.13601473,4129.98909912,4131.25553138,4143.0913483,748.484307231
do_nothing,4135.39911299,4139.29764622,4140.8130732,4135.9654532,4143.21188487,4146.07247474,4146.39606033,4150.486412,4137.06075505,4143.98800142,4129.92906228,4130.81286133,4142.72724323,767.377473965
do_nothing,4134.54477517,4139.06954945,4140.33891508,4135.86257216,4143.28979353,4146.10223729,4147.04936049,4151.27342932,4137.06025168,4143.8155806,4129.87558939,4130.43343154,4142.43989849,780.706534973
do_nothing,4133.81812585,4138.86345999,4139.93239871,4135.75054269,4143.38290613,4146.11127771,4147.65284837,4151.98247568,4137.05717119,4143.61205086,4129.8273635,4130.12200035,4142.22532831,788.393720627
do_nothing,4133.22633212,4138.67521026,4139.59621675,4135.63056798,4143.48539116,4146.08985978,4148.18300937,4152.59010605,4137.0516347,4143.37086862,4129.78264274,4129.8804816,4142.07703292,790.522695586
do_nothing,4132.77259884,4138.49954009,4139.33075087,4135.50390127,4143.59098299,4146.02900365,4148.61824355,4153.07523714,4137.04384266,4143.08583452,4129.73930825,4129.7079226,4141.98623345,787.334863634
do_nothing,4132.45608254,4138.33023088,4139.13401945,4135.3718235,4143.6930033,4145.9206678,4148.93935228,4153.41964908,4137.03406741,4142.75126809,4129.69492487,4129.60057087,4141.94216998,779.220251704
do_nothing,4132.27192945,4138.16027106,4139.001705,4135.235621,4143.78440488,4145.7579061,4149.12994386,4153.60839331,4137.02264331,4142.3621635,4129.64681228,4129.55202406,4141.93245067,766.70334385
do_nothing,4132.21143609,4137.98204781,4138.92726105,4135.09656412,4143.85784162,4145.53499799,4149.17675047,4153.6300967,4137.00995494,4141.91431997,4129.59212381,4129.55345526,4141.94343919,750.424417131
do_nothing,4132.2623266,4137.7875598,4138.90209586,4134.95588759,4143.90576706,4145.24755025,4149.0698518,4153.47715594,4136.99642367,4141.40444171,4129.52793019,4129.5939039,4141.96066718,731.117091313
do_nothing,4132.40913805,4137.56864549,4138.9158275,4134.81477377,4143.92056162,4144.8925693,4148.8028036,4153.14581976,4136.98249304,4140.83020423,4129.45130562,4129.66062211,4141.96925887,709.582936516
do_nothing,4132.63370171,4137.31722136,4138.95660266,4134.67433944,4143.89468682,4144.46850375,4148.37267249,4152.63616093,4136.96861362,4140.1902858,4129.35941358,4129.7394654,4141.95435602,686.664080963
do_nothing,4132.9157056,4137.0255247,4139.01146931,4134.53562679,4143.82086293,4143.97525708,4147.77998105,4151.95194335,4136.95522769,4139.48436484,4129.24959034,4129.8153167,4141.90153231,663.214821981
do_nothing,4133.23332152,4136.68635538,4139.06679161,4134.39959887,4143.69226486,4143.41417097,4147.02856915,4151.10039318,4136.94275451,4138.71308597,4129.11942402,4129.87253248,4141.79718797,640.073267607
do_nothing,4133.56387796,4136.29331087,4139.10869375,4134.26713935,4143.50272955,4142.78798009,4146.12538007,4150.09188566,4136.93157638,4137.87799898,4128.96682744,4129.89539987,4141.62891614,618.034022223
do_nothing,4133.88455835,4135.8410087,4139.12351829,4134.13905636,4143.24696748,4142.10073976,4145.08018145,4148.93956136,4136.92202627,4136.98147647,4128.79010317,4129.86859367,4141.38583408,597.822876964
do_nothing,4134.17310368,4135.32529061,4139.09828378,4134.01608984,4142.92076958,4141.35772854,4143.90523269,4147.65888721,4136.91437722,4136.02661665,4128.58799944,4129.77762263,4141.05887311,580.074377454
do_nothing,4134.40849743,4134.74340266,4139.02112625,4133.89892173,4142.52120093,4140.56532782,4142.61491123,4146.26717844,4136.90883407,4135.01713854,4128.35975588,4129.60925449,4140.64102249,565.313024073
do_nothing,4134.57161136,4134.09414553,4138.88170936,4133.78818832,4142.04677219,4139.73088097,4141.22531006,4144.78309739,4136.90552746,4133.95727655,4128.10513804,4129.35191,4140.1275232,553.938718477
do_nothing,4134.64579191,4133.37798985,4138.67158911,4133.68449375,4141.49758048,4138.86253459,4139.75381809,4143.22614475,4136.90451074,4132.85168085,4127.82446021,4128.99601664,4139.5160084,546.216906855
do_nothing,4134.61736865,4132.59715197,4138.38452069,4133.58842364,4140.87541221,4137.96906507,4138.21869474,4141.61615823,4136.90575938,4131.70532943,4127.51859603,4128.53431362,4138.80658858,542.273689801
do_nothing,4134.47606933,4131.7556269,4138.01669693,4133.50055781,4140.18380234,4137.05969427,4136.63864957,4139.9728328,4136.90917322,4130.5234565,4127.18897717,4127.96210133,4138.0018803,542.095977452
do_nothing,4134.21532932,4130.85917635,4137.56691096,4133.42148101,4139.42804586,4136.14389897,4135.03243811,4138.31527626,4136.91458131,4129.31150131,4126.83758045,4127.27742999,4137.10697923,545.536574903
do_nothing,4133.83248677,4129.91527164,4137.03663808,4133.35179077,4138.61515976,4135.23121907,4133.4184845,4136.66161316,4136.92174913,4128.07508044,4126.46690435,4126.48122436,4136.1293792,552.323895619
do_nothing,4133.32885918,4128.93299231,4136.4300349,4133.2921015,4137.75379481,4134.33106983,4131.81454097,4135.02864862,4136.93038785,4126.81998488,4126.07993575,4125.57734236,4135.07884016,562.075830099
do_nothing,4132.70970014,4127.92288203,4135.75385647,4133.24304424,4136.85409838,4133.45256329,4130.23739211,4133.43160112,4136.94016543,4125.55220096,4125.68010768,4124.5725669,4133.96720782,574.317153671
do_nothing,4131.98403852,4126.89676428,4135.01729413,4133.20526158,4135.92753029,4132.60434288,4128.70260922,4131.88390956,4136.95071897,4124.27795154,4125.27124858,4123.47653019,4132.80818814,588.499745791
do_nothing,4131.16440544,4125.86752044,4134.23173924,4133.17939737,4134.98663483,4131.7944348,4127.22435625,4130.39711538,4136.96166792,4123.00375134,4124.85752329,4122.30157017,4131.61707886,604.024812086
do_nothing,4130.26645702,4124.84883402,4133.41047956,4133.16608127,4134.04477318,4131.03011821,4125.81524595,4128.98081689,4136.97262766,4121.73646806,4124.44336587,4121.06251958,4130.41046125,620.266247613
do_nothing,4129.30850395,4123.85490534,4132.56833699,4133.16590814,4133.1158215,4130.31781613,4124.4862425,4127.64268938,4136.983223,4120.48338003,4124.03340445,4119.77642935,4129.2058555,636.594257867
do_nothing,4128.31096094,4122.90014216,4131.7212567,4133.17941313,4132.21384146,4129.66300773,4123.24660604,4126.38856258,4136.99310101,4119.25222083,4123.63237853,4118.46222913,4128.02134453,652.398366922
do_nothing,4127.29573169,4121.99883264,4130.88585865,4133.20704301,4131.35273064,4129.07016304,4122.10387438,4125.22254597,4137.00194286,4118.05120145,4123.24504948,4117.14032989,4126.87517236,667.108988665
do_nothing,4126.28554678,4121.16480801,4130.07896393,4133.24912527,4130.54586188,4128.54270071,4121.06387787,4124.14719167,4137.00947415,4116.8890018,4122.8761056,4115.83217531,4125.78532428,680.216812808
do_nothing,4125.30327374,4120.4111032,4129.31710851,4133.30583615,4129.80572163,4128.08296937,4120.13078349,4123.16368475,4137.01547346,4115.77472484,4122.53006328,4114.55975033,4124.76909784,691.289356808
do_nothing,4124.3712199,4119.74962433,4128.61605826,4133.37716935,4129.143558,4127.69225288,4119.30716396,4122.27205053,4137.01977888,4114.71780894,4122.21116625,4113.34505771,4123.84267479,699.984152706
do_nothing,4123.51044967,4119.19083212,4127.9903389,4133.46290719,4128.56905008,4127.37079885,4118.59408752,4121.47136898,4137.02229218,4113.72789647,4121.92328546,4112.20957454,4123.02070545,706.058166143
do_nothing,4122.74013807,4118.74345037,4127.45279489,4133.56259594,4128.09001003,4127.11786904,4117.99122295,4120.75998652,4137.02298067,4112.81465928,4121.66982185,4111.17370231,4122.31591746,709.373177065
do_nothing,4122.07698155,4118.41420825,4127.01419051,4133.67552701,4127.71212927,4126.9318103,4117.49695494,4120.13571587,4137.0218767,4111.98758416,4121.453615,4110.25622464,4121.73876109,709.896986651
do_nothing,4121.5346861,4118.20762464,4126.68286584,4133.80072543,4127.43877953,4126.81014394,4117.10850437,4119.59601592,4137.01907475,4111.2557241,4121.27686046,4109.47378766,4121.29710306,707.70045524
do_nothing,4121.12355019,4118.125842,4126.464459,4133.93694671,4127.27087803,4126.74967219,4116.82204915,4119.13814446,4137.01472645,4110.62742328,4121.1410388,4108.8404181,4120.99598003,702.950521329
do_nothing,4120.85015759,4118.16851656,4126.36170463,4134.08268305,4127.20682476,4126.74659942,4116.63284224,4118.75927871,4137.00903361,4110.11002626,4121.04685944,4108.3670944,4120.83742198,695.899497886
do_nothing,4120.71719152,4118.33277032,4126.3743163,4134.23617911,4127.24251702,4126.79666612,4116.53532482,4118.45660054,4137.00223966,4109.70958377,4120.99422223,4108.06138602,4120.82035384,686.871082647
do_nothing,4120.72337759,4118.61320902,4126.49895865,4134.39545756,4127.37144411,4126.89529274,4116.52323414,4118.22734622,4136.99461973,4109.43056856,4120.98219932,4107.92717491,4120.9405818,676.243647023
do_nothing,4120.86355857,4119.00200804,4126.72931195,4134.55835389,4127.58486164,4127.03772971,4116.58970645,4118.06882219,4136.98646991,4109.27561552,4121.00903931,4107.9644715,4121.19086757,664.431477413
do_nothing,4121.12889943,4119.48906647,4127.05622917,4134.72255943,4127.87204183,4127.21920922,4116.7273762,4117.97839066,4136.97809601,4109.24529945,4121.0721947,4108.16933521,4121.56109084,651.864727686
do_nothing,4121.50721593,4120.06222682,4127.46798233,4134.88567153,4128.22059266,4127.43509347,4116.92847272,4117.95343018,4136.96980222,4109.3379631,4121.16837299,4108.53390581,4122.0384968,638.968897994
do_nothing,4121.98341583,4120.70755562,4127.95059192,4135.04524885,4128.61683571,4127.68101339,4117.18491562,4117.99127679,4136.96188016,4109.54960593,4121.29361035,4109.04654876,4122.60802187,626.144679739
do_nothing,4122.54003666,4121.40967758,4128.4882299,4135.19887031,4129.04622966,4127.95299159,4117.48840956,4118.08915221,4136.95459868,4109.87384162,4121.44336624,4109.69211308,4123.25268797,613.748997635
do_nothing,4123.15786045,4122.15215374,4129.06368416,4135.34419538,4129.49382428,4128.24754295,4117.83053824,4118.24408503,4136.94819479,4110.30192965,4121.61263641,4110.45229637,4123.95405298,602.078037267
do_nothing,4123.81658325,4122.91789262,4129.65886987,4135.47902405,4129.94472803,4128.56174721,4118.20285746,4118.45283117,4136.94286596,4110.82288298,4121.7960808,4111.30610793,4124.69270352,591.35297139
do_nothing,4124.49551524,4123.6895822,4130.25537147,4135.60135421,4130.38457208,4128.89328867,4118.59698691,4118.71179932,4136.93876421,4111.42365172,4121.98816277,4112.23041768,4125.44877521,581.708993267
do_nothing,4125.17428699,4124.4501305,4130.83499831,4135.70943477,4130.79995317,4129.24046045,4119.00470083,4119.01698728,4136.93599205,4112.08937943,4122.18329573,4113.2005759,4126.20248589,573.188134534
do_nothing,4125.83353743,4125.18310185,4131.38033596,4135.80181257,4131.17883951,4129.60213264,4119.41801827,4119.36393434,4136.93460069,4112.80372681,4122.37599291,4114.19108656,4126.93466683,565.736193568
do_nothing,4126.45555981,4125.8731366,4131.87527555,4135.87737165,4131.51092506,4129.97768643,4119.82929356,4119.74769429,4136.93459038,4113.54925435,4122.56101619,4115.17631465,4127.62727738,559.203934268
do_nothing,4127.02488357,4126.50634163,4132.30550368,4135.93536339,4131.78792015,4130.36691815,4120.23130749,4120.16283263,4136.93591314,4114.30785349,4122.73351983,4116.13120663,4128.26388867,553.352541188
do_nothing,4127.52877214,4127.0706402,4132.6589368,4135.97542629,4132.003769,4130.76991857,4120.6173594,4120.60345027,4136.93847751,4115.06121322,4122.88918488,4117.0320016,4128.83012221,547.863142318
do_nothing,4127.95761935,4127.55607027,4132.9260853,4135.99759451,4132.15478769,4131.18693402,4120.98135992,4121.0632349,4136.94215532,4115.79130751,4123.02434035,4117.85691066,4129.31403031,542.350042666
do_nothing,4128.30523072,4127.95502193,4133.10033502,4136.00229466,4132.23971898,4131.61821658,4121.31792305,4121.53553929,4136.94678987,4116.4808876,4123.13606726,4118.58674178,4129.706406,536.377157011
do_nothing,4128.56897927,4128.2624061,4133.17813629,4135.99033056,4132.25970373,4132.06387066,4121.62245488,4122.01348474,4136.95220506,4117.11396217,4123.22228196,4119.20544839,4130.0010121,529.476995413
do_nothing,4128.74983042,4128.47574868,4133.15909414,4135.96285643,4132.21817106,4132.52370385,4121.89123561,4122.49008605,4136.95821502,4117.67624861,4123.28179578,4119.7005821,4130.19472075,521.171445624
do_nothing,4128.85223529,4128.59520665,4133.04595638,4135.92133903,4132.12065203,4132.99708871,4122.12149026,4122.95839352,4136.96463352,4118.15557888,4123.31434838,4120.06363248,4130.28755754,510.993517306
do_nothing,4128.8838964,4128.62350511,4132.84449981,4135.86751007,4131.97452358,4133.48284199,4122.31144361,4123.4116465,4136.97128284,4118.54224531,4123.32061314,4120.29024109,4130.2826475,498.509166989
do_nothing,4128.85541495,4128.56579696,4132.56331826,4135.80331017,4131.78869157,4133.97912588,4122.4603549,4123.84343225,4136.97800143,4118.82927335,4123.30217377,4120.38028172,4130.18606368,483.33831225
do_nothing,4128.77983221,4128.42944925,4132.21351896,4135.7308265,4131.57322337,4134.48337532,4122.56852808,4124.24784371,4136.98465017,4119.01261141,4123.26147208,4120.33780354,4130.0065828,465.174168906
do_nothing,4128.67208201,4128.2237633,4131.80833722,4135.65222601,4131.33894235,4134.99225326,4122.63729463,4124.61962936,4136.99111676,4119.09123057,4123.20172811,4120.17083922,4129.75535583,443.800105388
do_nothing,4128.54837374,4127.95963752,4131.36268174,4135.56968701,4131.09699798,4135.50163517,4122.6689667,4124.95432869,4136.99731805,4119.06713043,4123.12683459,4119.89108518,4129.44550486,419.103301353
do_nothing,4128.42552864,4127.6491849,4130.8926257,4135.48533147,4130.85842628,4136.00662196,4122.66675937,4125.24838693,4137.00320009,4118.94525087,4123.04122898,4119.51346558,4129.09166039,391.084619401
