label,COUNTER,INTERPOLATED,AF3,F7,F3,FC5,T7,P7,O1,O2,P8,T8,FC6,F4,F8,AF4,RAW_CQ,GYROX,GYROY,MARKER,SYNC,TIME_STAMP_s,TIME_STAMP_ms,CQ_AF3,CQ_F7,CQ_F3,CQ_FC5,CQ_T7,CQ_P7,CQ_O1,CQ_O2,CQ_P8,CQ_T8,CQ_FC6,CQ_F4,CQ_F8,CQ_AF4,CQ_CMS,CQ_DRL
off_to_on,-1.37720876704,-0.140719055117,-0.708337539208,0.392982226299,-1.18185185504,-2.83985184587,-3.24583939298,-1.93838445314,-0.0753893835392,0.565749722931,-0.894387069986,-0.198284698165,-0.566105911575,-150.873875185
off_to_on,2.40854460159,1.99944496212,2.03391096969,-0.414010620333,-0.18853508034,1.69018858395,5.35467677839,4.08419358551,0.127982538519,3.19605828669,0.377706393261,2.4719318718,2.62761672111,133.626859659
off_to_on,-0.0408862130436,-0.760874365889,0.155376705471,-0.659355355253,0.453348603637,1.98524061367,1.96793326816,0.628690698652,-0.207006523079,-1.60535129639,0.464772224852,-1.07275337882,-0.605860426983,164.210510916
off_to_on,-1.67860478311,-1.22820560668,-1.91657484901,0.888397986664,0.436921628905,-2.60547430183,-5.53528466983,-3.97975510989,0.244663089053,-2.20301560263,0.123735635837,-1.29645302383,-1.97228213264,-133.690502211
off_to_on,0.477114801012,0.487889964792,-0.142666876046,0.165058696158,-0.445112712453,-1.47774533305,-1.43432455747,-0.100368054665,-0.257722392974,1.26728465381,-0.871416318612,0.79359818844,0.583413245415,-167.47503678
off_to_on,1.42318631011,1.4119913223,2.48240327204,-0.420625323359,0.082139461481,4.00125395615,5.79318194551,3.80792966896,0.313862079989,2.04020148059,0.342703591233,1.01122397836,1.99315420988,135.766058869
off_to_on,-1.40746527309,-1.20532631913,-1.12338279028,-0.732384339622,-0.467765188271,-0.239478857599,0.251707598334,-0.696477447033,-0.389896582264,-1.46815134004,0.199551633487,-0.915042894745,-1.17462358131,156.892210862
off_to_on,-0.0622563122008,-0.210211671142,-1.24533363684,1.23582059733,0.425291987389,-3.67574893061,-4.45909946659,-2.25486696534,0.418706818519,-1.00665182856,0.446361818607,-0.117378786297,-0.964952381435,-115.167488677
off_to_on,0.71836845127,0.189230142991,0.517044207185,-0.276538748673,0.239086832242,0.406227796789,-0.714394893686,-0.494639408232,-0.428866878014,0.33908305406,-1.01885904323,-0.0798153651579,0.415640499205,-177.440314321
off_to_on,0.205364596091,0.753250389498,1.64329617974,-0.269052355674,0.398698367959,4.54593061511,4.1429975753,2.41785497754,0.485237001736,1.45258300505,0.503382445771,0.681574735253,1.24791799382,135.789303887
off_to_on,-1.21417929974,-0.792559261369,-1.54048112009,-0.553867939554,-1.71037379184,-1.91966102741,0.34678611195,0.385114020942,-0.554270455274,-0.752796251224,-0.118418794018,-0.663416696032,-1.09430485977,147.923191742
off_to_on,1.1441120471,0.418889310469,-0.0623509278447,1.13868303107,0.957824950917,-3.57916310022,-2.39244169649,-1.17369293022,0.574538450623,-0.021116141011,0.668897549153,0.901070385457,0.495921795204,-100.133730565
off_to_on,-0.685000639561,-0.656010719967,0.28874156317,-0.503107606508,0.720316237311,1.37137643708,-2.26449917405,-2.31990389484,-0.583392124672,-1.20343332196,-0.975456589218,-1.06684669606,-0.846185974378,-181.181628468
off_to_on,0.490078501456,0.76323146158,0.734656358255,0.0344124872455,0.0773197086425,4.71126268567,3.50470542012,2.73426766152,0.637010739616,1.23410027919,0.454321816379,0.0232239596059,0.43184799022,134.970711558
off_to_on,-0.227481135551,-0.41394662361,-1.20665166295,-0.730785180975,-2.01929570144,-3.26208500888,1.19344679738,1.10406378748,-0.694770537192,0.557810605534,-0.283885471447,0.29770024805,0.424261989744,136.723767951
off_to_on,0.313744887079,0.781573900322,0.945504882317,1.38414637123,1.36724737792,-2.96647080579,-1.89041512089,-1.47816474587,0.706728758119,0.0500800054283,0.880144353127,1.82543766305,0.969930696378,-82.4046684485
off_to_on,-1.30583017985,-1.53292412827,-0.559853061536,-0.922925713234,0.55996230299,2.37836923841,-2.48919110819,-2.08942965401,-0.715618183121,-2.46401588368,-1.073067968,-2.63668338596,-2.75227621282,-197.83206553
off_to_on,1.60325805263,0.767450621213,0.191916992711,0.284419258031,-0.0790920112262,3.49710330765,2.46793323924,2.20389012818,0.763849863103,1.33376506231,0.561793652668,-0.677546557149,0.706796069199,158.411976386
off_to_on,-0.0834927958123,0.672582819596,-0.414911616049,-0.529946769183,-1.59814502327,-3.70154519908,1.50323319145,0.736992486652,-0.807162691962,1.73710407795,-0.486127359896,2.52614984132,2.2432886752,119.339698916
off_to_on,-0.529367586729,0.218101541997,1.47910817306,1.0448062343,1.30303020702,-1.19301099134,-0.290269812386,0.0322475875061,0.811041082178,-0.154202559375,1.07431388226,1.69989405745,0.00407663033072,-110.292592167
off_to_on,-1.56113296225,-2.58672284006,-1.80764381546,-0.971924067029,-0.29918111115,1.42907815735,-4.19892187481,-2.9638858421,-0.82013795168,-3.86810170321,-1.19753052043,-5.15680259793,-4.27648888656,-128.214759333
off_to_on,2.60485668501,2.23543734941,0.472924878783,0.716638297999,0.922836209425,2.84623562392,2.53827229635,1.65499033636,0.860584337273,2.47699827446,0.566155393694,1.02609277121,2.66660519052,114.299475008
off_to_on,-0.128684457793,0.649616811566,0.32135856717,-0.81892294038,-1.47193581295,-2.98779063903,2.93459978946,1.55572802243,-0.88802598416,2.18582236518,-0.255039481559,3.7134798379,2.35384786631,98.8862332469
off_to_on,-1.26385702915,-1.1046022761,1.05593017082,0.929733723201,0.345217529661,-1.1321385496,-2.28821961947,-0.455701998876,0.884415078938,-1.41498740308,0.832697066564,-0.416254195525,-1.78597237352,-71.8725730025
off_to_on,-1.48305767308,-1.8100968159,-2.1390068469,-0.863571786402,0.0848133861917,1.59062228729,-3.51238272639,-2.760808296,-0.892695111631,-3.39609685092,-1.52846827377,-4.8535156762,-3.23582525152,-134.688410035
off_to_on,3.1449130486,3.16103893533,0.787177936365,1.04797651271,1.40626215415,2.51397722436,5.11060299323,2.58149327857,0.923059303803,3.54163416098,1.39339401872,2.71133629628,3.73902275437,116.819633934
off_to_on,-0.257167381892,-0.881206793146,0.456846246063,-1.28895031869,-1.90838137628,-3.90534143466,-0.62768014914,-0.20616553092,-0.934741877073,0.675909947205,-0.486615103672,2.18427762187,0.55519328814,57.2783202339
off_to_on,-1.58834834898,-1.01245874702,0.863511294532,0.886512443711,0.325098454216,0.0866664321848,-3.37492408216,-0.670781982918,0.924649987257,-1.59227893704,-0.0502608915049,-1.0031973725,-1.80321360784,-24.0654412868
off_to_on,-1.31081851301,-0.146162422422,-2.24992327765,-0.315662104275,0.179624554302,2.82975362414,1.98816806236,0.0271577661695,-0.930413854693,-1.50741380805,-0.79513703384,-2.93118690352,-1.32995922693,-130.664876872
off_to_on,3.3761003253,1.88895619165,1.11988214678,0.707044561992,1.47254075784,-0.0767304773291,3.51476924216,1.54361232281,0.948753545745,2.99091468299,2.19643558943,2.4805969019,3.01875346756,81.0532072257
off_to_on,-0.966905352948,-1.87500321412,0.176132862115,-1.54282233475,-2.17848210288,-4.52810960948,-6.66674044066,-3.44736056261,-0.945869853204,-1.59146636112,-2.02355552308,-0.0829866901155,-1.50483969739,68.0825643142
off_to_on,-0.783120319852,0.976746388521,0.834358125528,1.28732852648,0.829857750548,4.01909183171,1.91058300077,2.3934304538,0.930440711531,0.181232287814,0.132473810266,0.364074857743,-0.00562462757422,-38.8530995348
off_to_on,-1.11664047862,-0.345816742255,-1.96737382325,-0.29330295516,-0.0458065694721,1.32923928593,5.36755700626,1.78442234788,-0.931798532994,0.219024049026,0.714186984309,-1.07495519214,0.177199790869,-30.9802205134
off_to_on,2.04674097381,0.213063429706,1.0680300602,0.353220363622,0.771811020354,-3.47987598346,-3.25211509916,-2.31571021779,0.936891361656,0.427493686142,0.932976701482,0.405884591164,0.52508483235,-74.6226433329
off_to_on,-0.163455590084,-0.988483371407,-0.178546795928,-1.4103260809,-1.16777435736,-1.26600756891,-6.18325449548,-2.78124277085,-0.921340273886,-2.07237179562,-2.46389469883,-1.02534848374,-1.96693014853,138.362856673
off_to_on,-0.14925045046,1.91681222662,0.949403891056,1.64946412871,0.799261082903,5.36845582856,6.77016142988,4.63286851789,0.901567024939,2.1467057967,1.39587984919,2.05705248528,2.19219851671,32.4118533123
off_to_on,-1.78185335421,-1.10096314318,-1.39839764695,-0.815621750142,-0.754317132953,-1.91537711834,3.37026666455,0.503231109553,-0.896791163173,0.561015217978,0.36024397546,-0.1508933162,0.315197101444,-131.9171102
off_to_on,1.66696909897,-0.520185028555,0.522862980718,0.440255164019,0.803195164465,-3.09545192946,-6.11390264204,-2.90427347431,0.888369965218,-1.38593087531,0.0966895334585,-1.31510894306,-1.62385163684,-53.8982277406
off_to_on,0.218198165926,-0.235623125924,-0.403418244631,-0.839826623128,-0.537695457772,0.94150285082,-3.74688379834,-2.10084286187,-0.862450400497,-2.21608294971,-1.64752156774,-1.84816512217,-1.70318001143,161.300615997
off_to_on,0.17524053429,2.40314817629,1.38971040593,0.877845707974,0.896669561695,4.08244059691,7.8814248634,4.47612893847,0.839009380964,3.92030692493,1.54263320726,4.03072604089,4.33416959675,59.0535309314
off_to_on,-1.78457620032,-1.70801399522,-1.19149344031,-0.564220407239,-1.644598442,-2.74492758422,1.06062816624,0.531557345127,-0.82677869998,0.154609597534,-0.349785227146,-0.0576452552965,-0.79041539278,-216.625147513
off_to_on,1.11006983396,-0.939604163404,0.0394031922999,0.920883971251,1.01974595204,-1.90683688199,-5.71999015041,-2.58101557974,0.805583740454,-2.59093541264,0.354395763146,-2.75390453702,-2.99737001619,24.4694344585
off_to_on,-0.0269772800738,0.34771791925,-0.447167108567,-1.47833916091,0.313484566683,0.946450248108,-2.0321180434,-2.66538201562,-0.771750825031,-1.58085493258,-1.1883893829,-1.61273410123,-0.191606182162,139.164743589
off_to_on,1.15930767352,2.67994478417,1.6391259367,0.896901486437,0.211060618255,3.19425445932,6.49330814631,4.36907687461,0.744990723784,4.31074625738,1.03339760309,4.58488383245,4.52226791662,25.8138513259
off_to_on,-1.51560076478,-2.16956159979,-0.872338752568,0.143278673261,-1.80211181331,-2.18211133413,-0.00514399854826,1.38898676633,-0.724555820392,0.0742925431016,-0.274997455722,0.41856476207,-1.64634984629,-174.130484285
off_to_on,-0.608089164008,-1.30561979935,-0.530979683036,0.250261462626,1.33634928284,-1.73638577447,-3.82781518867,-3.34373430957,0.692216238495,-3.12938000238,0.41978744955,-3.7857940163,-3.06332159708,24.8454967678
off_to_on,0.755173163783,1.21250815375,-0.478465512096,-1.59700846067,0.454123528781,0.833137905821,-1.02319681153,-2.22866312956,-0.652879882692,-1.25400411331,-1.07000624308,-1.60055020897,0.744056416448,106.573768789
off_to_on,2.20043819846,2.24598957676,2.08499601684,1.49105904248,-0.236743265005,2.68662204612,3.27122137432,4.22229151565,0.622933536775,4.44487609913,0.929686282086,5.4285811741,3.88408407549,25.626468583
off_to_on,-2.36079191349,-2.37720777969,-0.813757995609,0.158838163645,-1.38393376256,-1.70541963481,0.320067569481,0.697654314041,-0.59422685397,-0.115936766632,-0.313625355317,0.0290555051476,-2.06111126809,-130.991379907
off_to_on,-1.15610292286,-0.908316915775,-1.18765700167,-0.697785197964,1.30541628817,-1.49456870241,-0.398583016198,-2.11765403047,0.553038256444,-3.1032797303,0.332250721095,-4.33627394333,-2.12410466014,6.20861091473
off_to_on,1.36468117786,1.09618721988,-0.0596093443356,-0.741366444367,-0.143408339185,0.235752598226,-2.80119035644,-2.31045398807,-0.510404718363,-1.12028806652,-0.844096422398,-0.744670223605,0.567282980473,80.5447282893
off_to_on,2.37354723169,1.95132476584,2.32211637956,1.66914653982,0.334902429577,3.06280463066,0.88077743114,2.72293777523,0.477355629658,4.2073043955,0.892556765951,5.2464359845,2.95171686535,28.2890320734
off_to_on,-2.25239632207,-1.98761421739,-1.1384058338,-0.57037286675,-0.791864894967,-1.62481810003,2.97289696129,2.04841678937,-0.441036665335,0.160997784815,-0.279617483471,-0.670760820987,-1.17023567011,-85.0385628077
off_to_on,-1.97714108749,-1.01942922446,-1.4379148312,-0.504375293697,-0.179215223579,-2.41800909789,-0.596799349964,-2.22109331148,0.393700406266,-3.53800441663,-0.247470809344,-4.01359080622,-2.09894934881,-21.6826001836
off_to_on,1.69781749646,1.05149872133,0.592033044233,-0.274813662607,0.526993221853,1.71275275528,-3.45282265566,-2.8033120991,-0.349674299438,-0.542249114185,-0.055574653747,0.445911724181,0.23261298605,63.4063655561
off_to_on,3.01295392394,1.79461675713,2.02510212735,1.24276996529,1.06893389713,2.76806321925,1.64461322674,3.33177150674,0.313725090171,4.07956123721,0.901604306358,3.76817052123,2.85473544558,27.347877426
off_to_on,-2.70229722455,-1.61422722696,-1.44112015075,-0.442756565524,-1.5199257161,-3.17238113351,1.69444139872,1.59396388636,-0.27114737331,-0.369970995783,-0.962953909828,-0.9067690053,-0.830792778179,-40.826544748
off_to_on,-2.56600310385,-1.50560666799,-1.25915837482,-0.697564911342,-0.508659972056,-1.39967303143,-1.00224707959,-3.11259036466,0.220514459379,-3.46197606661,-0.237239149731,-2.79432411812,-2.51403293505,-50.3970060218
off_to_on,2.67877404452,1.61492385934,1.16076733727,0.110008604406,1.17630354433,3.11914157864,-0.426940603311,-0.688168185577,-0.176667504167,0.483754969649,0.976383761448,0.459987744732,0.769504123964,54.5083678819
off_to_on,2.78579924398,1.63404470973,1.35609804109,0.964062717297,0.949543889605,0.863913206462,0.498735153132,2.97431311957,0.138275189907,3.55576409346,0.172482575437,2.98474022539,2.97068938787,22.5930034968
off_to_on,-3.50124494638,-2.31103535013,-1.66911083675,-0.362573271437,-1.5486110943,-3.14270453393,-1.557006912,-1.03728759728,-0.0913755159354,-1.61152203821,-1.44005289675,-1.30638161554,-2.0413025954,-8.30089012236
off_to_on,-1.90064975941,-0.907871144285,-0.698271627358,-0.830127565713,-0.809931061844,-0.659405178182,1.1973400581,-1.38395756176,0.0402221748506,-2.55542027827,0.503106927775,-2.2745377571,-2.05340614682,-64.9887299566
off_to_on,3.65738758945,2.54782055773,1.75760311925,0.366118289598,1.44123312988,3.40049537527,2.67143904485,1.7105561492,0.00217956738284,2.23583019095,1.18998781062,2.11636575035,2.7838882724,45.8236585182
off_to_on,0.705688851267,-0.0055824729551,-0.102989748579,0.828658828284,0.983967806926,0.572684337729,-2.93204791252,-0.323586129334,-0.0422219998257,1.21200336107,-0.77115165635,0.94167510629,0.664156148709,13.3946265407
off_to_on,-2.92096890205,-2.31315219075,-1.37727297519,-0.427141875353,-1.38746687694,-3.97953255007,-3.12712621332,-1.41101845232,0.0910969355171,-2.14087436788,-0.772316569829,-2.37434632284,-2.80900632724,15.6147725408
off_to_on,-0.196594801817,0.622132467101,0.556511115676,-0.870705377771,-1.49857433848,-0.426304736812,4.28063746847,1.1951391512,-0.140246651804,-0.357381533434,0.493300721448,0.3596187264,0.467672296887,-66.2319156462
off_to_on,2.42688642308,2.23624103437,1.12362227267,0.761327725319,2.09497804012,5.29824439075,3.44859958924,1.27824806599,0.180176417378,2.21272462308,0.887867545365,2.45377046372,2.77831218271,34.8084341307
off_to_on,-0.512526588075,-1.69211028686,-1.26449384258,0.298260291595,1.18051858298,-1.20590812469,-5.80072064785,-1.97188589047,-0.220720560252,-0.720465876777,-0.612292413466,-1.95713822199,-1.90733866091,2.89843156684
off_to_on,-1.37072340477,-1.1879268452,-0.142666909634,-0.160709239774,-2.4201983376,-5.48990047669,-2.86893356515,-0.899998708922,0.269024139339,-1.73247869221,-0.52598744158,-1.55612671196,-1.81517800949,31.6117994224
off_to_on,0.328502128703,1.57841599439,0.847395120049,-0.895305058282,-0.811547185195,3.16481200652,6.60815868563,2.12956601532,-0.31402105104,1.04197283199,-0.112053482692,2.47598972931,2.26944305663,-58.0764524352
off_to_on,1.22584131168,1.11402691478,0.325021779242,0.921975001111,3.02714751914,4.57966777355,2.15339378599,1.31093599678,0.350609878611,2.05799415291,1.46307077719,1.25891674075,1.57876912787,22.8562146737
off_to_on,-0.932853473488,-2.25172467295,-1.48294651021,-0.0145650012815,-0.856722400167,-5.36840785401,-7.53294010832,-3.40873210731,-0.390193983477,-2.39039915036,-0.712548016858,-3.44499881537,-3.2470291025,-6.70213601935
off_to_on,-0.155976645824,-0.0737672617258,0.686168013337,-0.150412470166,-1.55450655192,-1.13688971899,0.346522918641,-0.0330193256835,0.435397091628,-0.910537816731,-0.95427844475,0.225332095823,-0.187464674837,39.6372234894
off_to_on,0.0783215545804,1.59295705872,0.470836551797,-0.552749736874,0.501740508945,4.34474504941,5.46458284024,2.68968216002,-0.474533595278,1.89998273301,0.302250541064,2.20693980841,2.366283582,-44.0515804188
off_to_on,1.17218799634,0.648770937002,0.424206411002,0.894696959314,1.66092435889,-0.491663887903,-0.361721975084,0.626721037548,0.506995587037,1.82154155519,1.83439013442,0.932586349091,0.928831856364,11.7016705277
off_to_on,-1.63446790134,-2.82460361184,-1.82764504917,-0.634712469255,-1.71845670849,-3.784235371,-4.76496295606,-3.78343699637,-0.543939633579,-3.77773326207,-1.90265878877,-3.43295381579,-3.57407356703,-14.1361252351
off_to_on,0.143075458953,1.01456146926,0.832733873808,0.453979214977,0.367555978452,3.2271597022,1.70596698464,0.899542921905,0.583729473664,-0.0776628948234,-0.140504616414,0.0621885926071,0.434876999978,40.4374316491
off_to_on,1.15747508014,1.66426935163,0.981686159559,-0.52162903543,0.305378457033,0.201620813167,1.70995011433,2.54771228239,-0.615755406457,3.20574385726,0.981854677033,2.76286390395,2.65936900055,-27.3902264178
off_to_on,0.344817221153,-0.512477945026,-0.0407214704561,0.649151190568,0.105970938347,-2.03927991887,0.0425830107672,-0.399494777286,0.643335883445,0.174886051993,0.480631561871,0.679375861956,0.17453933536,0.841129604292
off_to_on,-2.59672787889,-2.43060234457,-2.29018036552,-0.859100574905,-0.853032746606,0.509947081114,-1.3996851835,-2.9290511413,-0.675874614953,-4.30242853214,-1.95367132316,-4.02324596588,-3.70922834417,-11.2274314419
off_to_on,1.58197452117,2.15625469742,1.80410925962,0.954933511602,1.15733163879,2.19106903165,0.138768009363,1.65481684538,0.708315385146,2.07323627794,1.66654866062,1.09214039323,1.64849263624,20.1508165524
off_to_on,1.1128687518,0.541744595353,0.694773682015,-0.645561246664,-0.83344539742,-2.51265160619,-0.725268387093,0.884903738679,-0.732413650249,2.27566021161,-0.339033925046,2.32060478137,1.72313661538,2.62869112373
off_to_on,-0.483163722096,-0.936524863592,-0.682469900496,0.352070480837,0.643208345978,0.411471008928,2.39790453169,0.151327339838,0.754369204167,-1.17595490102,-0.40035970265,0.0361626210695,-0.272272464235,3.24624654621
off_to_on,-2.49725770643,-1.29791605196,-1.78268222988,-0.639642806586,-1.00555461947,0.541457410185,-0.876476530598,-2.12727710451,-0.780804132966,-2.95358926974,-0.287375901933,-3.32530585145,-2.74840942044,-55.9296891673
off_to_on,2.309181089,2.23103090409,2.27627777441,1.07740358253,0.947109406538,0.730799433507,-1.13074629266,1.22615117985,0.804448024603,2.98847375541,1.68386496483,1.74970485767,1.89583937894,69.9872353769
off_to_on,0.699535769851,-0.788028320895,-0.167942777926,-1.00384173978,-0.168210589177,-1.26592107448,-0.563650749567,0.363636956752,-0.820183950115,0.393161528023,-1.88806724613,1.00479362187,0.560462206482,-18.809914986
off_to_on,-0.925483152697,-0.180623534673,-0.500728850691,0.778263930033,0.288559716964,0.282504138402,2.26818127946,0.297035796841,0.835796290266,-1.3092668563,0.329413790635,-0.193299691553,-0.280246315923,-10.9771830091
off_to_on,-1.91952313722,-0.666447459557,-1.43661361559,-0.911763201215,-1.62971664637,-0.622401553472,-0.450929351306,-1.50392555382,-0.854646670216,-0.950302857651,0.635199669439,-1.58559275945,-1.37590344987,-11.0063618306
off_to_on,2.58589672173,1.5009712425,2.3843486436,0.981504345469,1.74646479356,2.25835670043,-0.478405813521,1.19884685847,0.868591505376,2.36664295451,0.884490329902,1.20035247685,1.53380670256,11.7653849905
off_to_on,-0.156201154279,-1.02145783991,-0.641905195345,-0.701708307216,0.0274829203607,-1.64828863738,-1.92540332097,-0.549463415679,-0.875850629787,-1.44636461077,-2.57176569632,-0.59194695931,-0.810239313762,30.521479814
off_to_on,-0.892619318564,0.266791835749,-0.698993658058,0.704383717277,-0.547289019326,-0.886363421986,2.35610394359,0.619576905595,0.884487232433,0.0831733776899,1.37067667111,1.09495885679,0.416788836255,-55.5807626387
off_to_on,-0.98191282095,-0.497881568025,-0.713302247544,-1.134582051,-1.49323578216,0.862965964669,0.621198896123,-0.747605533362,-0.894849911516,0.0923851269781,0.798811817721,-0.904844191547,-0.337149632605,45.9852659989
off_to_on,2.49499013363,1.35789442768,2.50709074838,1.14681498103,2.64710503608,2.09169688841,-0.731737477221,1.00719003656,0.899838596603,1.03597792842,0.0357942227219,0.2055644888,1.08595807679,-36.2521364272
off_to_on,-1.53610415092,-1.53073681535,-1.66506136225,-0.648574727733,-0.884524315659,-3.32292772761,-2.79372344196,-1.67726611331,-0.900755040407,-2.16648237704,-2.57817481204,-0.916320927487,-2.15943984365,31.9387270627
off_to_on,-0.190255738808,0.654398217566,-0.450321122095,0.599939812613,-0.614721531318,1.18396764044,2.88834357658,1.38713727462,0.900194882931,1.49431476954,2.22335323499,1.81361893303,1.29292953293,-25.281180556
off_to_on,0.214434575335,-0.118809703015,0.368393835199,-1.07260927255,-0.547146983664,1.01449666358,0.953578133511,0.119329688644,-0.88716082865,0.310801000223,0.526575371861,-0.931208275297,0.661157826243,18.2173472554
off_to_on,1.46959511269,1.02172001854,1.7036356104,1.15495983191,1.78917305828,-0.943672265747,-1.3292865211,-0.302699154371,0.860857054399,-0.30263478494,-0.844406703015,-0.000985386147399,0.0882726595139,14.017987667
off_to_on,-2.17387865042,-1.88098542236,-2.17812149323,-0.875130098825,-0.956134124709,-0.712553980756,-2.22124913603,-1.45091214524,-0.857922178499,-1.4764811249,-1.5680629913,-0.565118068209,-2.41718440252,-66.7458612606
off_to_on,0.264290524901,0.844961662506,0.240008312386,0.946620294955,0.212472772097,2.67189502198,2.58414583087,2.00880759931,0.901574708301,1.61701319479,2.18632490856,0.732587446269,1.46693601991,51.3620907007
off_to_on,1.19065718922,0.465484193687,0.560754387173,-1.01483029876,-1.12945574062,-3.04143050456,0.417146765252,-0.522995836603,-0.928395661766,-0.117437933075,-0.292956919965,-0.271845574616,1.05770089398,40.1907047509
off_to_on,1.22492895209,0.692550961962,1.43997621613,0.516113796412,1.56619798846,0.323659965203,-0.264170981863,0.204890728126,0.859173598209,0.638986992925,-0.1516437672,1.67592214538,0.555182391686,-49.0924116244
off_to_on,-3.96324054123,-2.64217364853,-2.65964935869,-0.320322877152,-0.442481442414,2.43254365296,-2.50291506708,-1.54397485426,-0.760479723068,-2.44197065036,-1.43101828239,-3.17808316517,-3.59095684201,-63.2323562301
off_to_on,1.3835396475,1.53965220577,0.475515849316,1.09686255813,0.0559961162002,-0.370108475658,1.72795398245,1.19733553745,0.78822013594,1.04088528227,1.45652233084,0.466049511506,1.21561875869,80.4293477581
off_to_on,2.96712438333,1.23540059915,1.57789283695,-1.54410468814,-1.25232987943,-4.07831196862,1.218680612,0.496746584776,-0.910551731466,1.88314638557,0.188271145797,3.09858102272,2.84914218849,64.1947079653
off_to_on,-1.09890281292,-0.67960464321,0.322989537855,0.700069846178,1.66438784453,3.41237066462,-0.155037669088,0.40110941634,0.897818558846,-0.180514486476,0.121138673812,-0.298163885058,-0.271921961157,-102.576559353
off_to_on,-4.31207438171,-2.66996509278,-3.13194466139,-0.0342910840521,-0.455863029235,1.71939420187,-2.91564223921,-2.70242269694,-0.708536104154,-4.13594489605,-2.1004615443,-5.30241920814,-4.76237057469,-55.3290970181
off_to_on,3.54176639049,2.92113562067,1.87343528336,0.761516147391,-0.233829616885,-2.61723466425,1.48731370666,1.36950833401,0.611732669806,2.81564786398,1.76874655229,3.45397896236,2.39937013376,94.6740255778
off_to_on,2.23517860849,0.736506515348,1.42617125569,-1.42566781101,-0.481396183386,-1.98643743617,2.09640551712,1.95198737429,-0.733437307435,2.87393151764,0.556107389683,3.64797529685,3.46406552248,90.4831732975
off_to_on,-2.71873572585,-2.15654728708,-1.13088312051,0.665549567059,1.07723040127,3.53300692379,-0.701849054788,-0.835492452396,0.809116071756,-2.89173486328,-0.593081619199,-3.62801811877,-1.87079292235,-141.108059582
off_to_on,-2.4131610357,-1.0085727226,-1.97201578508,0.158082407979,-0.868284576299,0.440424141253,-3.50147122633,-3.33152126462,-0.65149647277,-3.27799690707,-1.59651145506,-3.73904151031,-4.24196497866,-57.6478985056
off_to_on,3.53688563667,3.22785573902,2.32278191355,0.399430124379,0.669953093391,-2.00857264553,2.67993835642,2.96954772861,0.497685122203,4.94638939525,1.78675372651,5.55845036076,3.67013174191,104.577962946
off_to_on,0.439688482554,-1.01572911178,0.184001103372,-1.1565781765,-0.696719415429,-1.80067923286,1.77540470937,1.39013721868,-0.564174179991,0.501281499899,0.130721450165,0.847683634745,1.87517092145,118.431306313
off_to_on,-1.37498926015,-1.35947293633,-0.595698871008,0.66836582981,0.52256582727,3.44004883424,-1.73145777717,-1.73723871179,0.645416163285,-3.21179466376,-0.256275157121,-3.69464906195,-2.0155742272,-171.182790833
off_to_on,-1.46572529928,0.115953428827,-1.30646530938,0.113101101436,-0.205613473891,0.685362139402,-2.34849599155,-2.20561211243,-0.523500756405,-0.747974284639,-1.31784180352,-1.07871733416,-2.34299862672,-62.4645600325
off_to_on,1.42760101736,1.77580057809,1.08877217627,0.181490197856,0.0358477019223,-3.27699417031,2.49501368668,2.51650001591,0.380467552944,3.21482810721,0.925543668868,3.54396129168,2.32249875688,107.901608229
off_to_on,1.01710430443,-0.957503514686,0.945452055094,-0.887551210457,-0.281106898783,-0.623693202184,1.34714669845,1.44178027911,-0.419733937399,-0.232059393932,0.850162268426,0.347012943644,1.21652010525,142.74399363
off_to_on,-0.159344413516,-0.504755989882,-0.290608999419,0.83388967007,1.01932234742,4.62462896049,-1.37995400023,-1.73749202022,0.474345649393,-1.5505144412,-0.177100558147,-2.17688439214,-0.907485259764,-183.921693477
off_to_on,-2.15765130701,-0.0299461459807,-2.22109574377,-0.339928124911,-1.19408330171,-1.84664869037,-2.42720060126,-2.47577213008,-0.363890667822,-0.966672412652,-1.99784657268,-1.3207343345,-1.91097848546,-79.0325317511
off_to_on,0.664363366865,0.972912931605,1.48065103476,0.0931501092862,-0.187699388995,-3.55452859314,1.92468616904,2.93364337249,0.245947304836,1.94577985471,1.37761062929,2.52922155276,1.05538724766,113.148020137
off_to_on,1.77580326081,-0.371351573897,1.72337023975,0.0729712436067,1.23075377523,3.07468830734,2.63706732371,1.7483957509,-0.272924107532,0.698365621136,1.20343959176,0.991495117464,1.4792995151,159.467558123
off_to_on,-0.150488754039,-0.380567979184,-1.67682530093,-0.144963708306,0.495629592184,2.71775779695,-1.86387941711,-2.90467595403,0.293083988007,-1.34940420228,-1.13396179782,-1.94125667072,-0.25886817888,-182.38025082
off_to_on,-2.20641335668,-0.180786442415,-1.59431938829,-0.354021739253,-2.57575311295,-4.99351874933,-4.18126718102,-1.9408242687,-0.185361830162,-1.38839658795,-1.27318316329,-1.61758847382,-2.21977650936,-102.970496922
off_to_on,0.696704147624,0.794935349832,2.39742546421,0.899413656141,0.835191243903,0.157121079566,4.15901534498,4.08760454575,0.0990725641774,1.93199076779,1.62580346961,2.59295884965,0.890153372476,120.67352578
off_to_on,1.40703299559,-0.309324009041,0.372805036741,-0.372206002322,2.41342754879,4.4811814711,3.39696304759,0.516706324036,-0.124000681237,0.895239651209,0.301661669389,0.878128305392,1.75575710941,167.434011418
off_to_on,-0.392893323135,-0.265964716901,-2.01351713767,-0.68637495731,-1.43631478912,-1.89270883308,-5.68248546448,-4.00694201102,0.111771080092,-1.82425976954,-0.930841517125,-2.26001856694,-1.02161136554,-170.712564639
off_to_on,-0.770796382698,0.118216572508,0.540586457365,0.601796767786,-2.10611837893,-3.50455529278,-1.60473834723,0.796959803147,-0.00193928394898,-0.339454196773,-0.0550828471417,-0.3651835692,-1.12497679648,-127.948167283
off_to_on,-0.177441186852,0.0256999637803,1.16607412244,0.484247181827,1.54518789803,2.89024649846,6.07184787412,3.12893976359,-0.0580101885105,1.17678937306,0.161584058588,1.55580599226,0.79068031526,127.616618678
off_to_on,0.356826608479,0.187977538745,-1.04795969996,-0.735482481887,2.17998647809,2.49169891083,-0.599785575264,-1.52127220897,0.0331234011388,0.258158255333,0.332385778143,0.24856816103,0.656655122324,168.186893447
off_to_on,0.831252454551,-0.145989733888,-0.101169779166,-0.234442765071,-1.98424820425,-3.62665982437,-4.97153823077,-1.96466833114,-0.0675255627235,-0.636755669886,0.286325740045,-0.823270308043,-0.52493394118,-152.852369568
off_to_on,-0.165099779832,-0.0893522618604,1.10674247046,0.895957679219,-1.79247472751,-0.987951648838,2.24217272486,1.60490972667,0.17406409378,-0.280731051448,-0.70197892186,-0.482811488528,-0.112263481619,-150.239176343
off_to_on,-1.63108034654,-0.15091257508,-1.108778713,-0.514316524908,1.97816169019,3.34973321659,2.63234063275,0.841578052079,-0.21488989319,0.00526432402917,-0.682824478708,0.206407794942,-0.193386615883,132.783093971
off_to_on,0.761589763792,0.547826591826,-0.228036994918,-0.0302488966897,1.66695023222,0.144337840981,-2.10162840686,-0.903950854039,0.1956109799,0.820643735814,1.59398702366,1.23036801037,0.295799606417,163.665623153
off_to_on,1.43119150494,-0.293155593355,1.24505916918,0.0765742580401,-2.34849511792,-3.48892549586,-1.08271053581,-0.73672657053,-0.244017930416,-0.132125361368,0.045001457462,-0.474823100169,0.286344699346,-132.979496222
off_to_on,-0.697286226647,-0.195423277155,-0.00491359156865,0.138296319079,-0.57406410308,1.79217039379,1.85879105554,0.973839296703,0.338558139484,-0.643127580389,-1.46584149715,-1.2430155577,-0.0433156091934,-167.017264383
off_to_on,-1.87012476449,-0.11784551988,-1.9724658191,-0.385433644059,1.18633448376,1.7887879193,-0.855139096092,-0.169388785346,-0.364056512702,-0.573417855345,-0.174458154921,0.111600362536,-1.13343017571,135.508003743
off_to_on,2.12817095,0.95359057974,1.56232474489,0.558122303789,1.0516254941,-2.23675782858,0.158601169251,0.377378397108,0.354868229497,1.88647972146,2.21702500066,2.41063324406,1.3849602411,155.879436006
off_to_on,-0.125386125313,-1.02923045311,0.622182984196,-0.439164792346,-1.31601314089,-0.602954993982,0.185690887069,-1.00105920725,-0.410845690177,-0.768029617836,-1.12455692922,-1.69325513188,-0.235341170951,-114.349279646
off_to_on,-1.22862366441,0.150699735914,-1.10870500304,0.261969150728,-0.227245755385,3.09049847743,0.00658011175553,0.395534838187,0.48710516595,-1.09699983455,-1.06911112694,-1.45217475749,-0.67131178864,-177.247288021
off_to_on,0.795201785008,0.375790450259,-0.705705882359,-0.522394476277,-0.319521249536,-2.08274665615,-0.72620904369,0.51571847244,-0.500291322458,0.661579034908,0.50122613473,1.76172475385,0.170247703476,136.091126484
off_to_on,1.00765563292,0.329996309324,1.96647225894,0.866366204133,1.63841076491,-1.50900020307,0.637826233034,0.12176209201,0.502788948619,1.37543061834,1.65351713762,1.37916060984,1.08050067283,146.560128518
off_to_on,-2.66962194952,-1.3437643127,-1.118557471,-0.613272297606,-0.329920046948,2.62131454278,0.0474517969887,-1.4313502635,-0.560255586507,-1.92860701111,-1.66652057835,-2.86214210724,-1.57677454257,-99.2192118127
off_to_on,1.55125281073,1.18560786234,-0.270076211945,0.266497674902,-1.03640079224,1.26741620923,0.583719498218,1.19305399611,0.615017613836,0.382377057871,-0.0746430200395,0.550734092371,0.632317254333,-181.301233723
off_to_on,1.72138907183,-0.0545133505472,0.291599883541,-0.635180039617,-0.899101937956,-4.52632731009,-1.71665699393,0.10149397478,-0.61882916782,0.720965772904,0.32186938055,1.367058591,0.503389138441,135.753896736
off_to_on,-1.86940157723,-0.295808840728,0.949923066375,1.02498038218,2.62073723972,1.27378932933,0.887972332987,0.00249353112608,0.631782556833,0.423532335024,1.07010143595,0.277539277125,0.0478187336657,135.140509748
off_to_on,-2.35898679971,-0.777013115906,-1.76113487371,-0.508366496693,-0.646285614207,3.38520245548,0.505905161973,-1.49478783394,-0.684988458379,-2.119264834,-1.47291549705,-2.46682200085,-1.70227535751,-81.409052187
off_to_on,4.1637863346,1.65188455656,0.968300218911,0.0116248824851,-1.04111890921,-0.755881428526,0.458633495763,1.74440848908,0.718074202096,1.56885754166,0.467878359464,1.48604144513,1.76137646658,-198.261661883
off_to_on,-0.07471053879,-1.01527412767,0.305448965273,-0.6905236868,-0.874270909348,-5.14044453,-1.98958477585,-0.135104268132,-0.715609609887,0.541829354844,-0.0746641839584,0.768430676315,0.0317698763077,159.526921267
off_to_on,-2.95173541295,0.0714996576541,0.0315904905622,1.52856965655,2.13583809129,3.23310701875,0.963562908755,-0.669571002815,0.735654859645,-0.644051949601,0.816654578508,-0.354455880546,-0.565960130752,117.743886818
off_to_on,-0.338034381813,-0.434644521771,-1.54073457787,-1.09580650884,0.0226506988628,3.96140203098,0.493337018759,-0.763007092258,-0.779289441318,-1.7020862835,-1.24466783585,-1.83535634599,-1.2318604626,-109.379775665
off_to_on,3.89174117337,1.30001830214,1.59615394551,0.206752262256,-0.910841518878,-3.29601672387,0.710166203943,2.13791160395,0.792643290063,2.45745462466,0.838797923549,1.84390991793,2.16060384919,-128.74842972
off_to_on,-1.5974128231,-1.01025936778,-0.0300939169857,-0.367969013072,-1.64014678923,-4.88617613848,-1.98341474135,-1.23785475606,-0.786899464419,-0.0184998359945,-0.463896506967,0.317617633008,-0.439968816126,115.523073991
off_to_on,-1.83085788128,0.131387459589,-0.297814781767,1.13982176105,2.44369647893,6.06316223782,0.258853208003,-0.490347544359,0.809737655761,-1.44824960169,0.481958886064,-0.76689558992,-0.851192503139,97.2957150159
off_to_on,0.272369111184,-0.379695982341,-1.26373964225,-1.23985371136,0.153885278613,2.10191885508,1.10499487173,0.307079914095,-0.839619592384,-0.892322989329,-0.648000774755,-1.44917844486,-0.756563072013,-70.8297207383
off_to_on,2.94602273006,1.47332137437,1.90667519131,0.762196697302,-0.596581491784,-4.84682376168,1.54150180136,1.65379578757,0.836361002581,3.33244928747,1.05312342392,2.79525878989,2.63560134962,-135.605295514
off_to_on,-2.27279860469,-1.61683097152,-0.650469915408,-0.537130655131,-2.18651623385,-2.68586543538,-4.10815292624,-2.64749835562,-0.829550800258,-1.91966415251,-1.43002298075,-1.25180540029,-1.69856252977,118.610276526
off_to_on,-0.336806440665,0.566417162957,-0.0664405703565,0.663480072249,2.27150764623,6.49582262068,1.31091490182,1.1868865825,0.850731288965,-0.921210541453,0.881729262758,-0.56905272349,-0.38742647925,54.8506772208
off_to_on,0.411473047489,0.00585803156156,-0.78538829607,-0.872006265878,0.836985676221,0.10375607723,2.97659610246,0.78780959859,-0.86439564966,0.811589150228,0.182190880719,-0.0734394289334,0.379747236524,-22.0672152713
off_to_on,1.24267209465,0.808701671693,1.33783723494,1.10710780254,-0.784343333359,-4.40523608497,-1.32475732319,-0.45045250848,0.848209523984,1.52642001672,0.122738318219,1.78052942787,1.21676871768,-131.988138533
off_to_on,-1.52596776804,-1.71448515818,-0.816292061713,-1.15817938214,-2.53563089053,-1.24356713438,-3.96647797738,-1.61712745483,-0.841387566169,-2.19313160139,-1.80679379565,-1.57097288981,-1.58720779284,82.4937728045
off_to_on,0.492659569505,1.13542726095,0.495844216041,0.833918321926,2.39723116071,5.45172848054,3.89982549461,2.02865825503,0.856831034918,0.493853767548,2.20720789808,-0.155655858921,0.430092253483,65.9701167602
off_to_on,-0.0502093584357,0.172526314276,-0.757121308883,-0.55223911717,1.13797641724,-0.299659064536,1.45336138419,-0.296442459945,-0.853690854724,0.521065131181,-0.437001415253,0.183359472569,-0.0775577748931,-36.6531699619
off_to_on,0.774742388732,0.00690541402144,0.930524924154,0.738763742558,-1.12016153684,-3.82832220904,-2.54398105229,-0.0513962511339,0.828339011645,0.857054511885,-0.639391178362,1.95144030582,1.28638463043,-32.2529455332
off_to_on,-1.62535038115,-1.59055282662,-1.03772384341,-0.989662492028,-2.47968341248,-1.01472856394,-2.45234209,-1.84177273848,-0.821391430635,-2.27895249571,-0.761546067248,-2.48758167161,-1.79310980439,-74.2280648957
off_to_on,1.18128788997,1.84828599179,1.03039388466,0.765005839262,2.81948774914,5.34126050937,4.09327958341,2.00395265171,0.827804216653,1.08582347956,2.14123135513,-0.185292762684,0.281708064623,137.714572788
off_to_on,0.266140249721,-0.171733094713,-0.44368617851,-0.389714954899,0.357412322113,-1.23839892689,0.524001452595,0.507489177353,-0.808987376907,0.866937849399,-1.1890774336,1.63932681749,0.700329030384,33.7537109089
off_to_on,-0.1910071643,-0.368323497899,0.173115793246,0.543606220427,-0.837499381164,-3.0311041041,-2.19574361992,-0.830176567154,0.777923321793,0.215961850734,-0.215966231161,1.37789269165,1.14989368144,-133.03427861
off_to_on,-1.97186627149,-1.40250762599,-1.25583905465,-1.16371067825,-1.57669773474,0.0527539286655,-2.21724621165,-2.30635967733,-0.769831526516,-2.92756923887,-0.31501952665,-4.05570020233,-3.0152127519,-53.5481001641
off_to_on,2.47739261281,2.16840165717,1.91013058402,1.42480601541,1.58437239011,3.40541129668,3.45596550576,3.09611229356,0.765009270298,2.06242724307,1.46055633293,1.10414485613,1.15359193604,160.89782857
off_to_on,0.359821093502,-0.297323278187,-0.318118368092,-0.763675796607,0.41518575071,-1.26379989972,1.36473213844,0.479622496201,-0.732965100763,1.68517627222,-1.02110702194,2.99061575599,1.85981758162,60.0754421605
off_to_on,-1.78092865947,-0.792493965202,-1.03065238097,-0.169444312233,0.205228861305,-0.960357180904,-2.55013083317,-2.18968281399,0.699048667966,-1.66635296829,-0.0527492934558,-0.970829088143,-0.844902994661,-217.550085451
off_to_on,-1.22464160865,-0.836789247886,-0.63120606265,-0.00596206311478,-2.18581611236,-0.78331392195,-2.57873537988,-0.914059501446,-0.688311247664,-2.59716801697,-0.27326750753,-3.88831827476,-2.58647688309,24.8349787992
off_to_on,3.43779294476,1.87515550911,2.57690735732,1.35089846119,1.10866465366,1.55341222211,4.04364873318,3.18763778651,0.671332459876,3.55507673024,1.44744717776,3.19341938007,2.60571735956,138.662160915
off_to_on,-0.701782083552,-0.407486261256,-1.22542032058,-1.87487748075,1.07090622483,0.485640990082,0.698299393681,-1.29953872555,-0.6293433971,0.534928334649,-1.55848313899,1.41150672392,0.304843896143,26.7930047687
off_to_on,-1.87227628014,-0.428361647778,-1.01501481872,0.36640969223,0.156272640121,-0.204526188458,-2.1100041819,-0.591924889417,0.594671259248,-2.04622004544,0.463681540484,-1.67652725755,-0.755703208856,-174.869727712
off_to_on,-0.430570108805,-0.917057743744,0.298268291263,1.12191739788,-2.49655599237,-2.45013126,-1.73098452562,0.0283152733121,-0.57974784985,-1.4590134449,0.382095385925,-1.89234330057,-1.20179521776,25.106827475
off_to_on,2.75823681397,1.36686044489,1.55108568369,-0.126479072243,1.26322146433,1.76443927933,2.40236590131,0.374384323892,0.551018740675,2.71203400597,-0.0393911359273,2.04456307942,1.10924388437,106.077345704
off_to_on,-0.366571168146,0.103171822561,-1.10265686035,-1.92406423285,1.34584736977,1.3417817186,0.509897405995,-0.213884983199,-0.502719113134,0.661271226649,-1.05230585209,0.916213471808,0.520047237621,26.4776920639
off_to_on,-1.94768594707,-0.364932052783,-0.261293944508,1.70792962534,-0.658472315481,-0.91298966562,-0.0123799341121,1.30333253948,0.468597769285,-1.63664712831,1.55859147207,-0.798002507683,0.105331252657,-131.492013917
off_to_on,-0.519674043679,-1.1038989734,-0.0503230488138,0.395023439096,-1.5787697353,-1.63447080577,-1.75681306374,-1.56661480369,-0.448310821247,-1.73613156193,-0.619364766852,-1.72892572391,-1.69684640759,6.36013383199
off_to_on,2.96347407598,1.13542466176,0.806899254912,-0.906117621765,1.23817186957,0.873208629509,-0.942799974081,-0.854109173067,0.409673829703,2.46524928512,-0.727051164559,1.27863931044,0.737031966484,80.0516373166
off_to_on,-0.508651379233,0.393358572239,-0.339742107592,-0.734973935226,0.290504461186,0.9371334373,2.39258618488,1.64121843664,-0.359757575366,1.03551832647,0.571231405249,1.03704767436,0.986179933752,29.0005429789
off_to_on,-2.33428457452,-0.416905677585,-0.0776149608562,1.41969932531,0.101256144506,0.793983026114,2.83652283182,1.68782238718,0.329308393836,-1.83317710129,0.902785507688,-0.487914003363,-0.194691631903,-85.2855450266
off_to_on,0.39375566366,-0.885802537468,-0.445711140114,-0.071100493375,-0.858900702866,-2.2244848293,-5.02722656719,-3.13768835133,-0.30439601404,-1.51084927816,-1.42712201385,-1.55816462969,-1.26078440965,-21.6899720431
off_to_on,2.66967663259,0.804212600936,0.616408689738,-0.693281154372,-0.0855114483199,-0.980557918032,-2.41002074975,-0.710080689556,0.253542618244,2.45562043003,0.270341054298,1.09604962611,0.710878023497,63.0244131561
off_to_on,-1.58698332019,0.150692989355,-0.141400678839,-0.40501589978,0.499937188065,3.05675668356,6.46544936866,2.93989938186,-0.198091140459,0.389379124935,0.647352938656,0.461718053852,0.105272531027,27.8250535167
off_to_on,-1.38911496281,0.135331205946,0.101110422397,1.17932320852,0.993518071177,1.2440588331,1.81521275117,0.77961922511,0.180739816184,-1.44233815067,-0.11738309662,-0.156005246774,0.380762502241,-40.7968553939
off_to_on,1.54678782204,-0.589249806883,-0.182755838066,-0.249492342663,-1.20763757399,-4.75198507133,-7.74895530724,-3.31059654714,-0.180834095655,-0.284845855238,-0.561005255183,-0.39402882227,-0.231041310224,-50.5886563645
off_to_on,0.392696854984,-0.320362453038,-0.260894387129,-0.659132559891,-1.10427459657,0.178959771494,-0.291229666716,-0.375824545062,0.124883499405,0.500018971944,0.214380053371,-0.605976591946,-0.942240943582,54.3335062684
off_to_on,-1.12390896579,0.728870142489,0.106111577147,0.157801522486,1.84055142411,5.23033584233,7.74108443206,3.42866631177,0.0051192666498,0.6743198891,0.306877902126,0.879294936951,0.542535946863,22.7419344424
off_to_on,0.425881865666,0.613510757861,0.867274488169,0.559683415005,0.78046729638,-1.63879871389,-0.864035437859,-0.239203263063,-0.108026660252,0.153736523535,-0.059617080429,0.741837384555,1.18797240498,-7.9749227515
off_to_on,0.203085927656,-1.0908115966,-0.519848019625,-0.252341632666,-2.2999476666,-5.32224585041,-7.29203471564,-3.25963146846,0.0718093908426,-1.41479252861,-0.305113432553,-1.33142055323,-1.03549206159,-65.3671882604
off_to_on,-0.514299109077,-0.573874634181,-1.19145293433,-0.415675644687,0.0487914536149,3.57960134802,1.96204972772,1.14022131201,0.0287542361115,-0.162651626262,-0.0102416864109,-0.366370952485,-0.784557597128,45.8952626557
off_to_on,0.535518830255,1.28465291224,1.11726080861,0.481948177049,2.051641309,4.40349651214,6.12995440886,2.32844387903,0.0326528365828,1.98198065879,0.476435391394,1.46570381966,1.09200536434,13.1906621413
off_to_on,0.0378482783848,0.384382496669,0.942990169915,-0.118884075718,-0.765316074829,-5.41863092241,-2.51415353901,-1.67352679245,-0.280676696084,-0.446463171011,-0.328693920253,-0.478301877521,0.0458571650948,16.2155636019
off_to_on,-0.497947156564,-1.16601315067,-1.1334143414,-0.0986406632554,-1.13722407032,-2.18600084113,-4.49435184488,-0.774865351151,0.402300330367,-1.6289624177,-0.0830562475686,-0.524864389722,-0.189279995657,-66.7831336252
off_to_on,-0.00765144150482,-0.479570769324,-1.08335175591,-0.0545595106011,0.547746702507,5.67867954822,1.90216517463,0.944679033923,-0.209753549438,0.485523319304,0.0326876122763,0.295112015169,-0.302760373407,35.1345608474
off_to_on,0.707237204664,1.38416152186,1.63224123774,0.426587589962,0.991507902474,0.681103941842,3.87453887512,0.33970170999,0.0233910159077,1.52639755628,0.352545849494,0.241538086759,-0.003988143005,2.36380131897
off_to_on,-0.672123011969,-0.0732201330253,0.228812905841,-0.506896692671,-1.1211624243,-6.22148671211,-2.07260923212,-0.922804010235,-0.206524049319,-1.09683741091,-0.490389578202,-0.739431025878,-0.117992951369,32.4367227787
off_to_on,0.448729066408,-0.51215819402,-0.623205202309,0.102718075632,0.448150100649,2.10677968235,-2.03815345859,0.86957331315,0.530816642807,-0.142321512842,0.366813621807,1.15834155719,1.30591653492,-58.7727489794
off_to_on,-0.39762311736,-0.794293927258,-0.985259333311,-0.0207865875887,-0.164757135264,4.15439533165,0.373026876802,-0.447221048515,-0.522452570639,0.0837341301655,-0.360648577663,-0.429712989956,-1.05652792594,23.4177304824
off_to_on,-0.0809360239522,1.17333569853,0.989608075939,0.787563580938,-0.00549584589415,-2.43966265175,1.9439636742,-0.348741468246,0.269841814737,0.0611857874561,0.485576618795,-0.999014221968,-1.03076185494,-7.51044969663
off_to_on,0.462224648481,0.140500642935,0.557796933419,-1.26065106148,0.0733553773844,-3.01888367425,0.455242506311,0.322774830078,-0.266898008575,0.124342724797,-0.512339724759,0.518004082805,1.1402188922,40.6197006054
off_to_on,0.52909171879,-0.263538481873,-0.0326037559766,0.432384787162,0.600517892207,2.86403688634,-1.40041260905,0.945869947039,0.550521804792,0.829935857042,0.485730971424,1.72760213095,1.61640119494,-44.8601056995
off_to_on,-1.85628519768,-1.25507326094,-1.92415830581,0.400980317198,-1.33676190655,0.867802781698,-2.46800003885,-1.47081754394,-0.671969035853,-1.76265465557,-0.549563666667,-2.00887862025,-2.63071227067,12.4627261529
off_to_on,1.24534382743,1.35437741784,1.3934007873,0.305750462971,0.771656697308,-0.977552700479,3.19165444197,0.351408435233,0.512864194586,0.417164080283,0.631639708941,-0.220972939245,0.0982702852171,-15.1426616411
off_to_on,0.517709011752,0.241414446661,0.749693252281,-1.43874961172,0.380589445992,-1.04126726419,1.70172870896,0.184854352879,-0.444156218019,0.982881768518,-0.669213290183,0.814480877859,1.42254994696,41.5073666725
off_to_on,-0.494355992843,-0.237968675014,-0.369622615705,1.11278879226,-0.0537283528872,0.60323724567,-2.55014945473,1.00606411177,0.613577443092,0.671315073123,0.671540396087,1.28217664489,0.62838390515,-28.277748627
off_to_on,-1.26041095084,-1.62623686544,-1.72987667024,-0.00653546656574,-1.50077212913,-0.188171643525,-3.02752388295,-1.58107063493,-0.726475234867,-2.52529627622,-0.501757463476,-1.93251009055,-2.36676359702,1.75805055294
off_to_on,1.79888318023,1.80690136619,1.52582973302,-0.0070959902699,1.67628500722,1.96479940501,4.15679011461,0.218845264499,0.641564709902,0.750464381527,0.256881695766,-0.0156188510979,0.94725950878,-12.3580187678
off_to_on,-0.481789770388,0.157677057213,0.269948027534,-0.911096622735,0.0983626536291,-1.31437887581,1.76987313374,0.618046888168,-0.593110505866,1.47448118439,-0.47957299658,0.527422795312,0.687132151697,21.2625156075
off_to_on,-0.279041714184,-0.591796343231,-0.0370171049436,1.30116255181,-0.900678354138,-2.08594741554,-3.17128844628,0.714713030199,0.699630447071,0.22179223033,1.08140222344,1.2828505309,0.0751318047014,1.64742020915
off_to_on,-0.435563677405,-1.30197398001,-1.39725741649,-0.923522291466,-0.934696105225,0.737378251533,-2.82090425659,-1.79456592778,-0.773259165174,-2.62034624546,-1.01388324821,-1.36077119358,-1.20683962332,4.36096784061
off_to_on,0.965550209537,1.89922153124,0.901797656177,0.478397092661,2.50761110449,4.62925204154,4.38576512834,0.63378634003,0.725476992431,1.11347166144,0.203769530126,-0.635462226151,0.812105793246,-57.2319245938
off_to_on,-0.708840530066,-0.0878954358718,0.270420299473,-0.266387710864,-0.994595638415,-3.33676941352,1.3770275216,0.470886026764,-0.708505565089,1.13547990524,-0.177200743656,0.222252156573,-0.394232130783,71.1597925517
off_to_on,0.869525732309,-0.599137354035,0.762131943338,0.454856169469,-1.0512311552,-3.70642727778,-2.64766396975,0.815644860685,0.777172672901,0.473410567534,1.2819213577,2.54928211372,1.02367759702,-19.7640666654
off_to_on,-1.37412727658,-1.30099096086,-2.19009090705,-1.09740681177,-0.203367182977,2.83410890817,-3.23051603342,-2.313984892,-0.804136094087,-2.79004408171,-1.63781717368,-2.41040752439,-1.26969310002,-9.95485837008
off_to_on,0.825751937682,2.34361560153,0.933114501782,1.38291773882,2.69506745016,5.59280058052,4.42113283669,1.19097519395,0.766820230949,1.24761063991,0.551391955545,-0.828158642536,0.560068086533,-12.2531480091
off_to_on,0.266657022255,-0.553001894899,0.928720354948,-0.688062063057,-1.73096190528,-5.44034475537,1.49406762411,0.665509811025,-0.776238747774,1.10888901973,0.0244998105504,1.33942162426,-0.325308384647,13.1126695983
off_to_on,0.12775835927,-0.864697223553,0.136241970023,0.108801043464,-1.20957058056,-4.00904122179,-2.81602953058,0.0750670336138,0.827474019519,0.206509750725,0.801716634759,1.7923632104,0.925806599856,29.132124304
off_to_on,-1.69130870914,-0.668908069807,-2.29649718949,-0.787476961166,0.752633431517,4.90258468948,-2.6448917293,-1.9957378497,-0.81973216263,-2.3889929265,-1.25231466328,-2.77601946792,-1.05608199692,-53.9979201214
off_to_on,1.84654426341,2.42965343047,1.73269637218,1.59611876595,2.32795623248,4.94823086854,3.71706229136,1.50572291739,0.778151690539,1.20612413573,0.602517314824,-0.0176465262022,0.490729735989,44.2067532587
off_to_on,-0.189771721098,-1.30500434172,0.332606135348,-1.01323735074,-2.34338421315,-6.99998727925,1.18689103892,0.295905984326,-0.79591745039,0.720655253223,-0.49354683485,1.22528340018,-0.403580574677,-34.9049167873
off_to_on,-0.628137324223,-0.707614078213,-0.22424641037,0.0436398109755,-0.603646036394,-2.56171004734,-1.60354330843,0.323270477655,0.835232906716,0.523665353509,1.19729736091,1.29579553402,0.986171869617,31.7466367251
off_to_on,-0.691793212102,0.20758864519,-1.4040626184,-0.420449851721,0.923817691776,5.73469999158,-2.88810834525,-2.20636025456,-0.810907625328,-2.36167399595,-0.944224203073,-2.70404979529,-1.16653139137,-25.4353709658
off_to_on,2.04151098236,1.70932509788,1.38611387941,1.3432115348,1.80566576525,2.80675942947,2.36835232139,1.29114313683,0.767413192847,1.09490161442,-0.0808150886348,0.445688332239,0.639474052652,16.8155143681
off_to_on,-1.53290040737,-1.81742166648,-0.21347951387,-1.0658769802,-2.51851665411,-7.00893857068,1.89761181096,0.90521358293,-0.780373667381,0.67851594655,-0.29070822051,1.13537091322,-0.365342301369,16.2547147188
off_to_on,0.295278460156,0.403596159828,0.571388091978,0.231943436308,0.458937119994,0.556759679098,-0.0680146953042,0.369269599869,0.802951733055,0.657938149483,1.71203402857,0.948082197128,0.865709181208,-66.1154064434
off_to_on,-0.0565230145545,-0.0193343249156,-1.69810588317,-0.483241504557,0.380129383634,3.93359524004,-4.52940196364,-3.09174000033,-0.770848324818,-2.4407976606,-1.58141335324,-2.80623089714,-1.26871128736,47.7883712042
off_to_on,0.458973423992,0.752808956064,0.924317471532,1.25798386069,0.57552027548,-0.455849405713,1.2470490554,1.34999002171,0.730529869588,0.891775147733,-0.000598023468028,0.822242105316,0.708160637352,40.9076043945
off_to_on,-0.549016405779,-0.949078914148,0.702427767143,-1.07708117238,-0.753921850016,-2.72447357143,4.69572712645,2.47431331788,-0.733950063317,1.38635860235,0.312855645955,1.74210922133,0.0619372511737,-45.0615153337
off_to_on,0.703636211475,0.680105460565,-0.0259173541078,0.46991043985,0.564550446936,1.8381831979,-0.743598843845,-0.855985756015,0.737057982026,-0.161324121925,1.00600438926,-0.450321862837,0.296361369552,-64.7703619519
off_to_on,-1.25807797602,-0.840666554122,-2.09541513998,-0.653078659308,-1.43271221117,-1.18607697384,-7.13984134321,-4.09165910271,-0.70089586331,-2.55030880695,-1.62091236728,-2.61799689831,-1.34781361289,75.7568995535
off_to_on,1.21591895092,0.842017212707,1.97247756624,0.968301873695,1.42580656867,0.645842359382,3.91057841628,3.25849137818,0.666061986573,2.17561550643,0.861883447138,2.52140947225,1.3861156836,66.5676004877
off_to_on,-0.117992538201,-0.215235452397,0.255550107997,-0.446357125139,0.456364767644,1.67995031643,5.60938741371,2.28723611994,-0.658937120973,0.453673193314,-0.289683530626,0.313428321126,-0.346652223581,-97.0563485327
off_to_on,-0.565027872516,0.150328470421,-0.825862773592,0.0594183115047,-0.835278731949,-1.1617447409,-4.4423650904,-2.50300550776,0.643366598098,-1.08306725205,0.430429368434,-1.27243210165,-0.0363795847871,-59.1783418796
off_to_on,-0.376230259794,-1.04269613431,-0.946662600269,-0.742659889093,-1.53451611219,-3.6858751669,-5.53328073384,-3.02027004112,-0.604931123106,-0.783349929454,-0.487360113061,-0.722501314514,-0.730220562755,89.5346846862
off_to_on,1.75439534897,1.27798495908,1.75728805898,1.25018290651,2.4036004388,4.29055854091,7.02821067238,4.21663726769,0.575116707237,2.00156588521,0.484135207717,2.15071287353,1.17985228599,94.0717869312
off_to_on,-1.62240714018,-0.340859587279,-0.438497483143,-0.514482380175,0.0136053660031,2.09715234641,2.01433883047,0.861461762696,-0.558031367911,-1.13891522204,-0.80755394268,-1.06507556907,-0.592797948152,-134.297667769
off_to_on,0.0502709662813,-0.0662019261205,-0.37297483352,-0.162323492366,-1.3697025676,-4.43231439302,-6.16713584606,-3.10656616395,0.527443378417,-0.32567044015,0.796580726518,-0.508119908216,-0.0218549632957,-63.3403232666
off_to_on,1.03115518808,-0.554770986956,-0.518045972957,-0.366713841737,-0.465409286405,-2.06186263122,-0.305696921467,-0.639002731136,-0.488056914189,0.764566924015,-0.0855598107566,0.576157868306,-0.0732354756577,98.9322529066
off_to_on,-0.309303467321,0.601454115122,1.00779124131,0.913786234078,1.67555954353,5.56960995301,5.73649230705,3.13080467106,0.46087349632,0.16721934963,-0.187894038467,0.395843343645,0.523965146872,122.976529032
off_to_on,-1.36669036237,0.0558212354001,-0.180023320337,-0.442835080852,-0.406652084269,0.432809099352,-2.15440125094,-0.846913912414,-0.434625077835,-1.57262531645,-0.601599142806,-1.31243297893,-0.910317471971,-163.308381885
off_to_on,1.95853756708,0.290316306818,-0.0614390811339,0.00973962872745,-0.163467534366,-4.51057564902,-3.19577033675,-1.13693589977,0.394061613082,1.71980188304,1.14678723747,1.49311946623,0.872967756901,-69.3434879296
off_to_on,-0.695924736594,-1.28125209813,-0.89960356338,-0.369192110333,-0.939671670356,-0.816602224921,1.75680376191,-0.157147461903,-0.355382490711,-0.117254846671,-0.469625737331,-0.397955968798,-0.157767469859,101.553428428
off_to_on,-0.798417327704,0.765055850475,1.06216883346,0.512009189898,0.769654851289,4.86732878966,3.01917178466,1.38941083563,0.328293687941,-1.0009225158,-0.273774643905,-0.980833861,-0.311637480283,147.968574339
off_to_on,0.611774015912,0.685279229898,0.12464205458,-0.0587530003652,0.660653185689,0.107962509605,-2.75513421841,-0.395673381807,-0.29383607719,-0.17111484723,-0.137489771653,0.37202714653,-0.514874002567,-175.186580115
off_to_on,0.697988560692,-0.418083239952,-0.546904118837,0.12688737355,-0.234940274643,-4.0587259724,-2.05608547975,-0.728385313021,0.248174118133,1.51473204947,0.852604797564,1.58366182537,1.22064053595,-86.3306686628
off_to_on,-1.03480085305,-1.15521843546,-0.466707926541,-0.771471453749,-1.31521954542,-0.698798366975,3.24018772337,0.35050381822,-0.211729886942,-0.385764360207,-0.524976572632,-1.22099940966,0.0753955325493,105.697025875
off_to_on,0.0899173619976,1.15239494142,0.86270476623,0.637432857269,0.580858615493,4.46212228653,1.45613405435,0.67314103901,0.183016963048,-1.27308488368,-0.369832133955,-1.37842136808,-1.41902478437,165.278420531
off_to_on,0.490022029878,0.42011845025,0.0988124717847,0.230570900748,1.2984205611,0.426495790711,-4.32097060604,-1.07115172379,-0.141941062238,0.269089408198,0.452650325951,1.47262470369,-0.0483092352931,-172.999210388
off_to_on,-0.0833675781844,-0.920554081872,-0.504654868221,-0.348807209609,-0.615841557864,-4.43372114769,0.305095832981,0.184440378994,0.0953057759777,1.52700521553,0.257339376285,1.4326780241,1.95476071182,-110.119518108
off_to_on,-0.286630340989,-0.0401951542176,-0.298966514708,-0.270783378895,-1.46742896221,-0.401592565428,4.24086662321,1.32369009364,-0.0620585963783,-0.490172373936,-0.56799856727,-1.84154212142,-0.441598098772,111.900696113
off_to_on,0.199264282642,0.586238475579,0.444158532927,0.253436172384,1.12455516527,4.88018337291,-1.84061542124,-1.09736059896,0.0309987590934,-1.46525885916,0.148255332258,-1.13595308194,-1.88808720119,173.756924631
off_to_on,-0.198197656726,-0.317646802707,0.535248641886,0.330222565162,0.82558780821,-0.431013011283,-3.75934604289,-1.47139256007,0.0143489492143,0.279185718612,0.184669817872,1.46327669024,0.32503688403,-160.922180586
off_to_on,0.216669317656,0.123294037541,-0.581296064968,-0.312658159507,-0.860538783763,-4.55757842559,3.83817090712,2.60084760188,-0.058707599041,1.99480007762,-0.0613399718862,1.80062135598,2.384234083,-134.582024314
off_to_on,0.112264404972,0.11961426208,-0.670273215629,-0.0882081398591,-0.552125634536,0.975853658837,1.44274797325,0.431345139577,0.0884147050618,-0.640918145312,-0.000877101750439,-1.87543618675,-0.753993832456,117.556613879
off_to_on,-0.327989434584,-0.576091241596,0.735837092798,-0.0410352959707,0.475206345095,3.93714150005,-4.19966003266,-3.50697721599,-0.121634033708,-2.39249843405,-0.167382693733,-2.29530360314,-2.58916692359,174.876776097
off_to_on,0.132634649234,0.351857529263,0.965286563054,0.269277594103,0.750304194926,-0.861361436071,1.25086702949,1.56240600348,0.168346292157,1.62372940289,0.096496904047,2.9791287764,1.57614382578,-142.861441673
off_to_on,-0.132668431936,0.467274010589,-1.50927006759,0.00844228661438,-0.686244528003,-4.01094878196,2.46402775797,2.43405478441,-0.208020834698,1.67061540263,0.175733243625,1.600286544,1.74305876734,-156.166334605
off_to_on,0.369399810376,-0.342990013609,-0.279006873762,-0.0175623380193,-0.336331478017,1.32846430877,-2.14610026315,-1.97176162348,0.234286006121,-1.59401121329,0.0162397561602,-3.15243365152,-1.31836419412,121.649753584
off_to_on,-0.154188609576,-0.807646677204,1.33130454546,-0.611950572198,0.12082387282,3.38227643259,-1.04278489975,-1.96671500674,-0.268761205753,-1.69059528761,-0.673213594172,-1.3603932279,-1.59245127218,170.542049624
off_to_on,-0.131422025369,1.18882778482,0.262639080619,0.71815540602,1.02135323807,-0.624401622981,2.77440191198,2.79818188583,0.313750564251,2.47783690514,0.907720643035,3.9478040181,1.6926187633,-122.958133276
off_to_on,-0.327072926972,-0.283587282286,-1.70934080287,-0.0482819314078,-0.7911069612,-4.31234551066,-1.02219671912,0.360026796563,-0.347102481082,0.377408252038,-0.325845208031,-0.177460096387,0.424881364335,-172.194184118
off_to_on,0.747883646185,-0.415531893036,0.614505791844,0.0702514092234,-0.683890676023,1.40506985387,-1.64145095474,-1.87498453538,0.370176072359,-1.99972766874,-0.293530698892,-3.19921329409,-0.744283080193,123.621026044
off_to_on,-0.270547313234,-0.000357995374515,0.694726199649,-0.937860917156,0.673854337692,4.03951711302,1.14942973391,-0.393124442802,-0.404475524713,-0.0730940850428,0.0546378078714,0.626860133274,-0.538446212547,162.761945524
off_to_on,-0.00163301457432,0.815382104316,0.203698840642,0.908970502685,1.25800990306,-0.993736413444,1.93636466977,2.20761019876,0.444874223937,2.44369748642,0.815435192176,3.16655713664,0.955952000789,-104.422082471
off_to_on,-0.65361310836,-1.04499361481,-1.26085704008,0.123132759531,-1.95095613065,-5.29102229372,-2.40288610829,-0.841865078595,-0.470968495262,-1.65018821037,-1.17213393972,-2.18968921875,-0.643294716335,-181.740617616
off_to_on,0.908840676892,0.510776422999,0.386203301248,-0.175550252212,0.114026926176,2.51843868922,-0.851108016111,-0.787857815449,0.491006380776,-0.775455120778,0.491611385218,-1.11694356599,0.625934247261,123.793874844
off_to_on,-0.421340488132,0.0236688149422,0.193363762306,-0.944049877293,0.995062278942,4.3775404189,1.79898035298,-0.20505399653,-0.523349091763,0.926040181062,0.208821527759,1.12158152492,-0.625528288066,153.308830609
off_to_on,0.579476971659,0.330450327873,1.19908631407,1.19057861026,0.617441906361,-1.93031020201,1.95655313187,1.83504290247,0.556803782825,1.39544017397,0.214509016407,1.60171604282,0.576302489793,-89.4640520112
off_to_on,-0.930872003996,-1.11499683428,-1.63239415346,-0.255856218566,-1.83506077958,-5.4071776643,-3.50576294696,-1.01502637396,-0.575315817845,-2.17316910953,-1.09538022385,-2.09113063514,-0.596012990564,-185.257529721
off_to_on,0.0256998855461,0.97793751026,-0.444126730775,0.0381948131245,0.386230211302,3.25078183754,-0.884565471696,-0.970732055229,0.592239705623,-0.14888909974,0.969088292516,-0.379689782487,0.120176174366,123.356587545
off_to_on,0.472474043259,-0.121964096841,1.11665115954,-0.859700408791,0.673568779368,4.46021490698,3.48481315505,0.563883177995,-0.620696284081,1.44680380609,-0.174531907278,1.34342724497,0.175835755882,141.697663054
off_to_on,1.226602397,0.137274177312,1.51748194652,1.07169327771,0.884127867934,-2.59438527325,1.1324221562,1.83279971389,0.645535270071,1.00219660009,0.243892766693,1.04410635191,1.12655571208,-71.9929467644
off_to_on,-2.19357968432,-0.975395515544,-2.7171295388,-0.449132488791,-1.85832623283,-5.58969446297,-5.11361637314,-2.21735853773,-0.656615154498,-2.98792883186,-0.98390929637,-2.72925463903,-2.23444754676,-201.385970323
off_to_on,0.0673303332353,1.02310419607,-0.0604050608988,0.365020360003,0.222226675046,4.46682604708,1.39754072635,-0.0757497981398,0.670075505002,0.72834896029,0.902013351678,0.775873584079,0.421798309799,146.19888596
off_to_on,1.19045124512,-0.357718444079,1.62652489221,-0.859872378044,0.452858032125,3.67124852492,3.00160306302,0.897910362488,-0.692786204121,1.64772435858,-0.245295810356,1.33722614799,1.57099009262,125.354193243
off_to_on,1.34954910178,0.509149298192,1.17176715291,0.804039361384,1.65410273584,-3.20752565789,-0.232116733873,1.38542928239,0.708074473795,0.484005138762,0.494806464942,0.247161741109,0.568677056372,-100.378612091
off_to_on,-2.93922659531,-1.18688072366,-3.02081078002,-0.40043563824,-2.37252845814,-4.63729585133,-3.91328968662,-2.65115550933,-0.712185956055,-3.23115161356,-1.24352188223,-2.79207619605,-3.61686745382,-133.392848037
off_to_on,0.133269510186,0.897886532633,0.351977736627,0.660633769294,-0.205494360827,4.73442895124,1.7355067841,0.375142665074,0.721605875177,1.36353861054,0.949213532606,1.73734207868,1.6567835981,104.540652242
off_to_on,1.85163699058,-0.172841309602,1.59896012501,-1.21616749414,1.38970850165,2.7574224148,2.02335764313,1.52188177884,-0.7369912449,1.6569843769,-0.167278527232,1.14490109367,2.28401213562,104.708618493
off_to_on,0.846542849093,0.521510696705,0.937426436113,1.06036140963,1.16470801411,-3.5194532689,-0.329551002501,0.371968515417,0.742499375674,-0.305127161623,0.524115726807,-0.94917436411,-1.1070211853,-63.3668401123
off_to_on,-3.0080124661,-1.28217842838,-2.9582897023,-0.480070192839,-2.73595895591,-3.41932678115,-2.91971009038,-2.7313578944,-0.740262891812,-2.582826274,-1.3793285316,-1.73214755689,-2.97278541474,-141.150520755
off_to_on,0.689544102571,0.950304339751,0.69472696592,0.371335524858,0.546866927235,4.8317382479,1.51446216532,1.46670179759,0.744936105971,1.64490512659,1.04649469047,2.27101325175,2.54994050071,111.631814555
off_to_on,1.28075880695,-0.15430149734,1.26589038677,-0.699311654341,1.15114744222,1.48723964222,1.47815853438,1.08104518112,-0.751870182412,0.868793379285,-0.157190699107,-0.222671451014,1.08964179011,60.2854411244
off_to_on,0.636161424505,0.318431555579,0.596216309766,0.91177674831,0.575237073269,-3.61095916496,-0.525483921203,-0.510478427331,0.747983593627,-0.070418753976,0.39172056437,-0.578143122972,-1.04633951549,-17.1250991822
off_to_on,-2.25122071927,-1.09121348575,-2.30989100203,-0.827544441833,-2.27011644267,-2.14052482535,-2.68358169501,-2.15586231783,-0.740051766366,-2.27166001241,-1.25058140649,-0.963022043772,-2.08886524969,-135.440919911
off_to_on,0.978371897631,1.36432409589,0.976198291598,0.522587002213,1.20304796111,5.41682421176,3.31800564612,2.68561643117,0.739270443463,1.82620346525,1.18919178838,1.98150271773,2.40623737816,77.8189055906
off_to_on,-0.27050866521,-1.01402316686,0.157572878596,-0.302369435759,0.154506633031,-0.682777337683,-0.513880104938,-0.41947287038,-0.73719307177,0.276162622307,-0.444702801817,-0.956044090594,-0.00157425604251,68.6423103736
off_to_on,1.08595571573,0.391819227196,0.684724905039,0.622255584796,0.258694519089,-3.92604294554,-2.62876544708,-1.44036193737,0.724783745313,-0.533065400989,0.197657417647,-0.403388839997,-0.608373657861,-33.0732654917
off_to_on,-0.362487336205,0.0073006592995,-0.806082052026,-1.18450631449,-0.843886212008,0.945719542944,1.83843058334,0.530779988667,-0.711765472448,-0.731402156359,-0.532924467259,0.328054352434,-0.743923102464,-33.3517602929
off_to_on,-0.77219182223,0.608827962125,-0.00208043137748,1.05105859281,0.579273035248,4.49063444467,3.48278327899,2.08246326535,0.704956382773,1.43247689859,0.960145577213,0.976557284977,1.31849870177,-77.1458304298
off_to_on,-1.14140645941,-1.74890431884,-0.923196842361,-0.371362127504,-0.628590478161,-3.47302052838,-6.1204527231,-3.00697805523,-0.693915297156,-1.35056555278,-1.23088536182,-1.98283168776,-1.097745951,136.591585248
off_to_on,3.10514017988,1.33164973508,2.1388029728,0.3370862658,1.04305525643,-2.30363753334,-0.0422939481224,0.440935377999,0.674196367194,0.682953053837,0.906630085301,1.22377680763,0.867637229618,37.7577438689
off_to_on,-0.574405728471,0.617852810629,-0.398326752935,-0.875508617738,-0.74109849967,3.23045368203,6.62626703223,2.25107141037,-0.656631655099,0.414082153506,-0.0466168475374,0.689815751823,-0.0111487141712,-131.481479276
off_to_on,-2.36130751781,-0.810389237757,-1.56496349268,0.727640589836,0.258018968692,2.402896174,-1.36213142175,-0.307411616434,0.64348034353,-0.180587405458,-0.0258509459629,-0.797394146848,-0.39366101853,-57.9106950222
off_to_on,-0.117208906164,-1.68703912311,-0.501186108718,-0.15124184677,-0.605175445342,-5.03451209177,-8.46419719268,-3.90245793719,-0.62410615751,-1.92611486525,-1.12923337379,-1.82623534618,-1.31647302234,159.296092354
off_to_on,3.7515732758,2.755814559,3.24592403235,0.555203785664,0.975002714175,-0.0217880515506,5.31882755759,3.03569008171,0.598488406485,2.4750685756,1.5874627901,3.20434038132,2.50799030238,63.9740730785
off_to_on,-1.76998743216,-0.165400158246,-1.361080186,-1.34020028531,-0.560082717672,3.86427361626,6.34583677574,2.27103793838,-0.576865883891,0.303634081606,-0.319748369008,-0.409707074235,-0.193122422202,-214.72837317
off_to_on,-2.15668273723,-1.7757945146,-1.95480525012,0.717810577098,0.257177200332,0.406719393865,-5.78519006517,-2.90973811622,0.557411294612,-1.97134518572,-0.492758891254,-2.42932655533,-1.96619763547,19.135774525
off_to_on,1.0310613104,-0.385857760734,0.739413207422,0.446869276606,-0.519971726512,-4.85022069557,-5.81440188572,-2.45984272392,-0.530837341627,-0.614850687781,-0.607886403713,0.449854798539,-0.337518751809,138.456293566
off_to_on,2.37062391758,2.68554658588,2.51713152822,0.173660068852,0.448772429969,1.18291561868,6.70736454027,3.97631392249,0.500803494039,2.83277901843,1.39600523858,3.00578974064,3.01010706461,29.3719589015
off_to_on,-1.64464005402,-0.807346942605,-1.88939047221,-1.65807968364,-0.0875941406834,3.65742174479,4.28527302099,1.24055320839,-0.475606554133,-0.586629498175,-0.284055130407,-1.9187162875,-0.788057274093,-172.058339204
off_to_on,-1.07547702155,-1.834512018,-0.986346097318,1.10309965119,0.409530221515,-0.695561936519,-5.64154953963,-3.20211153339,0.450293576359,-1.79534198493,-0.413573445353,-1.52321125472,-2.16040283075,20.4212869813
off_to_on,0.371558600397,0.370043228354,0.869196679852,0.797335904648,-0.922825130564,-4.14668688341,-5.04683707759,-1.89880501078,-0.418037457995,-0.151193913388,-0.820872108915,1.07602302708,0.051092487939,105.913952441
off_to_on,1.9055127895,2.39950196801,1.29467629218,-0.700541798757,0.560434054384,1.82620051003,6.735437553,4.20515890974,0.385045136997,2.50803017585,1.37364018716,2.02145515337,3.03961008113,28.1079805149
off_to_on,-1.24773595986,-1.28426049487,-1.36433442788,-1.19280478065,-0.0748522197488,2.7780107483,3.78164297057,0.63907037606,-0.356810501617,-0.866087726402,0.269107773221,-1.90402107974,-1.13959994583,-129.110533708
off_to_on,-0.789033008761,-1.53295194257,-0.143174836537,1.45013130764,0.421459266899,-1.20644711287,-6.16383071995,-3.2572402803,0.326494634391,-1.34131092743,-1.05831554081,-0.809698758093,-1.9780020898,3.31807467186
off_to_on,0.572117355868,0.75958549924,0.39404850464,0.251070218183,-0.568373839056,-2.57085677146,-3.6213339714,-0.860647136677,-0.290319884869,0.201465079894,-0.79684515346,1.03559413567,0.594257947504,79.4398343935
off_to_on,0.848082433326,1.93221309872,0.260350851353,-0.725133460176,-0.216674869669,1.17546645582,6.53983313879,3.21500569215,0.255737880852,1.26377928443,1.95277053966,0.846857853487,1.92164413749,30.0408987162
off_to_on,-0.927458535968,-1.25681274728,-0.354060479066,-0.689745373674,0.48405285644,2.01496715057,2.20289412696,0.309112546381,-0.225111061912,-0.0701408222856,-0.0948878816659,-0.807374625339,-0.644977397501,-83.6240530166
off_to_on,0.17079586712,-1.46917472142,0.368993796484,1.17323567708,0.496660557165,-0.730146356689,-5.58687683418,-2.25838577227,0.191016543544,-0.75175187606,-1.51740734351,-0.461232614408,-1.20333428672,-22.9325863009
off_to_on,0.177347921284,0.936446747053,-0.570554114569,0.134601337289,-1.03754431403,-2.18101170647,-1.69611642759,-0.644557581416,-0.152791846029,-0.841477008186,0.0416160775668,-0.160027355605,-0.269670234713,61.7800974165
off_to_on,-0.203962727223,1.79428482219,0.113365799038,-0.798455976042,0.21211872267,1.34855950954,5.24265524969,2.03066522193,0.117868284076,1.36190935375,1.74224610459,1.2647784766,1.63177786298,28.5940067646
off_to_on,-0.183703155989,-1.28109938925,0.49869381307,-0.192215427274,0.5235837106,1.27629850982,0.415911260088,0.269037417938,-0.0856430902218,0.779632658703,-0.70119097025,-0.129815247255,0.168337417372,-39.9675199466
off_to_on,0.773870174511,-1.6686188559,-0.101496525828,0.829456450466,-0.194641333232,-1.25717719265,-3.94672284271,-1.00802906437,0.0492819854238,-1.58022673135,-1.1024509913,-1.23098559059,-1.41947478383,-50.2550120309
off_to_on,-0.207310532615,1.36128933534,-0.522736334463,0.000308363965536,-0.322262942741,-0.779545246014,0.183333727112,-0.64172624285,-0.010852508435,-0.739776641415,0.629298480925,0.0609473402564,-0.38198888693,52.5128701236
off_to_on,-1.06519996997,1.77091792845,0.263173175803,-0.734437218159,0.322898283356,1.6163010275,2.80054597146,0.461502084416,-0.0232912608719,2.05659680909,0.728004533927,1.46634767788,1.45996465517,23.5256756301
off_to_on,0.525379028722,-1.75637689002,0.106239778461,0.174187310611,-0.0286553343139,-0.332825897054,-0.583132483269,0.98523416739,0.0561579719412,0.113380950998,-0.322794814822,-0.398646016786,0.336637197754,-7.99369173657
off_to_on,1.13609377323,-1.57955211361,-0.0849919037572,0.587794626903,-0.370286739844,-1.48406393709,-1.97732577289,-0.372572481466,-0.0930939670145,-2.31454567789,-0.869602395503,-1.52429417755,-1.5462699999,-63.9521839763
off_to_on,-0.32049870727,2.21049141016,0.546215111351,-0.268009581326,0.543161380184,1.55378506401,1.54120204856,-0.55991084661,0.130012686144,1.27318696258,0.626942263257,1.30785901913,0.350048063032,43.8634789969
off_to_on,-1.99821861734,0.788056350706,-0.944889547289,-0.590152484052,-0.082365488697,0.412691169619,0.150147214181,-0.495513322083,-0.162371508836,1.17934704429,0.350034540809,0.348737220051,0.598347806751,14.0431947627
off_to_on,1.06556466785,-1.78089653623,-0.172874743458,0.714784966033,-0.331854120072,-1.38434960089,-1.31730076932,0.740009966792,0.194773847713,-1.60204016756,-0.247472197816,-1.01851727446,-0.171081467354,15.4486325557
off_to_on,2.02224454675,-0.746801503788,1.27641561592,-0.0854649706408,-0.145495023091,-0.429541012762,1.00725709346,0.911617514401,-0.230535063584,-0.270690672164,-0.460115343386,0.204975111515,-0.0234058105532,-64.7790269905
off_to_on,-1.34114686071,1.92463227863,0.112174346902,-0.187400274937,0.578468428226,1.69203092864,1.01850789305,-0.497167329979,0.264434973935,1.77868332944,0.454294945688,0.90974046605,0.0984303110576,33.2485170898
off_to_on,-2.2759137405,0.00721117982214,-2.0261480019,-0.348768848636,0.0234021247439,0.121659152285,-2.01427549228,-1.87847398942,-0.294102496509,-0.887150329881,-0.158210643978,-1.04315225196,-0.859555574355,3.24085286636
off_to_on,2.11528876566,-1.09108105641,0.989560731308,0.769665489776,-0.294061106469,-1.27316172902,-0.183633957899,1.05773117701,0.324827517462,-1.03710920575,0.389769410821,-0.0256874852912,0.693796944421,31.1165013846
off_to_on,1.40904595732,-0.392605011129,1.20662752491,-0.297529947184,-0.831368682357,-0.9948465149,1.81034966571,1.79379629577,-0.357727665103,0.782205833097,-0.518859633685,0.621505128753,0.77218655694,-56.6058232865
off_to_on,-1.32407284793,1.44837783266,-0.588505930529,-0.274063412881,1.38667771479,2.27158570928,0.828834967406,-0.356733466638,0.387356659475,1.57991279596,0.0182347294257,0.666451506711,-0.451818043524,21.9130823045
off_to_on,-2.15623323603,-0.611967066781,-1.50835434689,-0.188434158574,-0.068712199817,0.386056953155,-3.34808688795,-3.32085397145,-0.413510029339,-2.04520728715,0.125042077444,-1.86071801577,-1.90342758792,-6.65517724354
off_to_on,2.08929416268,-0.0921222204124,1.25000245062,1.0866052826,-0.674831207506,-1.93010865178,0.684017527506,1.75525774697,0.441302642197,-0.496101316116,0.700964513159,0.530949514783,1.89181395236,38.9758875574
off_to_on,1.22102845292,-0.329587812472,0.358659820609,-0.931719094803,-0.734669682554,-0.868269235421,2.7011477249,2.57120546794,-0.469827875506,1.52267728592,-1.28397174203,1.11917969109,0.941986335694,-42.861401349
off_to_on,-0.935215191474,0.69577692196,-0.047658445127,-0.0161284557115,1.55484474731,2.79266760817,-0.570828654871,-1.27941733487,0.494211543145,1.11690945984,0.610394761195,0.1236297457,-1.32631422623,11.4454633714
off_to_on,-2.32027460789,-0.589707050779,-1.1880468515,0.0454384754191,-0.0349674029454,-0.484157633717,-3.35352201431,-3.23091877327,-0.516104845077,-2.63658879546,0.305578610711,-1.90475829158,-1.52085329382,-14.3396191369
off_to_on,1.70219528058,0.545726686934,0.712460438318,0.99054829523,-0.863906190231,-1.34003809073,2.30151421032,2.31972917222,0.539747573724,0.0485453807106,-0.0966557408632,0.650830257343,2.07653482265,39.7715435152
off_to_on,1.75044240762,-0.428231996338,0.251568727141,-1.32930056218,-0.754396526368,-0.195530588805,1.47045762089,1.91899312598,-0.56264425605,1.79334521582,-0.822087165706,0.966564435888,0.473855837822,-26.6733906415
off_to_on,-0.924470734119,0.165881186497,0.488137298206,0.41627003466,1.85852381203,1.32687940543,-1.70096326848,-1.21680237688,0.581086289432,0.721104158166,1.16949658386,0.652266756611,-0.733460641119,1.21612282499
off_to_on,-2.98321365239,-0.364281477911,-1.49815920801,0.14598892057,-0.488359465628,-0.611929006335,-1.2287655937,-2.69466967295,-0.598056327529,-2.88608122214,-0.764250778866,-2.23064629108,-1.71744321123,-11.5895940445
off_to_on,2.49588555821,0.869056858405,0.814466731425,0.475769713328,-0.424105729422,0.975863709002,2.91653734191,2.46103145203,0.616454197774,0.782705139595,0.344121430512,0.272340359413,1.67477537612,19.5746471073
off_to_on,1.47064088354,-0.866162968532,0.151327032546,-1.01555320265,-0.920539962347,-1.56112093509,-2.02739068187,0.575725734161,-0.632789969968,1.1848034331,-0.267997043313,1.12727560899,0.61175941304,2.81624210659
off_to_on,-1.37701067438,0.601622156336,0.374533813496,0.672858291611,1.63652860195,-0.468983662309,-0.326347111996,-0.607179769121,0.6448579107,0.755728928097,0.418783589292,1.39797778485,-0.11265149183,4.17627194156
off_to_on,-2.30432323023,-0.692552870901,-1.20340408899,-0.464578439011,-0.158364857366,1.72515914693,2.17764569796,-1.10469860695,-0.656342739396,-2.31952782632,-0.720195525163,-2.77479710888,-2.06947977483,-56.5772694851
off_to_on,2.3439048311,0.624971601806,0.823755026377,0.927535281179,-0.566337500922,1.49350526105,-0.599689772764,0.728438426063,0.668603441938,0.0894360604565,1.00781832456,-0.383644453576,0.990568591276,69.867535701
off_to_on,1.05312855087,-0.191715083466,-0.166190003625,-1.00888555101,-0.935703970509,-3.86521037537,-3.52436739759,-0.143346629847,-0.677799848543,1.42916701346,-0.974445312677,2.08115015837,1.29341583236,-19.2652440172
off_to_on,-1.03882788392,0.481541888701,0.501700380713,0.369034542198,1.74274551517,0.325682508941,3.78091036518,1.44395005522,0.683302901492,1.12238097878,0.651876922871,1.34258628148,0.281270248532,-9.78907799709
off_to_on,-2.31951184795,-1.39953019373,-1.16051148551,-0.237598937299,-0.398340549156,2.87673799911,1.47852937172,-1.57663494048,-0.688870640538,-3.07755571593,-0.400428424333,-3.4507250048,-2.84968376484,-11.7210421176
off_to_on,2.45096153793,1.13201325535,0.993040524584,0.916250825379,-0.334324951813,0.509183010437,-3.99501627181,-0.612531053161,0.694371294745,0.767281190743,0.394876614025,0.398709575357,1.13626501526,12.2343426788
off_to_on,0.785131770704,0.177003619667,-0.323517815619,-1.05926791058,-0.975884169071,-4.20314344023,-1.00880008888,0.834228970234,-0.69620946202,1.46952611083,-0.64810660516,1.50923598866,1.44522108643,29.3361480522
off_to_on,-1.0347719172,-0.0412176849564,0.278807958283,0.374462807597,1.79648217854,1.42835317891,5.66294598443,2.11119576654,0.695174105948,0.375243644475,1.12410093648,1.24461235556,0.49978694166,-54.4939823965
off_to_on,-2.21421376938,-1.59349351993,-1.00973723695,-0.26908998519,-0.681597109278,2.05908160142,-2.60829753816,-3.16697212046,-0.694557431981,-2.79673520913,-1.28953766712,-2.67117356567,-3.15652630543,45.8973463339
off_to_on,2.80304427286,1.74225909445,1.35739129117,1.00649394573,-0.230706279628,0.0746521801714,-2.88780500179,0.154075509678,0.692991438647,1.61403230628,0.508261624701,-0.0328361937843,1.01137963721,-35.8458647319
off_to_on,0.455950673183,0.0658500928489,-0.524222411325,-1.13368084682,-0.468734075166,-2.5930238221,2.71178547054,2.19508520492,-0.687594766553,0.976233143437,0.468049161732,1.21922265043,1.98094885991,30.2774035254
off_to_on,-1.77227122951,-0.621299662184,-0.340900101623,0.407838653503,1.22905833872,0.473786812764,1.65437426105,-0.36923392998,0.680224924238,-0.935180232113,0.0383925679837,1.11284265748,-0.161447247679,-23.9665779509
off_to_on,-1.02735092084,-1.11488172154,-0.379495616283,-0.294746584549,-0.881062464844,1.06653013512,-3.77539007743,-2.59227745532,-0.673092873498,-1.31473830238,-1.71667435622,-1.92029927543,-2.92494952278,18.1466504474
off_to_on,2.9789950819,2.03419279205,1.7557172565,1.02162536234,0.325351411344,1.36491671035,1.86171876984,2.4936200512,0.662875847365,2.487914717,1.9606562893,0.152867341844,1.78766264113,14.5900316935
off_to_on,-0.921246523675,-0.447366140686,-1.343650522,-1.11659156807,-0.299907565473,-2.12377788309,1.00288181664,0.0528437974492,-0.645486016738,-1.05677444826,-0.0348097635358,0.0877303291092,0.953956377398,-68.6159013625
off_to_on,-1.46985468263,-0.974043765543,-0.400328164409,0.285203995978,0.598365987258,-0.62048585147,-1.4399420317,-1.30199590398,0.623925741595,-1.17284338729,-1.04540504342,1.03853379968,-0.603881526617,52.8486304963
off_to_on,0.323521082124,-0.182386876145,0.402570322882,0.0685298393049,-1.17973901225,0.600674432789,-0.889865576656,-0.304786767947,-0.609936599755,0.931000651647,-0.753496055207,-0.63787947331,-1.38497231455,39.5709343874
off_to_on,2.26947788042,2.14528900408,1.51044992823,0.549379611544,1.58197170266,2.66486664149,2.66832714695,2.32580511268,0.615438410161,2.09738120079,2.60926960972,0.414661292978,1.86851341245,-47.7810585913
off_to_on,-2.15875451394,-1.89691490787,-1.9377337693,-1.06320526351,-0.695701943138,-2.23141078949,-1.36922530932,-1.87401961599,-0.62879360141,-3.44443116743,-1.24550690435,-1.91414709394,-1.25269610003,-65.201670557
off_to_on,-0.304430868824,-0.207475472811,0.0209623551337,0.852460357663,-0.807288609603,-1.50508227413,-0.661111766157,-0.304571667568,0.606987369159,0.155548126784,-1.26144809572,1.35946086269,0.34475740394,81.5110471419
off_to_on,1.32141398377,1.08037105652,0.900012329034,-0.450347038969,0.470292409666,1.26826053129,0.611582672602,1.15002546545,-0.535969924686,3.15947030402,0.720239826022,1.84757029599,0.938479894273,63.4827526553
off_to_on,0.345969858354,0.47401086156,0.608635882223,0.343886434405,1.57472272797,2.1131129965,0.108912566489,0.133554411086,0.490889950559,-0.907579454832,1.91013628154,-1.53779011935,-0.755617945823,-100.75133988
off_to_on,-1.97849191868,-1.97678252325,-1.65604788056,-0.481063509152,-1.95919768795,-1.81137671906,-0.416387419759,-1.54093361361,-0.540015062159,-3.55814412481,-2.0399858765,-2.94249540709,-1.77759426629,-57.2257441993
off_to_on,1.38645942944,1.07439544943,0.557213169276,0.646382959928,-0.141551962103,-0.868085325708,1.86274767137,1.57003110407,0.588728269134,3.00189079441,-0.540388149125,3.53778598735,2.81102595109,95.2009256553
off_to_on,0.209002096225,0.748947580185,0.407784324561,-0.57669273784,1.17917940781,0.249465672433,-2.44818345485,-0.415410055945,-0.489813044293,1.37555080083,1.29180894387,1.34999569342,0.0225272636135,89.820168064
off_to_on,-0.571731870893,-0.596571468097,0.372412276847,0.254785576926,0.527843920277,1.45323801139,-1.19773951462,-0.850244148423,0.3278389224,-2.31149829135,1.02320718358,-2.96952368707,-2.04302381493,-138.974793096
off_to_on,-0.443251292256,-1.07019384379,-1.15931708803,-0.178386454246,-1.87372206473,-0.0491801056767,3.69155102041,0.50881526074,-0.330981238803,-1.00292827619,-2.21843581833,-1.4234404042,-0.422828560235,-59.2824042508
off_to_on,1.26740679269,1.41079066052,0.517575951766,0.537447507824,0.767264079728,-0.77261149022,1.75985556268,1.74133766123,0.455217892714,2.63591354062,0.218268686925,3.60155836348,2.79520791888,104.487823551
off_to_on,-0.877265521681,-0.144105495588,0.295267082948,-0.627076534923,0.483063198247,-1.80058353731,-6.97636741326,-2.5139828174,-0.421660228742,-0.644951745284,1.35914368875,-0.0824350309437,-0.758324455566,117.886646745
off_to_on,-0.168779010673,-0.349802392363,0.0436814692043,0.125119164253,-0.0423520998604,2.09557524194,0.410047457676,-0.648614570871,0.237262388927,-1.02450542966,0.191593380646,-2.27566201504,-1.61259571691,-168.942278006
off_to_on,0.593147002863,-0.469918293509,-0.846112708053,0.0476814934743,-0.464998663612,1.95610515166,8.53649149907,3.28216401678,-0.20739466041,0.410360726934,-1.97772356918,0.0130550653726,0.0754515465135,-63.6803195519
off_to_on,-0.0158773789071,0.704706835017,0.835179268953,0.574410301835,0.0128584345646,-2.63123765938,-2.95835945805,-0.195546425002,0.341872815395,0.404928735154,0.860056977143,1.65650683072,1.72848650385,107.19957679
off_to_on,-0.620369254782,0.0898667041582,0.0953972647332,-0.830652862554,-0.117759834891,-2.33202747852,-9.05848556192,-4.17349696023,-0.317110762411,-0.36558268604,1.16870969972,-0.135496880766,-0.114884870384,142.368337959
off_to_on,0.575410902643,-0.258123561683,-0.769439956775,-0.0229952224402,1.01273308267,3.84328464705,6.31900750514,2.03044656477,0.123276074874,0.526607972024,-0.786397666112,-0.544900330841,-1.30143576056,-181.791243893
off_to_on,-0.357662380829,-0.533722573547,0.00922595803341,0.710045679113,-0.778051020513,1.20913572663,6.73405160482,3.36125766341,-0.0988947552095,-0.830022258058,-1.10400317076,-1.01065503625,-0.630614558267,-79.6968369306
off_to_on,0.376925744347,0.721062918389,1.37107359077,-0.0833600692295,-0.521723698975,-3.5705010647,-7.26117796389,-2.52301577747,0.240843198484,0.270936604787,1.40957901832,1.14619970505,2.01429154996,111.901161097
off_to_on,-0.0338788263987,0.0778933369377,-0.987337428095,-0.790925041203,0.564108174737,-0.700592282348,-4.80294874162,-3.02227599466,-0.193294872953,0.562745454518,0.0931716541233,0.762003700025,0.168877999144,159.244208374
off_to_on,-0.555358181337,-0.441646187894,-1.09115411346,0.510522487533,0.706072972566,3.34917481916,7.92487181391,3.28228558124,-0.0275487807213,-0.307099244958,-1.05519142552,-1.01645019739,-1.86497279784,-180.494589436
off_to_on,0.0948034183842,-0.148533817467,1.4231851068,0.303140514706,-0.873673280181,-0.205021042329,1.86996225471,1.90894020872,0.0537944549906,-0.634065210954,0.400494818559,-0.894599588265,-0.0877970651518,-103.029218486
off_to_on,1.04248400955,0.536637340384,0.951273632932,-0.333707430535,-0.37423626853,-2.22557808807,-6.65077243558,-3.09367180354,0.0905387734644,0.652651563578,0.65855705581,1.25534963277,1.79997740871,118.97317521
off_to_on,-0.560295377828,-0.0788081642582,-1.90717355328,-0.17683505814,0.864000609345,0.438647190034,0.0699043098257,-1.04139677779,-0.0437918661095,0.438162023037,-0.765874319272,0.815049025315,0.034938222657,167.343351646
off_to_on,-1.32827615458,-0.46871434745,-0.596847984004,0.222654736406,-0.0771357527544,0.973989104837,4.68516090247,2.24102487711,-0.155695878261,-1.04413661899,-0.0217943054133,-1.74625520178,-1.90398926114,-169.149573168
off_to_on,1.33291547025,0.469891907953,2.19732765012,0.123764450481,-0.33942312036,-0.0172213810162,-0.678510564724,1.10928202192,0.164802900038,0.225639369048,0.697091201118,-0.0868444036339,0.412892879155,-127.425133946
do_nothing,0.932112160276,-0.177624720269,0.0536311607462,-0.206891966424,-0.0879148564086,-0.231161541952,-3.47721585338,-1.92414126402,-0.0438773165282,0.788469169024,-0.574604747545,1.64679884627,1.49325945034,125.571550974
do_nothing,-1.55652472225,-0.0888954326817,-1.9594916158,0.144895090302,0.272604998464,-0.307489638655,1.40352539214,-1.18123761047,0.111370796618,-0.484484731466,-0.0645797479281,-0.512894035808,-0.478175061703,168.219521975
do_nothing,-0.671915016595,0.184092506561,0.00965211080624,-0.349598029474,-0.00300232884763,-0.544553761456,2.02317801031,1.83516678439,-0.281165229119,-0.553238467785,0.432530467498,-1.29854395685,-1.28431596899,-151.650284485
do_nothing,1.86026101627,0.200930259735,2.07120356994,0.494988150438,0.0136153598477,1.02678759021,-1.27658211967,1.30998127842,0.263040366587,0.817564578556,-0.0859467094159,1.09966118776,0.904658101522,-149.213122582
do_nothing,-0.194070761404,-0.839098544178,-0.690224064952,-0.153075991821,-0.353222862754,0.590044416704,-1.68254923625,-2.4879225742,-0.168789755199,-0.416780329824,-0.672675471987,0.150871448583,0.181823039021,130.506265826
do_nothing,-0.954408229831,0.673337424476,-1.0066142091,-0.205489826546,0.580109166655,-0.918777807523,2.03522436256,-0.0473240443012,0.257607532234,0.249965425718,0.998405529585,-0.215281465114,0.0175366380668,163.817631819
do_nothing,-0.286438262077,0.33398477947,-0.125561620737,-0.0589457541281,-0.599820930498,-1.6769165769,0.500281705051,1.56688361989,-0.394878053501,-0.0590961514845,-0.394505742255,-0.444922794868,-0.48188953134,-132.136933937
do_nothing,1.16206114506,-0.455006273884,1.32252310059,0.583295566607,0.330486657251,2.31404337544,-1.53699682009,0.109277063167,0.355498541207,-0.233369926307,-0.350675744142,0.41455633546,0.363241409932,-165.605059003
do_nothing,-0.245347910357,-0.851811346738,-0.224833931316,-0.612197641586,0.151877521209,1.14014356572,-0.822862277743,-1.75763078207,-0.293227011349,-0.487946081449,0.0169847379334,-0.428627360659,-0.654248638765,133.105765046
do_nothing,-0.111596777948,1.39510190212,-0.423435498301,0.291458023088,-0.0624604683071,-2.62691620478,2.27710085764,1.13172120316,0.39513238274,1.67429877659,0.948931870518,1.1181959117,0.984268593381,156.148411821
do_nothing,-0.791964385593,-0.0703291908665,-0.903402216875,-0.284155086892,-0.800507489435,-1.22346996192,0.138438867077,0.216354113069,-0.487723173523,-0.830440123856,-0.881243252654,-0.747113809085,0.00520518486416,-113.830754561
do_nothing,0.625513586686,-0.723076454218,1.15622885031,0.535589717636,1.01949018204,3.88398472521,-1.8986739451,-0.534837037833,0.419630516383,-1.39230421975,-0.12730130034,-0.995534850207,-0.86531464852,-175.584128744
do_nothing,0.597374867312,-0.508829132886,0.511393075484,-0.540191457017,0.0457914667593,-0.240138724571,-0.596566132536,-0.0298067345219,-0.384485282048,0.99768832152,0.180102567631,0.980911951531,-0.456495405145,133.655834317
do_nothing,-0.146467672198,1.31730621833,-0.514608440375,0.421669662836,-0.478749660468,-3.5522647021,2.63106330957,0.781257141367,0.508056569906,1.97193472724,0.902326987614,1.56981186583,1.90015954033,146.937278657
do_nothing,-1.68183581325,-0.176859146542,-1.638261586,-0.569530189196,-0.894710358093,0.419589980075,-0.66453819993,-1.31416606052,-0.583260021691,-2.59322797152,-1.13146637438,-2.50063304897,-0.809718884945,-98.9585848926
do_nothing,1.67532133109,-0.305984411882,1.78903145477,0.668967754705,1.83105038099,4.62832826879,-0.584982175079,1.21322381294,0.49894331898,-0.035318517994,0.137514271785,0.119438929548,-0.582293078524,-179.524794157
do_nothing,0.17872410454,-1.15953418033,0.584581257882,-0.353904056709,-0.565273733176,-2.57401718176,-1.16496739061,-0.328992933708,-0.462142219743,1.08186595009,0.0989057029667,1.23988539512,-0.493383473731,133.360845035
do_nothing,-0.646824210808,1.54587830577,-0.958514228589,0.210627746491,-0.612169259523,-3.33059682679,0.925465122863,-0.575767223833,0.57519834783,0.813407080174,0.920258869041,0.675210549305,1.63862463018,135.596141776
do_nothing,-0.80325757985,0.199387699477,-1.49566904171,-0.730492993877,-0.520978816828,2.27954626403,1.20455526097,0.219860424765,-0.646604944709,-1.54771333184,-1.2894842756,-1.865616348,-0.347050269123,-81.2827557708
do_nothing,1.53513025025,-0.499060069003,2.25403785462,1.09298154953,1.80660841266,4.59086327552,0.708548202564,1.36853424211,0.58373858191,0.148890484906,0.382379108326,0.217229069171,-0.596687780669,-196.56665467
do_nothing,-0.748179606016,-1.54134712757,-0.0808817741248,-0.585921010128,-0.713469190952,-4.65171167314,-3.58665891613,-1.98790600562,-0.549353931491,-0.0262350821944,0.0885441617428,0.527059951797,-0.979851521858,157.307420688
do_nothing,0.0569760270463,1.79132167366,-0.956752790044,0.155856195222,-0.848814998348,-3.59985259822,-0.0512612821609,0.225447972577,0.618033343436,1.22547546119,0.609910043367,1.15462287634,1.76398012558,118.211942004
do_nothing,-0.0442119223551,0.574125559634,-0.662812316491,-0.709177500531,0.0486335156492,5.6418993727,3.91530547195,1.38712962054,-0.658792978826,-0.707926309539,-1.11096965824,-1.44927143611,0.171551020219,-109.319237705
do_nothing,0.330622116688,-0.914801498074,1.80595762093,1.19916408822,1.81722600885,3.77955941274,1.4861073653,0.181465005846,0.621502884168,-0.521737486656,0.709026544242,-0.431733243274,-0.941109420681,-127.159370736
do_nothing,-1.23635299857,-1.70052077556,-1.0829704667,-0.51851932515,-1.83482624897,-8.99586543674,-6.72056689486,-2.71056783591,-0.609538537682,-0.557029444119,-0.383555008872,0.202892267407,-1.40551635885,113.379407636
do_nothing,2.04251689433,2.33841425389,0.385694635266,-0.205164506355,0.255270522435,-0.125387079348,-0.0330301631756,1.87342067779,0.648871948591,2.17058401914,0.642188994091,2.40111294052,2.6307439053,97.9676667774
do_nothing,-0.789759901258,0.165546863225,-0.296188359557,-0.436703035683,0.534950495978,8.70759605543,6.59000424921,0.875531617678,-0.659498748345,-1.17184294511,-0.747923364234,-2.31900606692,-0.480620272923,-71.0576681959
do_nothing,-1.37022237958,-0.957806237289,0.0402784872359,1.45100601297,0.290104519183,-1.69969873414,1.2721640769,-0.670085752596,0.635848322838,-0.468520663032,0.434475979915,-0.800044058125,-1.05186659686,-133.906752197
do_nothing,0.514082756648,-1.28120956928,-0.45108127005,-1.19043304793,-1.49517568735,-9.23154916018,-9.16182563409,-1.71062455705,-0.63727394017,-0.152368235669,-0.449404803337,1.35606778767,-0.441574878618,116.451859131
do_nothing,2.69334143336,2.10385004659,1.73989812268,0.242231702016,1.57043551192,5.65557090956,0.440392613088,1.53552840195,0.653337486956,1.15861584919,1.00601993708,1.56723429506,1.71478618954,55.5047137842
do_nothing,-2.6711335923,-0.227450300707,-1.4644699453,-0.158939789825,-0.287553272625,5.72423024891,9.18080359102,0.603229433758,-0.643164320465,-0.453413441632,-1.1684088573,-2.48914829624,-0.691856278509,-22.0061361965
do_nothing,-1.14171370508,-0.548361432304,-0.70343590493,0.786138274317,-0.715990422293,-5.80144406047,-0.793774854103,-0.324378701208,0.628759495804,0.0557967969013,0.41203416923,-0.00153119971236,-0.164771523045,-130.902902465
do_nothing,2.28114632419,-0.771994542727,0.974786708528,-1.01331965944,-0.239458006017,-3.95591048977,-10.0024340055,-1.6429721886,-0.634520442234,-1.13237747194,0.178604590076,1.03314899326,-0.58070880517,80.871898417
do_nothing,1.40981583051,1.20816960199,1.64521075595,0.763629570838,1.9765156491,6.64303100767,2.99676770856,1.37097648801,0.631061044006,1.25507485484,0.588443775646,0.962748522854,1.08629058229,66.4122785475
do_nothing,-3.68746943436,-0.401044253706,-2.65155677865,-0.520414957292,-1.73307225067,0.163002274491,7.54095755515,0.0700796590116,-0.608302718364,0.0964338074702,-1.71851986982,-1.91657436451,-0.586410060306,-36.3539165111
do_nothing,1.04135388752,0.562641070165,0.179152268721,0.300434770883,-0.190307195385,-3.67306104544,-1.7212717536,0.647276123903,0.598964491005,-0.151699655159,1.15912407249,0.454083521114,0.416249317847,-31.8149476932
do_nothing,1.57265752398,-1.14601640928,1.32492370174,-0.24051617359,0.607490844637,-0.193362204068,-7.81275579793,-1.72852376622,-0.601005410733,-1.27450048388,0.497223359497,0.151064023224,-0.77687569939,-75.0764646673
do_nothing,-0.259314027476,0.443968860865,0.607543650758,0.68059958374,1.02498168748,3.11113938569,2.74351728156,0.201440909603,0.582371033321,1.35885498947,-0.375434893394,0.932036285325,0.77598445716,137.88584031
do_nothing,-1.66990161907,0.112449364272,-2.1048317628,-1.12400214714,-1.63147637201,-1.26110919443,5.828908084,1.25252413023,-0.555610817948,-0.0499048881246,-1.54152717698,-0.940809752478,-0.520601037488,33.7456410704
do_nothing,1.06290874462,0.899390732628,0.609840143167,0.791840299892,0.164935436294,-0.670116971948,-1.74647354161,0.582561780765,0.549074016824,-0.16115103847,1.73785339451,-0.277237186522,0.338804819186,-132.321288735
do_nothing,-0.0992022346782,-1.37338837389,0.649248235626,-0.179918844827,0.566411390679,-0.0223776869218,-5.73001893103,-2.63226647952,-0.541355300011,-0.671422976029,0.438859293481,0.0398258030555,-0.0577977504197,-54.1820789234
do_nothing,0.615008008831,0.0655169775382,0.574909306711,0.25107300192,0.723959011047,1.18616325376,3.1600997893,1.0743006089,0.510165431286,0.730966696832,-1.00639587858,1.37502650318,0.240463033385,160.617890098
do_nothing,-0.71511999094,0.520466203809,-1.45747199656,-0.63698834979,-1.46691274373,-1.06106296298,2.63693172507,1.54132366237,-0.484348714861,-0.364086139312,-1.28482611759,-1.1960984535,-1.18545114169,60.2936081284
do_nothing,-0.250564483392,0.715143884523,0.159295843302,0.524434370419,0.269380329931,-0.0502232138567,-2.02010257449,-0.974059443896,0.479328174646,0.675662021247,2.19661904532,-0.198496813128,1.25577322372,-216.833949367
do_nothing,0.0501866041408,-1.2224994657,0.610838411667,-0.295059500662,0.433262982012,0.646158602006,-0.822554374351,-1.65073093031,-0.462412115941,-0.883841655052,0.0327642740508,0.0946164816379,0.224074119706,24.2612432224
do_nothing,1.33236537509,0.198839385014,0.749067963028,0.460889555798,0.853934284938,0.842881178541,1.54325578495,2.45175492229,0.428362005578,0.339020106917,-1.2212702704,1.14500627706,-0.692830576478,138.162562091
do_nothing,-1.21193790922,-0.0288176179184,-1.52536063144,-0.454199096588,-1.66768339508,-2.62001524506,-2.66201074152,-0.733714519626,-0.41031116215,-0.0599913279022,-0.661093701421,-1.0438618044,-1.04248636988,27.301475874
do_nothing,-0.3681437886,0.964374010403,0.0841128342796,0.0843413408051,0.142993873774,0.649917692602,2.17342594239,-1.12655837375,0.393414999698,0.348572795469,1.79743173049,-0.104442493509,1.7721180555,-174.466261749
do_nothing,0.668483458607,-0.650668486824,0.984274473053,-0.24322923379,1.32278294304,3.13778881417,2.9803067086,1.2375889154,-0.338042115016,-0.218182656749,-0.299331185564,0.344447642891,0.290087999083,24.8013103283
do_nothing,0.396713246147,-0.624839195267,0.140337761964,0.876178878954,-0.175736625856,-1.6963761953,-4.96876647449,0.214711004732,0.289379441373,-0.111192002352,-0.559797127309,0.0755582977535,-1.62604386202,105.443889332
do_nothing,-0.641130229751,0.272019281318,-1.3062755449,-0.683713466962,-1.73269876481,-3.88556548763,-2.19158137007,-1.5669633409,-0.312239901496,-0.420264304617,-0.48127545227,-0.20897719888,-0.260732454682,27.0843402363
do_nothing,0.24723779643,1.28379164232,0.656791803182,-0.241069154561,1.24103667545,3.82718661518,7.35157873193,1.38909495357,0.329513324479,1.05364558296,0.662182636756,0.670251727091,2.12895775235,-131.330044929
do_nothing,-0.609913224,-1.17924116793,0.33303691769,0.327934768222,0.771908809858,2.70874359727,-0.758855536197,-0.080239182953,-0.223454766772,-0.343968783487,0.232205700362,-1.13776432722,-0.894477604028,6.34448423136
do_nothing,0.692900424761,-0.568504341609,-0.151747537662,0.428382685473,-0.915081421356,-4.34593375027,-6.32192997452,-0.736813806442,0.0878959131141,-0.719509470329,0.282449451094,0.0486179606841,-1.10087323284,79.2944924999
do_nothing,0.417049137227,1.11535865583,-0.348882557558,-0.506978155775,-1.01677093572,-2.21861439804,1.7190393724,0.346126495882,-0.122294489759,0.135381372594,-1.17125823556,1.22550112228,0.662360565008,29.6721295498
do_nothing,-0.609343085174,0.349762539291,0.331588285836,-0.0514779600506,1.69839345351,5.47363748532,5.1767785386,0.537429415908,0.260345349112,1.29952386023,-0.111266737394,0.0804255030885,1.04966508938,-85.3688537419
do_nothing,-1.01377221578,-1.57992136342,-0.301196266586,-0.0266495609259,0.202935091869,0.312223860313,-2.17795064346,-1.03105152957,-0.224988399873,-1.05909682671,1.36063826386,-1.93464065253,-1.26205403271,-21.4022587091
do_nothing,1.41851440515,0.886089788663,0.298075923924,0.376161057862,-1.71427935905,-5.02267890974,-3.35176833627,0.741879231022,0.0114837737563,-0.69573542379,0.304745020397,0.479403016333,-0.0201268856512,62.1643718551
do_nothing,0.720338101896,0.769025546837,0.218485996122,0.0652952040828,0.375629850998,1.20135930015,1.29282587497,0.339573906409,0.0634743591493,1.29611396677,-1.81520999453,1.98860312377,0.944312497225,28.5260856914
do_nothing,-1.91205479927,-1.34046871949,-0.653390459244,-0.424293911964,1.5832336516,3.71829601328,1.87885495808,-1.41246734668,0.0897106785758,-0.0774149646466,-0.137941235695,-0.919947755232,-0.699848700123,-41.0979715799
do_nothing,0.0400229770303,0.145292794059,0.0817541451379,-0.287324674053,-0.844527192589,-2.01601161392,0.704619301289,0.945773559587,-0.159024296016,-0.869458555879,1.97555360866,-1.50614454318,-0.181788770309,-50.0238850887
do_nothing,1.82649951474,1.3223996654,0.75025666483,0.625417140901,-1.34955409488,-1.95460929937,-1.60666256091,1.20450883111,-0.0169431835915,0.571416852991,-0.0121519523644,0.84307896007,0.848216377673,53.3901752788
do_nothing,-0.852279545442,-1.02615832592,-0.481892057402,0.488817052693,1.26324618746,1.88439369888,-2.82736562748,-2.29185812288,0.167893721926,-0.0932352966948,-1.97437867816,0.913167041527,-0.589351168656,23.4574916123
do_nothing,-1.29802681575,-0.867677294601,-0.573296119958,-1.09020044834,0.827415433113,0.250464396208,2.35733847854,-0.0662456022728,-0.0974651580349,-0.328990775964,0.0224398397978,-0.380346889345,-0.585800616262,-8.44643215387
do_nothing,1.71307817386,1.78133856912,0.963517062501,-0.149796010808,-1.19421376429,-0.742733966583,4.70623875168,3.12461744697,0.0232886292477,1.05162891258,2.16293267527,-0.197984979415,1.39501059478,-64.6040395758
do_nothing,-0.0511737716152,-0.25654475879,-0.23796507342,0.927369479553,-0.615284227485,0.678328635394,-4.27607586116,-1.78917115266,-0.138111315695,-0.717416003154,-0.474694127996,-0.844958606232,-0.48195998786,44.9143557184
do_nothing,-1.60098803048,-1.56428943942,-0.585658761426,0.377722212137,1.22397882413,-0.855204704558,-5.21936619476,-2.62521131682,0.261946259278,-1.16002523163,-1.68478313961,0.389303816207,-1.21780505489,13.918425387
do_nothing,0.85472515895,0.850060415768,0.364594045575,-1.30254823727,0.067338773897,-0.749428251815,5.87707425262,2.76754178295,-0.221699974775,1.35696101388,0.232574484707,1.30970778747,0.950832831626,15.6061467309
do_nothing,1.80029872676,1.50566485952,0.699606919314,-0.0488583960442,-0.278570243921,2.87619097295,5.52927875406,2.44264679561,0.172932452375,1.62179252784,1.88427543843,0.271935490829,1.52773236277,-65.9011529935
do_nothing,-2.34690481568,-2.0195818763,-1.11791733033,1.16498631606,-0.997163767393,-1.15927700676,-8.25432352883,-4.35283156799,-0.263267717555,-2.98543236782,-0.799182554803,-3.09814358468,-2.44867968651,34.1693751459
do_nothing,-0.718144368953,-0.00717020683626,0.198258521325,0.227852733719,0.783723439043,-2.85512142945,-3.79694632752,-0.834620343363,0.353451865046,-0.375681644304,-1.0473189468,0.868627513933,-0.178891874693,3.09267529684
do_nothing,2.43684248103,1.3616433509,0.629215231326,-1.84453062981,0.888542424924,2.19514706633,8.69782379163,4.27761947192,-0.323848597186,2.91228646908,0.201488633697,3.20505481762,2.33003527464,31.7277586304
do_nothing,0.518478605377,-0.0678124239185,-0.00894397933783,0.993680009583,-0.591803537722,3.06791664368,2.65659330945,0.163983129713,0.302684586355,0.0364970589465,1.31505780573,-1.18491327793,-0.27081746926,-57.8471627606
do_nothing,-2.84213479861,-1.56778511848,-0.952174484853,0.736794704826,-1.52003378367,-4.12675083962,-8.79373041515,-4.35394178115,-0.380704825186,-3.05037061708,-0.605506135902,-3.37932725997,-2.54482678984,22.5149491206
do_nothing,0.0600907517313,1.0342464239,0.651996622188,-0.555181328849,1.52129559101,-1.43100974865,-1.42015680715,0.792576470557,0.436575281366,0.764728821136,-0.47284419082,1.8793248913,1.34752303698,-6.7967164038
do_nothing,2.23569893865,0.309349259633,0.100086147368,-0.948136803596,0.595738381558,4.08399992226,7.63111659764,3.24911337041,-0.407288153563,1.77581380697,-0.470025081165,2.05056602629,1.27038878236,39.857000686
do_nothing,0.963728613496,-0.0704985419355,0.230724536154,1.42644384297,-0.63262253944,1.26011340289,2.18745421686,0.207187867662,0.410045246923,0.557563090255,1.44403130293,-0.279255122668,-0.384412802673,-43.959370707
do_nothing,-3.48548402743,-0.95526438311,-0.94378724147,-0.546790593401,-1.60671391439,-5.31813774258,-8.56596429734,-4.37897550908,-0.482850024202,-2.68017230644,-0.262883527727,-2.97520767758,-1.95384690883,11.6592461433
do_nothing,-0.0633596393007,0.750453862029,0.604633355307,-0.275830052177,1.80716291917,0.651150743612,-0.970496360562,1.06394012465,0.510932710812,0.0180691002257,-0.840103367601,0.522725337646,1.11872295587,-14.4643578622
do_nothing,2.8756538315,0.0251235734428,0.166579058693,0.182058600142,0.395833738734,4.29316121489,7.64552705358,3.31587097208,-0.47645705868,1.93225221186,-0.500012684108,2.34249708135,0.968151728754,40.7413625823
do_nothing,0.823054539926,0.387523104221,0.0306071174239,0.589211553234,-0.710946936728,-0.306693320159,1.43855419924,-0.398989372935,0.490667137352,1.05088447107,1.95435187578,0.816848278519,-0.0172283531179,-27.457795454
do_nothing,-3.89527775649,-1.29234162817,-0.88513253624,-1.26404427829,-1.3159920086,-5.21225506321,-8.43242724798,-3.97366959452,-0.555625796676,-3.16797643974,-0.741571815245,-3.6865002477,-2.02335689575,1.06775858908
do_nothing,0.354132583419,0.908176888366,1.12483404803,1.08676597817,1.51207919666,1.80008066915,0.101354546031,1.55067223262,0.566023543949,0.234020665729,-1.00063041833,0.187323880817,1.05194798532,-11.6956571047
do_nothing,2.78715744762,0.282828055624,-0.455209832906,-0.211759919691,0.49078256733,4.24149780764,7.10908564529,2.61267408995,-0.532041648538,2.26833920489,0.0601432863415,3.04684369711,1.14460494049,20.4489701774
do_nothing,0.302545998094,-0.418090300219,-0.265653120794,-0.19786201392,-0.496582014442,-1.55086387367,0.142359166729,-0.696283246574,0.55009043543,-0.0910940257839,1.91767786349,-0.106011197195,-0.51062712466,2.4676039928
do_nothing,-3.2079962287,-0.717526387325,-0.0503318770561,-0.427498677854,-1.78999634145,-4.84773177929,-7.43512171075,-3.17712731242,-0.599392633716,-2.61298894565,-1.50093575809,-3.31367833191,-1.89868723975,3.74872956873
do_nothing,0.868005253123,1.61595160876,1.3560590078,1.12955163533,1.98100060643,3.2033690875,1.79365777614,1.94351843703,0.593119407853,2.0440714333,-0.349547219557,2.05264705761,2.27766402951,-56.751967064
do_nothing,1.098686061,-1.21485559716,-1.82864586953,-0.932063122193,0.379760812958,2.89872146879,4.94186096438,1.23603937368,-0.561264296613,-0.186486468445,0.333927832791,0.208713537259,-0.325849608219,70.6608433367
do_nothing,0.962231784421,0.0837405120427,0.36857651767,0.312149609607,-0.794723992028,-2.08260439854,-0.87651307032,-0.336720391962,0.586756544383,-0.6827110484,1.27370232836,-0.371549674236,-1.05187031608,-19.2854545281
do_nothing,-1.94800913446,0.280862089134,0.837005345042,-0.26234215159,-1.47128511164,-3.34430742766,-4.89251492977,-2.19869507948,-0.642180482519,0.392325738796,-1.60761690324,0.0895984655139,0.0730763097592,-10.3204601373
do_nothing,-0.277574508973,0.611005580854,0.422231726283,0.748839176464,1.96369713029,3.12978065567,2.13256535282,1.27482755787,0.646164939307,1.14950188963,0.301671054675,0.573629273317,1.82626991349,-11.9918735523
do_nothing,0.794226689326,-1.35487138833,-1.99429467832,-0.98213101954,0.312939801504,1.27224959466,2.71207838902,1.20083979095,-0.597388412604,-2.32184481217,0.481630135678,-2.00986375384,-1.69012839571,12.8095006414
do_nothing,1.49663308017,0.803253167958,0.975804071785,0.686541833986,-1.04135343631,-1.37758249233,-1.39713737434,-0.587782683418,0.553722027241,0.598910710365,0.247860381195,1.26117283013,-0.623813023367,29.8431000694
do_nothing,-1.97159139274,-0.0577780619187,0.643670605747,-0.373128875507,-1.02421127201,-1.57086123217,-2.22193926913,-2.00268134059,-0.563633041008,1.67432439664,-1.41850127021,1.42856689541,1.27650925622,-55.4231874414
do_nothing,0.00987469135559,0.341393806783,0.24334679343,0.473040356928,1.89782367499,1.37491045147,2.29912262305,2.11016610275,0.636794084123,-0.0356796203375,1.60420668339,-0.673276256564,1.33913287621,45.8433558361
do_nothing,0.521465460875,-0.694017535511,-1.71258946206,-0.70217958209,-0.284245582873,-0.0403549723823,-0.458375344872,0.300724636755,-0.685858834259,-2.95362408168,-0.41164573706,-2.89288200937,-2.78162050629,-35.4907577076
do_nothing,0.859723252127,0.284613513492,0.835713500922,0.577211487747,-0.276190536844,1.39641695265,-0.186385661502,-0.937180058873,0.584703492692,1.71608575175,-0.751411503482,2.19461732129,0.262911388025,30.9397712728
do_nothing,-1.54670383381,-0.367699792892,0.348879704567,-0.288926493406,-1.1643073647,-1.536801121,-0.119453933309,-1.45015371809,-0.418702100866,1.21105110783,-0.0489496653393,1.75652527241,1.47524507058,-24.9895703449
do_nothing,1.03581968064,1.29063172618,0.637737179394,0.407852704243,1.26566535246,-1.66354472077,0.673626940551,2.54668673665,0.46360140549,-0.189250690397,1.93269143352,-0.970658958709,0.951611520212,18.3349107523
do_nothing,-0.184167575799,-1.12040210214,-1.41350818209,-0.814432179971,0.386269259259,1.66629468775,-1.12055926014,0.208265446051,-0.706475368163,-1.99196639409,-1.71850874378,-2.95272652039,-2.50874845965,14.7430898046
do_nothing,-0.576035659518,-0.263565033046,0.0501250448241,0.848549855489,-0.285211518447,3.17885191562,0.640692037537,-2.19011004807,0.73331832657,0.443879361028,-0.551175455068,1.70397876119,-0.217487345422,-68.2406820827
do_nothing,0.0441182537302,0.241441146358,0.530172387042,-0.504127717193,-1.56955072564,-3.87357124572,0.0650511895878,-0.797066133247,-0.41919173751,1.19006430228,0.961723269635,2.29315476539,1.64231669182,52.3463220719
do_nothing,1.73912339592,1.28704567921,1.14472714068,0.373752267395,1.32474663454,-1.86234191895,0.401594436306,3.79847438635,0.266798860431,1.01184075416,1.28052983081,-0.775027999082,1.41387889933,39.7287828032
do_nothing,-1.62929768819,-1.23596575274,-1.61420519151,-0.491429041445,0.781998469325,3.52123568813,-0.832679523987,-0.718119535086,-0.575487834074,-2.20708778702,-2.05060023813,-3.01563596947,-2.62738319749,-48.0042861137
do_nothing,-0.908774379236,-0.437088840101,-0.255952189216,0.440080759296,-0.496351277504,2.22812199655,-0.0176774060894,-3.38875554907,0.817023863241,-0.605930283428,-0.00023784464203,1.32756220877,-0.851862194773,-64.7865788064
do_nothing,1.11765392002,0.288212344269,0.642312724696,-0.342764014503,-1.88019454814,-4.54031267861,-0.0144473283921,0.472415744787,-0.506223273257,1.36260092664,0.869847715728,1.75867866394,1.86809713398,81.3337330922
do_nothing,2.08754121796,1.61474187246,1.26759708481,0.493762648227,1.72645823131,-0.611196389898,1.80003686955,4.73930728006,0.124286855688,2.09283407234,0.971341698988,0.501176115118,2.14766006968,63.5942936639
do_nothing,-2.65365563059,-1.45700902669,-1.50042554074,-0.537187714143,0.782369089594,2.87672032341,-1.85565435248,-2.53986278844,-0.31807235855,-2.60346269884,-1.73983652203,-2.90525574684,-3.22915273254,-101.231939691
do_nothing,-1.00046577722,-0.708686544872,-0.372315773199,0.242578253465,-0.87615656603,1.59190705258,-0.715851447258,-3.21861321909,0.718019281348,-1.32649253267,-0.0271845347617,-0.255898295688,-1.17001648971,-56.8116236634
do_nothing,1.90600936058,0.785394303092,0.412688260218,-0.221463901427,-1.40028770407,-3.01224036898,1.50617650068,2.11769401533,-0.579689714137,1.84867091393,0.789780924492,2.56901871939,2.65396349434,95.2839843838
do_nothing,1.87151600778,1.38147586917,1.30378949644,0.68445157537,1.3506167763,-1.55148798001,0.740409932398,2.94581420233,0.13560729008,2.00437964825,0.731295679323,0.986018809176,1.47982669822,89.8864113409
do_nothing,-2.77457042235,-1.64597337709,-0.941651274708,-0.732010788873,0.930414039817,2.36481575101,-1.75517570255,-2.08856786492,-0.152535017305,-2.30998401841,-1.30727146774,-3.23649963714,-3.09501831454,-139.579466931
do_nothing,-1.33324873431,-0.494474474023,-0.848492150773,0.0554043402136,-0.844615537341,2.50059123107,0.304230267218,-1.99747976275,0.519075590008,-1.27667337128,-0.0581688206141,-0.346137183001,-0.459896273762,-58.9759378935
do_nothing,2.4909370984,1.15421434287,0.264496312741,0.225087584331,-1.40576124592,-2.93899887443,0.354964422271,0.62660704245,-0.507042215357,1.30782794871,0.489845309185,2.52574056652,1.87120452273,104.822923131
do_nothing,1.7412686877,0.590839447093,1.60529519676,0.392581710514,1.40435786395,-2.20696700399,0.260277553795,2.78481667024,0.148571165454,1.7912771451,0.676915075156,0.70789359581,1.05765992371,117.885498995
do_nothing,-3.33277406334,-1.5018188329,-0.961932146393,-0.706424503992,0.520825493061,2.32748040852,-0.223634389876,-0.674139841024,-0.0973513692579,-1.51362541631,-0.94264279139,-2.76643697667,-2.08441130944,-169.542742317
do_nothing,-0.69738278601,0.330102309844,-0.981797064496,0.0157515705721,-0.407975545182,3.17864033759,0.234638321899,-2.45039556726,0.347262608006,-0.847340145662,-0.0703502604835,0.318987664298,-0.271599089572,-63.5656280962
do_nothing,2.92501626592,0.670611709663,0.599778012964,0.479747854439,-1.00580261963,-3.13293003164,-0.726219128721,-0.0311473216694,-0.320959435621,0.229902534536,0.341904011687,1.4035271447,0.98152811188,107.754528746
do_nothing,0.15968901128,-0.19742486717,1.04187070821,0.167172495881,0.317902792196,-2.77988414865,-0.2725666344,2.6501292302,0.0351731407142,0.974673583618,0.243152028076,-0.171294637285,0.584418185939,142.299597196
do_nothing,-2.54696965142,-0.628307737988,-0.797125835413,-0.89463876685,0.973061486294,2.88817254927,1.34334376491,0.140942053814,-0.00562160036808,0.499643997827,-0.297135779085,-0.557676525709,-0.710015379617,-182.282254974
do_nothing,0.672407763567,0.739989275325,-0.494421154638,0.470848712952,0.156302021444,3.06145160402,0.879370425297,-2.10014025496,0.195494967364,-0.830485140213,0.0500502305871,0.166377671924,-0.332666876167,-79.8555373076
do_nothing,1.37918464223,-0.109000636291,0.416738617205,0.415720929288,-1.35835250885,-3.0925640062,-2.67473161051,-0.884541560731,-0.148105280246,-1.46102640533,-0.181664491868,-0.380002591326,0.19423285425,112.674951709
do_nothing,-0.722688047658,-0.733679501937,0.371030635297,-0.387507168951,-0.190450681117,-3.02894425735,-1.09459807642,1.77861064604,-0.0715025778488,0.982329496196,-0.0158436694207,-0.00813266733016,0.0344832062206,159.088153286
do_nothing,-0.495927023044,0.692319010183,-0.318070337239,-0.363781012113,1.41413247961,3.09550494323,4.12742089962,1.71269325891,0.0631581251621,2.10190473743,0.550642584255,1.12139689332,0.412618405714,-180.806794342
do_nothing,0.745329566699,0.612794885847,0.0150883701609,0.499214642222,0.365082196646,3.14626040841,1.14671893292,-1.409589108,0.0739586543613,-0.807326366203,-0.0883633544495,0.139911557459,0.463892444749,-103.489936303
do_nothing,-0.642506006792,-1.36273435028,-0.113915979542,0.272305159826,-1.54583767625,-3.26360667506,-6.10098122359,-3.11335421351,0.0094151567272,-3.2554777706,-0.923431553588,-2.42512166329,-1.62483872841,119.951388224
do_nothing,-0.0989314249618,-0.00693752903704,-0.112919458673,-0.728346212216,-0.356041725995,-3.15970738273,0.0535387390367,1.98691110252,-0.180003295789,1.37548777039,0.489710383772,0.500604590881,-0.312418495089,167.078176679
do_nothing,1.38309583988,1.56754984513,0.583535119971,0.0622494950823,1.484914918,3.60869159918,7.13344627489,3.98559379808,0.133991722919,3.99154143119,0.876409536822,3.36856046493,2.7929357036,-169.247746944
do_nothing,-1.12683704101,-0.649428490546,-0.242835356053,0.721677502772,0.220758031126,2.61463871788,-1.74448518535,-3.16096072756,-0.0343923234817,-2.49343934327,-0.838510573075,-1.75465568689,-0.63277412032,-128.163894515
do_nothing,-0.836974711781,-1.31421636333,-0.478458738865,-0.256017574639,-0.798292822133,-3.22563013265,-6.4975928568,-3.41734895238,0.144339490615,-3.51079044771,-0.254206495216,-3.14517987019,-2.92516568488,126.711298914
do_nothing,1.3231094518,0.941259459101,0.195130902193,-0.874800703815,-1.11358865269,-2.7395801056,1.94264910615,3.04871698803,-0.279152244081,2.69249064828,0.276987661645,2.23440201795,1.00884492497,167.842371642
do_nothing,0.685859412363,1.22645654528,0.764404273955,0.845944222354,1.32772382713,3.60132393689,6.51119753512,3.52208766257,0.21379514371,3.41313202267,0.408109043942,3.24269804073,3.3447973071,-151.537835708
do_nothing,-1.91337139438,-1.60770941319,-0.906237623125,0.33260774668,0.897587338486,1.8206106071,-2.48582595667,-3.43388928082,-0.145044516439,-3.44308066872,-0.278826759345,-3.42735624801,-2.14768091461,-150.166554287
do_nothing,0.479341962524,-0.331513427455,0.0863347348245,-0.60296466732,-1.17393645524,-2.98803969526,-6.06743205981,-2.95762722176,0.259921848127,-2.26987466715,0.129137393161,-2.00357797122,-2.49135783142,131.745544141
do_nothing,1.16052852198,1.34268097594,0.510153830615,-0.615815805158,-0.954307344423,-1.31702068108,2.72711121965,3.23396992637,-0.357792510462,3.26733178227,-0.84228955037,3.55026225948,2.36986944657,163.345941394
do_nothing,-0.724324389525,0.171628297893,-0.135713359239,1.27391731075,1.36937736584,2.39178307683,5.79309714352,2.75489537146,0.289834157637,1.45383095695,0.807021219556,0.941436627889,1.74620476173,-131.852264623
do_nothing,-0.732021982886,-1.78206750651,-0.808511510829,-0.291615172932,0.126951688923,0.461663916162,-3.53392196243,-3.57099904901,-0.25371993338,-3.27236928542,0.520330004553,-3.61761161041,-2.61004241424,-166.683227845
do_nothing,1.37623768523,1.04796386344,1.18573651066,-0.523595813148,-0.192354520524,-0.770997055095,-4.52636904823,-1.51739434985,0.360569163586,0.117062219574,-0.623315146626,0.91346468346,-0.118164603126,134.371202051
do_nothing,-1.00220177681,0.744047868524,-0.377765747576,-0.188280373548,-0.800589809956,-0.996935402802,3.40818732906,2.51759987004,-0.421292314161,1.83883048952,-1.09651685924,1.87868942248,1.05547295484,155.619215151
do_nothing,0.273573818024,-0.647959447802,-0.460557635668,1.00417898549,0.433577522716,0.55866353134,4.21667459199,1.85541996946,0.360917184685,0.0608115835653,1.49760037092,-0.706573622886,0.504480173587,-113.439708596
do_nothing,0.173751170023,-1.32079575161,-0.164155280331,-0.584265758608,0.0382466728822,0.106465749888,-4.8857737096,-3.29442319492,-0.355150712197,-2.23144360797,0.22789032619,-1.81629055808,-1.24745420072,-176.686003177
do_nothing,0.0865265907471,2.07118559728,1.25177242642,0.0211049658847,1.04178330695,1.30488311417,-1.68746701358,-0.128479878156,0.445069030556,1.74539185914,-0.691428137433,1.92209696927,0.707739082116,134.873511368
do_nothing,-0.717562364932,-0.333781873295,-0.705691808249,-0.448077424125,-1.37386288221,-1.21358264248,4.34436688866,2.06048537614,-0.471868123805,0.445707570579,-0.996398592729,0.0901016773842,-0.329807672428,146.401538675
do_nothing,0.859939776234,-1.13761166576,-0.55469565413,0.966593148154,-0.362994068726,-1.01345198839,0.563118730309,0.083806484563,0.424891938537,-1.48468134144,1.40760574932,-1.20521585696,-0.000400759085904,-98.5443619227
do_nothing,-0.404613736196,0.076540442458,-0.0253965741091,-0.647624642778,1.01853675487,0.38103589158,-5.11076809384,-2.17051760453,-0.443079700911,-0.257771140478,0.225775973267,-0.0304301501902,0.206063159463,-180.551117467
do_nothing,0.0555531279532,1.51676341759,1.50344552167,0.212312144479,0.820389179564,2.33666072358,2.31367865274,1.16950570488,0.510481864706,2.5488749313,-0.4409465194,1.62988137173,0.571987644342,134.463846587
do_nothing,-0.190952702004,-1.02369799739,-0.923848598243,-0.39277511683,-1.77087275369,-1.07312627035,3.96807050047,0.958246719169,-0.509648741157,-1.67470152575,-1.33598804451,-1.18442465607,-1.25523257132,135.117261813
do_nothing,0.624692911079,-0.257599804543,-0.688862994881,0.684806444339,0.401015057328,-2.02650255318,-3.68415115794,-0.798510094949,0.478271031344,-1.15271313585,1.58131526565,-0.207897273716,0.438125680201,-80.9541919758
do_nothing,-1.02021425588,-0.115924175471,0.00039596567012,-0.586075720105,0.162321953183,-0.0888730484977,-4.26504664674,-1.78850626429,-0.511062074962,0.972882607501,0.166541686188,-0.103755052616,0.16112216241,-197.398378321
do_nothing,0.929716862164,1.17409588928,1.87894192031,0.38139553003,1.03553570803,4.01997758241,7.45674159612,2.90283604304,0.553468958545,1.96776387587,-0.472312049959,1.3889868317,0.997587191243,158.245703615
do_nothing,-0.276851926033,-0.798173865737,-1.22266996963,-0.374720481902,-0.971145255073,-1.50275581722,1.13972805434,-0.0290927991176,-0.533739921082,-2.20605933571,-1.0306198237,-0.962715770498,-1.51888619536,117.720845351
do_nothing,-0.108705374351,-0.0349692098868,-0.899883493735,0.580602634062,-0.603087414751,-3.39355939231,-8.31447431208,-2.74548557488,0.517984558961,-0.666599127783,1.26014924399,-0.473144116073,-0.134362241935,-108.887264453
do_nothing,-0.402130806645,-0.568120501835,0.430467493671,-0.906398897091,0.276669618496,1.1205949556,0.833687963011,0.295435917647,-0.555086273887,1.20289383788,-0.12880145457,0.157404462074,0.814586509326,-127.981446927
do_nothing,1.02468080441,1.44311531719,1.82429447086,0.922242561469,1.82035918057,4.42553456473,9.4603402629,3.89655780049,0.572241341194,1.30246660802,0.196601301434,1.27040022259,1.15058585183,114.064503729
do_nothing,-0.773907521729,-0.672238412093,-1.70028679622,-0.362615717203,-1.64137228147,-2.75078256964,-4.24037495221,-2.43880771599,-0.542486796369,-1.77891751956,-0.980487809275,-1.08871157223,-2.03721132202,97.9695710097
do_nothing,0.0976118469001,-0.468381377695,-0.43255724408,0.0255814737348,-0.846379264911,-3.03164448183,-7.55746427844,-2.50200811164,0.540607711212,-0.353226327007,0.428067023977,-0.199963680279,-0.0503616592293,-71.1764732283
do_nothing,-0.0271452425075,-0.172475876972,0.649513375124,-0.628133812075,1.05207448853,1.9591185935,4.47715339551,2.05110201741,-0.572999321376,0.46493241113,0.129849464207,0.0691332699718,1.08631864662,-134.365876933
do_nothing,0.605137673802,1.50191537246,1.14480592721,1.15853847271,1.67822102521,3.87081905736,7.74198057093,3.21519599921,0.566968688317,1.62173712966,1.07688573656,1.17064230843,1.02814743992,116.922878164
