label,COUNTER,INTERPOLATED,AF3,F7,F3,FC5,T7,P7,O1,O2,P8,T8,FC6,F4,F8,AF4,RAW_CQ,GYROX,GYROY,MARKER,SYNC,TIME_STAMP_s,TIME_STAMP_ms,CQ_AF3,CQ_F7,CQ_F3,CQ_FC5,CQ_T7,CQ_P7,CQ_O1,CQ_O2,CQ_P8,CQ_T8,CQ_FC6,CQ_F4,CQ_F8,CQ_AF4,CQ_CMS,CQ_DRL
off_to_on,12.1880329811,13.3195642801,11.1873330206,5.00023816255,6.56282852898,13.6141239061,13.0989131437,13.780599823,4.19640422055,12.7137904643,7.27971192909,12.7753279467,10.0822090383,32.2967454581
off_to_on,12.8204929981,14.0899001219,12.0842958467,6.70652402776,7.89704001866,12.0630594697,12.9232304204,14.0469705075,5.69544564525,13.5550640872,10.2549272284,14.3984553175,11.4319840667,15.5727628918
off_to_on,12.5825584362,13.9013530445,12.2132674149,8.12101573129,8.7829256581,9.62392861949,11.7973041565,13.3244295514,6.98624485967,13.3624753057,12.7511328161,14.8859606087,11.9240836004,0.351255457107
off_to_on,11.4870871714,12.7556770399,11.5486820465,9.13713616421,9.16566749145,6.55655381805,9.8130758795,11.6896373056,7.97846866607,12.142603523,14.5632387569,14.1939002468,11.5405359207,-10.8861149896
off_to_on,9.61981749876,10.7332352258,10.1285632124,9.67380307679,9.03129459093,3.17421293994,7.14600900955,9.29982519537,8.59766882366,10.0056316319,15.5267386262,12.3957197565,10.346870359,-16.2716629358
off_to_on,7.1324071686,7.9886835841,8.05380238166,9.68510288514,8.40845604696,-0.190802205197,4.0391183521,6.37774119311,8.79371862709,7.15559511135,15.5365573973,9.67553407837,8.48445925115,-14.8305213662
off_to_on,4.2285802418,4.73913656498,5.48094815525,9.1662659839,7.36533068712,-3.22324151998,0.778685405618,3.18951435586,8.54677980542,3.86921080997,14.5607901937,6.30848481399,6.15411643916,-6.64278450505
off_to_on,1.14477546166,1.24569236358,2.60900609774,8.15505188815,6.00194766736,-5.65834461917,-2.33569699758,0.017800244143,7.86996259448,0.465707317718,12.6474329782,2.63040512871,3.59291627735,7.13721536525
off_to_on,-1.8726353893,-2.20999749044,-0.338499525476,6.72827364526,4.43882500684,-7.30878719599,-5.02328467649,-2.86683311118,6.80829700946,-2.72872143698,9.92300404568,-0.99960860987,1.04708107655,24.4117324155
off_to_on,-4.59105810634,-5.35178778138,-3.13433437811,4.99385726681,2.80335373358,-8.08204421744,-7.05269042694,-5.233071986,5.43414388571,-5.41748593598,6.58291646535,-4.23920427792,-1.25569917305,42.4072250285
off_to_on,-6.81368409178,-7.93501381955,-5.56896944307,3.07944575136,1.21568550899,-7.98628449773,-8.26699278819,-6.9115109956,3.83966440971,-7.36667795705,2.87446156591,-6.80050768763,-3.13107621868,58.0461328073
off_to_on,-8.39735651465,-9.7695893463,-7.47022184039,1.1190285633,-0.224030269358,-7.12433916313,-8.6003028455,-7.81024590519,2.12736431238,-8.43056789991,-0.92582861068,-8.48101388988,-4.45692293098,68.3748081532
off_to_on,-9.26434871525,-10.7376927002,-8.71892035627,-0.760662708704,-1.44538501766,-5.67676334472,-8.08367849027,-7.92168807042,0.399975642784,-8.56640009485,-4.53797526014,-9.18393770378,-5.18400768918,70.9904363807
off_to_on,-9.4068418856,-10.8040700639,-9.25885361695,-2.45224087485,-2.41316030162,-3.87634584136,-6.83960227356,-7.31992614781,-1.24899996326,-7.83673246071,-7.70464412495,-8.92566640206,-5.33727262137,64.4082655965
off_to_on,-8.88376805711,-10.0177945713,-9.09993735628,-3.87671880765,-3.12781645122,-1.97744324483,-5.06568597089,-6.14908405062,-2.74289432166,-6.39915596986,-10.2146341646,-7.82959245909,-5.00776147492,48.3170054604
off_to_on,-7.81059674558,-8.50527998395,-8.31434759414,-4.98847298484,-3.62104270634,-0.224092043046,-3.00963839411,-4.60418632197,-4.0267323111,-4.48482605794,-11.9211807203,-6.10731738938,-4.33646530974,23.6841276421
off_to_on,-6.34347236828,-6.45534128954,-7.02620316605,-5.77565095321,-3.94708672717,1.17908761132,-0.938646881914,-2.90690951384,-5.06888416824,-2.36863088973,-12.7531233395,-4.02978469479,-3.49239675415,-7.30774387958
off_to_on,-4.65974955327,-4.09800020427,-5.39613541424,-6.25621283405,-4.17117877238,2.08964273655,0.892974536,-1.2791629874,-5.85953038792,-0.334828985368,-12.7178544537,-1.89211812657,-2.64792608681,-41.4896949136
off_to_on,-2.9373453093,-1.67943974929,-3.60265852817,-6.47041137649,-4.35677849964,2.44105316771,2.27382206679,0.0823629438714,-6.40642747497,1.35751548494,-11.8959519663,0.023343095467,-1.95471938564,-75.0745291314
off_to_on,-1.33538762399,0.564067755528,-1.8225797558,-6.47099999947,-4.55353947406,2.24611346936,3.05941434135,1.02773831807,-6.72884533119,2.50504289591,-10.4283802567,1.48119285558,-1.52347262354,-104.118474229
off_to_on,0.0216119478147,2.43035132179,-0.212727825687,-6.31274404615,-4.78778243249,1.58993122193,3.18729472664,1.46903302784,-6.8507872617,2.98291382592,-8.49799663381,2.32013720553,-1.41006076841,-125.017610621
off_to_on,1.05435876126,3.77100361778,1.1049672727,-6.04285771171,-5.056906523,0.613907945958,2.68153516781,1.38769458403,-6.79466711242,2.75735763003,-6.30771920072,2.47003705503,-1.60980132,-134.97427711
off_to_on,1.73316764308,4.50443858499,2.05349940692,-5.6937943322,-5.32859880523,-0.506781185245,1.64635592585,0.833502182876,-6.57649781137,1.88674673511,-4.05802492585,1.95701399366,-2.06039759647,-132.371595523
off_to_on,2.0759861841,4.62107449156,2.60503473156,-5.27941359785,-5.54500707194,-1.58891146172,0.249992064729,-0.0844319053865,-6.20336258266,0.511464273929,-1.9264218228,0.896377352142,-2.65293683472,-117.005519733
off_to_on,2.14069465593,4.18031322112,2.77924463669,-4.79499932847,-5.63131886752,-2.46652668487,-1.29882543536,-1.21320720737,-5.67354002605,-1.16578028397,-0.0511889757962,-0.525326996851,-3.24923582812,-90.1420162004
off_to_on,2.01301810781,3.29994444055,2.63630835772,-4.22099033406,-5.50754394559,-3.01243158524,-2.77851426996,-2.3760975043,-4.97920034228,-2.906412231,1.47894352984,-2.07651996601,-3.70299914041,-54.3897186875
off_to_on,1.79187213588,2.13946161456,2.26578253178,-3.52970734513,-5.10182103804,-3.15309606661,-3.98272013423,-3.39437655301,-4.11115325939,-4.46573613056,2.62830889781,-3.51147548312,-3.8817910877,-13.402622214
off_to_on,1.57419017206,0.879433976752,1.77296148352,-2.69389794105,-4.36333119415,-2.8752315065,-4.74521787985,-4.10836473598,-3.06477659933,-5.6222313393,3.4110289353,-4.60186944841,-3.68677954536,28.5501809099
off_to_on,1.44122807651,-0.300539506078,1.26454749991,-1.69564687506,-3.27293347289,-2.2235368368,-4.95858543739,-4.39529846352,-1.846042395,-6.20291444551,3.88181196338,-5.16505279011,-3.0675846159,67.0931119149
off_to_on,1.44803088814,-1.24269916907,0.835402897539,-0.534150342729,-1.84993976962,-1.29038493071,-4.58455930914,-4.18215103304,-0.476517807662,-6.10196227177,4.12238596927,-5.08569197233,-2.0302975547,98.2660699553
off_to_on,1.61723068969,-1.82846339018,0.557886886191,0.76896575041,-0.153971081063,-0.199345849343,-3.65518680863,-3.45225848779,1.00364300187,-5.29078298729,4.22560326956,-4.32840520048,-0.637715761265,118.993015009
off_to_on,1.93770318406,-1.99039542979,0.474840429121,2.16772170204,1.71848737066,0.914735979298,-2.26516767284,-2.24542005756,2.53540365855,-3.8188826883,4.27944747578,-2.94026312568,0.998073549799,127.437568717
off_to_on,2.36793680837,-1.71766577485,0.596741952723,3.59367022619,3.64248600123,1.92599134034,-0.556943236736,-0.651937234387,4.04352635964,-1.80603627066,4.3530749842,-1.04334419916,2.72958858115,123.201066679
off_to_on,2.84335507316,-1.0546895457,0.902995332411,4.96142714528,5.47694030895,2.73505019098,1.29901668578,1.19827417714,5.44205010844,0.57271983502,4.48665566303,1.18124043304,4.39230512845,107.339376409
off_to_on,3.2863602801,-0.0934308777651,1.34680572301,6.17712741558,7.07933005668,3.28130572441,3.12577795082,3.1498970334,6.64195023886,3.10702257594,4.6861985734,3.51546495371,5.82489753292,82.1986782457
off_to_on,3.61759105781,1.03941955464,1.86271156372,7.14864573315,8.32089263363,3.54826971424,4.76035213761,5.0379282434,7.56001258138,5.57341331111,4.92384098457,5.72965489867,6.88862492691,51.0940519481
off_to_on,3.76683286707,2.19865300371,2.37561377787,7.79615628587,9.10038010264,3.56148600379,6.07032940965,6.70310649636,8.12774579636,7.75722520784,5.14333843425,7.6077215202,7.48332835691,17.8749320568
off_to_on,3.68218261417,3.23809623345,2.81009092729,8.06155613426,9.35465974581,3.37964488353,6.96485313621,8.00551721116,8.29911847207,9.47181809949,5.26981634188,8.96941920935,7.55805664216,-13.5644043107
off_to_on,3.33640856559,4.02742728759,3.09890056089,7.91544599608,9.0648801434,3.08059930946,7.39902985417,8.83525664767,8.05604963633,10.5734421482,5.22231392546,9.68727367257,7.11514569313,-39.7650067046
off_to_on,2.72990458742,4.46637649088,3.18980824118,7.36072246799,8.2575331199,2.74476505939,7.37191688244,9.11953750769,7.41088147353,10.9707507065,4.92733082251,9.69667436194,6.20751531513,-58.1123007264
off_to_on,1.89014000552,4.49484993162,3.05020709131,6.43233008977,7.00042786268,2.4387736589,6.91918816084,8.82611846552,6.40547666818,10.6287481627,4.33150851206,8.99858996452,4.92988197031,-67.1229848513
off_to_on,0.867978232325,4.09807209194,2.66933579524,5.19327387689,5.39425930384,2.2021813694,6.10230145493,7.96336504946,5.10704841916,9.56763567086,3.41174281942,7.65531039919,3.40538330302,-66.5761081068
off_to_on,-0.268386479896,3.30647220644,2.05821808371,3.72751919577,3.56100543591,2.03953002256,4.99637319891,6.57754452183,3.60127975296,7.85751716712,2.1814000644,5.78041631688,1.76966215618,-57.476176202
off_to_on,-1.440890596,2.19065545564,1.24768909842,2.13082763511,1.6307528223,1.91918313088,3.6789640241,4.74809607922,1.98365417139,5.61019823415,0.691841807318,3.52473225055,0.154694993629,-41.8587915526
off_to_on,-2.56940706687,0.852332484534,0.285017829405,0.500833551215,-0.271319886795,1.77925618894,2.22160466741,2.5816034141,0.350148601093,2.96934276218,-0.970921631108,1.06027990942,-1.32544932346,-22.4700237885
off_to_on,-3.57892949498,-0.587528003641,-0.770326076739,-1.07227872527,-2.03618529205,1.53979211492,0.685224187099,0.205060729094,-1.21150044839,0.100079966885,-2.69401115723,-1.43579119633,-2.58514137767,-2.36664933234
off_to_on,-4.40538701982,-2.00184392588,-1.85126565249,-2.51328611951,-3.57915760234,1.1192811011,-0.880197561752,-2.24118276706,-2.62886264423,-2.82115700111,-4.34891203608,-3.79561770832,-3.57287729162,15.5064812659
off_to_on,-4.99964321641,-3.27035436502,-2.88769157233,-3.76674136529,-4.84425014869,0.452852694467,-2.43229497004,-4.6106299367,-3.8493892098,-5.61614505675,-5.80477642907,-5.87218663622,-4.27175685914,28.7044780045
off_to_on,-5.3295596323,-4.2909830134,-3.81078495636,-4.79865392643,-5.80450640162,-0.490899798091,-3.93057810668,-6.75799006751,-4.84206204022,-8.11365423062,-6.94219158105,-7.54742802172,-4.69517715188,35.5850420371
off_to_on,-5.3803020755,-4.98855717661,-4.556989208,-5.59509868401,-6.45869449757,-1.69740235403,-5.33005204866,-8.5467480597,-5.59612156089,-10.1576418188,-7.66579255687,-8.73677539237,-4.87884484748,35.4883001617
off_to_on,-5.15328868887,-5.32019079647,-5.0716260408,-6.15828372925,-6.82525063208,-3.1002680006,-6.57609942535,-9.85697254139,-6.11730678875,-11.6150725265,-7.91427718302,-9.39059540394,-4.8706871088,28.7745763273
off_to_on,-4.66429323354,-5.27706213197,-5.31218465521,-6.50097740918,-6.93469368568,-4.58357688146,-7.60230944077,-10.5932340494,-6.42239277624,-12.3834889171,-7.66672542138,-9.49318900021,-4.72045083413,16.7210237357
off_to_on,-3.94121581814,-4.88272621812,-5.25128308831,-6.64040683069,-6.82186788781,-5.99249396875,-8.33238376323,-10.692274509,-6.53303364115,-12.398228923,-6.94458681746,-9.06017837155,-4.47070266139,1.29742940895
off_to_on,-3.02192896517,-4.18845324787,-4.87921939705,-6.59276529289,-6.51928980224,-7.15116996865,-8.68645781414,-10.1298160269,-6.46998184552,-11.6388810109,-5.80921731744,-8.13502557343,-4.15060088951,-15.1425904262
off_to_on,-1.95243012861,-3.26634310253,-4.20592307387,-6.369304497,-6.05260099543,-7.88570364489,-8.59127931332,-8.92568536545,-6.24864918501,-10.134261989,-4.35535647187,-6.78522093213,-3.7732687667,-30.2084789269
off_to_on,-0.785325421277,-2.2011149584,-3.26201736331,-5.97466841315,-5.43870806098,-8.04906619766,-7.99283945937,-7.14632423204,-5.87672063153,-7.96498224361,-2.7013781228,-5.09839644086,-3.33694861476,-41.8077487064
off_to_on,0.421519773061,-1.08150629385,-2.09864540309,-5.40770356287,-4.68669772019,-7.54443869602,-6.86940657409,-4.90380469514,-5.35416990326,-5.26260239324,-0.977473806848,-3.17833540973,-2.82946429173,-48.4228463918
off_to_on,1.60645727178,0.00785136908275,-0.785725547683,-4.6645252912,-3.80112663495,-6.34347011302,-5.24258902499,-2.35069889677,-4.67561276698,-2.20453199299,0.686893473265,-1.14063457448,-2.23496919149,-49.2936780004
off_to_on,2.70599408251,0.993360584387,0.591600514266,-3.74320611532,-2.78688062128,-4.49653210464,-3.18412562998,0.329443824394,-3.83453528485,0.995813828592,2.17490923997,0.892318844818,-1.54159340256,-44.4844140681
off_to_on,3.65746581101,1.81767171811,1.9383802765,-2.64914801472,-1.65453868393,-2.1330587159,-0.816576633345,2.93572158505,-2.82861158698,4.10353066287,3.39248038144,2.79733972342,-0.748480498992,-34.8304811538
off_to_on,4.4025663022,2.44288899123,3.15692840479,-1.40005526854,-0.425102114609,0.54861960069,1.69309026092,5.26671420185,-1.66512931958,6.88067362404,4.27550364418,4.45749885501,0.129163680696,-21.7788609064
off_to_on,4.89163612689,2.8516970728,4.15509582937,-0.0294621557091,0.866933466247,3.30108953463,4.14697229157,7.13906023426,-0.365501093568,9.10720894067,4.79372733659,5.7700338707,1.05802705621,-7.14950084154
off_to_on,5.0883710219,3.04653283913,4.85499156388,1.4120149158,2.17289666346,5.8550851772,6.33559143751,8.4058593149,1.03203672527,10.6024462309,4.95100392611,6.65457584112,1.98814108482,7.14422498985
off_to_on,4.97439551388,3.0470834118,5.20121932445,2.8581724621,3.43197210466,7.9508039249,8.06095005204,8.97274353291,2.47216947454,11.244545213,4.78212897287,7.06084539827,2.85770614262,19.3737801117
off_to_on,4.55300407127,2.88650099726,5.16760010347,4.2314884929,4.57580240318,9.36931059025,9.16034190681,8.80949854813,3.88495521742,10.9856033747,4.34681312826,6.97477303308,3.60058731334,28.2322007987
off_to_on,3.85133937958,2.60678681384,4.76140044819,5.44973043359,5.53507221097,9.95990233924,9.52763304958,7.95545433225,5.19082577057,9.86009039229,3.7216030401,6.42196280298,4.15530369765,32.9967714222
off_to_on,2.92037448358,2.25381491556,4.02428539726,6.43406661262,6.2471337684,9.65974207077,9.12886002725,6.51748922779,6.30758239887,7.9850002751,2.99073009122,5.46757866553,4.4740543078,33.5972574603
off_to_on,1.83229051938,1.8724492869,3.02955252187,7.11756801662,6.66353005239,8.50301729214,8.0096081219,4.6603364164,7.15850922991,5.55098895228,2.236912694,4.21208577382,4.53028068881,30.583961926
off_to_on,0.675169795259,1.50216230546,1.87564360031,7.45287965615,6.75625045974,6.61822217165,6.29265899128,2.58984693609,7.68053319711,2.80484982528,1.53307176141,2.78278744507,4.32346832378,25.0047929587
off_to_on,-0.454689514381,1.17349690809,0.676417894805,7.41792315783,6.52171903218,4.21371288336,4.16569961579,0.53081989306,7.83132232732,0.0248127474146,0.935755490509,1.32169306466,3.88030452784,18.2135346706
off_to_on,-1.46214387442,0.905634254234,-0.450861711451,7.01875381965,5.98184126853,1.55323979337,1.86027990379,-1.29817830928,7.59434055826,-2.50882447323,0.480833620193,-0.0291573889316,3.25187496536,11.6407638196
off_to_on,-2.26324223947,0.705237287841,-1.3985014365,6.28909772685,5.18187198771,-1.07549845021,-0.37550876966,-2.71004342498,6.9811484987,-4.54446087214,0.181743572042,-1.14329769391,2.50720554109,6.5631292421
off_to_on,-2.79470828535,0.566641079475,-2.08075520445,5.28657657661,4.18534553753,-3.39528954355,-2.30718138493,-3.57127391559,6.03061539076,-5.88770582786,0.0302840119901,-1.92445561983,1.7240428008,3.9055614032
off_to_on,-3.02160085985,0.473355704407,-2.44402776078,4.08611552216,3.06675615628,-5.17242596618,-3.74285979006,-3.81812263574,4.80513218686,-6.42407898585,-0.000313721689162,-2.31823265333,0.978221200303,4.10477373388
off_to_on,-2.94202501657,0.400740125168,-2.47350691644,2.77144701268,1.90302062655,-6.24407495072,-4.55718237022,-3.46450147808,3.38432620974,-6.13289591808,0.0494767855535,-2.31912723048,0.333216656039,7.05225809377
off_to_on,-2.58807915731,0.31960136166,-2.19521784975,1.42590592262,0.764943375077,-6.53650707367,-4.70677346238,-2.60035969276,1.8571138336,-5.09032459184,0.131492682916,-1.97169567117,-0.168509044314,12.122513198
off_to_on,-2.02267730484,0.200379610505,-1.67304089291,0.123813401186,-0.290094134569,-6.07189733376,-4.23501135462,-1.38045400899,0.313140030305,-3.46089351207,0.19633894037,-1.36536792642,-0.511013006329,18.2794101756
off_to_on,-1.33242176092,0.0175062705097,-1.00087531796,-1.07634836571,-1.22318369531,-4.96292317339,-3.26527182103,-0.00468917302309,-1.1652877043,-1.47817581558,0.199579089658,-0.623277489781,-0.706324897704,24.2423123532
off_to_on,-0.617247136588,-0.246521736059,-0.290780869426,-2.13604758726,-2.01598982795,-3.39599313686,-1.98341301201,1.30764048231,-2.50976553837,0.583224749978,0.107027393939,0.113690772898,-0.791555901009,28.6854448592
off_to_on,0.0219665303013,-0.597811895772,0.341503645461,-3.03759899014,-2.66966051071,-1.6054294707,-0.611781393603,2.34649798845,-3.67009963287,2.44109061613,-0.101356050444,0.705708580629,-0.822031647722,30.4401384471
off_to_on,0.496278362302,-1.02890829414,0.79186193122,-3.78184228963,-3.20080158437,0.157903214951,0.621762397544,2.93895308202,-4.61594320057,3.84034218542,-0.429291836057,1.03325326638,-0.861435182452,28.6703576427
off_to_on,0.740396398356,-1.51811266326,0.981942671836,-4.38310073935,-3.63521993734,1.65933941371,1.51555564874,2.97255641997,-5.33575662318,4.5847965489,-0.863860188481,1.01421178084,-0.970423674638,22.9970567323
off_to_on,0.721625655715,-2.03048413578,0.870247651784,-4.86234087919,-4.00048571512,2.71021604516,1.92218947015,2.4110690112,-5.83347490905,4.56190489226,-1.37697012756,0.616439065115,-1.19544618364,13.5554352601
off_to_on,0.444775845494,-2.52053548798,0.458613207368,-5.23973498677,-4.3185477487,3.19088395405,1.76898499157,1.30032964568,-6.1235901487,3.7572729522,-1.92838312095,-0.136098400829,-1.55949657994,0.97965877013
off_to_on,-0.0477536518839,-2.93645246342,-0.206903331129,-5.52792040994,-4.59963002852,3.06404004158,1.0680010467,-0.236678657569,-6.22556366752,2.25703358601,-2.46991672411,-1.16464776958,-2.05628131874,-13.6795989365
off_to_on,-0.680872192049,-3.22547337845,-1.04100532449,-5.72713889319,-4.83844028932,2.37683322346,-0.085858139377,-2.0150661212,-6.15854371458,0.237675931612,-2.95036031501,-2.34452419198,-2.64880091317,-29.0899940467
off_to_on,-1.35617548339,-3.33990193237,-1.92950627047,-5.82313957917,-5.01336367799,1.25172594799,-1.52839158819,-3.81168149229,-5.93727270975,-2.05545905369,-3.32059252063,-3.52051865986,-3.27270559895,-43.8032091598
off_to_on,-1.96468141505,-3.24310966379,-2.74381862516,-5.78828622159,-5.08884891104,-0.132401055571,-3.04940897072,-5.39410165725,-5.56983964545,-4.3383447568,-3.5383985594,-4.52695065034,-3.84408280418,-56.4268686386
off_to_on,-2.40132107922,-2.91483462894,-3.35777131377,-5.58578959839,-5.02069179856,-1.56613446574,-4.42250545294,-6.55113333124,-5.05760528076,-6.32330198809,-3.57254098154,-5.20976276836,-4.27066994671,-65.778814779
off_to_on,-2.57930492259,-2.35511159064,-3.66459137262,-5.17646997677,-4.76345800467,-2.83875750854,-5.43708269822,-7.12073917879,-4.39725227683,-7.75447247153,-3.40573072757,-5.44770441335,-4.46495911737,-71.0042339141
off_to_on,-2.44245502942,-1.58627914195,-3.59181299114,-4.52702192526,-4.27893428246,-3.76680653257,-5.9280668299,-7.01160389601,-3.5845482935,-8.43925207447,-3.03626576071,-5.16970385599,-4.3573491807,-71.6431556358
off_to_on,-1.97382321026,-0.652693338828,-3.11210258249,-3.6184730258,-3.5443096256,-4.21812314713,-5.7991001668,-6.21538510556,-2.61911404935,-8.27173510121,-2.47823889781,-4.36598540847,-3.90745332726,-67.6443026695
off_to_on,-1.19937472088,0.38198185361,-2.24848689831,-2.45344485597,-2.55879459335,-4.12827212012,-5.03592044558,-4.80794235679,-1.50930639566,-7.24526841654,-1.76035170415,-3.09129523334,-3.11189543573,-59.3297066052
off_to_on,-0.186150410376,1.43976550265,-1.07318045835,-1.06095504332,-1.3475890205,-3.50730920709,-3.70805645562,-2.9393371507,-0.276286771768,-5.45263652872,-0.923495169744,-1.45964939647,-2.00739631168,-47.3215565005
off_to_on,0.964957551571,2.43521928785,0.299963163907,0.502173112355,0.0375234441009,-2.4362479789,-1.95865899412,-0.813941554709,1.04354577911,-3.07400496196,-0.0173599987172,0.36883199417,-0.668595190404,-32.4473328938
off_to_on,2.13096639764,3.28352556317,1.72851372386,2.15374856425,1.52119497406,-1.05399780375,0.0159944908019,1.33663317417,2.39833715292,-0.354323947928,0.903587948334,2.20735009076,0.799218704336,-15.6407757604
off_to_on,3.18163969034,3.90896037389,3.05844237787,3.7923939991,3.01086647793,0.463170746435,1.99428563669,3.28406844892,3.72302062997,2.42677227435,1.78439274233,3.86558043572,2.27157923625,2.14543485429
off_to_on,3.99551812811,4.25285250111,4.14288394025,5.30681002956,4.4056869739,1.9266057855,3.7602402377,4.83311493898,4.94388405924,4.98861915251,2.57377606625,5.17348452293,3.61904544458,20.0037738679
off_to_on,4.4750866004,4.28013622393,4.8602935714,6.58699019556,5.60685479375,3.16114139658,5.13316595375,5.84648938472,5.98496139118,7.0823956834,3.22783915496,6.00259142671,4.72227092852,37.1073737933
off_to_on,4.55911659934,3.98372614673,5.12966203757,7.53594108582,6.5280223322,4.02826776856,5.99160957924,6.26143932623,6.7754530524,8.5190824998,3.71300881952,6.2818821252,5.48595158512,52.7182804949
off_to_on,4.23058019318,3.38615649437,4.92081490499,8.08035395446,7.10438823743,4.44348926014,6.28815525598,6.09568749446,7.2571998338,9.18910783108,4.00801729369,6.00612926202,5.84981193496,66.175811443
off_to_on,3.51910211275,2.53821242602,4.25844352922,8.17879032981,7.29928149791,4.38564478032,6.05295705155,5.44196357449,7.3911981469,9.07145824551,4.10479913728,5.23556676814,5.79519396565,76.8765299453
off_to_on,2.49762400161,1.51460568901,3.21931826743,7.82626922142,7.10739393364,3.89714058994,5.38558821659,4.45194986728,7.1622567884,8.23147146014,4.00828677074,4.08694612662,5.34641273045,84.2588894656
off_to_on,1.27370491385,0.407074411653,1.92301149992,7.05463136141,6.5542889141,3.07533751287,4.43654603524,3.31198011434,6.58114036913,6.80803577821,3.73518087334,2.71721466596,4.56675449768,87.804219231
off_to_on,-0.0234254281727,-0.684420908907,0.517294250192,5.92863579533,5.69233499934,2.05656001598,3.38131434288,2.21402099839,5.68388602529,4.99228920903,3.31185522397,1.30206135855,3.54971569083,87.0616547691
off_to_on,-1.25840122765,-1.66151046636,-0.839944634978,4.53833146869,4.59370692415,0.995184548477,2.39102090971,1.32616074029,4.52836729014,3.0009585287,2.77162140659,0.012275531669,2.40671328878,81.6986062081
off_to_on,-2.30586159866,-2.43721592039,-1.99996347906,2.98875532157,3.34149068098,0.0408866264832,1.60426092133,0.766924676017,3.18855474888,1.04807005257,2.15162274568,-1.00884465515,1.25295272348,71.5715241235
off_to_on,-3.06515621426,-2.94470269321,-2.84117786712,1.38836439781,2.02016738859,-0.682697377698,1.10450544522,0.587214023868,1.74723201116,-0.681168766326,1.48964645316,-1.66395507695,0.193356634846,56.8053783135
off_to_on,-3.471780862,-3.14404716971,-3.2836473132,-0.162239168597,0.706798801555,-1.09492057745,0.906691050674,0.762589721207,0.288122607235,-2.05096894221,0.82113780484,-1.91350595494,-0.689589488148,37.8656839321
off_to_on,-3.50415188381,-3.02628575961,-3.29823286286,-1.57980609219,-0.535909144375,-1.16840606089,0.955209596684,1.1971460764,-1.11155934413,-2.98758492754,0.176671604039,-1.77939517738,-1.34451971383,15.6051055175
off_to_on,-3.18494714827,-2.61429802401,-2.90931277702,-2.80496508894,-1.66380525739,-0.931368388039,1.13378540262,1.73854602176,-2.38721130719,-3.48270536076,-0.419912790176,-1.34001315086,-1.75535117908,-8.73179174509
off_to_on,-2.57695047113,-1.96041143172,-2.1907739762,-3.80503790633,-2.65233290284,-0.461835244721,1.28589552428,2.20215815298,-3.4908949873,-3.58767470407,-0.95257171584,-0.717453398929,-1.94052235602,-33.5571917884
off_to_on,-1.77404118377,-1.1409637409,-1.25585585187,-4.57296608287,-3.49448093208,0.12523209856,1.24273068208,2.40087935735,-4.39295505568,-3.39987526258,-1.41324760843,-0.0587439202229,-1.94758100495,-57.0459900014
off_to_on,-0.888578077375,-0.248382237886,-0.24219853238,-5.12274746179,-4.19618704296,0.695948913711,0.854460415125,2.17634280568,-5.08118550474,-3.04362822185,-1.80120543751,0.486230497936,-1.8440232014,-77.2936958132
off_to_on,-0.036859267984,0.618398017934,0.705959762578,-5.48228762788,-4.77011437058,1.11800385752,0.019947677098,1.42693135148,-5.55788370668,-2.64862964811,-2.12161086585,0.787007702527,-1.7057708404,-92.51143593
off_to_on,0.675456283159,1.36418030805,1.45615619248,-5.68493425684,-5.2289534488,1.28071001801,-1.28984170896,0.128388256199,-5.83542951961,-2.32914297407,-2.38351813974,0.751921431087,-1.60495677229,-101.235161818
off_to_on,1.16612508474,1.90735213872,1.90432858364,-5.76112756296,-5.57945110554,1.11180351787,-3.01867239477,-1.65620422971,-5.93121894437,-2.16691005546,-2.59749461216,0.34189287544,-1.59873069608,-102.520985368
off_to_on,1.38573494716,2.18831119743,1.98763124441,-5.73154424266,-5.81822927692,0.588694638443,-5.02462734735,-3.77885407392,-5.86284144585,-2.2000718463,-2.77314894859,-0.423234215098,-1.72060588327,-96.0973562939
off_to_on,1.32267752729,2.17560351158,1.69189586512,-5.60284556562,-5.93015252468,-0.257307898176,-7.09312599485,-6.02154332494,-5.64431014916,-2.4194177478,-2.9168471672,-1.46663650558,-1.97547070565,-82.4480737248
off_to_on,1.00319553942,1.86914749526,1.05289472642,-5.36670438101,-5.88958053713,-1.34428070264,-8.96206518228,-8.12185095098,-5.28394908583,-2.77216010374,-3.02989183655,-2.66439862552,-2.3388512118,-62.8077263144
off_to_on,0.486665950883,1.30022245875,0.151358873932,-5.00224803094,-5.66436611644,-2.54992140027,-10.3559330418,-9.80605090362,-4.78424487757,-3.17232443501,-3.1074039342,-3.86191789476,-2.76041094102,-39.0622170525
off_to_on,-0.143119141682,0.528235811192,-0.897511844981,-4.48149697853,-5.22200298606,-3.72724770385,-11.0243167268,-10.8253082793,-4.14362884251,-3.51591634895,-3.13808517821,-4.89451865793,-3.17109712393,-13.560091231
off_to_on,-0.789431799658,-0.365385574608,-1.95863697593,-3.77688762007,-4.53696095066,-4.72356892996,-10.779425492,-10.9900786354,-3.35982310699,-3.69840143996,-3.10495463158,-5.60942254387,-3.49286744174,11.1464102003
off_to_on,-1.35530320488,-1.28554163856,-2.89385332522,-2.86961742269,-3.59802468485,-5.40015539824,-9.52720918485,-10.1979716545,-2.43411276864,-3.63179513342,-2.98705309633,-5.88608022811,-3.64962031715,32.6002938352
off_to_on,-1.75579794373,-2.13318018957,-3.57880548518,-1.75739495962,-2.41441094138,-5.65000799516,-7.28738938159,-8.45115481076,-1.37573768566,-3.25882660037,-2.76200062707,-5.65214774278,-3.57784052345,48.740787753
off_to_on,-1.92835299175,-2.81539540395,-3.91785577512,-0.460240856997,-1.01958447953,-5.41145777137,-4.19914461784,-5.86073753191,-0.205558211949,-2.56217549813,-2.40918660946,-4.89303937355,-3.23556730034,58.1657247057
off_to_on,-1.83997680454,-3.25487479649,-3.85524273405,0.976740754399,0.527995246026,-4.675945985,-0.511110715676,-2.63730603061,1.04175466888,-1.56759037857,-1.9132795306,-3.65391110681,-2.60857135475,60.3177688063
off_to_on,-1.49055315182,-3.39773904059,-3.38123187833,2.48425760702,2.14753219808,-3.48915256781,3.44349324475,0.931363809469,2.31753748727,-0.340653330802,-1.26767606492,-2.03398787743,-1.71304246213,55.5655481082
off_to_on,-0.912017588671,-3.21898893887,-2.53265713262,3.97348248326,3.74180268576,-1.94553641759,7.28372482194,4.51265937322,3.56118894917,1.02209057096,-0.477476389303,-0.174192072529,-0.594576370083,45.1639833447
off_to_on,-0.163700041894,-2.72502241716,-1.38795862315,5.3439875493,5.20568638138,-0.177199438306,10.6251640949,7.7674324871,4.70434391228,2.40611066722,0.43841789761,1.76008723576,0.676262911286,31.0942341772
off_to_on,0.675413316321,-1.95298603624,-0.0574912990856,6.49397936688,6.43630046882,1.66132485128,13.1258467874,10.3893251565,5.67671584992,3.69389759886,1.44643169976,3.59864568778,2.01110892007,15.8005201676
off_to_on,1.51640762778,-0.967049482562,1.32957361205,7.33148993587,7.34346942519,3.41031346966,14.5278610693,12.1400566118,6.41288620134,4.77970788386,2.49891897572,5.18585800838,3.31269052603,1.85621900232
off_to_on,2.27088488363,0.14799500496,2.64007001608,7.78500948621,7.8591923588,4.92193087457,14.6890870445,12.8761538549,6.85915257633,5.58189568628,3.53635104791,6.39728245048,4.48431998335,-8.39714833713
off_to_on,2.86084692485,1.29513503761,3.75155768267,7.81209755489,7.94488737569,6.07509044681,13.6008248256,12.563761903,6.9795113836,6.05114494404,4.49103780645,7.15143854373,5.43884690418,-13.1889319043
off_to_on,3.22688714527,2.37466762363,4.5652103544,7.40477321369,7.5954808722,6.78645677749,11.3889171063,11.2797718703,6.75995012399,6.17361960283,5.29215464917,7.41548643019,6.10611877361,-11.5884607647
off_to_on,3.33384376993,3.29387029704,5.0154399164,6.59092448323,6.83982702376,7.01654126716,8.29816975798,9.19933288156,6.21044586855,5.96887916474,5.87168237441,7.2044506306,6.43826547297,-3.66433700614
off_to_on,3.1734332032,3.97581974683,5.07528760663,5.43152642526,5.73742881428,6.77053685301,4.66210528369,6.57161537712,5.36437661794,5.48322896046,6.17073021309,6.57455717243,6.41246453572,9.49209508731
off_to_on,2.76377800678,4.36645921124,4.75717168471,4.01403643179,4.37191714759,6.0942272745,0.862039564738,3.68722172484,4.27540536219,4.77986177489,6.14562227051,5.61205479953,6.03119077317,25.8870851299
off_to_on,2.14611729555,4.43920598622,4.1091611201,2.44285903989,2.84216025649,5.06589831932,-2.71911889095,0.841687984981,3.01224051505,3.92759587656,5.77309952329,4.41945484498,5.32025721819,42.8768442583
off_to_on,1.37929201256,4.19665611135,3.20747336576,0.82816499455,1.25216405761,3.7855989659,-5.74228050274,-1.70005053471,1.65196040387,2.99015967305,5.05403181128,3.1013752257,4.32517402186,57.521420696
off_to_on,0.532801191264,3.66925721601,2.1463082183,-0.725446047812,-0.298953224903,2.36330449455,-7.95089444367,-3.73359903026,0.272772302262,2.01779926484,4.01514790527,1.75208574397,3.10646474326,66.9944789946
off_to_on,-0.320687954456,2.9111494687,1.02638407294,-2.12896097196,-1.72568591645,0.907510568261,-9.19804363654,-5.13568714443,-1.05286785547,1.04252643714,2.7084691208,0.446450015199,1.73458141126,68.9941871499
off_to_on,-1.11252206801,1.9936829637,-0.0563848796926,-3.31639161693,-2.96256360842,-0.484440659553,-9.45861735327,-5.87300433687,-2.26392720108,0.0776595836448,1.20835717291,-0.764683804675,0.284965353593,62.0985615182
off_to_on,-1.78420931507,0.997373365404,-1.02074008661,-4.24878039094,-3.96762615569,-1.73338398641,-8.82533359142,-5.9985633175,-3.31461008235,-0.878451451512,-0.393662906419,-1.85436859451,-1.16636061382,46.014554755
off_to_on,-2.29200425121,0.00322694869869,-1.80739253713,-4.91443198835,-4.72273845916,-2.78225425846,-7.48959583277,-5.63660156612,-4.17595384362,-1.83535978841,-1.99589656708,-2.81523164168,-2.54647342766,21.6832666933
off_to_on,-2.60963570456,-0.915569416752,-2.38311116151,-5.32558232188,-5.23097835672,-3.59693770158,-5.71021430716,-4.95858550063,-4.83517874158,-2.80154676689,-3.49466657638,-3.65211935191,-3.78848903473,-8.77773483117
off_to_on,-2.72911904469,-1.70064779083,-2.74133604612,-5.5122231908,-5.51172490525,-4.1644971699,-3.77461671492,-4.1540432289,-5.29309230704,-3.77531764776,-4.79291293236,-4.37335148858,-4.83387949677,-42.2923289722
off_to_on,-2.65980095936,-2.31336371946,-2.89950740828,-5.51418913527,-5.59436103604,-4.4895165198,-1.95809960619,-3.40056413015,-5.56012163677,-4.73739867763,-5.80835049459,-4.98239330906,-5.63435594829,-75.179539132
off_to_on,-2.42594127823,-2.73707709001,-2.89368994314,-5.3728255335,-5.51164577193,-4.5894576305,-0.486807706233,-2.83729060337,-5.65172534121,-5.64681161655,-6.48034752201,-5.47161832463,-6.15349905782,-103.599628825
off_to_on,-2.06323165499,-2.9766027996,-2.7713646859,-5.12356546886,-5.29379109631,-4.48991328076,0.490534273739,-2.54560255856,-5.58399475526,-6.44107967334,-6.77480307424,-5.81942007664,-6.36824614402,-124.035806903
off_to_on,-1.61468508298,-3.05497633584,-2.58342761847,-4.7905495305,-4.96410561867,-4.22048831803,0.918469858261,-2.53955844969,-5.37018470822,-7.04111024699,-6.68650277018,-5.99130910684,-6.27022759174,-133.748804505
off_to_on,-1.12631247165,-3.00801814997,-2.37646401084,-4.38406026904,-4.53677229612,-3.81178949215,0.836421020262,-2.76717885351,-5.0187302887,-7.36031551938,-6.23870009794,-5.94490425723,-5.86681601048,-131.144024919
off_to_on,-0.642948164373,-2.87746443341,-2.18626562358,-3.9010694748,-4.01695888561,-3.29370353929,0.366314492399,-3.12205667521,-4.533037667,-7.31679500304,-5.47997460606,-5.63801454853,-5.18164394246,-116.001578191
off_to_on,-0.204512990441,-2.70362343843,-2.03334561723,-3.32868593191,-3.40307548504,-2.69485024234,-0.311525165329,-3.46328326649,-3.91302686359,-6.84683156347,-4.47872336744,-5.03842539691,-4.25429031893,-89.5369508448
off_to_on,0.15707251284,-2.51858862296,-1.9209162013,-2.64982276281,-2.69065225748,-2.04286350301,-0.990328156564,-3.64050450011,-3.15810116092,-5.91763693524,-3.31591106623,-4.13364619669,-3.13885284631,-54.2820297244
off_to_on,0.420178851259,-2.34097934975,-1.83546632333,-1.85004859512,-1.87706297172,-1.36501661501,-1.47174201304,-3.5202286419,-2.27096900822,-4.53727858847,-2.07690304153,-2.93880494981,-1.90121940062,-13.7997565933
off_to_on,0.574868407578,-2.17298961667,-1.74975206045,-0.924399128422,-0.966201587366,-0.688686438659,-1.59835122508,-3.00939048899,-1.26158847878,-2.76003430643,-0.843308393579,-1.501104268,-0.615016603016,27.7323449598
off_to_on,0.623350501965,-2.0002250797,-1.62772825692,0.117067293117,0.0277554692194,-0.0412421551982,-1.27905003467,-2.07264160108,-0.1504658039,-0.686013052826,0.314248102451,0.10025102594,0.643576619725,66.0171398565
off_to_on,0.579465130758,-1.79443329178,-1.43073612361,1.24598744122,1.07820694903,0.550875222385,-0.503604331955,-0.740808521161,1.02937571846,1.54533270386,1.34162727945,1.75905641454,1.80174425163,97.1482764461
off_to_on,0.467201590373,-1.51882785356,-1.12413738684,2.41534268176,2.14604004781,1.06388477499,0.655604891789,0.890708251301,2.23224499091,3.76731053734,2.20437214084,3.35166777018,2.79608448684,118.070866011
off_to_on,0.31830052188,-1.13532629034,-0.683558989247,3.56223618614,3.18170102142,1.47897527905,2.05473777027,2.67332970588,3.4016634503,5.80239318041,2.88831503433,4.75000649209,3.57808858013,126.933900161
off_to_on,0.169046876291,-0.612715670506,-0.0999798829817,4.61350013467,4.12917980973,1.78476541725,3.5007198063,4.42478828992,4.47417537976,7.48095648223,3.39764091861,5.83630803161,4.11832285662,123.290216071
off_to_on,0.0564375231398,0.0654262942183,0.616960029386,5.49338647002,4.93136278187,1.97937588837,4.78108125353,5.95384153487,5.38468285567,8.65999213411,3.75077731683,6.51756833366,4.40868783432,108.119983176
off_to_on,0.0139946834614,0.894262766644,1.4378396878,6.13226022838,5.5359936888,2.07156910786,5.69686230614,7.08659788318,6.07265201671,9.23937275725,3.97475936273,6.737602096,4.46233654857,83.6769121274
off_to_on,0.0675826730703,1.84376284317,2.31469149067,6.47504534332,5.90138890309,2.08051820142,6.09361766186,7.6906350376,6.48838367432,9.17352068268,4.09891184212,6.48490131851,4.31112854896,53.1795274933
off_to_on,0.231653621463,2.85809927231,3.18450255458,6.48819466026,6.00109146219,2.03397030637,5.88587062481,7.69343908231,6.59850563648,8.47690778023,4.14877259979,5.79503639443,4.00083673877,20.3897801704
off_to_on,0.506379365631,3.8587708862,3.97465573593,6.16416484528,5.8268110852,1.96483785909,5.07136437188,7.09253979815,6.38993236797,7.22261256981,4.14114053703,4.74709610789,3.5846605792,-10.8646555318
off_to_on,0.876105304607,4.75135704152,4.60978211106,5.52274033924,5.38925695114,1.90654109264,3.73298486306,5.95593563029,5.87173696292,5.53407105014,4.08097027036,3.45450724159,3.1158775138,-37.1616860123
off_to_on,1.3094773721,5.43530933267,5.01934939856,4.60901233721,4.71678484955,1.88768560942,2.02805889567,4.41281023028,5.07466139304,3.57105180662,3.96057409102,2.05138417907,2.64063672945,-55.8890833511
off_to_on,1.76144433919,5.81573244695,5.14522913188,3.4883079623,3.85210076282,1.92684366152,0.166592612984,2.63593559782,4.04831199489,1.51163918399,3.76126377586,0.676212996058,2.19193126874,-65.5312835158
off_to_on,2.17713424827,5.8157642272,4.94847472057,2.23880648609,2.84753940232,2.02828029521,-1.61836165175,0.818333512272,2.85640072634,-0.467483662697,3.45721339541,-0.544925627203,1.78566183281,-65.8049393375
off_to_on,2.49736669375,5.38798625797,4.41460264244,0.942906417488,1.75962674904,2.17940622352,-3.10387411961,-0.852440198408,1.57065276234,-2.20996610333,3.02099699385,-1.5133063073,1.41943762571,-57.6303551237
off_to_on,2.66532165312,4.52331316529,3.55679437253,-0.321429692049,0.643712351457,2.35054905209,-4.1089963775,-2.21872481661,0.264169705868,-3.5955941315,2.42999713009,-2.16864001723,1.07437882794,-42.9480747064
off_to_on,2.63367555423,3.25602971984,2.41661705966,-1.48815054582,-0.450589680285,2.49733510566,-4.52066431973,-3.17246525906,-0.994908826627,-4.55108371005,1.6727286344,-2.49478799606,0.719743661389,-24.4102585702
off_to_on,2.37137124262,1.66405169792,1.06208214495,-2.50841637426,-1.48257258819,2.56560557238,-4.30987460886,-3.66749445578,-2.14867069305,-5.05468391481,0.754099825898,-2.51937192716,0.319764670169,-4.99232801443
off_to_on,1.86913991914,-0.135964126046,-0.416894468588,-3.35308505512,-2.42189017193,2.49840555604,-3.53578388596,-3.7227811065,-3.15302734463,-5.13425873045,-0.301252955196,-2.30741302601,-0.158289197565,12.4203888531
off_to_on,1.14295850449,-1.99840771771,-1.91531938907,-4.01219357782,-3.24825197614,2.24424036459,-2.33713496093,-3.41635586476,-3.97930402741,-4.85938849971,-1.44818446308,-1.94998231101,-0.736046229343,25.4147147744
off_to_on,0.234808860457,-3.76251948995,-3.32169481041,-4.49171516017,-3.94961157312,1.76554378709,-0.912247876779,-2.87097184784,-4.61378912985,-4.32880647198,-2.62310878162,-1.5495499674,-1.41724827676,32.3502493926
off_to_on,-0.789607546063,-5.26877986998,-4.52760606061,-4.8082917229,-4.51934097942,1.04619020079,0.509539988684,-2.23372748249,-5.05550522071,-3.65505734787,-3.74882916327,-1.20418011881,-2.1834110063,32.541256874
off_to_on,-1.84618459857,-6.37606080423,-5.43746004665,-4.98294405263,-4.95303917254,0.09692965281,1.70087870059,-1.65271421165,-5.31271302423,-2.94855889139,-4.74165831639,-0.99286177723,-2.99278198332,26.3000533043
off_to_on,-2.84034916898,-6.97753332957,-5.97745367156,-5.03490087351,-5.2456662286,-1.04216632268,2.46912551213,-1.25413262921,-5.39882281896,-2.30323132817,-5.52002583763,-0.964076952955,-3.7829990184,14.841831429
off_to_on,-3.67684361302,-7.01338744312,-6.10287910048,-4.97664192312,-5.38962030765,-2.30281260779,2.68410980133,-1.12319937033,-5.32844228953,-1.78554401921,-6.01353520822,-1.12921197128,-4.4773163337,0.0699157788433
off_to_on,-4.2702785097,-6.47872851292,-5.80298912137,-4.81102672887,-5.37419495862,-3.59329247479,2.29700383764,-1.29156800431,-5.1142293357,-1.42826865502,-6.1713305455,-1.46169207619,-4.99372373141,-15.7237819499
off_to_on,-4.55520488534,-5.42553853402,-5.10284580669,-4.53101570251,-5.18659828122,-4.80655149713,1.34765031084,-1.73300341747,-4.76505405877,-1.22951025368,-5.96868020424,-1.90187044463,-5.25581427859,-30.1979425227
off_to_on,-4.49443253429,-3.95827185899,-4.06184531339,-4.1220413868,-4.81442492727,-5.83078561015,-0.0406425260506,-2.36782821247,-4.28573320843,-1.15681887344,-5.4108776624,-2.36685663595,-5.20393176552,-41.2917636962
off_to_on,-4.08446547537,-2.22341258702,-2.76892850478,-3.56662659392,-4.24919407704,-6.56134015002,-1.67803954301,-3.07538118966,-3.67832141654,-1.15547744404,-4.53387740395,-2.7637511672,-4.80500443576,-47.4999935969
off_to_on,-3.3572281027,-0.394061161535,-1.33482162113,-2.8504465134,-3.49034706274,-6.91251434484,-3.33439513679,-3.712577491,-2.94467072247,-1.15951349516,-3.4014850947,-3.00426774381,-4.05957299441,-48.0569840854
off_to_on,-2.37768466943,1.34875311385,0.118030567329,-1.96875824302,-2.54897408104,-6.82782091366,-4.77100039537,-4.13580179946,-2.08974607808,-1.103667524,-2.09935551439,-3.01854297798,-3.00484321897,-43.0079573274
off_to_on,-1.23745948723,2.8359013624,1.46690994689,-0.93201895657,-1.45053263594,-6.28739426483,-5.77337111798,-4.22291977594,-1.12504472651,-0.934504851369,-0.72646144321,-2.76608004213,-1.71309864801,-33.1625116817
off_to_on,-0.0450815388564,3.92881169384,2.6005363759,0.23039806162,-0.235934946717,-5.31155903412,-6.18049193005,-3.89221703197,-0.071433410326,-0.619077188953,0.614972696873,-2.24222349699,-0.285430827169,-19.9422965491
off_to_on,1.08606385261,4.53473829658,3.42985891093,1.46921276864,1.03939751405,-3.96002525796,-5.9064905821,-3.11555883724,1.03920535774,-0.149982228259,1.82987212544,-1.47924817707,1.15860176198,-5.14934765172
off_to_on,2.05065642143,4.61680342307,3.89679051745,2.71738833731,2.308618854,-2.32671015838,-4.95184037781,-1.923930548,2.16395010056,0.45373942381,2.83979414865,-0.541961500252,2.49418227986,9.30820556081
off_to_on,2.76365059194,4.19758095358,3.97992503786,3.89534995128,3.49846380419,-0.530730513952,-3.40270849666,-0.404637287647,3.25062362901,1.14978388779,3.5903465422,0.481457135002,3.60566282092,21.6917817162
off_to_on,3.1702250027,3.35575909376,3.69656303454,4.91870925547,4.53564739418,1.29540741145,-1.41875984513,1.30935383035,4.24128353675,1.87914985698,4.05565453463,1.49194768456,4.40033249072,30.669600818
off_to_on,3.25216438496,2.21625478346,3.10074699687,5.70751212945,5.35389407925,3.01903567913,0.788655651808,3.05633010216,5.07704791161,2.57492684233,4.23936356392,2.39347227499,4.81967423869,35.4830181603
off_to_on,3.02978659409,0.934949353231,2.27742811846,6.19574706305,5.90069663879,4.52040155935,2.98469116592,4.6665428057,5.70366327542,3.17186522326,4.1721075082,3.10621660762,4.84654318951,36.0210337241
off_to_on,2.55907745015,-0.32012679804,1.3333105916,6.33975609389,6.14289885261,5.70404068622,4.9415009744,5.98374786228,6.0770868832,3.6152412901,3.90582454718,3.57710445679,4.50720992116,32.7962710478
off_to_on,1.92430625274,-1.38889721005,0.385296800818,6.12429865559,6.07032205809,6.50710925738,6.4667575384,6.88455426964,6.16832784086,3.86771278293,3.50570537949,3.7860674529,3.86788291406,26.8303358083
off_to_on,1.22698596294,-2.1382101945,-0.452257151677,5.56531858424,5.6968986858,6.90372679154,7.42629206766,7.29293228648,5.96687587928,3.91323467192,3.04085771575,3.74717440769,3.02606514902,19.4693555239
off_to_on,0.572534977439,-2.47740095571,-1.08010765194,4.70891436447,5.05910261255,6.90489314904,7.75790972827,7.18798288899,5.48223089821,3.75760645547,2.57492689389,3.50451984413,2.09780857818,12.159852733
off_to_on,0.056324180641,-2.36859427595,-1.42513504669,3.62654748154,4.2118306042,6.5541126757,7.47478066981,6.60407815062,4.74330329894,3.42576906204,2.15790428002,3.12357918096,1.20250734768,6.21968203302
off_to_on,-0.249093742155,-1.83055169589,-1.44857075443,2.40706466075,3.22223897847,5.91940985773,6.65835674944,5.62359759439,3.79574645806,2.95647514913,1.82018394151,2.67943553403,0.447233218928,2.63807785268
off_to_on,-0.303895607811,-0.93566749171,-1.15049965223,1.14657593242,2.16232407299,5.082881901,5.44228100241,4.36354386471,2.69756513412,2.39534379455,1.56961691534,2.2437644061,-0.0872897168755,1.93321702374
off_to_on,-0.106704390574,0.19943798208,-0.570098786118,-0.0624488912714,1.10121226006,4.12924268793,3.99002083437,2.95816903001,1.51357528507,1.78752250947,1.39190309285,1.87265437192,-0.357166731611,4.08611940124
off_to_on,0.304701273439,1.428498115,0.218457401374,-1.14137743564,0.0981683467352,3.13492777541,2.46978580079,1.54026056226,0.309437638204,1.17118826745,1.25420836273,1.59721462029,-0.360823170045,8.55775519062
off_to_on,0.857859558257,2.59350471469,1.11401170112,-2.033509,-0.802767358066,2.15923498913,1.03057282875,0.223853979428,-0.853971758558,0.572929416454,1.11146003127,1.41849242906,-0.138718236748,14.3837552735
off_to_on,1.45478447768,3.54370964755,1.99950339238,-2.70896589795,-1.57583044808,1.23868103932,-0.217115279252,-0.909152560424,-1.9251609642,0.00569750490946,0.91441502398,1.307559264,0.232726982571,20.3299918973
off_to_on,1.98470106459,4.1534009628,2.75490903383,-3.16574251215,-2.21391427032,0.385299291267,-1.21315313801,-1.81665735539,-2.86506812552,-0.530437409268,0.618360917407,1.21082302125,0.652209400547,25.0841001272
off_to_on,2.33876808873,4.33632974104,3.27062888395,-3.42683028845,-2.7263008086,-0.410952929429,-1.95076575478,-2.49737139293,-3.64827308298,-1.04497722897,0.191230496998,1.05980675005,1.00816597528,27.4538335309
off_to_on,2.42492248533,4.05512609892,3.45985071325,-3.53390980006,-3.13413426243,-1.17609343177,-2.47049538331,-2.98530130398,-4.26237171877,-1.55181342921,-0.38000377303,0.783924683414,1.19497882037,26.5434336267
off_to_on,2.18094153351,3.32470463377,3.26853727551,-3.53860436258,-3.4643511829,-1.94326996026,-2.8464701287,-3.33879920493,-4.70578136128,-2.06316585207,-1.0855507122,0.3242926545,1.12857475004,21.8836972717
off_to_on,1.58402646697,2.20943211783,2.68195142089,-3.49264822612,-3.74300062853,-2.74252960993,-3.16746173452,-3.62608818236,-4.98446891655,-2.58378130866,-1.8921744131,-0.353591730079,0.759298111756,13.4992811683
off_to_on,0.655638851599,0.814611359564,1.72702181549,-3.43848176283,-3.98897525694,-3.5907901366,-3.51599996737,-3.90968116261,-5.10823554679,-3.10648573623,-2.74583076271,-1.25034046068,0.0802923641208,1.90665228769
off_to_on,-0.539086180202,-0.726476608599,0.470316190697,-3.40172113101,-4.20911670217,-4.48361327382,-3.94907770051,-4.23224839882,-5.08723196084,-3.60995826201,-3.57723597512,-2.3279463416,-0.869776399349,-11.9536035042
off_to_on,-1.89734464465,-2.268221761,-0.988126870266,-3.38666860607,-4.39546364093,-5.39017116236,-4.48369852112,-4.60623858523,-4.92931177175,-4.05922705901,-4.30964428738,-3.51076129272,-2.01006340634,-26.8372385206
off_to_on,-3.28940008902,-3.66900915516,-2.52440895577,-3.37557232028,-4.52510566928,-6.2523891753,-5.08973444103,-5.00896182492,-4.6386683915,-4.4089351233,-4.86782004445,-4.69227870117,-3.22655277151,-41.3499896718
off_to_on,-4.57277245282,-4.80620485587,-4.00276707427,-3.33177722503,-4.56273308574,-6.98869160729,-5.6913970598,-5.38399113691,-4.21596964859,-4.6089615865,-5.18703647193,-5.74695889757,-4.38556701791,-54.1114804623
off_to_on,-5.60817171364,-5.58805554651,-5.28866204651,-3.20631613218,-4.46558400005,-7.50214151084,-6.17725955467,-5.64876131273,-3.65994035895,-4.61158472247,-5.22093880596,-6.54557772993,-5.35001822621,-63.906746093
off_to_on,-6.27525870033,-5.96123622586,-6.26158737511,-2.94695865971,-4.19014008643,-7.69213500839,-6.41740675238,-5.70728554723,-2.97008799159,-4.37909997754,-4.94727061666,-6.97203046238,-5.99628222178,-69.8064356176
off_to_on,-6.48634919614,-5.91340878836,-6.8262999341,-2.50834625077,-3.69965953588,-7.46826777297,-6.28514217342,-5.46611309032,-2.15006042576,-3.89070360448,-4.3707553449,-6.93926892146,-6.22950705966,-71.2430217429
off_to_on,-6.19644775608,-5.47083869329,-6.92138922808,-1.86165227371,-2.97149683262,-6.76461173449,-5.67991793992,-4.85113214355,-1.21100007966,-3.14753649583,-3.52280867603,-6.40212837481,-5.99539258614,-68.0380483829
off_to_on,-5.40846652841,-4.69176225593,-6.52442803411,-1.00224744938,-2.0031631302,-5.55247884627,-4.54789151139,-3.82265672988,-0.174235332399,-2.17504103807,-2.45817788549,-5.36520292049,-5.28696557535,-60.3832325251
off_to_on,-4.17308834915,-3.65671624499,-5.6533410788,0.0458814181438,-0.8162276858,-3.84983449564,-2.89679325295,-2.38644753232,0.927267496762,-1.02217651877,-1.2490037871,-3.88459771582,-4.14555528835,-48.7848304242
off_to_on,-2.5833923855,-2.45736728065,-4.3640408351,1.22975456844,0.54257005148,-1.72585327715,-0.802571171219,-0.598872968355,2.04909221486,0.242494828491,0.0228748742222,-2.06322756127,-2.655951583,-33.9850634965
off_to_on,-0.764988864708,-1.18547274134,-2.74476153062,2.47127892247,2.00327313665,0.700349766244,1.5935503259,1.43476355663,3.13735788856,1.53737076511,1.27434894831,-0.0402233436813,-0.936493721981,-16.8759856405
off_to_on,1.13707296998,0.0765370368172,-0.907831398064,3.674978865,3.47760719136,3.26709075617,4.09757351819,3.56874029822,4.13238380705,2.77614295125,2.42911141875,2.02417776027,0.874512594376,1.58012066623
off_to_on,2.9730160632,1.26221439161,1.02017206882,4.73860377157,4.86633218728,5.78311577818,6.48336751432,5.63131854265,4.97365371917,3.8767582537,3.42437694808,3.96626281487,2.63420745254,20.4134818051
off_to_on,4.60292785781,2.3243447351,2.90885480223,5.56520342855,6.0682365586,8.04502524369,8.51881187006,7.44323360564,5.60548655849,4.76977154632,4.21547408798,5.63666295179,4.21039299058,38.6877259557
off_to_on,5.90958792378,3.23471720779,4.63403397634,6.0750270257,6.98975543119,9.85731683167,9.99397034368,8.83789612902,5.982692325,5.40494927,4.7778601946,6.91602638612,5.4946282668,55.5198150477
off_to_on,6.80817997389,3.98089366013,6.08650980006,6.21560059542,7.5541165856,11.0528352213,10.7474738518,9.68067300246,6.075467044,5.75525114099,5.10648646272,7.72653450713,6.4116395727,70.0850915905
off_to_on,7.25198840242,4.56090812509,7.17894991694,5.96857326953,7.70897809385,11.5112695549,10.6874876794,9.88473175113,5.87286436447,5.81771716936,5.2128163283,8.0378589181,6.92405095772,81.6170143173
off_to_on,7.23372115784,4.97711810327,7.85051793773,5.35236175953,7.43170971607,11.1734761296,9.80435008829,9.42139319973,5.384361767,5.61125690585,5.12012122093,7.86695776737,7.03212814029,89.4122640452
off_to_on,6.78265772676,5.23051240097,8.06914624361,4.4202025731,6.73175886016,10.0498158049,8.1730956404,8.32367640646,4.63929044865,5.17180499105,4.85789825538,7.27198544366,6.7689369032,92.8503764484
off_to_on,5.95831884218,5.31664852296,7.83159308848,3.25385952423,5.64989150938,8.22134017242,5.94545546821,6.68263064378,3.68418313302,4.54569928011,4.4563447818,6.34141300997,6.1919424459,91.4331621902
off_to_on,4.84172989984,5.22406885628,7.16160832705,1.9538383668,4.25446261697,5.83346490047,3.33236146206,4.63700240583,2.57837169399,3.78239406243,3.94177366236,5.18010817167,5.37253054713,84.843630466
off_to_on,3.52555909183,4.93558120653,6.10664473323,0.627443933247,2.63520241668,3.0826385487,0.579268101308,2.35764808094,1.38839617498,2.92770098172,3.33367011132,3.89450940378,4.38515259603,73.0180048052
off_to_on,2.10443491917,4.43225897346,4.7335890356,-0.623691530887,0.895264296452,0.197345971689,-2.06243675455,0.0287572729384,0.181935388457,2.01864104705,2.64380437315,2.57909481373,3.29775739855,56.2189344946
off_to_on,0.666593602975,3.69950300784,3.12395644709,-1.71491906841,-0.8575630356,-2.58452492982,-4.36416503371,-2.17168832817,-0.977984172411,1.08070872263,1.8774677531,1.30608542073,2.16488458585,35.0943299011
off_to_on,-0.712292897727,2.73409251756,1.3689121081,-2.58721249242,-2.51953604695,-5.03946285,-6.14527002075,-4.08977299926,-2.03780559709,0.127936590228,1.03654451136,0.119776070519,1.02430544244,10.7052865367
off_to_on,-1.97265184046,1.55090360837,-0.435624051204,-3.21202004211,-3.99866157255,-6.98059621176,-7.29140911836,-5.6096835383,-2.95674816406,-0.834329805516,0.12382197851,-0.963861453507,-0.102515728387,-15.4912278329
off_to_on,-3.07187772571,0.187934130201,-2.19364092006,-3.59176201261,-5.22073277708,-8.27591954874,-7.76392173623,-6.66237463023,-3.70829792846,-1.80450784233,-0.852277446479,-1.95249629139,-1.20650808056,-41.713948578
off_to_on,-3.98289832127,-1.29154554356,-3.81340772901,-3.75603541008,-6.13324644599,-8.86040904173,-7.59928552493,-7.22809156338,-4.27984594477,-2.7786530186,-1.87345258693,-2.8686711451,-2.28456874763,-65.984427511
off_to_on,-4.69111043627,-2.80051549258,-5.21154375747,-3.75419997714,-6.70703100685,-8.7406534401,-6.89908790714,-7.33283216676,-4.67070389186,-3.74432398101,-2.90863182566,-3.73858646691,-3.33198031711,-86.3018799058
off_to_on,-5.19053526542,-4.23367391835,-6.31678367463,-3.64553079111,-6.93568956881,-7.99149965347,-5.8122322497,-7.03963655987,-4.88895054234,-4.67568254553,-3.91311551664,-4.58046109866,-4.33522020726,-100.84898944
off_to_on,-5.48007265584,-5.4765187093,-7.07340236213,-3.48845772949,-6.83319801839,-6.7451540126,-4.51210950052,-6.43624196018,-4.94771106666,-5.53092762176,-4.83014208906,-5.39456818194,-5.26665408263,-108.2045633
off_to_on,-5.5606180438,-6.41712533963,-7.44420057825,-3.33052383704,-6.43016742864,-5.17407637972,-3.17206892965,-5.62104484887,-4.86152361315,-6.25283160595,-5.59490533122,-6.15679215723,-6.08230539763,-107.534613849
off_to_on,-5.4335703821,-6.95921997947,-7.41287995499,-3.20056797929,-5.7693664016,-3.46974462988,-1.94263898469,-4.68942618611,-4.6433977681,-6.77267858892,-6.14067005467,-6.81700872029,-6.72339429438,-98.7331291465
off_to_on,-5.10094689497,-7.03484208159,-6.98557419517,-3.10429169911,-4.90109876365,-1.81985889719,-0.933575444793,-3.72231231893,-4.30302677559,-7.01736298172,-6.40628984098,-7.30283425321,-7.12171617453,-82.4878929866
off_to_on,-4.56698423023,-6.61481709503,-6.191273617,-3.02385710333,-3.8789538421,-0.38673527497,-0.203013917606,-2.77840268378,-3.84640322571,-6.91887475705,-6.34417443902,-7.52843610777,-7.20827753666,-60.2549611859
off_to_on,-3.84080097384,-5.71543770029,-5.08089811478,-2.9215571635,-2.75630915226,0.710517845689,0.245097828975,-1.89086928699,-3.27684011315,-6.42495421895,-5.92762464969,-7.40726763054,-6.92402400006,-34.136856489
off_to_on,-2.93947269058,-4.4001661262,-3.72484678992,-2.74699034411,-1.58379431053,1.407924484,0.455349397809,-1.0686203598,-2.5971546887,-5.50941487516,-5.15647110618,-6.86691664236,-6.23107366031,-6.67270695541
off_to_on,-1.89076313423,-2.77577176442,-2.20897859049,-2.44664650196,-0.40774858523,1.7012910563,0.508251780176,-0.301528868138,-1.81256952598,-4.18055603914,-4.0601217474,-5.86383682353,-5.12267637619,19.4384428338
off_to_on,-0.734780676875,-0.98303065215,-0.629144683583,-1.97444645495,0.730450736022,1.64311965547,0.502881793401,0.431543623304,-0.933755229659,-2.48623683483,-2.69742168717,-4.39563536919,-3.63019181362,41.6490302949
off_to_on,0.476017102876,0.817158084509,0.915421364636,-1.30162589716,1.7944249289,1.33229634145,0.53763243048,1.15346636173,0.0205976487839,-0.514547691286,-1.15312092353,-2.50883819405,-1.82571321711,57.8699503229
off_to_on,1.67878993887,2.46073853656,2.32937229271,-0.424436877906,2.75248885764,0.897977586433,0.692098631399,1.87996143059,1.02222792892,1.61044945529,0.468821153362,-0.300616873143,0.180481406089,66.732108995
off_to_on,2.80425082558,3.79857569498,3.52855103821,0.631555578217,3.57729704732,0.47983143402,1.01285988985,2.61265078271,2.03317345529,3.73780421648,2.0544478055,2.08623566516,2.24776810368,67.7654196389
off_to_on,3.78223620231,4.713445566,4.44662841812,1.81132227964,4.24567988391,0.207250882724,1.5052507258,3.33518521727,3.00724273488,5.70282261066,3.49054136802,4.47486163508,4.21767329305,61.4674588139
off_to_on,4.54828173753,5.13379277881,5.0403767477,3.03451494165,4.73881665717,0.180284658515,2.13224508548,4.01308037149,3.89302000029,7.34293171694,4.67566594715,6.67127750718,5.9297024584,49.2477847967
off_to_on,5.05036841394,5.04244725979,5.2929743319,4.20344547433,5.04277990918,0.45480594355,2.82046993009,4.59727152734,4.6380905801,8.5144958478,5.53022403346,8.48474943801,7.23864125201,33.2503786487
off_to_on,5.25491745283,4.47907356277,5.21491316868,5.21388893237,5.1493742539,1.03388872795,3.47227392537,5.03079905857,5.19397211043,9.10860599019,6.00432433655,9.74911069343,8.03117208614,16.0735677006
off_to_on,5.15116263213,3.53588334469,4.84232698135,5.96729324432,5.05710184607,1.86655241115,3.98187021338,5.25753982403,5.52111002037,9.06390440064,6.08250245855,10.3423086189,8.23963860077,0.421740288359
off_to_on,4.7532100367,2.34697798164,4.23284077166,6.38277163857,4.77203091801,2.85407030385,4.25297889756,5.23157916193,5.59326266482,8.37479719096,5.7847052663,10.2016162406,7.85107511502,-11.2660537059
off_to_on,4.09938384931,1.07249687841,3.45933109037,6.40727378246,4.30833165123,3.86304031687,4.21519773628,4.92571779125,5.40066804375,7.09391671116,5.16339771588,9.33244181957,6.91016660169,-17.1606022808
off_to_on,3.24881200559,-0.120578012078,2.60224027043,6.02257468957,3.68827596909,4.74351558496,3.8365514225,4.33773849411,4.95154077902,5.32836041955,4.29712065196,7.80945485663,5.5155481566,-16.311990237
off_to_on,2.27557688666,-1.07865923964,1.74127289152,5.24815050368,2.9415682216,5.3498072858,3.13027136694,3.49339502229,4.27167189077,3.22997048647,3.28125992511,5.76971528975,3.80969477768,-8.80453491492
off_to_on,1.26109055623,-1.68036343074,0.947391620037,4.13956533748,2.10396985564,5.56119320633,2.15474437009,2.44557620311,3.40216182387,0.980635270696,2.21712601719,3.39851438178,1.96348108783,4.22781835981
off_to_on,0.285603347226,-1.85156753189,0.276007269348,2.78259451042,1.21528698899,5.29974660346,1.006604684,1.2696662653,2.39557097738,-1.22580104118,1.20064618265,0.909573719784,0.157195317163,20.7322190152
off_to_on,-0.580117045558,-1.57482413482,-0.237875947784,1.28387242288,0.316888254553,4.5428472741,-0.192025611458,0.0556827452142,1.31098425317,-3.20301775117,0.312012383733,-1.47802325882,-1.43972320273,38.0003730168
off_to_on,-1.28191006496,-0.891928274152,-0.582029718246,-0.240699817373,-0.551004062725,3.3286093711,-1.31027054087,-1.10175625785,0.208625781894,-4.79090756389,-0.392496738516,-3.56337227591,-2.68775558539,53.0326350053
off_to_on,-1.78727415225,0.100735198634,-0.766654583646,-1.67828118585,-1.35196515369,1.75337415795,-2.22674356319,-2.11427048279,-0.855293074862,-5.87138597099,-0.885576475722,-5.18490944319,-3.4928342522,62.9557721489
off_to_on,-2.08773710062,1.26354671918,-0.821415623028,-2.93058585855,-2.05567532495,-0.038546324669,-2.84661615356,-2.90988334,-1.83286121683,-6.37956703158,-1.17028512422,-6.23665258351,-3.81640431968,65.4386506917
off_to_on,-2.19828395985,2.43036615245,-0.790277737716,-3.9231347695,-2.63963684714,-1.87166155222,-3.1150048273,-3.44113647961,-2.68740152418,-6.30909790427,-1.2776614308,-6.67762088137,-3.67875790892,59.0487523694
off_to_on,-2.15396197587,3.4286020786,-0.724821426902,-4.61119410107,-3.09012465772,-3.56053627842,-3.02471354271,-3.69006832093,-3.39477144489,-5.71112832195,-1.26093184177,-6.53340882667,-3.15521910652,43.4989095238
off_to_on,-2.00414292929,4.10022118202,-0.676895497508,-4.98180950407,-3.40229005936,-4.93275354766,-2.61719526736,-3.6694141277,-3.94299678461,-4.68712820358,-1.18708045361,-5.88988948174,-2.3656490439,19.7472490905
off_to_on,-1.8052159728,4.32117193871,-0.691527428018,-5.05188884042,-3.5794397933,-5.85062544417,-1.97658293818,-3.41990988595,-4.3304492431,-3.37646645152,-1.12686557321,-4.88000970765,-1.45857374745,-10.0676579217
off_to_on,-1.61267030645,4.01689878654,-0.800957398216,-4.86281811101,-3.63161038595,-6.22878934177,-1.21764099544,-3.00411310401,-4.56298425617,-1.94024288779,-1.14454035905,-3.66548676168,-0.591905133958,-42.8525363956
off_to_on,-1.47358385966,3.17210999654,-1.02049685062,-4.47254085635,-3.57363650443,-6.04532486062,-0.469358897666,-2.4976158801,-4.65059291183,-0.543256410637,-1.28855202971,-2.41581316122,0.0873570054273,-74.9202768017
off_to_on,-1.42045697647,1.83367065772,-1.34666048229,-3.94633078104,-3.42296255018,-5.34484207664,0.143476721006,-1.97885637965,-4.60417020511,0.663846075698,-1.58435544006,-1.28725166286,0.461938664445,-102.441376993
off_to_on,-1.46713283428,0.106330113639,-1.75771712279,-3.34760317953,-3.19746370838,-4.23302190832,0.518119871955,-1.51889210273,-4.43295542496,1.56027600503,-2.03020269279,-0.404425856393,0.459316128574,-121.928288663
off_to_on,-1.60725891239,-1.85814594868,-2.21649207133,-2.73003270051,-2.91352593103,-2.86320256368,0.588602553787,-1.17246585476,-4.14306730606,2.06700585938,-2.59639750595,0.153297130337,0.0611307262515,-130.689466492
off_to_on,-1.81540755668,-3.87709285585,-2.67497385946,-2.13199086883,-2.5845882518,-1.41665645944,0.335318119544,-0.971484347316,-3.73735820714,2.15369446152,-3.22807925966,0.359114506163,-0.694121757645,-127.192828258
off_to_on,-2.05063502844,-5.75637264379,-3.08006937438,-1.57392908591,-2.22028341218,-0.0790514968357,-0.211860337602,-0.921675692978,-3.21657934409,1.84006177338,-3.85117991807,0.23912156612,-1.71540878613,-111.289407286
off_to_on,-2.2619623091,-7.31082266585,-3.3797393927,-1.05887195869,-1.82623418292,0.983874948295,-0.977319908102,-1.00275006881,-2.58161942314,1.19178069852,-4.38082843686,-0.134084430072,-2.86991190299,-84.26580664
off_to_on,-2.39504450341,-8.38338500157,-3.52874396486,-0.575720848181,-1.40448365213,1.64825547488,-1.84974003916,-1.17192177751,-1.83638779686,0.311556860196,-4.73120466602,-0.653441619893,-3.99886636544,-48.7162974939
off_to_on,-2.39918340207,-8.86080449954,-3.49332984772,-0.104665979652,-0.954467713782,1.84873906021,-2.69698672614,-1.37022536332,-0.990790446777,-0.673434879107,-4.82569767104,-1.19334202443,-4.9365543843,-8.24906691009
off_to_on,-2.2338385449,-8.68426208505,-3.25438115802,0.376276529893,-0.474384295706,1.58758821522,-3.3837900937,-1.53072888116,-0.0632121058495,-1.62624836444,-4.60621481776,-1.62725384145,-5.53017426152,32.9369804232
off_to_on,-1.87389885486,-7.85396890104,-2.8087982742,0.884711847312,0.0372192873877,0.934923546951,-3.7897812713,-1.58755292313,0.918023359987,-2.41533757319,-4.04061339826,-1.84475164795,-5.65824905094,70.5512974197
off_to_on,-1.31316832958,-6.42749612817,-2.16913010037,1.42836297795,0.579831130431,0.0199470958562,-3.82546386243,-1.48456244213,1.91459797822,-2.92858180387,-3.12746534309,-1.76584125517,-5.24546215475,100.722985399
off_to_on,-0.565763849328,-4.51235650376,-1.36172112763,2.00148083052,1.14951404587,-0.985853272044,-3.44403126264,-1.18270513057,2.87972561528,-3.0847617733,-1.89768416832,-1.3509119229,-4.27227661921,120.458997479
off_to_on,0.334615717153,-2.253992859,-0.42381209637,2.58370877828,1.73775825272,-1.89146077033,-2.64755746071,-0.665200024828,3.76119354456,-2.84143867307,-0.412900264338,-0.605286361071,-2.77834348381,127.990987578
off_to_on,1.33734825098,0.179210324648,0.59987349974,3.14154932678,2.33077227373,-2.51218846923,-1.48689107199,0.0599074122916,4.50561726248,-2.19863015194,1.23917786577,0.421925560046,-0.859446304581,122.967294338
off_to_on,2.37908199173,2.61204427213,1.66052626129,3.63217749569,2.90929727808,-2.69533855724,-0.055451626112,0.959961187341,5.06340881224,-1.19814903314,2.95187325778,1.64423267108,1.34152998055,106.467016695
off_to_on,3.38894865401,4.87788809788,2.70819185123,4.00899302873,3.44898907503,-2.34233889195,1.52206113291,1.98048865144,5.39383137646,0.0810831238667,4.60835051822,2.94836151321,3.6484666477,80.836533967
off_to_on,4.29423596582,6.83182543789,3.69397898687,4.22805235802,3.92137216704,-1.42443831198,3.10439258329,3.05010745472,5.46947506355,1.53106178283,6.09122704906,4.20753072731,5.86908849078,49.3719783918
off_to_on,5.02598797748,8.36030201989,4.57145880585,4.2544055786,4.29533284701,0.0101754696228,4.54985394791,4.08689735173,5.27954709797,3.02511102618,7.29206317342,5.29565841102,7.81334900167,15.8909638157
off_to_on,5.5240879228,9.38670144611,5.2973828828,4.06739658009,4.53908318377,1.83890934408,5.73171199871,5.00550771517,4.8315161924,4.42958307008,8.11988480755,6.10077630657,9.3111786473,-15.7493264919
off_to_on,5.74150045274,9.87278979679,5.83201337508,3.66415650414,4.62249418728,3.87681579404,6.55093414079,5.7242900987,4.15086477843,5.61572703188,8.50804925765,6.53616187991,10.2278302064,-42.1245823189
off_to_on,5.64748249584,9.81650396028,6.13945605997,3.06080201316,4.5196639619,5.89682757285,6.94484477737,6.17184527745,3.27895307516,6.47069698367,8.41897642718,6.54810811954,10.4754183632,-60.6457251353
off_to_on,5.22969143765,9.24696366012,6.18839476831,2.29119527733,4.21155564878,7.6558029668,6.89089608525,6.29252766217,2.26924941369,6.90684237267,7.84650400268,6.11976138041,10.0197412264,-69.8411102962
off_to_on,4.49520824322,8.21782379883,5.95353868539,1.40347877219,3.68851227276,8.92326229432,6.40547937434,6.05062394464,1.18239560124,6.86865021225,6.81585628617,5.27099089135,8.88202081398,-69.4855327225
off_to_on,3.47054274377,6.80013013158,5.4179237702,0.454911646114,2.95243467518,9.50933803602,5.53839304551,5.43308589612,0.0807236342692,6.33695616376,5.38141692825,4.05473373594,7.13573821305,-60.5640976088
off_to_on,2.20069951771,5.07570508562,4.57598329016,-0.4942396865,2.01839923772,9.28853599449,4.36414008093,4.45082498084,-0.977100033855,5.33028263375,3.6226479891,2.55062435716,4.89920551118,-45.0812461224
off_to_on,0.747365549504,3.13180671419,3.43705905159,-1.38689662949,0.915499322759,8.21640311201,2.97157614778,3.13865526835,-1.94066198021,3.90337532438,1.63859269095,0.856928395943,2.32486455495,-25.7455335175
off_to_on,-0.813748424829,1.05742836112,2.02880898747,-2.17461204118,-0.313277020864,6.33705518253,1.45352734453,1.55399992935,-2.77110499824,2.14318314401,-0.458562686377,-0.918155839517,-0.41349393507,-5.57641542834
off_to_on,-2.39640309847,-1.05879245915,0.399821660061,-2.82157068621,-1.61226754621,3.78062550624,-0.102157531699,-0.225534009515,-3.44282534405,0.16265662413,-2.55040276748,-2.66487479279,-3.13434292354,12.5117271592
off_to_on,-3.90814985594,-3.12944119575,-1.37929137014,-3.3066964405,-2.91551148516,0.750913356265,-1.61902494725,-2.10563866289,-3.94347721191,-1.90716926426,-4.51925308731,-4.27924901579,-5.66169477114,26.0918720917
off_to_on,-5.25542224396,-5.06860374224,-3.21696869391,-3.62371437996,-4.15023901083,-2.49531404726,-3.03532635128,-3.97979938852,-4.27243779843,-3.92628263274,-6.25485002435,-5.66891906623,-7.83705454413,33.5230017144
off_to_on,-6.34926832477,-6.79229260934,-5.00436956318,-3.77932362473,-5.24132120573,-5.6749266182,-4.3042165059,-5.73475520879,-4.43809653674,-5.75543005896,-7.66042132082,-6.75737186355,-9.52931257257,34.1282947147
off_to_on,-7.11148009539,-8.21970355957,-6.62175618513,-3.78990726484,-6.11641287367,-8.50782798037,-5.39137653431,-7.25684144826,-4.45448190762,-7.26589502178,-8.65794584599,-7.48666560471,-10.642108105,28.2338150495
off_to_on,-7.48074743302,-9.2757789989,-7.9473178388,-3.67739925953,-6.71141708986,-10.7457413189,-6.27101514253,-8.43904463762,-4.33780764671,-8.34872407766,-9.19240409553,-7.81894060676,-11.1184524216,17.0684578883
off_to_on,-7.4183433209,-9.89523690996,-8.86776854877,-3.46501831783,-6.97582216017,-12.1971145467,-6.92143299096,-9.18847434124,-4.10349861111,-8.92280898124,-9.23485843658,-7.73706722251,-10.9426155345,2.54495372561
off_to_on,-6.91276211432,-10.0278506865,-9.28969777405,-3.17355555081,-6.87742179473,-12.7454020173,-7.3213483367,-9.43381052161,-3.7641500959,-8.94125744753,-8.78421984629,-7.24474151083,-10.1394410571,-13.0426240275
off_to_on,-5.98270946851,-9.64440232915,-9.15040542784,-2.81877393503,-6.40593770471,-12.3588286338,-7.44798009205,-9.13214637893,-3.32870076492,-8.39554067413,-7.86757544725,-6.36621640081,-8.77135730372,-27.3592367262
off_to_on,-4.67790068522,-8.74244523883,-8.42685581305,-2.41026709173,-5.57512536913,-11.0907994836,-7.27750523004,-8.27454768645,-2.8028862512,-7.31700217789,-6.5389797083,-5.14568811812,-6.93340850592,-38.3580965161
off_to_on,-3.07727188045,-7.35085851028,-7.14146831003,-1.9518681421,-4.42305692671,-9.07124726369,-6.78801699176,-6.88962128537,-2.19082120823,-5.7754568931,-4.87666172507,-3.64619026133,-4.74665473052,-44.5532347116
off_to_on,-1.2844396787,-5.5321873661,-5.36373020958,-1.44343802459,-3.01043176613,-6.49026795338,-5.96459191953,-5.04445069504,-1.49736603456,-3.87480254407,-2.97867762134,-1.94772605696,-2.35030158108,-45.1997625217
off_to_on,0.57946059578,-3.38195325171,-3.20704678421,-0.883637662398,-1.4169508269,-3.57625217135,-4.80561466802,-2.84242585594,-0.730799978985,-1.74579932223,-0.957141049389,-0.144328559407,0.107062472445,-40.3606562888
off_to_on,2.38510487562,-1.0244629319,-0.820788438152,-0.273133866148,0.264014609269,-0.571274219585,-3.32918737754,-0.417760627982,0.0947347605724,0.463568096442,1.06871057393,1.66020186661,2.47671230835,-30.8558435106
off_to_on,4.00571555413,1.39489658193,1.62191214417,0.382372986627,1.93204693292,2.29330677197,-1.57832077591,2.07316759647,0.957524583165,2.59947545753,2.98022417959,3.35797472046,4.61906086679,-18.1062662319
off_to_on,5.32818950239,3.72038636644,3.93949639825,1.06987352274,3.48703932803,4.81826045468,0.376307778229,4.46314551496,1.82770844871,4.5144956143,4.66730172229,4.84395732293,6.41245420172,-3.90004375349
off_to_on,6.26345941114,5.79870103309,5.95887790167,1.76797112718,4.83663329877,6.8526584802,2.43694767113,6.58724531402,2.66805710675,6.07963233688,6.03603049794,6.02377643167,7.76093469859,9.8821353362
off_to_on,6.75491621168,7.49247321973,7.53205068091,2.44724811273,5.90305825021,8.30332758776,4.48317560019,8.29656976825,3.43611918747,7.19503123109,7.01532908267,6.82169640973,8.60040558225,21.5409713039
off_to_on,6.78385720646,8.69295258906,8.55050043499,3.07208986381,6.62874207511,9.13702545617,6.37999899957,9.47126901942,4.08752948776,7.79829741744,7.56198865335,7.18790317904,8.90266427258,29.7922822326
off_to_on,6.37120615278,9.33031365339,8.95569759838,3.60374820464,6.98017872709,9.37572643574,7.98898493525,10.0314462059,4.58008647684,7.86952242505,7.66358545495,7.10414174638,8.67687031787,33.928411193
off_to_on,5.57515181019,9.38026180083,8.74436635011,4.00423042533,6.94971352306,9.08624596732,9.18123861934,9.94470739392,4.87807434783,7.4324112368,7.33890618749,6.58681597962,7.96818076014,33.8870633163
off_to_on,4.48482531479,8.86601739421,7.96782239752,4.24047239011,6.55511994513,8.36606551536,9.850709072,9.22941402663,4.95624989395,6.55128079066,6.63575157777,5.68687053671,6.8535149996,30.221648489
off_to_on,3.21062530606,7.85531342192,6.72538230685,4.28821108207,5.8370683804,7.32756962002,9.92615988576,7.95313527524,4.80294455039,5.32413502039,5.62624238631,4.48611941215,5.43468301561,23.9818340061
off_to_on,1.8722379163,6.45266950872,5.15257803371,4.1350182422,4.85480086597,6.08293927092,9.3802353553,6.22632428537,4.42184278545,3.87245953374,4.40001746122,3.09012265349,3.82939473476,16.5257997678
off_to_on,0.585724220004,4.78781780068,3.40556572016,3.78208287035,3.68050120668,4.73167129073,8.23436713953,4.19179228647,3.83217325548,2.32876730258,3.05595253334,1.61818296432,2.16092696497,9.2948351376
off_to_on,-0.548789887191,3.0016673252,1.64360840066,3.24451460461,2.39296623333,3.35216323126,6.55876209749,2.01105706673,3.06726283745,0.823213584762,1.69320944148,0.19146757425,0.547418686288,3.58521715007
off_to_on,-1.45731774904,1.23152795664,0.0117682808608,2.55015236033,1.07122835625,1.99810207887,4.4673195005,-0.15097044244,2.17162431791,-0.529258408495,0.402521951902,-1.07941121098,-0.908138569808,0.351314854276
off_to_on,-2.09883665662,-0.402578512205,-1.37407406222,1.73706967338,-0.211251952594,0.699628221275,2.10796070428,-2.14128091613,1.19694381977,-1.63980593286,-0.741380709199,-2.10585861524,-2.12617437478,0.0679207162668
off_to_on,-2.46786712466,-1.80883462505,-2.43805229762,0.850138500412,-1.39130670598,-0.531475264508,-0.350571943589,-3.83234990961,0.197475678644,-2.45337547543,-1.68542270746,-2.83033994089,-3.05619167711,2.66998163219
off_to_on,-2.59247693856,-2.93046046835,-3.1497169521,-0.0628778074531,-2.41933383254,-1.69389255511,-2.73395695175,-5.13251665289,-0.774579658622,-2.95231738165,-2.40132128097,-3.23178281015,-3.67918700928,7.57578941901
off_to_on,-2.52797755889,-3.74771301579,-3.52344045376,-0.955198069107,-3.26095391574,-2.78785888146,-4.87785202856,-5.992056115,-1.6731539942,-3.15553008075,-2.88591898205,-3.32654721201,-4.00659352867,13.7871732437
off_to_on,-2.34715951042,-4.27496830861,-3.61205213573,-1.7844025183,-3.89707937017,-3.80697446701,-6.64203887739,-6.40437607492,-2.46137941967,-3.11327839738,-3.15873548992,-3.16473355362,-4.07591472013,20.0491833591
off_to_on,-2.12839386099,-4.55348515426,-3.49569963133,-2.51496662453,-4.32260613582,-4.73231353026,-7.92164362098,-6.40237974518,-3.11333771601,-2.89836650997,-3.25709356682,-2.82222039228,-3.94362369549,25.0437460606
off_to_on,-1.94323912261,-4.64104816449,-3.26757035812,-3.11975360844,-4.54407846368,-5.5299635498,-8.65433087556,-6.05063801037,-3.61438066232,-2.59480809082,-3.22946221576,-2.38941755484,-3.67624881071,27.5878669662
off_to_on,-1.84528799813,-4.60011713869,-3.01852326678,-3.58044314034,-4.57676096445,-6.15253020561,-8.82290640172,-5.43453266927,-3.96011821752,-2.28546170207,-3.12787200211,-1.95820007035,-3.34080100277,26.8075689449
off_to_on,-1.86184599614,-4.48630500962,-2.82281666703,-3.8870360928,-4.44157080197,-6.5444654592,-8.45335001684,-4.64789283423,-4.15435745462,-2.04024210627,-3.00036434881,-1.6087798322,-2.99578538767,22.263582922
off_to_on,-1.98966620794,-4.33893666343,-2.72695077044,-4.03670050299,-4.16227811592,-6.65042229279,-7.60885404407,-3.78080107524,-4.206412202,-1.90645400059,-2.88442305101,-1.39832573573,-2.68396216361,14.0129500741
off_to_on,-2.19541566275,-4.17511285734,-2.74319356871,-4.03229322439,-3.76328479932,-6.42530758338,-6.3808874909,-2.90917220307,-4.12827201868,-1.90252684348,-2.80220245189,-1.35294254932,-2.42778535316,2.60076605292
off_to_on,-2.42088979578,-3.98816195235,-2.8486856815,-3.8808964302,-3.26815823444,-5.8443741926,-4.87858537027,-2.08741549404,-3.93211048283,-2.0159883215,-2.75812871087,-1.46418378633,-2.22808087499,-11.0133087007
off_to_on,-2.59231170645,-3.75068407623,-2.99021599614,-3.59265085629,-2.6989496059,-4.91161500724,-3.2178454933,-1.34502103912,-3.62852975572,-2.20595418233,-2.7391384418,-1.69065902436,-2.06607593575,-25.5800217429
off_to_on,-2.63244702903,-3.42167593567,-3.09393727569,-3.18006175768,-2.07618919335,-3.66490934641,-1.51140128174,-0.687328516973,-3.22579523178,-2.40980574862,-2.71747299608,-1.96458415341,-1.90842115353,-39.7166945149
off_to_on,-2.47382111128,-2.95657563706,-3.07856582286,-2.6578204465,-1.41934445147,-2.17680146598,0.139142398509,-0.100124224911,-2.73013403912,-2.55315379453,-2.65561206092,-2.20241341037,-1.71442135559,-52.0711986557
off_to_on,-2.07111064913,-2.31858356932,-2.87008615921,-2.0430497234,-0.747466086428,-0.550402460682,1.64871976877,0.442843214596,-2.14698282263,-2.56172652544,-2.51265118232,-2.31808700768,-1.444372143,-61.4709947677
off_to_on,-1.41083469627,-1.48937330269,-2.41573791347,-1.35577102417,-0.0797403790142,1.08938540497,2.95151363096,0.970756697637,-1.48290319799,-2.37353490237,-2.25124135423,-2.23701780307,-1.067734802,-67.0385291885
off_to_on,-0.516791368753,-0.477347255775,-1.69513663899,-0.619325531605,0.564288443541,2.60841984308,4.00123437263,1.50658331136,-0.74776352422,-1.94960287027,-1.84413978445,-1.90878925561,-0.56989854136,-68.2608928372
off_to_on,0.549759895143,0.678083592799,-0.726767321687,0.139526588086,1.16497353018,3.87814617465,4.7695670031,2.05942562118,0.0432682736323,-1.28171678769,-1.27947850338,-1.31667357048,0.04352267205,-65.0096062611
off_to_on,1.69545535426,1.9071495471,0.431261580896,0.891053192096,1.70333127395,4.79079969047,5.24357539117,2.61967132776,0.868355941806,-0.39602973381,-0.564033717022,-0.482491218873,0.745556644408,-57.514333684
off_to_on,2.80522646681,3.11552352757,1.68649341989,1.60366554413,2.16222990611,5.27293437113,5.42288335092,3.15780388223,1.69859427652,0.648095121323,0.275950265162,0.534031531007,1.4901383441,-46.3009436271
off_to_on,3.7565049972,4.19470410757,2.92283746086,2.24568943073,2.52780807062,5.2953663138,5.31732722559,3.62716478479,2.49877292898,1.76397370699,1.19649992047,1.64147790654,2.21750498097,-32.1086043832
off_to_on,4.43540386352,5.03567493035,4.01531857677,2.7876365946,2.79086036679,4.87802840665,4.9455250223,3.9703345963,3.22931914409,2.84754069869,2.1399896785,2.72779800468,2.86197783912,-15.8019518083
off_to_on,4.75268630948,5.54396715991,4.84683249038,3.20469695646,2.94790447126,4.08886272591,4.33448442099,4.12821577943,3.8492461375,3.7900835968,3.04102411425,3.67476169882,3.36101514019,1.70725697019
off_to_on,4.6572720828,5.65394108655,5.32452968434,3.47909078308,3.00167530469,3.03664752585,3.52003930868,4.05044359647,4.31976883156,4.49210142978,3.83335812992,4.37383560069,3.66420517411,19.5187187524
off_to_on,4.14527808307,5.3401048917,5.39343999122,3.60189878093,2.96087225616,1.85846443208,2.54762607216,3.70549160163,4.60813185349,4.87642470925,4.45696041814,4.7412584923,3.74084646076,36.7778408088
off_to_on,3.26312841101,4.62361376912,5.04528333654,3.57403438729,2.83910371712,0.703249229106,1.47274105979,3.0888184478,4.69114406589,4.89879104301,4.86432036397,4.73014901436,3.58493910585,52.6873194941
off_to_on,2.10402994834,3.57270514101,4.32104982518,3.40613205108,2.65311039186,-0.286565273804,0.360394624806,2.22763130444,4.55793744224,4.55437721911,5.02521529729,4.33785065373,3.21676692578,66.5031057169
off_to_on,0.797996434977,2.29664666648,3.30678965016,3.11728257933,2.42048246889,-0.992993664491,-0.71699505999,1.18129068059,4.21156261922,3.87930672398,4.92937609641,3.60735567799,2.68073491144,77.5254254203
off_to_on,-0.503502054062,0.933691413541,2.1230122967,2.73272723377,2.1571928526,-1.33769743559,-1.68356107362,0.0369916957065,3.66918509861,2.94681487425,4.58678261387,2.62246595335,2.03967273694,85.0965950932
off_to_on,-1.64640944056,-0.365580337303,0.90902029925,2.28079661748,1.87532969637,-1.2924045318,-2.46573418261,-1.09895698372,2.96083246649,1.8584741232,4.02564445253,1.49723133159,1.36634344997,88.6156753723
off_to_on,-2.49406796984,-1.45742943321,-0.195737695772,1.78951856733,1.58141345367,-0.88308676269,-2.9993196856,-2.11327098253,2.12683667865,0.731562183606,3.28843155937,0.361030506111,0.733329284503,87.575823211
off_to_on,-2.94566941423,-2.22408041757,-1.07072886683,1.28339600407,1.27562246785,-0.187211171446,-3.23709253346,-2.89971368564,1.21428802332,-0.315798444109,2.42656980242,-0.658694098661,0.20273812363,81.6242959995
off_to_on,-2.95063714462,-2.59013520919,-1.63112011706,0.780854779569,0.952132529354,0.675733681778,-3.15584658348,-3.37312954723,0.272943741067,-1.1797663916,1.49457471595,-1.45366254483,-0.182758934925,70.6385426105
off_to_on,-2.51686218852,-2.53388054156,-1.83984356296,0.292778895969,0.600615001577,1.55935860867,-2.76173811053,-3.48152314455,-0.648903541366,-1.78413625272,0.544441047116,-1.94951838351,-0.406200728251,54.8059625273
off_to_on,-1.71147142748,-2.09170585005,-1.71310892649,-0.17760478477,0.208757630389,2.30931018542,-2.09285420947,-3.21440808229,-1.50810270751,-2.09008854349,-0.378967819898,-2.11600057571,-0.478916134058,34.6909417185
off_to_on,-0.653763148322,-1.3547357875,-1.31840923786,-0.633436602516,-0.23450116381,2.78366125463,-1.21821443973,-2.6060959093,-2.26945171203,-2.10095743245,-1.24096548013,-1.97101204479,-0.4389172156,11.2716221419
off_to_on,0.499019591007,-0.457826787696,-0.765104463447,-1.08169991181,-0.73547270424,2.8721613399,-0.232849461588,-1.73324349376,-2.90735825026,-1.8612914421,-2.01821483406,-1.57790607729,-0.345206552741,-14.068984849
off_to_on,1.57143149652,0.437861252633,-0.188719961746,-1.52984517803,-1.29248268011,2.51185192726,0.750863198939,-0.706742336012,-3.40624871618,-1.45024572416,-2.6980145829,-1.03625851928,-0.268696276114,-39.607549366
off_to_on,2.39265373473,1.1665767575,0.268985018858,-1.98210656409,-1.89343718947,1.69697477999,1.61486491147,0.341188805724,-3.75980266099,-0.970116865938,-3.27597806891,-0.467319331594,-0.280948236649,-63.4026905531
off_to_on,2.81949806983,1.58116475261,0.481471536669,-2.43613867541,-2.51465585026,0.481798455002,2.24884049262,1.27316388304,-3.96925395655,-0.531507642203,-3.75262520356,0.00388981342052,-0.442296922732,-83.4676336445
off_to_on,2.75656904728,1.57462410438,0.357402368552,-2.88058916737,-3.12129251395,-1.02412757876,2.56379763274,1.96400762426,-4.04112161029,-0.237096109101,-4.12956686557,0.26735630961,-0.791055368494,-97.9766051872
off_to_on,2.17085751562,1.09704265261,-0.143720743915,-3.29411260925,-3.6694622919,-2.66782229604,2.50403994667,2.31709156772,-3.98479521993,-0.166211554272,-4.40601258842,0.245091419569,-1.33540507774,-105.480626341
off_to_on,1.09869701523,0.16544824528,-1.00260731262,-3.64613471361,-4.10996097784,-4.27044520623,2.05585535275,2.27744425807,-3.81039427003,-0.362353665285,-4.57626921329,-0.0960649934061,-2.04924303623,-105.103735016
off_to_on,-0.356039287037,-1.13500627041,-2.13939201027,-3.8994200975,-4.39323110131,-5.64846449897,1.25156732618,1.83982626861,-3.52724918889,-0.825434752562,-4.62873005594,-0.737747451355,-2.87274389783,-96.6901244159
off_to_on,-2.03250900747,-2.65898651209,-3.42139597499,-4.01421782116,-4.47503067803,-6.63581241158,0.168132225636,1.0505882893,-3.14322762523,-1.50992120322,-4.54660621561,-1.6105524805,-3.71776217375,-80.8766672049
off_to_on,-3.73110769793,-4.21729881486,-4.67864831491,-3.95349879617,-4.32212579176,-7.10426537914,-1.07985395254,0.00293055045055,-2.6649721,-2.3292768409,-4.31036107272,-2.60180413948,-4.47753413544,-59.0735482692
off_to_on,-5.23716942732,-5.59969977996,-5.72529189911,-3.68859831786,-3.91727830777,-6.97948434243,-2.35214057419,-1.1739513584,-2.09895019725,-3.16626889019,-3.90151945428,-3.56967973292,-5.03953417109,-33.3473111814
off_to_on,-6.34726601106,-6.60138654653,-6.38414292809,-3.20446855293,-3.26284608191,-6.25067747306,-3.49851048563,-2.33053218961,-1.45307187439,-3.88789887279,-3.30727824141,-4.36188046625,-5.29988020974,-6.21400934644
off_to_on,-6.89482264999,-7.04980140903,-6.51117530985,-2.50375013549,-2.38245283218,-4.97263845219,-4.37633692032,-3.31547637808,-0.738523321778,-4.36307381938,-2.52518296288,-4.83637412207,-5.17743294135,19.6365572444
off_to_on,-6.77180020347,-6.82826231065,-6.01663321216,-1.60899315699,-1.3204031568,-3.25986859226,-4.8678549913,-3.99464958801,0.028580461449,-4.4807266585,-1.56708099696,-4.88141300707,-4.6257307007,41.653345573
off_to_on,-5.94364775335,-5.89327066096,-4.87985466,-0.562582444134,-0.138788456237,-1.27348881417,-4.8949521607,-4.26816753161,0.826104185195,-4.16598650559,-0.461626593838,-4.43208860999,-3.64114890457,57.7338433586
off_to_on,-4.45554897119,-4.28311182569,-3.15567067401,0.575779139061,1.08748277231,0.797440288163,-4.42953431893,-4.08325996114,1.62566111579,-3.39220860055,0.745211007018,-3.48111989873,-2.26613821689,66.4895595275
do_nothing,-2.42906867363,-2.11645550785,-0.971327285467,1.73384376638,2.27722956476,2.7578632221,-3.49804448198,-3.44125897395,2.39341076772,-2.1871764538,1.99192096513,-2.08232766057,-0.587017386598,67.4294152129
do_nothing,-0.0495129064401,0.419058536747,1.48588167448,2.83334495572,3.35040674052,4.4291989628,-2.17943594622,-2.3977816269,3.09189321593,-0.632522486885,3.20547468695,-0.346220578802,1.27350842515,61.032553076
do_nothing,2.45450931641,3.0869678647,3.9888515269,3.79751726932,4.23554089273,5.6695317079,-0.596737237233,-1.05606671445,3.6827417993,1.14371628157,4.30724643887,1.57182312683,3.16825842819,48.6959526753
do_nothing,4.83684480972,5.62844473075,6.29629846859,4.55869252235,4.87633812638,6.38901652207,1.0968190265,0.445674547353,4.12997029108,2.98059774165,5.22019355319,3.48929700622,4.94050681956,32.5588691855
do_nothing,6.86172244987,7.79180690585,8.1805762244,5.0650232911,5.23669665463,6.55861256491,2.73541083945,1.9512454844,4.40342773052,4.70222129432,5.87645596756,5.21794936076,6.44014570782,15.2232422628
do_nothing,8.33042123814,9.36141273394,9.45415533474,5.28548425997,5.30354583711,6.21111901125,4.15978663205,3.30556950776,4.48197005763,6.13791638704,6.22444247276,6.58603503428,7.539149337,-0.595579061902
do_nothing,9.10342052382,10.1823365893,9.99139754417,5.2125219247,5.08719774453,5.43448312514,5.23555246905,4.37342051085,4.35591958324,7.14215268498,6.23450442914,7.45854749354,8.1445166201,-12.4424325756
do_nothing,9.11535518205,10.1777572541,9.74286099633,4.86203372566,4.61920399037,4.35834724685,5.86826998858,5.05534373155,4.0284683205,7.61166237184,5.90245431981,7.75281868559,8.2072108328,-18.4698002533
do_nothing,8.38102093239,9.35692880039,8.74034367321,4.27071542975,3.94801943616,3.13567174053,6.01345995444,5.29871878106,3.51581697436,7.49760297851,5.2504464785,7.44750329386,7.72614172317,-17.7104429711
do_nothing,6.99181618259,7.81281704496,7.09208225771,3.49116956727,3.13304477957,1.92190029349,5.68027525111,5.10257762429,2.84600800885,6.81121206039,4.32506616255,6.58385889157,6.74687265723,-10.2351811527
do_nothing,5.103217287,5.70981303136,4.96880816715,2.58546688569,2.23781608102,0.854439465381,4.92844449712,4.51563696108,2.05658420996,5.62223290744,3.19282646373,5.25927011105,5.35539636766,2.82965977131
do_nothing,2.91500595425,3.26320144421,2.5825484024,1.61805345254,1.32320477544,0.0351652650388,3.85898002342,3.6279217062,1.19135820131,4.05031560926,1.93360230246,3.61400005756,3.66791861954,19.4320226504
do_nothing,0.646855292431,0.713098245493,0.160986136744,0.648968567333,0.441473772755,-0.481747288791,2.59997002064,2.55721915839,0.29669108186,2.25049908114,0.63279190018,1.81304332538,1.81804184868,36.8578331352
do_nothing,-1.48757898047,-1.70375842,-2.07925973524,-0.271728057937,-0.368093834572,-0.695096158215,1.28942078381,1.43229417598,-0.582266327426,0.39463850359,-0.626847031787,0.02558031934,-0.0570056274561,52.0964334579
do_nothing,-3.30479018553,-3.78076335557,-3.95698721945,-1.10761795391,-1.08149992384,-0.654380203147,0.05749196269,0.375219732951,-1.4049256129,-1.34884124544,-1.77270798129,-1.59519203923,-1.82942206803,62.2604738975
do_nothing,-4.67080388295,-5.36340602792,-5.34532129161,-1.837270247,-1.69006376361,-0.450354145881,-0.989476821151,-0.514723536262,-2.13783420216,-2.83428075267,-2.74831335282,-2.92918768487,-3.39168794679,65.0040772078
do_nothing,-5.51352312603,-6.36379850085,-6.18289013225,-2.45322359812,-2.1982873691,-0.199750769435,-1.78102369089,-1.1733644762,-2.75622084896,-3.95475848001,-3.51709380313,-3.90132681531,-4.66412637354,58.8816936517
do_nothing,-5.82671421016,-6.76616708021,-6.47605854091,-2.95891408929,-2.61995488019,-0.0263028791173,-2.28914805779,-1.57850589858,-3.24441855906,-4.65270483693,-4.06360432255,-4.48678077164,-5.59857541383,43.5965799862
do_nothing,-5.66543349204,-6.62293759581,-6.29223978674,-3.36416942701,-2.97310569725,-0.0407067942462,-2.52864048317,-1.75044282918,-3.59523326057,-4.92387985299,-4.39215726776,-4.70910440915,-6.17813442119,20.1015532991
do_nothing,-5.13382132985,-6.04230199238,-5.74551504843,-3.68010339678,-3.27467065214,-0.3223257893,-2.55126307315,-1.746140465,-3.80847324187,-4.81432083165,-4.52319465327,-4.6317996353,-6.41347083832,-9.46614404269
do_nothing,-4.36716863513,-5.16926604765,-4.97680917501,-3.91432871995,-3.53560061894,-0.905212880841,-2.43474967678,-1.64797676506,-3.88896323737,-4.41080043767,-4.48801428196,-4.34476664269,-6.3365949035,-42.011912254
do_nothing,-3.51086704693,-4.16299553819,-4.13156416509,-4.06734758564,-3.75724216578,-1.77046437615,-2.2683204735,-1.54872827006,-3.84442241886,-3.82619516856,-4.32266707367,-3.94779167006,-5.99327235797,-73.8467763969
do_nothing,-2.69919588028,-3.17369419366,-3.33812542902,-4.13078488055,-3.92953516219,-2.84607203249,-2.13688933315,-1.53501818325,-3.68358018306,-3.1818344838,-4.06192923949,-3.53359621797,-5.43531984841,-101.141299082
do_nothing,-2.03683830605,-2.32221104655,-2.68987755264,-4.08782781813,-4.03134696025,-4.01443317484,-2.1063164771,-1.67167673928,-3.41483962299,-2.58929232231,-3.73421211717,-3.17298226474,-4.71391332661,-120.412232737
do_nothing,-1.58557092335,-1.68509998936,-2.23356622127,-3.91587218373,-4.03295209364,-5.12663821563,-2.21189865329,-1.98935158876,-3.04568699923,-2.13414260201,-3.35811165494,-2.90425317078,-3.87476350922,-128.978179104
do_nothing,-1.3578021628,-1.28701375316,-1.96531015124,-3.59100475088,-3.90035682971,-6.02172255243,-2.45181641246,-2.4772637077,-2.58290463751,-1.8639199841,-2.9410424906,-2.72842433015,-2.95562471036,-125.323522346
do_nothing,-1.31765516081,-1.10123112848,-1.83467608312,-3.09363053526,-3.60089643354,-6.54837049999,-2.78653929225,-3.08229120214,-2.03349705237,-1.78194359079,-2.48008534329,-2.61085878833,-1.98616940331,-109.32114863
do_nothing,-1.38923604308,-1.05794515427,-1.75602247914,-2.41433281744,-3.10933669485,-6.58618846525,-3.14432579476,-3.71467608726,-1.40610915167,-1.84785212071,-1.96484603482,-2.48899838164,-0.989850699307,-82.2825265347
do_nothing,-1.47074312811,-1.05884638631,-1.6252786296,-1.55896941916,-2.41361715251,-6.06367570638,-3.43206777762,-4.25970912632,-0.712621771733,-1.9847720942,-1.38182656014,-2.28494950279,0.0129475328892,-46.8262131935
do_nothing,-1.4522889368,-0.995671273866,-1.33956098289,-0.552076803078,-1.51939492573,-4.97041600398,-3.54994378813,-4.59388473554,0.0304317221427,-2.09212119428,-0.71958503735,-1.92095527034,1.0013597315,-6.57975412961
do_nothing,-1.2348281278,-0.769868871458,-0.816643343915,0.562132246068,-0.45268311586,-3.3617434914,-3.40777457203,-4.60335184933,0.800966854014,-2.06225994235,0.0261567866596,-1.33534692621,1.95099890301,34.2479738055
do_nothing,-0.747470592878,-0.310436873548,-0.0113432826831,1.72155982882,0.739890751989,-1.35510668583,-2.94069844805,-4.20211149307,1.57123318935,-1.79865443502,0.848296353116,-0.496479576321,2.83220470002,71.3696716955
do_nothing,0.0392805867874,0.412701808348,1.07364656708,2.85078288787,1.99338276,0.881560605437,-2.12184514826,-3.34738254829,2.30863058541,-1.23297641127,1.72573721795,0.587566390931,3.61008635621,100.933404295
do_nothing,1.10623338611,1.38171992758,2.38413638004,3.86794665487,3.22923782734,3.14809770666,-0.970077634327,-2.04988191857,2.97745873113,-0.338678709432,2.62286698122,1.86513591063,4.24651121762,119.981382119
do_nothing,2.38518051226,2.53128466068,3.81863099096,4.69319013975,4.36194169735,5.23475606057,0.448460539377,-0.377403907852,3.5414524877,0.86096805139,3.49131554498,3.24377927333,4.70380737906,126.795134935
do_nothing,3.76560160308,3.75623056463,5.23981023576,5.25754046474,5.30690312235,6.94637433127,2.02540152648,1.54904703631,3.96682441013,2.29166532358,4.27385663995,4.59947880221,4.94960517887,121.083538639
do_nothing,5.107490353,4.92534898025,6.49172227774,5.51109678614,5.98868177414,8.12502025225,3.62130236317,3.56633110806,4.22544353132,3.8340807983,4.91000605075,5.79119589843,4.96199483767,103.990963878
do_nothing,6.25857644015,5.89926240223,7.42029344782,5.42937485112,6.34861929086,8.66820832339,5.08151769857,5.48624744717,4.29774045049,5.3364514413,5.34262048637,6.67881973933,4.73406846755,77.9265287371
do_nothing,7.07363161337,6.54978173964,7.89428136566,5.01689660987,6.35098982891,8.54036334807,6.25474992674,7.116577556,4.1749493856,6.63229316969,5.52464622818,7.14207076155,4.27696382739,46.2388404892
do_nothing,7.43328919308,6.77795491827,7.82373099777,4.30745857914,5.9869546762,7.77607088256,7.01183077599,8.28350315103,3.86037553538,7.5609964639,5.42512792703,7.09772435693,3.62072890909,12.7805439184
do_nothing,7.25989595822,6.52822945381,7.1733426397,3.36095040249,5.27586110183,6.47472278101,7.26222277674,8.85257525903,3.36949969523,7.98865478694,5.03367047855,6.5127013771,2.81265043427,-18.5792075812
do_nothing,6.52833620821,5.79673383556,5.96887419473,2.2570602127,4.26373591383,4.78728804003,6.96600836573,8.74555170841,2.72888356058,7.82638681218,4.36273931919,5.41109882791,1.91308538289,-44.4303794511
do_nothing,5.27045635122,4.63254473206,4.29567388939,1.0866299911,3.01914984703,2.89696674911,6.13972162407,7.9509133224,1.97399638624,7.04368911758,3.44746027696,3.8740349129,0.989240326185,-62.2245760001
do_nothing,3.57257627623,3.13182177936,2.28953391298,-0.0582492235779,1.62692919368,0.996280592375,4.85519292769,6.5266519757,1.14622372415,5.67496036975,2.3429015567,2.03214742572,0.10769365124,-70.554162999
do_nothing,1.56648178308,1.42571103715,0.121114645322,-1.09413346218,0.180429193278,-0.73639015165,3.23150852855,4.59489441812,0.289421574436,3.81819455051,1.11914385413,0.0515805431067,-0.673306578538,-69.2751591679
do_nothing,-0.584872808597,-0.336205025769,-2.02393623478,-1.95484028153,-1.22676865612,-2.15775797942,1.4211074688,2.32895747995,-0.553570117195,1.62583907053,-0.145273621694,-1.88481492655,-1.31065206252,-59.4625804247
do_nothing,-2.70507140263,-2.00452396662,-3.96647716996,-2.59768136702,-2.50883225886,-3.17535738729,-0.408179038346,-0.0656121111698,-1.34404883663,-0.711176180071,-1.37074082116,-3.59868144134,-1.78126046767,-43.2094985644
do_nothing,-4.62308645494,-3.44806265915,-5.55410117229,-3.00653977587,-3.59449259724,-3.75605915887,-2.09280280339,-2.3737017486,-2.04986483646,-2.98434293709,-2.48391079063,-4.93702672892,-2.08425657751,-23.3016152616
do_nothing,-6.19093199126,-4.56880520702,-6.67744201626,-3.19145341656,-4.43202625502,-3.92636178705,-3.49232592138,-4.39422888255,-2.6469006349,-4.99086365537,-3.42411279664,-5.79006490737,-2.24004357191,-2.81488853707
do_nothing,-7.29801405656,-5.31173729804,-7.28049007613,-3.18484857611,-4.99197757775,-3.76457155235,-4.50496567165,-5.96179363613,-3.11952506538,-6.55644948172,-4.14811108241,-6.103712156,-2.28631065178,15.3073681202
do_nothing,-7.88057790801,-5.66832395088,-7.36371949756,-3.03502821136,-5.26747320734,-3.38608536588,-5.07787973296,-6.96377839432,-3.46008019795,-7.55479204442,-4.63270291684,-5.88512118069,-2.27148157844,28.6405259378
do_nothing,-7.92534743014,-5.67333705571,-6.97985140075,-2.79789362901,-5.27226917792,-2.92392630168,-5.21093663697,-7.35088222199,-3.66759298473,-7.92128060024,-4.87493865129,-5.2005528557,-2.2465052247,35.5773225289
do_nothing,-7.46723891017,-5.39571824941,-6.2231062526,-2.52811167143,-5.03692772045,-2.50732281354,-4.95360361697,-7.13992730311,-3.74600295518,-7.65925701771,-4.89005767497,-4.16588900779,-2.25616273548,35.5022880333
do_nothing,-6.58179831519,-4.92502765174,-5.21368565041,-2.27099924628,-4.60371651816,-2.2413804857,-4.39551380717,-6.40876295564,-3.70224849427,-6.83804391547,-4.7075253963,-2.9310517894,-2.33117247408,28.8232743886
do_nothing,-5.37365497738,-4.35565375577,-4.07984485734,-2.05627462061,-4.02093543578,-2.19073318507,-3.65211945837,-5.2840901568,-3.54455051047,-5.58302439841,-4.36578903191,-1.66038383871,-2.48229383625,16.8617001407
do_nothing,-3.96272235747,-3.77125433731,-2.94018765447,-1.89453826874,-3.33739422659,-2.36949926692,-2.84748227555,-3.9239060616,-3.28117544754,-4.05906032935,-3.9065140326,-0.511555198626,-2.69737194005,1.6225036673
do_nothing,-2.47005731283,-3.23182169664,-1.88870119042,-1.77693692629,-2.59769133761,-2.73898346575,-2.0966093132,-2.49691126042,-2.91985953377,-2.4493793705,-3.36910093646,0.384268166282,-2.94186151877,-14.5193715787
do_nothing,-1.00519992248,-2.76533175531,-0.984573169986,-1.67799234826,-1.83879235029,-3.21347661906,-1.48976644515,-1.16155219672,-2.46794933035,-0.932629994109,-2.78621153328,0.93845254082,-3.16287635578,-29.1689632425
do_nothing,0.343518232617,-2.36521193213,-0.248071627206,-1.56110976598,-1.0882000097,-3.67336252496,-1.08089101671,-0.047349389493,-1.93318042307,0.338975139439,-2.18086546924,1.11510493871,-3.29630048168,-40.2474905965
do_nothing,1.51472945861,-1.99395636091,0.337165936641,-1.3858880468,-0.363775570221,-3.98370165117,-0.881626761729,0.759202056014,-1.3248976727,1.25766176093,-1.56542872269,0.93422907978,-3.27604297335,-46.2684085231
do_nothing,2.47550411292,-1.59226441481,0.816053173172,-1.1160912469,0.324955211148,-4.01566964681,-0.861702719704,1.22252557221,-0.655435516415,1.77198676032,-0.942537891896,0.467530333095,-3.04418629204,-46.5172311164
do_nothing,3.21883040269,-1.09222170729,1.24966068835,-0.72704771419,0.974369283637,-3.66779615932,-0.955486304936,1.35886513047,0.0586612074841,1.89116362516,-0.307727532079,-0.172469937886,-2.56061843237,-41.1140400901
do_nothing,3.75793571441,-0.432409414187,1.70060470564,-0.211331592584,1.58367698365,-2.88393913444,-1.07368290478,1.23034184535,0.795880499385,1.68134553452,0.346710467373,-0.848493724336,-1.81077706364,-30.9550320397
do_nothing,4.11867607708,0.427487551561,2.21861564331,0.418160718015,2.15176527478,-1.66534662484,-1.11844860823,0.933198254591,1.52968937384,1.25443020488,1.02727459467,-1.41757970993,-0.810366350757,-17.5467753669
do_nothing,4.33140346858,1.4949527386,2.82861957689,1.12823786747,2.67448331881,-0.0749482446575,-0.999724877304,0.581991498378,2.22931540086,0.750911850058,1.73492413888,-1.75066221468,0.393696833992,-2.76157569814
do_nothing,4.42367959164,2.73776060166,3.52325127048,1.86858083539,3.14280867951,1.76692416192,-0.650454832962,0.291973150318,2.86136523496,0.319065334314,2.4615641784,-1.75013233913,1.7263458856,11.4475314768
do_nothing,4.41495690217,4.08321009592,4.26101768181,2.57761820773,3.5421841259,3.69500612473,-0.0385175932706,0.162061526224,3.39214672071,0.0932088762704,3.18791806404,-1.36317071169,3.09113257022,23.3294242971
do_nothing,4.31394080104,5.42382558348,4.97045189278,3.19027263168,3.85313202484,5.5182375906,0.826308325505,0.260657593899,3.79044274505,0.173896878106,3.88316408852,-0.58923255073,4.37989214364,31.5745239755
do_nothing,4.11885093067,6.62891367083,5.55967132373,3.64645992295,4.05306165422,7.04309911312,1.89133821298,0.616107359218,4.03040156333,0.612632479879,4.50646734536,0.519149541597,5.48410308211,35.4786297291
do_nothing,3.82029536746,7.56047685756,5.9299190433,3.89910547051,4.1190105524,8.09806274023,3.06608453062,1.21293969664,4.09417294588,1.40309671687,5.01027651672,1.86220998553,6.30651007642,35.0104901007
do_nothing,3.40603851217,8.09130826283,5.99104696954,3.92050815867,4.03092708583,8.55587442768,4.23277967752,1.99420550736,3.97393801456,2.48004655058,5.34501366264,3.30456867212,6.77154724542,30.7774524364
do_nothing,2.86664738641,8.12272694992,5.67658637362,3.70612066917,3.77502442885,8.35063479157,5.2608876463,2.86942314957,3.67305078296,3.72604816461,5.46459471419,4.69105235222,6.83326772495,23.8986013832
do_nothing,2.20088427384,7.59941582037,4.9560902345,3.27519184197,3.3467246379,7.48731334473,6.02363958875,3.72690696955,3.20612114119,4.9852124184,5.33210336964,5.86467629195,6.47983077619,15.8079209758
do_nothing,1.41978936714,6.51919541808,3.84281725172,2.668176374,2.75276504682,6.04232973918,6.41436993755,4.44871543466,2.59800607543,6.08221414521,4.92491488647,6.68455124269,5.73406817954,8.01934869341
do_nothing,0.548647822046,4.93625502081,2.39550115666,1.94129173735,2.01214883773,4.15502947373,6.36047892653,4.92616951785,1.88181827113,6.84421762706,4.23863017651,7.04158139092,4.65018009409,1.88990764507
do_nothing,-0.373583406656,2.95726842899,0.713811322526,1.15902157051,1.15577132865,2.01110857157,5.83319242763,5.07389063591,1.09618817413,7.12297803599,3.28932406973,6.87018632914,3.30712115656,-1.58404260107
do_nothing,-1.29736698587,0.730815151252,-1.07196612367,0.385666613488,0.224722558054,-0.179866297167,4.85187840609,4.8405808471,0.282108725221,6.81438321808,2.11381396156,6.15485343961,1.79965802161,-1.90863324822
do_nothing,-2.16773476303,-1.56853549295,-2.81564986414,-0.322816677707,-0.732567364905,-2.2098896148,3.48242552777,4.21526910089,-0.52026188337,5.87303703625,0.767888678149,4.9310206922,0.228351255225,0.846191964744
do_nothing,-2.93067732909,-3.75937518444,-4.37226381122,-0.925494709523,-1.66403223066,-3.89754011415,1.82998768104,3.22839931263,-1.27447110069,4.32011595574,-0.677328346667,3.28050590241,-1.31019880714,6.07189895341
do_nothing,-3.53973570655,-5.67329549537,-5.61514145202,-1.40068065591,-2.51811546695,-5.10928294033,0.0271373349173,1.94784394048,-1.95000660131,2.24356944022,-2.140502033,1.32234108611,-2.73160978453,12.7262384616
do_nothing,-3.96171129423,-7.17278746036,-6.45065541485,-1.74710109726,-3.24790358652,-5.77423909338,-1.78094986124,0.470591215883,-2.52368491592,-0.209327940451,-3.53616292331,-0.799641051496,-3.96952741299,19.4994950202
do_nothing,-4.1805453373,-8.16486894879,-6.82853731644,-1.98186402669,-3.81480399431,-5.89049626945,-3.45231321874,-1.0886144718,-2.98011117929,-2.8461488975,-4.7811240949,-2.93084226396,-4.97844728498,25.0156068439
do_nothing,-4.19871363472,-8.60873278622,-6.74639317206,-2.13557199934,-4.19138831165,-5.52218649548,-4.862995658,-2.61006903768,-3.31126091972,-5.44850606295,-5.80061606708,-4.91988216226,-5.73348276137,28.0376832039
do_nothing,-4.03588841912,-8.51657353966,-6.24786161857,-2.24536118373,-4.36313054439,-4.78781537336,-5.91898348898,-3.98163925702,-3.51535574799,-7.794009097,-6.533583069,-6.63103036267,-6.22748144805,27.6481373339
do_nothing,-3.72507159292,-7.94772793509,-5.41478155421,-2.34697037746,-4.32890597102,-3.84152244767,-6.56393227842,-5.1094714725,-3.59529500994,-9.67846920281,-6.93670804552,-7.95394131782,-6.46628179419,23.3786992783
do_nothing,-3.30682814155,-6.99720972189,-4.35459691094,-2.46710439811,-4.10026332352,-2.84991748877,-6.78193883477,-5.92567653608,-3.55695205551,-10.9358852335,-6.98689690419,-8.81001434043,-6.46315340972,15.2740235551
do_nothing,-2.82257565299,-5.78049596514,-3.18490226029,-2.61732800502,-3.69962096333,-1.96773960622,-6.59532207397,-6.39228955984,-3.40764067915,-11.4540908792,-6.68213111849,-9.15520833737,-6.23354234566,3.88303551744
do_nothing,-2.30806035009,-4.41691498205,-2.01742440397,-2.7905115792,-3.15765054614,-1.31574092409,-6.05805423977,-6.50137059358,-3.15500610628,-11.1845264621,-6.04076801954,-8.97960918833,-5.79113537931,-9.81709676592
do_nothing,-1.78814047274,-3.01412514709,-0.94378476397,-2.96047765663,-2.5101863531,-0.963881340539,-5.24604312763,-6.27166104826,-2.80650459432,-10.145338109,-5.09950914046,-8.30441172867,-5.14598325914,-24.5500604262
do_nothing,-1.27380177074,-1.65593982451,-0.0250886459209,-3.0850209984,-1.79502773048,-0.922177771014,-4.24582985106,-5.74266097364,-2.36952115419,-8.41780191019,-3.91035385085,-7.17719274453,-4.30502563213,-38.9015294039
do_nothing,-0.761974618416,-0.395183427503,0.713214653234,-3.11196304557,-1.04898474476,-1.14048163072,-3.14338980923,-4.96728248126,-1.85205453796,-6.136819253,-2.53690081353,-5.66639759125,-3.27490301518,-51.4881318378
do_nothing,-0.238261180837,0.747556139643,1.28057228516,-2.98742922356,-0.305458044303,-1.51720903706,-2.01459756552,-4.00432947285,-1.26379166659,-3.47684137816,-1.05035418594,-3.85585047491,-2.06649655956,-61.1107488094
do_nothing,0.317814356008,1.77935840754,1.71494693646,-2.66517467452,0.407247078997,-1.91579156866,-0.918566785465,-2.91194913296,-0.61731705786,-0.634988746673,0.474456936971,-1.83986191832,-0.700276269867,-66.8728554216
do_nothing,0.925870385464,2.72559134824,2.07195496194,-2.11558558656,1.06678184438,-2.18652531766,0.105436389239,-1.74292279508,0.0708312878782,2.18670278897,1.96281483827,0.280800009032,0.788677424096,-68.2514771084
do_nothing,1.59721752146,3.61749691753,2.41135234044,-1.33298115091,1.65681246868,-2.19072395942,1.03740217484,-0.54226501065,0.779534175051,4.79805449902,3.34346393994,2.40212267802,2.34714666707,-65.1165858998
do_nothing,2.32821953644,4.4790061286,2.78310760313,-0.340039097651,2.1663993403,-1.82373578925,1.87278712984,0.652850735726,1.48310635263,7.03497309333,4.55151943819,4.41955484983,3.9027502733,-57.7029824906
do_nothing,3.09573969811,5.3151849457,3.21537016033,0.811459295801,2.58889753552,-1.03351482369,2.61648864214,1.8112479066,2.15207230961,8.77002153172,5.53094244139,6.23067151848,5.36608803451,-46.5455529985
do_nothing,3.85568571348,6.10447005812,3.70635807838,2.04387137658,2.92062397902,0.16797370286,3.27586149073,2.90472618107,2.75470157609,9.91875335135,6.23662611268,7.73828723586,6.63625650407,-32.3931990981
do_nothing,4.54522868072,6.79626545536,4.22159147598,3.26067613028,3.15954455731,1.70226215224,3.85415401007,3.90479352885,3.25917964123,10.4417718543,6.63614032715,8.8543924756,7.60940588525,-16.1181193655
do_nothing,5.08871702376,7.31462190115,4.6970735655,4.35642087213,3.30420688847,3.43133273138,4.34561643666,4.78009409673,3.63618301331,10.3429490452,6.71115558018,9.50505433463,8.18949059026,1.36458533226
do_nothing,5.40671580605,7.56773765494,5.04809274006,5.22842119886,3.35308691005,5.1732408752,4.73320809401,5.49531520075,3.86155121042,9.66458934131,6.45851932279,9.63611420609,8.29994231171,19.1563142238
do_nothing,5.42706417644,7.46204818363,5.18242458033,5.78873046195,3.30443934178,6.72443274047,4.98935764905,6.01205284757,3.91871649907,8.48051644184,5.89090278482,9.21918917161,7.89473169775,36.4086863527
do_nothing,5.09644355972,6.91886382197,5.01598727436,5.97482197733,3.15665508332,7.88583751569,5.07968820816,6.29171992164,3.80056932638,6.88809156749,5.03688878188,8.25720476282,6.96722934888,52.3333381843
do_nothing,4.39075378891,5.89099458924,4.48855925963,5.7575669063,2.90904506819,8.48926555855,4.96909316745,6.30016227168,3.51050157173,5.00005645695,3.94034527876,6.78851359643,5.55544680093,66.1952242989
do_nothing,3.3226429768,4.37665722595,3.57707528032,5.14542594193,2.5629013818,8.42056282882,4.62912309017,6.01327739335,3.06247186822,2.93687474764,2.65893650079,4.88863140811,3.7426196365,77.3006272459
do_nothing,1.94483414628,2.42822343762,2.3042967705,4.18425885901,2.1226415038,7.63637314778,4.04538628632,5.42267284394,2.48006253328,0.819973368449,1.26166858263,2.66877049405,1.65264355666,84.9922382873
do_nothing,0.34840558298,0.154012956032,0.74127012928,2.95272661537,1.5968257783,6.17218909886,3.2236179664,4.54030372819,1.7946278893,-1.23398253732,-0.174551131478,0.270664346962,-0.559479165165,88.6619484617
do_nothing,-1.34415239179,-2.28772389427,-0.997142607791,1.5538379676,0.998852977847,4.14051799169,2.19324414667,3.40111183436,1.04275004976,-3.11786194703,-1.5692511062,-2.1423776353,-2.72136608001,87.7876747571
do_nothing,-2.99055357568,-4.70238174295,-2.76337512851,0.103697318096,0.347181303887,1.71929621225,1.00763228724,2.06294527431,0.263303845663,-4.73809339559,-2.84341332114,-4.39772788923,-4.65975441699,81.9944202035
do_nothing,-4.44376615116,-6.87876448247,-4.39363762795,-1.28112644003,-0.335014074575,-0.868023403475,-0.259273957035,0.60343034135,-0.505524632434,-6.01816969986,-3.92483394056,-6.32803506967,-6.2179505985,71.1329770299
do_nothing,-5.56870999047,-8.61270522946,-5.72766588558,-2.49601848615,-1.02075990302,-3.37818528949,-1.51967051027,-0.886062854254,-1.22892707613,-6.90178027855,-4.75339030799,-7.78674041353,-7.27220163166,55.3635482429
do_nothing,-6.25848936556,-9.73154249297,-6.62909131807,-3.45897480457,-1.68071548251,-5.57635713586,-2.6811508124,-2.30874629613,-1.87758338237,-7.35556987026,-5.28572007036,-8.66281478385,-7.74501101865,35.2273478764
do_nothing,-6.44800352566,-10.1161889585,-7.00360583548,-4.11819764121,-2.28498157879,-7.26325647206,-3.65726447037,-3.572016909,-2.42899829265,-7.37134267603,-5.49881584341,-8.89293571298,-7.61372739348,11.6879243837
do_nothing,-6.12302781741,-9.71771687071,-6.81231719699,-4.45575206494,-2.80510314161,-8.29772509372,-4.3778813935,-4.59706212536,-2.86798447554,-6.96736913138,-5.39209863962,-8.46947980296,-6.91326158824,-13.8739505457
do_nothing,-5.32338071116,-8.56600946703,-6.07828946686,-4.48694086648,-3.2160547761,-8.61191533644,-4.79783489342,-5.3271216974,-3.18633451931,-6.18835459965,-4.98765405024,-7.44309310468,-5.73247406974,-39.7225375688
do_nothing,-4.13952468678,-6.76901490532,-4.88516101382,-4.25562865852,-3.49799881159,-8.21724095046,-4.90251854972,-5.73319334151,-3.38183512232,-5.10363011525,-4.3284869821,-5.91918303497,-4.20453451734,-63.8891008284
do_nothing,-2.70279760639,-4.50235849438,-3.36780725582,-3.8262794089,-3.63763364039,-7.20047038588,-4.70952063325,-5.81629735583,-3.45685991032,-3.80324157508,-3.47485582047,-4.04838292047,-2.49229264466,-84.3465103342
do_nothing,-1.17032318889,-1.99035621054,-1.69611795314,-3.27389197717,-3.62900059974,-5.71063501616,-4.26593974055,-5.60589285636,-3.41682095086,-2.39183997389,-2.49896156595,-2.01178597041,-0.770319729655,-99.2197373618
do_nothing,0.293612014211,0.519349830741,-0.053934059032,-2.67326914363,-3.473683929,-3.93861460124,-3.64165535608,-5.15459734778,-3.26875753733,-0.980583457028,-1.47846514298,-0.00243120133413,0.794296738952,-107.0074806
do_nothing,1.53740632629,2.78441039081,1.38410248402,-2.0891048504,-3.18041116291,-2.09218846452,-2.91943441016,-4.52991858506,-3.02029550654,0.322394608523,-0.489460538819,1.79494504588,2.06015317719,-106.785241803
do_nothing,2.44067958125,4.59602088436,2.47469476732,-1.56821805264,-2.76413089269,-0.369882247423,-2.18324799461,-3.80417709723,-2.67912925894,1.42207709075,0.400379422854,3.22357959389,2.92657995863,-98.3594278597
do_nothing,2.92906923202,5.80316658935,3.12402713835,-1.13492451523,-2.24470190408,1.06297081595,-1.5064746658,-3.04410388886,-2.25307519278,2.24610318626,1.13775896747,4.17144564904,3.34376941224,-82.3459639385
do_nothing,2.98329024066,6.32969538562,3.29938923746,-0.790069804132,-1.64536487532,2.09290362679,-0.941728233733,-2.30168771109,-1.75063616296,2.75254614025,1.68816792201,4.58305803166,3.3168027932,-60.1552228588
do_nothing,2.64117378656,6.18195932383,3.03264192643,-0.513715003233,-0.991180501288,2.66944244863,-0.513853127341,-1.60769817311,-1.18191926141,2.9347885259,2.03825092507,4.46481814162,2.90313701598,-33.8768610992
do_nothing,1.99229827643,5.44598952619,2.41497440623,-0.270946762897,-0.307604949226,2.80746492209,-0.217201330469,-0.968938711143,-0.559679140545,2.82260679737,2.19586667623,3.88315239659,2.20390630435,-6.07185268193
do_nothing,1.16579571985,4.27454542592,1.58358681527,-0.0198479290446,0.380662622896,2.58076634002,-0.017698503267,-0.369735552699,0.0997726139837,2.47899067595,2.18782764323,2.95556965831,1.35014384372,20.5073126387
do_nothing,0.312828673585,2.86572363067,0.702044396301,0.279625848918,1.05047945844,2.1079879971,0.140492352898,0.222477743414,0.776039810352,1.99275236734,2.05558051681,1.83564098944,0.485640708823,43.2357046366
do_nothing,-0.414035648964,1.4359407825,-0.063066426975,0.657225654074,1.6806875594,1.53305486696,0.32459339168,0.848271130086,1.44468989738,1.46755681133,1.84933330705,0.693675582519,-0.251441964049,59.934079747
do_nothing,-0.881878087124,0.190863549795,-0.566017182065,1.12571879056,2.25221602624,1.00294929863,0.6005876479,1.54537100574,2.07798520444,1.008545169,1.62132511339,-0.304572098303,-0.745955055878,69.1434837018
do_nothing,-0.996128672135,-0.701858388215,-0.703084504554,1.67693313622,2.74795573002,0.645927336086,1.02020149746,2.33757477019,2.64629687479,0.708146291934,1.41904408049,-1.01855374188,-0.92002651287,70.3173518058
do_nothing,-0.714402040375,-1.13443521592,-0.428040031766,2.28113230495,3.15254019553,0.553135679699,1.60947496931,3.22527249816,3.12009014182,0.632903173501,1.27921212977,-1.35037855653,-0.742497837046,63.9014794751
do_nothing,-0.0535545243989,-1.07245771157,0.240197589238,2.8898282785,3.45217865389,0.766040764802,2.36074378372,4.17927097795,3.47227204039,0.813134695448,1.22326777232,-1.25688304836,-0.232427425749,51.2862787864
do_nothing,0.911085651385,-0.558313594772,1.21888089862,3.441638879,3.6346735969,1.27122157396,3.22942924328,5.13919968164,3.68062375673,1.23699069781,1.25489934205,-0.754796418863,0.543706485056,34.6326755771
do_nothing,2.05434814347,0.295924154752,2.37164380113,3.87035899067,3.68971737179,2.00303050346,4.13638742589,6.0171478027,3.73001046657,1.84996033807,1.35993090408,0.0816621153262,1.48069505503,16.5905363858
do_nothing,3.21670898365,1.32514268378,3.52631704894,4.11409814934,3.60950560956,2.85354058972,4.97579350989,6.70642077496,3.61407660941,2.56021538692,1.50857200413,1.13046681834,2.44805458356,-0.0558390526905
do_nothing,4.22472020075,2.33508878108,4.49802072068,4.12418632535,3.38963783135,3.68822297742,5.62773733522,7.0945206085,3.33619232432,3.24939659624,1.65974635373,2.23754138598,3.30655156875,-12.7691781151
do_nothing,4.91378725677,3.13026486681,5.11447304386,3.87258385903,3.0302076181,4.365066541,5.97399540093,7.07876141093,2.909509049,3.78768631444,1.76695091259,3.23660680395,3.92574309871,-19.6162178852
do_nothing,5.15035786696,3.5420258211,5.24013248354,3.35674366607,2.53692698469,4.75445561626,5.91492555326,6.58243511494,2.35609571589,4.05136239163,1.78489964638,3.97061794859,4.20037794207,-19.5503294248
do_nothing,4.85062397749,3.4530562922,4.79592246448,2.60123210814,1.92209179851,4.75710592593,5.38518217225,5.56922356939,1.70524508887,3.94059442734,1.67610162327,4.31208156237,4.063668376,-12.5784867889
do_nothing,3.9932567937,2.81489999776,3.77185849422,1.65586724105,1.20518449235,4.31771266368,4.36601408833,4.05365543616,0.991145439654,3.39509532878,1.41652573417,4.17969016618,3.49584904837,0.21406681563
do_nothing,2.62444104924,1.65615406377,2.23082937066,0.59061487394,0.412930595727,3.43262656177,2.89228426474,2.10582870942,0.250190756114,2.4054136488,0.999615250712,3.54917720321,2.52703376201,16.7892514625
do_nothing,0.854453645582,0.0802045709854,0.302952109539,-0.512073910323,-0.421323922043,2.15074059881,1.05299536102,-0.150684916764,-0.481758013183,1.01813622944,0.438121736613,2.45703789339,1.23408823413,34.4189403833
do_nothing,-1.15388353956,-1.74720745348,-1.82883311115,-1.56645697182,-1.2589719389,0.56771341695,-1.01506372919,-2.54795688092,-1.17185275038,-0.665987050171,-0.236496018486,0.996672294251,-0.268031938212,50.0529747509
do_nothing,-3.20349806911,-3.61892911048,-3.95010399007,-2.49300381162,-2.0582069048,-1.18545916565,-3.14002823441,-4.8890938538,-1.79221819212,-2.50107601117,-0.977051370414,-0.692526500223,-1.8393639105,60.7447732465
do_nothing,-5.08585459115,-5.3130435146,-5.84049555624,-3.22695908368,-2.77665696376,-2.95780742121,-5.13264201458,-6.96827249715,-2.32121342326,-4.31143392738,-1.7256250284,-2.44172089063,-3.33080858198,64.0775755914
do_nothing,-6.60539497735,-6.62165622783,-7.30015267326,-3.72486768809,-3.37437452092,-4.59553369794,-6.80683763871,-8.59308578788,-2.7439203202,-5.91139239787,-2.41995297267,-4.07268824608,-4.60084795436,58.5326590067
do_nothing,-7.60256971799,-7.37797564599,-8.17369995989,-3.96826001161,-3.8168989689,-5.95867373676,-8.00070009135,-9.60646275167,-3.05189502662,-7.12726994878,-3.00040296559,-5.41883700884,-5.53110013748,43.7472246927
do_nothing,-7.97257459514,-7.47808393875,-8.36867315371,-3.96409895898,-4.07807686541,-6.93521093929,-8.5951945986,-9.9053732049,-3.24231896418,-7.81866427983,-3.41665868953,-6.34453043645,-6.03888377962,20.6233766718
do_nothing,-7.67745515136,-6.89452099664,-7.86609728453,-3.7420406178,-4.14232880024,-7.45106080323,-8.52827694227,-9.45385307171,-3.31676137278,-7.89629989986,-3.63326882709,-6.76031874175,-6.08536503459,-8.73102858507
do_nothing,-6.75009154205,-5.67991380191,-6.72193809511,-3.34899391778,-4.00609700158,-7.47501309608,-7.80256073481,-8.28854982082,-3.27980520435,-7.33403017023,-3.63336764948,-6.63223966069,-5.67842906353,-41.2264540091
do_nothing,-5.28961666267,-3.96022548679,-5.05935251821,-2.84182111167,-3.6782885079,-7.01847236419,-6.48551955512,-6.51590938669,-3.13778722019,-6.17330460369,-3.42011488485,-5.98414051226,-4.87008129996,-73.1549996622
do_nothing,-3.44891469513,-1.91858915155,-3.05286024254,-2.27925184486,-3.1796364746,-6.13055775351,-4.70214731303,-4.30118593945,-2.89786253731,-4.5193701616,-3.01570424773,-4.89289516918,-3.74885747803,-100.647878885
do_nothing,-1.41585225999,0.228057245896,-0.906592023642,-1.71415904663,-2.54102383245,-4.88970593071,-2.62096219271,-1.85051285158,-2.56753087502,-2.52955424797,-2.45811197196,-3.47731413783,-2.42832185467,-120.168331595
do_nothing,0.609320888918,2.25637538821,1.17049450748,-1.18725736917,-1.80093358253,-3.39328714914,-0.435089328516,0.611816260112,-2.15466851106,-0.395032109228,-1.79605571354,-1.88235225827,-1.03318657671,-128.975361261
do_nothing,2.4375018914,3.96440124593,2.98919849941,-0.723050040055,-1.00229264943,-1.746852285,1.65921922995,2.868069199,-1.66801160246,1.68163280137,-1.08286955816,-0.260799944726,0.315162493883,-125.496452037
do_nothing,3.91221378937,5.19601025382,4.40131685432,-0.328503915471,-0.189047384808,-0.0544782647525,3.4839556811,4.73073643745,-1.11794884295,3.51029536557,-0.370140000011,1.2450753354,1.51192538466,-109.55859103
do_nothing,4.92635891235,5.85887980632,5.31490608896,0.00547358206832,0.597161681608,1.58868831934,4.89798657944,6.06219702374,-0.517418412776,4.93529187219,0.298029206834,2.51952539741,2.4793309933,-82.4450629044
do_nothing,5.43222522029,5.93366904541,5.70177529324,0.30008934165,1.31987521837,3.10110064214,5.81069570119,6.78797313186,0.11732410318,5.85287625142,0.889352690768,3.48492325924,3.17306684546,-46.7682008924
do_nothing,5.44363479202,5.47334836664,5.59648924931,0.582935754327,1.94995198558,4.41666595716,6.18907301957,6.90199958788,0.76628908821,6.22174904054,1.38573422108,4.10758855999,3.58404958991,-6.17252046779
do_nothing,5.03016946986,4.59295558359,5.08730491527,0.881408109152,2.46677801565,5.48426858478,6.0575631487,6.46338805123,1.40586094358,6.06532071232,1.78339299696,4.39728389881,3.73551369924,35.0948516293
do_nothing,4.30445029188,3.45134842662,4.30052902148,1.21630506662,2.85848255465,6.26582228541,5.4909467631,5.58528742422,2.0095249494,5.4654695203,2.09079310665,4.4007231667,3.67601144718,72.691869177
do_nothing,3.40434676005,2.22758868734,3.380627662,1.5966048186,3.12122652598,6.73389384551,4.60143781538,4.41747959859,2.54920960557,4.5487167495,2.32474686908,4.19026705473,3.46944558971,102.702352682
do_nothing,2.47263096294,1.09528886726,2.46893071838,2.0162228731,3.2577499792,6.86989960056,3.52191435757,3.12516066179,2.99714047387,3.4667881374,2.50533580542,3.84964020658,3.18362946459,122.103060178
do_nothing,1.63688727277,0.198486201425,1.68389137026,2.45325718765,3.27545802776,6.66362894045,2.38766251519,1.86683068288,3.32801330179,2.37431178986,2.65047617222,3.45889783756,2.8790397164,129.11735602
do_nothing,0.99240422475,-0.367646453571,1.10557474565,2.87185708653,3.18437665999,6.11444368912,1.31914108016,0.774285146697,3.52123214349,1.40680726098,2.77102127263,3.08094268609,2.59937298726,123.410850148
do_nothing,0.590325651131,-0.568649136257,0.766405560572,3.22646755268,2.99531263987,5.23401758763,0.408054392065,-0.0626411569537,3.56293215383,0.662085754308,2.86722806621,2.75163584974,2.36524710278,106.105320322
do_nothing,0.432586341701,-0.43363505426,0.649295710216,3.46785493793,2.71850452803,4.05000858949,-0.291511654389,-0.604633122231,3.44752115119,0.187706472981,2.92722690858,2.47499326088,2.17193510496,79.6111974951
do_nothing,0.474206695943,-0.0488743885744,0.693226888826,3.55006230655,2.36296095252,2.60968998275,-0.765903218451,-0.86378318245,3.17852727562,-0.0237202305968,2.92784426955,2.22419040549,1.99144630737,47.302634667
do_nothing,0.632500394332,0.456897402225,0.805324714507,3.4373077885,1.93656052571,0.982379559694,-1.03856600146,-0.896932501998,2.76862463259,-0.0307108225609,2.83777758634,1.9482194159,1.77864811682,13.0794865263
do_nothing,0.801797110331,0.93330315302,0.877570642806,3.10984485346,1.44685304043,-0.740455469384,-1.16135868282,-0.792661348668,2.23881254018,0.0688761252406,2.62275749538,1.58317913877,1.48053822247,-19.1253122933
do_nothing,0.871526941275,1.23229478501,0.805675127397,2.56794668722,0.902374057576,-2.44826914817,-1.20206204177,-0.654017357182,1.61683186765,0.155865734181,2.25200744186,1.06645365571,1.04730768214,-45.8283175801
do_nothing,0.745055814059,1.23186020829,0.507361084692,1.83343592993,0.314184569495,-4.0180641446,-1.2301537617,-0.579658331583,0.934998362013,0.111376327237,1.70507221412,0.351553566962,0.443546221979,-64.4060083039
do_nothing,0.356562434634,0.856099122311,-0.0625864729514,0.948518130678,-0.302709420696,-5.32435698307,-1.30312887076,-0.646285826317,0.227703954015,-0.161213712873,0.977972791893,-0.578770068518,-0.342126118556,-73.3818245894
