label,COUNTER,INTERPOLATED,AF3,F7,F3,FC5,T7,P7,O1,O2,P8,T8,FC6,F4,F8,AF4,RAW_CQ,GYROX,GYROY,MARKER,SYNC,TIME_STAMP_s,TIME_STAMP_ms,CQ_AF3,CQ_F7,CQ_F3,CQ_FC5,CQ_T7,CQ_P7,CQ_O1,CQ_O2,CQ_P8,CQ_T8,CQ_FC6,CQ_F4,CQ_F8,CQ_AF4,CQ_CMS,CQ_DRL
off_to_on,2.24168914181,3.42661103377,1.72291492143,1.36609858725,3.40650744408,-1.76799992932,2.62785980781,2.59237176317,1.25646335835,3.65752475415,1.86893510105,4.24342887706,2.29448685467,-54.844244266
off_to_on,4.39812893036,4.39265591513,4.02820926968,1.58553065035,4.02501955961,-1.1188125113,4.8588976122,3.59747845116,1.69244476337,5.0427709711,2.20581101964,5.07350147806,3.06565073139,-29.562919406
off_to_on,5.43949273524,4.13277870513,5.31364327871,1.72394381459,3.76417543244,0.0654742976963,5.74142631664,3.32714698917,2.01068032151,5.11949438803,2.30415334005,4.55140176273,3.18003086537,8.15376895904
off_to_on,5.07268876156,2.79441612959,5.27969390253,1.79191361822,2.79365844768,1.54607345947,5.18992454877,1.97927338767,2.12989371427,3.94827740142,2.17219435238,2.88692282641,2.67800745561,49.2337386246
off_to_on,3.39752446008,0.808605798518,3.98382952432,1.74451696549,1.42240799035,2.955265083,3.51299136865,0.0987652510623,1.95976722369,1.93112476948,1.80507337651,0.612361518502,1.72192809939,82.0550388132
off_to_on,0.891564294688,-1.23613461738,1.82242404631,1.50096455882,0.00340103248163,3.8948600024,1.28670150805,-1.61573560312,1.44315472716,-0.316727364398,1.19987930221,-1.57831659987,0.548458532892,95.9732512554
off_to_on,-1.72535599251,-2.76207117733,-0.589065086804,0.987863027317,-1.16107124796,4.0475445781,-0.843226746622,-2.55359107786,0.596758326131,-2.15897786255,0.381499394085,-3.04449790443,-0.591706169312,84.9217307143
off_to_on,-3.70893699128,-3.36557223127,-2.60193959529,0.188244206878,-1.8876115296,3.27088057895,-2.3619900819,-2.4009908923,-0.468246697038,-3.1330915789,-0.575302645605,-3.40033551824,-1.49104097236,49.8394551869
off_to_on,-4.5217259204,-2.92850149025,-3.72750114936,-0.824365108929,-2.13728257077,1.64888442753,-3.02317711026,-1.24609993534,-1.55750211736,-3.08449062705,-1.54064889255,-2.63550392689,-2.02474337672,-1.00055461258
off_to_on,-4.00085314726,-1.64469638585,-3.77526986442,-1.88252876102,-1.99621177098,-0.512883616919,-2.88252641621,0.455517329413,-2.43677298441,-2.19627485332,-2.34711388128,-1.11226936856,-2.16357130536,-54.0262242087
off_to_on,-2.4038656734,0.0468639538905,-2.89132083079,-2.75687974456,-1.62242503904,-2.74891821555,-2.22562172392,2.04382284882,-2.89500076694,-0.90559512758,-2.82654231571,0.563637492774,-1.95933239637,-94.2386473776
off_to_on,-0.314753451026,1.60235452152,-1.48545113992,-3.215414275,-1.17938222414,-4.53871045967,-1.42467584829,2.89007695425,-2.80664619953,0.263462373228,-2.85458942061,1.75720010744,-1.51111753702,-109.748846059
off_to_on,1.55930088141,2.54384334793,-0.0740977277713,-3.09197439784,-0.779179650366,-5.43124173193,-0.78285505335,2.62427236105,-2.17207495241,0.891578709832,-2.38811850048,2.0308072064,-0.926301579322,-95.5328311174
off_to_on,2.63077311051,2.60707205114,0.904737548364,-2.34200057047,-0.453601221174,-5.15989372876,-0.425664322303,1.2749118097,-1.12175175959,0.812714419679,-1.48295297128,1.30375300863,-0.291122238969,-55.1643285115
off_to_on,2.62932909815,1.81931618781,1.23859898657,-1.06727339743,-0.160826123605,-3.71948668816,-0.277945295972,-0.729009501849,0.117735654483,0.166567895814,-0.286294020319,-0.114226796557,0.339253239913,0.0877022314991
off_to_on,1.68411504967,0.482280879078,0.997658425757,0.499017327561,0.177003533708,-1.38431357438,-0.130302012117,-2.69709597995,1.28483250031,-0.663946811709,0.993506593605,-1.63126478243,0.930168530646,54.5631645496
off_to_on,0.261515401056,-0.934258080488,0.482631940914,2.0433546402,0.620951181361,1.34146280289,0.236498434755,-3.91231539761,2.15144104482,-1.20786269976,2.13042620229,-2.5889871695,1.44486562466,92.8995232567
off_to_on,-1.01887156141,-1.95275438963,0.0847113271591,3.24493915892,1.16827550992,3.83396402535,0.923118041698,-3.8822263804,2.57701035854,-1.09763951761,2.92534636707,-2.51087566947,1.82427178772,104.631493475
off_to_on,-1.62267588705,-2.24843293872,0.111712678771,3.85066084059,1.73062126218,5.49748139885,1.83454529561,-2.52033170993,2.53265162319,-0.226290729539,3.24120304784,-1.29403518729,1.98335939764,87.2533175858
off_to_on,-1.30563400143,-1.75583223127,0.648019042861,3.73240217776,2.1482686227,5.91538656893,2.68933897391,-0.193548059711,2.09081133329,1.18962856121,3.02288619097,0.728030287729,1.83125684694,46.794834423
off_to_on,-0.208377514525,-0.685109273764,1.50421956379,2.91311587517,2.23857266391,4.96501857974,3.11604883035,2.38370558982,1.38809946195,2.66818715546,2.30142782468,2.88027552191,1.31101491709,-4.2308614659
off_to_on,1.19548552835,0.557329861014,2.27936491895,1.55736689725,1.86391368052,2.86309599909,2.80244006988,4.37652602049,0.577326291094,3.62502541639,1.18576879158,4.37145380856,0.443931912137,-50.8066801753
off_to_on,2.28049793785,1.51613088031,2.5162063641,-0.0686136693601,0.995954502986,0.123759882893,1.64036534865,5.10385776159,-0.213308780141,3.58604066739,-0.153632382057,4.57464744885,-0.642442695943,-80.0153021906
off_to_on,2.51364369446,1.85049734966,1.89325952712,-1.65553730822,-0.248036292801,-2.56608245408,-0.192338330323,4.26923033055,-0.900938050808,2.37476824636,-1.50650086858,3.26482197233,-1.72079672456,-84.80154244
off_to_on,1.67086249655,1.45603665573,0.380818182188,-2.913767725,-1.6136914793,-4.52551178999,-2.25065152584,2.07023155921,-1.44526842863,0.205667926907,-2.64909625418,0.726692623587,-2.51196808937,-65.7459117254
off_to_on,-0.0567493905318,0.501323611213,-1.70202608136,-3.62684564886,-2.76592483397,-5.26558255401,-3.94358584615,-0.85162755061,-1.82902872599,-2.35460304617,-3.37556905722,-2.31103693348,-2.76502461646,-30.3844505516
off_to_on,-2.11041295993,-0.634477987692,-3.75852573024,-3.6866117977,-3.38007627277,-4.6294309542,-4.72136246923,-3.60663839359,-2.03481772942,-4.55075440925,-3.53332667378,-4.89926024231,-2.34520918581,9.58082722597
off_to_on,-3.75215849742,-1.50130465135,-5.09676361408,-3.10583828693,-3.24157988578,-2.8426294048,-4.2657837231,-5.3361997493,-2.0319991351,-5.67636236211,-3.05793642699,-6.17814890355,-1.29791902548,42.1734255212
off_to_on,-4.32918753829,-1.74547455916,-5.16489033619,-2.00893385176,-2.32248430132,-0.45354031825,-2.61645187734,-5.48597408876,-1.78169509358,-5.30736948844,-1.99919609299,-5.66900304683,0.1390645481,58.8263037462
off_to_on,-3.51935420185,-1.24416752019,-3.7582605849,-0.60461865994,-0.80787733045,1.82445809715,-0.184889966869,-3.98482298074,-1.2587842992,-3.45296400477,-0.528107464844,-3.44775843947,1.58739136149,56.6933693485
off_to_on,-1.46751744266,-0.157598531703,-1.12349585038,0.853624563074,0.940662749752,3.32579316571,2.35434336268,-1.27179892742,-0.481038365812,-0.57142048805,1.08342740427,-0.138124015194,2.6340770876,38.9461101394
off_to_on,1.24002303307,1.12170768664,2.08278717831,2.11263468074,2.47806122751,3.63734951893,4.26447605333,1.83760396721,0.469110284607,2.55721248851,2.51186423617,3.27705271378,2.96053445673,13.1192740471
off_to_on,3.75857342984,2.10630302717,4.97421832618,2.96320670649,3.40000684602,2.73024153498,4.9758812823,4.40332117606,1.44311344768,5.06235306568,3.45257262194,5.76571704593,2.45190685016,-11.7883587129
off_to_on,5.264675867,2.39001683169,6.69973463651,3.27542921749,3.46164582576,0.973274151854,4.26922701287,5.65084496919,2.25079848921,6.24453837829,3.69510797484,6.57572036344,1.24683999309,-28.3886618031
off_to_on,5.23609907006,1.80021392076,6.70903736799,3.01967425828,2.65352078204,-0.981890941385,2.35144198621,5.20844165031,2.70618843685,5.78424801171,3.18180915168,5.4741060065,-0.29431865188,-33.1085978462
off_to_on,3.63462271665,0.470766415439,4.93196190963,2.26904472792,1.20927438857,-2.41264237276,-0.202088442328,3.21809866575,2.68089757309,3.83252505829,2.03029908919,2.81780199161,-1.69755109738,-26.8589096136
off_to_on,0.927298176476,-1.19221047379,1.81235411337,1.18219617771,-0.459805931897,-2.7694455776,-2.6222061478,0.287485912117,2.14702725808,0.957076431398,0.509555959101,-0.566208410184,-2.52666169941,-14.0854415496
off_to_on,-2.06210860766,-2.64201490016,-1.81589532052,-0.0305072245569,-1.88526370641,-1.87255653024,-4.1826315776,-2.69971290339,1.19385358527,-2.03568005252,-1.02695926692,-3.64945125551,-2.52807739657,-0.693035798727
off_to_on,-4.42093808457,-3.37580800313,-4.97195460426,-1.15049808263,-2.68074392279,0.00702376409497,-4.4236813067,-4.85427437959,0.0109545932309,-4.34338040147,-2.23357547783,-5.52877425809,-1.71848535715,8.30904428089
off_to_on,-5.44333429874,-3.1080205629,-6.8137340389,-1.99440564737,-2.65686941512,2.21626327679,-3.29258974563,-5.54846315934,-1.15824960368,-5.39786562851,-2.86327965986,-5.70362072108,-0.382693197053,10.5593564951
off_to_on,-4.85384257588,-1.8721635341,-6.87735630591,-2.44724591487,-1.87537563876,3.92429469586,-1.15703856401,-4.59864469238,-2.07845625756,-5.01291275031,-2.8295978172,-4.21531892581,1.02045290491,6.90090783291
off_to_on,-2.8851785837,-0.0152449256906,-5.19847498696,-2.47785130614,-0.624973078842,4.40150554815,1.31100436081,-2.31056779448,-2.58068426713,-3.40949163877,-2.22043954902,-1.60839568472,2.01372949497,0.634019682675
off_to_on,-0.187707633779,1.91354113806,-2.28298628966,-2.13390115228,0.673686662303,3.28392472176,3.34343070518,0.622348138154,-2.59911074169,-1.11944442367,-1.26017072718,1.26587114008,2.26558379237,-4.14700647713
off_to_on,2.39402785237,3.34136322897,1.05706013091,-1.51971995082,1.60365207225,0.732524302928,4.31064998579,3.3328041444,-2.17667349338,1.19350355004,-0.233135281689,3.53237053467,1.70494384837,-4.42166262875
off_to_on,4.09844520373,3.85598111227,3.94573705408,-0.764786525523,1.8843250791,-2.5734988651,3.910715728,5.03829725922,-1.44045038846,2.93375907825,0.605502801781,4.56531763169,0.545395414977,0.43749148044
off_to_on,4.48328071076,3.33292771892,5.68667983375,0.00702491268637,1.45838676977,-5.61877133037,2.25676607088,5.26672737602,-0.557762960141,3.73222320899,1.10196344786,4.16395538711,-0.791045895828,8.40193702392
off_to_on,3.5446871546,1.96388263276,5.93605436945,0.698813455096,0.505159591245,-7.36058665737,-0.160893336875,3.98394168708,0.310650247957,3.51962411765,1.23605307917,2.58056216943,-1.82442626861,15.6595010016
off_to_on,1.68611860911,0.179831536698,4.76100808965,1.24824721393,-0.623306551724,-7.07088917885,-2.62341950503,1.58983020795,1.04494636178,2.50293741803,1.10496407623,0.402605956989,-2.18828684015,18.2542294997
off_to_on,-0.443148948939,-1.50051191315,2.57857208513,1.62254583755,-1.52177334374,-4.60105218412,-4.39592553445,-1.21052565478,1.57903147777,1.06504310371,0.867695536405,-1.6610588771,-1.76042464575,13.8303880133
off_to_on,-2.17687492388,-2.64142018191,0.00664182412808,1.80666668801,-1.86718069586,-0.477889795659,-4.94022290467,-3.61818991621,1.89228355276,-0.370486437797,0.672969148695,-3.01222045854,-0.705414830611,2.77968409395
off_to_on,-3.04628849289,-3.01988350326,-2.31880911445,1.79246982698,-1.52517689941,4.21079338608,-4.06689538395,-4.96999504475,1.98874158877,-1.46238769717,0.598708441124,-3.3364011778,0.587005301097,-11.6787754007
off_to_on,-2.90911371007,-2.67154925049,-3.90358242887,1.57516146096,-0.593151313876,8.11676311106,-1.98586014328,-4.92020548934,1.8763874846,-2.02667294824,0.625809306632,-2.66655877838,1.64563717469,-24.5478032389
off_to_on,-1.95709673285,-1.84239276524,-4.4913067606,1.15907424897,0.633458840771,10.0323489281,0.755006100307,-3.52501155077,1.55752035553,-2.04952782502,0.655113775301,-1.32851200825,2.09120679641,-30.8603662057
off_to_on,-0.611045281936,-0.870757843014,-4.08124333368,0.569665457393,1.75924966367,9.2698186722,3.42223024963,-1.21070291499,1.03485661451,-1.64738769976,0.559464759876,0.200068507392,1.77563469709,-27.5810503187
off_to_on,0.649082483177,-0.0491883578949,-2.87987250929,-0.135237709352,2.41792621335,5.89850866511,5.29562075187,1.35989683933,0.329718198063,-0.999648577826,0.248958122255,1.45958420851,0.835451860228,-14.8857306169
off_to_on,1.45295095205,0.479174196589,-1.21562644614,-0.862680959069,2.38945731144,0.759279205473,5.859212347,3.48047813466,-0.497924374091,-0.283633116575,-0.277711181492,2.14688145457,-0.360969450316,3.68080979259
off_to_on,1.64812604453,0.75063870529,0.55022772809,-1.49522384779,1.66740966484,-4.75679391643,4.93483432602,4.59724114543,-1.33984447295,0.366284735713,-0.917560107072,2.18024991912,-1.35333406426,22.2686916926
off_to_on,1.31622652285,0.929100167431,2.09236539187,-1.914488305,0.456109727611,-9.10488670394,2.72615124047,4.45352496438,-2.04921125003,0.868356446197,-1.49112387639,1.68056068748,-1.76466683425,34.6654471189
off_to_on,0.702255699417,1.19745974069,3.16102910826,-2.03131863651,-0.898887508359,-11.0408329635,-0.23490015744,3.14581892924,-2.4706322111,1.1798758087,-1.80443750977,0.889330981745,-1.44617212297,36.4501636291
off_to_on,0.0941481989856,1.64095104905,3.59796563621,-1.8125095018,-2.02169316083,-9.99522808021,-3.22298721751,1.08022438996,-2.48286680288,1.27705286216,-1.7220815004,0.0641460920355,-0.536504274451,26.6020402704
off_to_on,-0.295455587374,2.17504788309,3.34125282078,-1.29410667262,-2.62051229273,-6.25104288395,-5.50036646457,-1.15370349463,-2.04009870455,1.1445496636,-1.2231417263,-0.606222872949,0.58839519429,7.98302917232
off_to_on,-0.399407414074,2.55342036611,2.4294852928,-0.57537964783,-2.56855463563,-0.867498549262,-6.49912545583,-2.95303393631,-1.19644027339,0.782265080586,-0.417722191856,-1.03925126047,1.45788748431,-13.503047089
off_to_on,-0.295885782356,2.45921561992,1.00698165211,0.205707891705,-1.92764181982,4.62931079942,-5.96085223577,-3.86662399481,-0.103033714683,0.224923123756,0.483802283093,-1.2444350023,1.68941112591,-30.8169285109
off_to_on,-0.145899454361,1.64796159664,-0.67816739296,0.90791524532,-0.911356217753,8.69635780472,-4.00071474692,-3.71017567213,1.02387063438,-0.43941775557,1.23876131566,-1.27531915302,1.14284738361,-38.1270953386
off_to_on,-0.101344379215,0.086237335891,-2.29623076876,1.42128611671,0.194929787468,10.2276479927,-1.0808512406,-2.60179594217,1.95543455038,-1.06798775606,1.65302128776,-1.1774762891,-0.0131181820718,-32.8023771287
off_to_on,-0.226279946398,-1.97317638043,-3.48745035722,1.68940025952,1.12660726916,8.87417708713,2.1008662803,-0.911857305967,2.50760092062,-1.48871103438,1.64502006281,-0.959614425084,-1.35073496941,-16.3746709242
off_to_on,-0.465713220662,-4.01928789104,-3.940821685,1.71259959585,1.7127946004,5.13331475378,4.78064663843,0.855020134063,2.58570778282,-1.54968379851,1.2692736923,-0.600461891212,-2.33438843915,5.86971594017
off_to_on,-0.673950313415,-5.41717035828,-3.48296306471,1.5328779631,1.90740558693,0.18249936445,6.31662614489,2.2097564729,2.20306211603,-1.17713732829,0.69064928353,-0.0847489296487,-2.52027445409,26.557644912
off_to_on,-0.688182692057,-5.61122769706,-2.14895357839,1.20825689371,1.77316495994,-4.48892109878,6.34868571802,2.81657896873,1.46906520599,-0.418845691585,0.119208892542,0.553617636889,-1.73187031544,38.6246296153
off_to_on,-0.413439094235,-4.33064512847,-0.205723037213,0.788398978019,1.4311502051,-7.53420993799,4.88952479463,2.57980734091,0.552620074115,0.54818773962,-0.269591619283,1.20744690841,-0.145138994376,37.6621871189
off_to_on,0.119755117785,-1.72314959887,1.89056508683,0.302219076525,1.000134592,-8.14948515853,2.32206631795,1.65648813904,-0.365755916587,1.45561796415,-0.39887710071,1.70914550834,1.7515815227,23.4490827347
off_to_on,0.752014360113,1.63758812883,3.60124166835,-0.237394689472,0.551562580943,-6.29796946735,-0.69857339674,0.393867515967,-1.13714595423,2.02020890991,-0.313923585844,1.88124630268,3.31349425907,0.155688666929
off_to_on,1.24996400229,4.88557968724,4.4509005858,-0.8147176273,0.0972944218035,-2.6931154001,-3.41519233905,-0.787182493082,-1.67010219621,2.0358748046,-0.156130640739,1.60672880325,3.95940748369,-24.86737361
off_to_on,1.39841776493,7.10418440646,4.16997097949,-1.38829921245,-0.387872708645,1.44849842823,-5.16689582172,-1.52601032975,-1.93408608028,1.4497856585,-0.0973393825251,0.889794328679,3.37983274971,-43.3543096395
off_to_on,1.09250418841,7.60384502202,2.78790851936,-1.87722262471,-0.922260549627,4.80225756615,-5.56239159806,-1.6319638249,-1.94417499158,0.393796624116,-0.260087946049,-0.121328911079,1.65928905753,-48.7441359097
off_to_on,0.391154963072,6.14750909441,0.642847410297,-2.1670220079,-1.47471528187,6.35199602811,-4.57975862518,-1.13670685237,-1.73724774794,-0.843713321408,-0.655525606334,-1.16452049988,-0.732472422242,-38.3386484395
off_to_on,-0.492059903693,3.04801336323,-1.70149084415,-2.13804038484,-1.94584934485,5.69739700246,-2.56349828022,-0.273829809487,-1.35170432868,-1.90022732942,-1.1647993275,-1.94099867464,-3.08070516722,-14.3168608147
off_to_on,-1.26013869886,-0.899831068305,-3.61096657413,-1.70906144194,-2.18570155965,3.15890822575,-0.118522555293,0.606591190545,-0.8194732124,-2.45084266238,-1.57376846682,-2.21406059393,-4.65224527341,16.73056523
off_to_on,-1.64038245079,-4.63759453052,-4.56304530949,-0.880865259591,-2.04477411784,-0.347611969222,2.06892456699,1.16023204969,-0.172226250696,-2.31304026137,-1.65069647792,-1.89329920725,-4.93319471033,45.6356624277
off_to_on,-1.48788122764,-7.14839323153,-4.29996987927,0.238462755085,-1.44027730538,-3.62132703808,3.43086267941,1.16750512851,0.543638019854,-1.5090964567,-1.23960547655,-1.07174990603,-3.79825751859,63.3305293059
off_to_on,-0.844496277008,-7.75598161263,-2.90504840777,1.44038186275,-0.410920152746,-5.56950902706,3.67788896827,0.610142308586,1.25340400414,-0.264181474883,-0.334671389202,7.34347795548e-05,-1.55530425187,63.5840187554
off_to_on,0.0706526971161,-6.32507547226,-0.777674750835,2.4584626798,0.864587232827,-5.55705135624,2.87156750971,-0.320223240362,1.85205343505,1.06048957568,0.893676663903,0.99594344248,1.1491882413,44.987373526
off_to_on,0.937360899032,-3.30010940734,1.48542327484,3.0372600214,2.0982405879,-3.60260873234,1.38709835031,-1.2850083451,2.21938842255,2.07830488131,2.13405943824,1.62301246078,3.53177594084,11.5889115375
off_to_on,1.44986564996,0.430208522912,3.26572410543,3.00727748442,2.96772578062,-0.362231728817,-0.221023666502,-1.91311503497,2.25019790738,2.4959321862,3.02245692541,1.71909031968,4.91393829835,-28.0372878562
off_to_on,1.42908973953,3.80084148995,4.10093232397,2.3414657671,3.21352280147,3.09037524163,-1.40647932732,-1.92940210354,1.89009105879,2.2018296425,3.25599729555,1.30305514318,4.92578580815,-63.0559984613
off_to_on,0.889671471771,5.88804257233,3.81154866807,1.1729375995,2.72593139061,5.61381118298,-1.81039727616,-1.25439737697,1.16365604656,1.29684849563,2.69479563425,0.560721145897,3.60796813649,-83.3528658503
off_to_on,0.0363677191351,6.178959169,2.53961567575,-0.234577648782,1.59104977437,6.36621929787,-1.37358642052,-0.0411895005959,0.182794499146,0.058653319041,1.41733264218,-0.227517596958,1.38348320819,-82.4067806303
off_to_on,-0.809487696923,4.7114311112,0.691735268956,-1.55646069013,0.0772656320057,5.07336689168,-0.344998111514,1.36434718307,-0.870780255996,-1.14672158894,-0.29033309581,-0.789559958179,-1.08580723754,-59.2448282844
off_to_on,-1.32691651653,2.0434717806,-1.19182095135,-2.49621448475,-1.43648578874,2.11424031797,0.815576121606,2.52864654705,-1.78599034888,-1.97652596469,-2.00964525019,-0.95665676174,-3.10705690005,-18.9160592162
off_to_on,-1.31305834426,-0.934769822075,-2.59874825788,-2.86583487523,-2.56943328811,-1.60051662921,1.60674056022,3.0676568335,-2.37454841904,-2.21066346117,-3.30610949717,-0.716369272671,-4.16039064939,28.6779893571
off_to_on,-0.758912806188,-3.28535333021,-3.187331874,-2.63210677141,-3.05019549034,-4.91665472767,1.66814793397,2.7717950391,-2.51897092088,-1.80928318155,-3.85130775474,-0.206008072895,-4.03652082595,71.3083625863
off_to_on,0.144417627841,-4.31349566049,-2.86955827449,-1.91474997098,-2.79450637069,-6.79870593438,0.913183159849,1.67772195526,-2.20152547532,-0.91413829108,-3.5131381719,0.347963433344,-2.87126729736,97.6363756185
off_to_on,1.07127042019,-3.77530028502,-1.81520614813,-0.938646074407,-1.92423974618,-6.65268876175,-0.434764616983,0.063065828055,-1.50537687218,0.202347176605,-2.38792558964,0.719125136007,-1.07562610641,100.262582486
off_to_on,1.67534800272,-1.94006953051,-0.382523136045,0.0421532283094,-0.722071845094,-4.50911460042,-1.91569703275,-1.63469859211,-0.588398955446,1.2209578345,-0.766970585398,0.764066294799,0.807356832025,77.7795798271
off_to_on,1.71172213198,0.508840934005,0.997899794642,0.821862905028,0.462370262226,-1.01109392919,-2.9912375449,-2.94927716144,0.3610256738,1.86546470147,0.949491202322,0.468702268754,2.26833026415,35.2604233762
off_to_on,1.12434726267,2.70065733126,1.94861241644,1.29565667398,1.32302202587,2.78650681742,-3.23312691324,-3.52447223826,1.17157771651,1.97281498393,2.36279921781,-0.0565630724476,2.96837993815,-16.9689039912
off_to_on,0.0692580169044,3.85890585513,2.24416623122,1.4713934724,1.6877376274,5.74264631126,-2.47651277596,-3.21692645914,1.72533023127,1.52727626029,3.17741597425,-0.62670605245,2.81061967384,-65.9619120431
off_to_on,-1.13362767534,3.55034515107,1.85908389235,1.43977181099,1.55937892792,6.97876593674,-0.884487959153,-2.13121162249,1.97335565404,0.654475752442,3.26559863377,-1.05394986815,1.93526272611,-99.4949491825
off_to_on,-2.10279002425,1.82482305268,0.957665587451,1.31772931885,1.0960919536,6.14334277681,1.09895959325,-0.578556133937,1.92923535233,-0.417539858743,2.68093436636,-1.21201642017,0.651396632638,-109.230274279
off_to_on,-2.51667040214,-0.795845428706,-0.165166196456,1.18937689138,0.540399848626,3.51262697587,2.89165491655,1.02441177411,1.64698457869,-1.41641422142,1.62310043219,-1.06903559232,-0.665032240508,-92.8527050218
off_to_on,-2.2147611533,-3.47561370029,-1.17142982005,1.06875768596,0.12408909978,-0.100772680509,3.96249683302,2.28172496242,1.19460775461,-2.08771847398,0.3701325024,-0.680621021224,-1.67352095821,-54.611407547
off_to_on,-1.24697852784,-5.32013705494,-1.77138171577,0.899312521711,-0.0165989756365,-3.60071383087,4.00230730576,2.92750833425,0.634401571903,-2.24916952721,-0.798451424537,-0.152269262474,-2.14533109594,-4.13387212868
off_to_on,0.141755135155,-5.65362803381,-1.79647134752,0.589755514798,0.114317177135,-5.94242702889,3.01834377155,2.88539939173,0.0165624939914,-1.82913427206,-1.6654874434,0.407459450043,-2.00109609292,46.1482939178
off_to_on,1.58378320109,-4.23377904941,-1.23889808017,0.0709776624559,0.382648206754,-6.44665574727,1.32188811189,2.26362038589,-0.614269263167,-0.885357499325,-2.11257665968,0.919803150963,-1.31053585018,84.2454933937
off_to_on,2.69321818596,-1.34066098527,-0.251389020476,-0.650531027121,0.58370832401,-4.99834904677,-0.583901695183,1.29425918594,-1.20620014784,0.398333308079,-2.12548092451,1.34085076218,-0.263791081835,101.63852371
off_to_on,3.17065477705,2.28737761483,0.890973369936,-1.46678127343,0.528688781928,-2.07191778807,-2.17407298758,0.243745944531,-1.69070559756,1.73886959974,-1.77458799972,1.64076271712,0.873951069623,95.2789320505
off_to_on,2.87921211531,5.65336810038,1.85829473128,-2.18388638053,0.125607080244,1.42145287165,-3.06900913394,-0.670974911987,-1.98487530836,2.80438887766,-1.18204223671,1.77389765426,1.81552311072,68.0591978367
off_to_on,1.87427496434,7.78056796135,2.34904489996,-2.57718425477,-0.575007854493,4.41520746685,-3.14086156119,-1.33172966742,-2.00807151364,3.28447542415,-0.487492013441,1.66299070532,2.30726794345,27.6958105578
off_to_on,0.383907802695,7.99159048638,2.17153901981,-2.46804961658,-1.38674560473,6.01054508319,-2.525422417,-1.72110088762,-1.70876263838,2.9698910779,0.17927946624,1.21489658021,2.18303551519,-15.5821124555
off_to_on,-1.250152952,6.1088063022,1.30485312388,-1.79492047794,-2.04468571113,5.74348068532,-1.54116164822,-1.88428734167,-1.09161738188,1.82423642033,0.715845749551,0.369509310827,1.41040114726,-51.8257475136
off_to_on,-2.65322045521,2.51901808033,-0.0780844288151,-0.651470580034,-2.29407819714,3.71687362796,-0.551138325523,-1.87385702846,-0.23309870604,0.0254357266234,1.05604369309,-0.835927330391,0.118384424688,-73.8304811817
off_to_on,-3.50065245693,-1.91685082969,-1.63651780372,0.724551514871,-1.9799899522,0.560536340718,0.176723171081,-1.70597833384,0.723241730392,-2.04325312513,1.17330694166,-2.21871404634,-1.40677281741,-78.6089556137
off_to_on,-3.5866758247,-6.08542699165,-2.93767214736,2.0112193577,-1.10723502843,-2.7652758369,0.557151223232,-1.34993825119,1.59374673209,-3.86289396958,1.0805515285,-3.45110470808,-2.76831473829,-67.5526467687
off_to_on,-2.86782740192,-8.91407737072,-3.56922273679,2.89307569566,0.149974812297,-5.26126011407,0.691214175408,-0.756526689825,2.19773163457,-4.90219091529,0.8265547455,-4.12673140291,-3.5485043732,-45.3813967428
off_to_on,-1.47503032034,-9.65610262047,-3.26186688082,3.15321877899,1.49234341973,-6.18667689086,0.788683101576,0.0880696693249,2.40409799664,-4.76786984653,0.487142119053,-3.88445754871,-3.42579008065,-18.3421879916
off_to_on,0.307418853216,-8.09055661631,-1.98713111113,2.73645873823,2.57969311272,-5.27463184387,1.04441929027,1.10987382898,2.16684029885,-3.34045181265,0.149823558585,-2.55347505607,-2.28906062132,7.69267428724
off_to_on,2.09398174034,-4.58260553128,0.0032902267558,1.76284325954,3.12831805314,-2.80297078074,1.52290868224,2.12554466029,1.53792384055,-0.849971021736,-0.107006181585,-0.266090717443,-0.310339842839,28.6165373977
off_to_on,3.47493645801,0.011634737643,2.21779083614,0.487783470943,2.99120085357,0.4969745483,2.10228708177,2.8702704438,0.653283695229,2.14248984033,-0.235702833481,2.51354688816,2.05794623304,42.5997540494
off_to_on,4.10680157437,4.56950852055,4.04374645722,-0.77689953991,2.19716707524,3.66307708577,2.50562091634,3.07374818999,-0.303505830172,4.86638271084,-0.234685036459,5.07339396751,4.17599206946,49.7057991894
off_to_on,3.79880451132,7.99418227243,4.91840974294,-1.75392647657,0.938778300052,5.78770180112,2.41166691021,2.56116134515,-1.14820675451,6.54289566353,-0.150412372636,6.64054352107,5.38593592475,50.9299329651
off_to_on,2.57417758251,9.49561212363,4.5043087408,-2.27347180158,-0.484996073549,6.28003556236,1.60353195606,1.34156813845,-1.73892976145,6.61293590089,-0.0625536662571,6.62152078078,5.21405818749,47.1707958915
off_to_on,0.685946572627,8.78469746236,2.81376691696,-2.3056785303,-1.75192870953,5.02900488425,0.095012685235,-0.354563785915,-2.00280511224,4.92353045422,-0.0548971384795,4.81907496988,3.54354730194,38.6287986683
off_to_on,-1.42539585831,6.13001085914,0.236989097297,-1.94566909726,-2.59972415748,2.4218398831,-1.82110726178,-2.11219753686,-1.94032337815,1.80973484181,-0.180816469412,1.54687248662,0.696027537474,24.9090671622
off_to_on,-3.23061931415,2.26520815474,-2.54530082245,-1.36099254397,-2.88558409442,-0.782717386219,-3.63157247772,-3.4406781707,-1.60939033604,-1.96383433826,-0.435867517603,-2.40977274263,-2.61735522375,5.77592465065
off_to_on,-4.24752062446,-1.82313952933,-4.74759422123,-0.724002502656,-2.6077291156,-3.68462055286,-4.756727586,-3.92474883562,-1.09777384173,-5.39605305321,-0.749309128551,-5.9906986026,-5.47502928622,-17.8094263172
off_to_on,-4.17903527665,-5.16488219591,-5.71247097159,-0.155270034324,-1.88725294828,-5.50502757398,-4.75058967063,-3.36833463918,-0.495462629172,-7.52753541345,-1.0006579804,-8.16456264623,-7.00983442473,-42.9084555866
off_to_on,-3.01223596115,-7.05605961201,-5.11924702432,0.302186070486,-0.92061687677,-5.80289553378,-3.4755888996,-1.87915428935,0.123329181539,-7.72367727091,-1.0584659785,-8.24764938084,-6.68151477763,-64.5742844598
off_to_on,-1.04283215012,-7.22043317107,-3.09928217817,0.671544148383,0.0795429558376,-4.58389416291,-1.18458293397,0.141422581162,0.704195292984,-5.87510120195,-0.829548625947,-6.13389169409,-4.46867011986,-76.7985452825
off_to_on,1.1910782752,-5.84201451069,-0.214679613302,1.00260878425,0.936658785095,-2.27422577631,1.52769639314,2.10806169742,1.20495228402,-2.44912865993,-0.301452794519,-2.35518841615,-0.911152871414,-74.274224603
off_to_on,3.05472849556,-3.46705977476,2.7004726857,1.32395318014,1.54186902336,0.426679913422,3.89615823966,3.43051031745,1.5838891582,1.63028884276,0.438468453167,2.05661430748,3.02181725993,-54.4395018259
off_to_on,4.00322835889,-0.812619175728,4.79160546223,1.60934191197,1.85996932091,2.76493525532,5.22697157735,3.70514532188,1.79278253842,5.24343058108,1.21706201433,5.86985205827,6.20658249894,-19.0596157714
off_to_on,3.75279209946,1.45502592534,5.45001414269,1.77440226606,1.91351521916,4.15341308774,5.12809669865,2.85401269749,1.78092009419,7.40006163168,1.82095039422,8.02362247483,7.70262005397,25.3424383981
off_to_on,2.38023460802,2.90276031205,4.50754126049,1.70643249574,1.75522104788,4.32877190331,3.64731615648,1.16080067438,1.51072009238,7.53008866018,2.06061948131,7.95077843178,7.04730115664,68.574004045
off_to_on,0.31325933099,3.42047871027,2.29341051663,1.31593480834,1.44077876685,3.4003406281,1.26556317589,-0.813632821752,0.979351783457,5.64933335772,1.8323701151,5.74812175303,4.41133533641,99.2507574837
off_to_on,-1.79252329346,3.19731889079,-0.469275884855,0.588644291703,1.01181913582,1.78230352083,-1.25740153306,-2.4124950034,0.236728577161,2.34819218506,1.15690658727,2.13734299975,0.560008011124,108.028729556
off_to_on,-3.2563755667,2.60133256852,-2.89680249022,-0.384572523514,0.493365497201,0.0373293926124,-3.13566908287,-3.10264115259,-0.609807189297,-1.3934988646,0.18034917781,-1.7710020321,-3.37311755565,90.6182209408
off_to_on,-3.59262308946,2.01100028285,-4.23279453015,-1.41490582601,-0.0960063112466,-1.31371322449,-3.82243777208,-2.65831066757,-1.40963497669,-4.50699397994,-0.864165145749,-4.83275131895,-6.23192284399,49.5757658599
off_to_on,-2.67625724366,1.66131328707,-4.09553188372,-2.26097800874,-0.727829203761,-1.95308886025,-3.19503052327,-1.2444027656,-2.00049571307,-6.15567516605,-1.72269548357,-6.22733961851,-7.19419653378,-5.82108033501
off_to_on,-0.796284223364,1.55978663458,-2.6010835648,-2.69876086388,-1.34968846477,-1.84788695495,-1.59278043955,0.632727105268,-2.24931398433,-5.97596210907,-2.19326438926,-5.69981227,-6.02467878256,-61.7432189269
off_to_on,1.42604985038,1.50136295493,-0.319420657222,-2.5924217564,-1.8807218294,-1.22956022135,0.308500930735,2.29397492364,-2.08960000941,-4.16440348427,-2.18159349434,-3.61051410026,-3.14277343875,-103.498928725
off_to_on,3.23264246929,1.17480953065,1.92306339488,-1.941166085,-2.22035532028,-0.483513784759,1.74386230049,3.12072664207,-1.54297921865,-1.38791466484,-1.72215312329,-0.78135246797,0.517198842834,-119.696323759
off_to_on,3.97684676192,0.319461970343,3.32849322967,-0.885059690131,-2.26930451054,0.00923395880793,2.14209823837,2.773516906,-0.71710055879,1.44843594203,-0.958965408649,1.80334335937,3.80771122031,-105.624489701
off_to_on,3.34379883774,-1.12817864962,3.40300331157,0.332939968395,-1.95764394789,0.0211069531534,1.34288960196,1.31975486603,0.220200508935,3.49660379873,-0.0944768466559,3.33515520671,5.7333584371,-64.7859821653
off_to_on,1.46827131105,-2.95645154788,2.12810270341,1.43622778162,-1.2721013581,-0.435164100733,-0.332283494663,-0.776359817517,1.08281527303,4.2263068261,0.6745681627,3.44223019769,5.76115217878,-8.05218453412
off_to_on,-1.09257454346,-4.70449726821,-0.0317795374835,2.19187400981,-0.274260443094,-1.11254100887,-2.18570806692,-2.80200167673,1.71154718052,3.56866494926,1.21178983466,2.28554478865,3.97619635916,49.3609531352
off_to_on,-3.52692424406,-5.79099260883,-2.28923648341,2.47063056013,0.896942452651,-1.62654017735,-3.39318226321,-4.03436175191,2.0091131301,1.90182640076,1.46862684584,0.463902672049,1.03506338329,92.2172445083
off_to_on,-5.02495814995,-5.70698100276,-3.80715870661,2.27115851189,2.04162889461,-1.60882897024,-3.31270338526,-3.98971308567,1.95547600302,-0.108297496982,1.4778740425,-1.23124249672,-2.06367440641,109.58948149
off_to_on,-5.0421141823,-4.2087489527,-3.99166337323,1.70331146181,2.93311609798,-0.862722536242,-1.7426583142,-2.59747018479,1.60104583383,-1.75134614549,1.31966307938,-2.1181455421,-4.31260661434,97.8880176389
off_to_on,-3.48290485504,-1.44266347867,-2.70365795788,0.939875364545,3.36412902748,0.536364251935,0.965999884311,-0.237922763577,1.0426997376,-2.51364620776,1.07632998359,-1.87365561358,-5.02084227513,61.6858143459
off_to_on,-0.744105447203,2.04673907364,-0.315604870089,0.156556193834,3.19577653656,2.23493132594,3.99088644749,2.3719440899,0.392662227585,-2.23585916553,0.795902388211,-0.640265443985,-4.02545754132,12.1247974923
off_to_on,2.39841930979,5.43725115344,2.40688591586,-0.517498447474,2.3979951547,3.6976631579,6.29344449965,4.40832291231,-0.248671742522,-1.13834360783,0.479276281575,1.04349220514,-1.72349077325,-36.5604833037
off_to_on,5.02408121393,7.84758087609,4.55884651734,-1.02237016963,1.07053617127,4.37837250022,6.96723084566,5.2099342841,-0.808013568379,0.286622266737,0.095484937735,2.45911984178,1.07976405993,-71.2936972
off_to_on,6.34862124353,8.58987108442,5.39893401688,-1.35881286412,-0.563362666587,3.9107936475,5.56254711257,4.49644449946,-1.24039923803,1.47042489268,-0.382910343709,2.98773218458,3.4495366629,-83.8630071502
off_to_on,5.96264363497,7.37848650765,4.59881441652,-1.55689409142,-2.19294559076,2.25472782036,2.27453238479,2.46228345191,-1.52020144461,1.97778492144,-0.941372415942,2.34849771644,4.63081291224,-72.9763139877
off_to_on,3.95303884631,4.42892418387,2.35493741168,-1.63899499774,-3.48079836351,-0.255228363803,-2.0753638686,-0.285723998742,-1.62957833703,1.65550103473,-1.50103536244,0.708141452761,4.28510244609,-44.1174080612
off_to_on,0.871377311985,0.413813926838,-0.673906052921,-1.59558651167,-4.13682669184,-2.98119994757,-6.26668577781,-2.92554013215,-1.55213626423,0.670519103843,-1.92567842937,-1.37765518006,2.58017404028,-7.36926939692
off_to_on,-2.43716044112,-3.71296283698,-3.58048648875,-1.38565289724,-3.98856284677,-5.15780303705,-9.04794336001,-4.68499707517,-1.27617426277,-0.570539128301,-2.05948924715,-3.16784429644,0.110328084544,25.9960252161
off_to_on,-5.08705533398,-6.9722937236,-5.50103340676,-0.962087559851,-3.02978309001,-6.12101797564,-9.52845301979,-5.08548777803,-0.806503909962,-1.5852767544,-1.78398670335,-4.00845938301,-2.31787455483,47.0131788853
off_to_on,-6.40696587217,-8.62004905559,-5.88692217759,-0.310643334276,-1.43297715746,-5.51924136486,-7.46695485928,-4.0834069368,-0.178879182701,-1.99909876861,-1.07323858132,-3.57326133806,-3.95657372809,51.498040777
off_to_on,-6.11789609908,-8.3354828909,-4.66716477146,0.516033595537,0.480743846622,-3.43819936312,-3.36192059894,-2.06460470202,0.531277217394,-1.68021478566,-0.024966957645,-1.98449284203,-4.35178061922,40.7926005879
off_to_on,-4.38557381518,-6.28552006621,-2.2519348345,1.38709726922,2.30992525488,-0.396274025178,1.68767878041,0.301871151386,1.21279330592,-0.778281845251,1.14773387727,0.229712131437,-3.46755239546,20.6828591931
off_to_on,-1.74004965,-3.05193942752,0.617723065892,2.11441700558,3.66417861507,2.79346235776,6.30794251697,2.29649892602,1.73760271687,0.343897377424,2.16585660974,2.3246827885,-1.66563495707,-1.00101027779
off_to_on,1.10250061486,0.549684403145,3.11760400659,2.50237687777,4.2562991815,5.25601534957,9.25858594844,3.38602591773,1.99070982306,1.25633173671,2.76188378497,3.60540479403,0.442419674056,-17.1925749477
off_to_on,3.45312052693,3.69953289022,4.59903799837,2.41090494763,3.9711300389,6.31243683105,9.79519612903,3.38296059295,1.90233672873,1.62827126602,2.76088951891,3.67235321932,2.21202072805,-23.8272033902
off_to_on,4.83072540844,5.78135166219,4.77288398215,1.80923092926,2.8924553648,5.68363802712,7.87260564518,2.47622357597,1.47136834815,1.35191787128,2.13831044779,2.55819895394,3.17357904039,-20.8018546367
off_to_on,5.05953619596,6.51051473531,3.76316747197,0.799435500425,1.28012336827,3.57591789517,4.1299897818,1.12856759773,0.771336364843,0.577763873104,1.03408450393,0.707261272691,3.16304127969,-11.4445641773
off_to_on,4.26492841529,5.95402137393,2.02231361907,-0.401431229518,-0.496784762984,0.619946059242,-0.330238479887,-0.116007662005,-0.0642743778248,-0.350011436068,-0.283067462838,-1.19276986098,2.33795931829,-0.820104336773
off_to_on,2.78415744136,4.45040368049,0.147691911479,-1.51744141716,-2.0526209927,-2.31960031839,-4.29201135759,-0.840659424214,-0.873667850249,-1.03194894955,-1.49088088818,-2.46385007019,1.08439676599,6.41234665421
off_to_on,1.03377470875,2.46801705862,-1.32963789908,-2.29101659485,-3.07835649173,-4.40581523338,-6.78778033953,-0.902341445592,-1.50583972277,-1.17204163319,-2.30473548972,-2.68244937288,-0.142763252372,7.76375763079
off_to_on,-0.616390837267,0.455135914325,-2.10865315714,-2.55616005914,-3.41019882671,-5.08186475591,-7.35864363787,-0.464118120623,-1.85523941889,-0.696260827518,-2.55596352836,-1.82761553437,-0.984003883819,3.67116375205
off_to_on,-1.92307475797,-1.26914778906,-2.18172389206,-2.28342429712,-3.05621441383,-4.2352706615,-6.13676872017,0.0954293803777,-1.88190153571,0.21411998461,-2.23298921214,-0.279916598522,-1.28558987046,-2.97087598519
off_to_on,-2.78658883638,-2.55492970763,-1.78469255167,-1.58193712916,-2.17626227575,-2.22286525115,-3.73675482305,0.357661564676,-1.6122627696,1.18731841666,-1.47368510966,1.3262439679,-1.12217778936,-8.24478363733
off_to_on,-3.21426031569,-3.39251537979,-1.2628761521,-0.658697623218,-1.02432598101,0.251187616321,-1.00631278287,0.0541061126283,-1.12262734993,1.80025132156,-0.513631613789,2.34131901901,-0.732137883256,-8.99488190674
off_to_on,-3.25845581943,-3.83993623026,-0.911073533033,0.249893873846,0.127198551297,2.3654783216,1.2698717712,-0.804275793242,-0.512868344563,1.74080717604,0.390817863704,2.3424736244,-0.397864373618,-4.23541978382
off_to_on,-2.96276176668,-3.94577732908,-0.851446480861,0.950075384574,1.05778250314,3.44632429232,2.6099716341,-1.91155725771,0.119614126028,0.933185731332,1.0384773446,1.29077899846,-0.321051759719,4.37782208497
off_to_on,-2.34102678748,-3.70337999986,-0.994823433921,1.34175734967,1.64379874462,3.18311471205,2.94209347814,-2.77465758914,0.697184177531,-0.420372046393,1.33400598092,-0.452356570928,-0.541078697319,13.1942495491
off_to_on,-1.3956187671,-3.05570425088,-1.09642894978,1.43248233843,1.86823462147,1.7250918679,2.55387812455,-2.90661287543,1.16669624283,-1.89792272928,1.29914073847,-2.25417518936,-0.92521236363,18.0738709258
off_to_on,-0.161595881469,-1.94652557595,-0.87980851871,1.31236730745,1.79729927531,-0.371687862317,1.91748543155,-2.0332359485,1.49362950581,-2.99669354364,1.04466980306,-3.43735108896,-1.23053804772,16.1535967218
off_to_on,1.24925591648,-0.392654051613,-0.176805980803,1.10250290147,1.53672598355,-2.330567686,1.46562416241,-0.233185490063,1.65206488039,-3.30422320515,0.716739936609,-3.52264378332,-1.21045503893,7.16854148153
off_to_on,2.63138388363,1.45835936221,0.973830872405,0.898614257155,1.1859236553,-3.41413550646,1.40762379332,2.04668602293,1.61823111094,-2.64222908616,0.438867260256,-2.40112583271,-0.723074270412,-6.21534487421
off_to_on,3.71116338371,3.31618554007,2.30994558169,0.732616155241,0.806699507939,-3.17400675858,1.65471268254,4.11460470236,1.37297480482,-1.13357410457,0.270723507316,-0.376152815314,0.200087418983,-19.2290024609
off_to_on,4.2127785788,4.79530555335,3.42046534101,0.566842445565,0.415969647389,-1.60930161499,1.87898632702,5.25876602607,0.913526249976,0.83012503314,0.196971495767,1.93763925869,1.35043267164,-26.7166222305
off_to_on,3.94385316648,5.51277706425,3.88504750931,0.322295135703,0.00168156687815,0.818955472846,1.67810641203,4.99772747587,0.26951592523,2.70828883392,0.147371680241,3.82058583609,2.4042317824,-25.1193087586
off_to_on,2.87016427796,5.20602764122,3.42833684078,-0.0715671370869,-0.447989135332,3.32467309793,0.777085283645,3.26741206475,-0.485239780316,3.97725527839,0.0376951534306,4.68605760899,3.02711347288,-13.980462189
off_to_on,1.15033892989,3.83038296845,2.03250596617,-0.626885735134,-0.916847263952,5.04356701509,-0.815559187036,0.474724814949,-1.23346561179,4.28679437731,-0.186101150481,4.2681445445,2.98385045882,3.62178130408
off_to_on,-0.885715553189,1.60039383244,-0.0334238423118,-1.26924070085,-1.34767472079,5.31312065816,-2.76255451433,-2.60762344089,-1.83192394167,3.55724880359,-0.518123976148,2.69717007802,2.21602346755,21.9340109288
off_to_on,-2.81161409132,-1.04350793373,-2.27942162502,-1.84514878464,-1.6507783102,3.89697758092,-4.48657890129,-5.07550076432,-2.14348953612,1.98958373762,-0.888453091915,0.442488682942,0.863090808458,34.430273151
off_to_on,-4.21101821516,-3.53705292978,-4.13411034116,-2.16542804566,-1.73163569201,1.08132694337,-5.36472089423,-6.1812807078,-2.07522482922,-0.0088624793774,-1.18565355573,-1.85136581993,-0.777111889405,36.1179553153
off_to_on,-4.78349093991,-5.33408835479,-5.1119170363,-2.07048928427,-1.52704187068,-2.38996059091,-4.95923184532,-5.57895175144,-1.61015685722,-1.95256798986,-1.29672691774,-3.57391611974,-2.33221843011,25.434378556
off_to_on,-4.4178074631,-6.04639627833,-4.95320073795,-1.49433366455,-1.03527602595,-5.5247155454,-3.19915249511,-3.44251117389,-0.821090608519,-3.41450750659,-1.14915336334,-4.33029825921,-3.45449185022,5.03530648218
off_to_on,-3.21223353026,-5.54008178943,-3.69369578328,-0.503181300782,-0.327684142559,-7.37450484876,-0.442814610427,-0.415541959182,0.140146823161,-4.12776629997,-0.739492901526,-4.03670044788,-3.90461848696,-18.8576549854
off_to_on,-1.43904708518,-3.96146724676,-1.64478213786,0.707315542254,0.464050129638,-7.32125932032,2.60734360134,2.59317322885,1.07678479511,-4.02546934744,-0.138560973831,-2.90561729564,-3.59832142812,-38.3893647593
off_to_on,0.531890502953,-1.68794886405,0.703942442862,1.85821919955,1.18149416019,-5.27133565533,5.11359387129,4.70067715228,1.79538334575,-3.21702930913,0.527913807363,-1.33744411143,-2.60890487886,-46.6691835245
off_to_on,2.32456603503,0.777782435823,2.82425266712,2.66362052663,1.68256133179,-1.69752985165,6.36647483536,5.33044245395,2.15413743865,-1.92125946155,1.11549550165,0.233386186839,-1.1336264685,-40.1684716958
off_to_on,3.63596949757,2.9360525408,4.28527600382,2.91316928012,1.87920552556,2.48464140431,6.01337502415,4.38893323363,2.09674112867,-0.389001425167,1.50107532414,1.47784371438,0.558971158598,-20.0905596906
off_to_on,4.28372513415,4.40327152362,4.84613234996,2.53431690183,1.75696379961,6.17034316574,4.17327849315,2.28004465505,1.66195747873,1.15422924074,1.61343590316,2.24886712624,2.18253290592,7.7907689548
off_to_on,4.21644318106,4.98068535956,4.48427013694,1.61429121983,1.37058614939,8.37404316185,1.39765881104,-0.245254138492,0.966967649436,2.52944531964,1.44560624336,2.57542890767,3.47494252895,34.8263440178
off_to_on,3.49434687761,4.66685334047,3.36217768018,0.375071523015,0.819048667924,8.5033223241,-1.50935230439,-2.35065002456,0.170997390169,3.59283664631,1.04755358155,2.58868970498,4.22599872653,52.2082616353
off_to_on,2.25578500471,3.62079145136,1.75470885247,-0.89007026356,0.210796250165,6.51944566836,-3.74979557636,-3.3967742766,-0.568333924143,4.21175528146,0.504784854399,2.42089391251,4.29546358078,53.8424406582
off_to_on,0.685506143326,2.0966838073,-0.0319076228438,-1.897838126,-0.366870294804,2.94092103228,-4.78114943362,-3.14741479307,-1.13205922847,4.2536348397,-0.0874604779243,2.12571971312,3.62873191863,38.4381515628
off_to_on,-1.00608505805,0.37572151992,-1.72221731402,-2.44855363941,-0.86294941374,-1.30705915807,-4.47184258238,-1.83061217907,-1.45983957772,3.60600735802,-0.644867995801,1.65635852451,2.27380776498,10.1104945117
off_to_on,-2.59331456023,-1.2845731618,-3.10129070852,-2.47051929188,-1.25830932315,-5.15009371341,-3.11273714474,-0.0368158173014,-1.54923415872,2.22831797095,-1.10388893584,0.910291179881,0.395876658957,-22.7391282713
off_to_on,-3.84401430395,-2.67502616803,-4.01523446167,-2.02415009717,-1.54636293554,-7.6529806301,-1.28554897618,1.50685958642,-1.43821454366,0.216343055404,-1.4208008641,-0.181041003042,-1.72118740589,-49.9473857162
off_to_on,-4.5378549973,-3.63796541377,-4.35817545209,-1.26852940346,-1.710312491,-8.25772239814,0.360591297635,2.20456994048,-1.18037223255,-2.1532492532,-1.5649727211,-1.56104131642,-3.69916331205,-62.7444050189
off_to_on,-4.5007924499,-4.06192144582,-4.06478738846,-0.404763131408,-1.71024708629,-6.90833633885,1.34190848804,1.80647235974,-0.823731140339,-4.43047718186,-1.5134054747,-3.00201386716,-5.12332295923,-56.5527548153
off_to_on,-3.65242199476,-3.88184350069,-3.12073297343,0.383532402254,-1.48927176857,-4.03530668447,1.49820708338,0.494707945832,-0.401167407583,-6.06878118593,-1.25206319605,-4.13470703243,-5.62985059011,-32.5413614092
off_to_on,-2.05248661103,-3.09212183138,-1.59015033772,0.973683526697,-0.999270555588,-0.413638901679,1.0215639047,-1.18868753664,0.06547466238,-6.56214920141,-0.785133948823,-4.55323107625,-5.0049250502,2.57394923798
off_to_on,0.0735007362111,-1.76889465106,0.354171010155,1.32012546239,-0.237236842084,3.05742877995,0.349020712321,-2.54505311516,0.551898613877,-5.60690310341,-0.148216589072,-3.96281249307,-3.26691487096,38.4495804803
off_to_on,2.34795227087,-0.0884383258301,2.41955137069,1.44281401729,0.723621208028,5.5874567659,-0.036725300557,-2.98022167618,1.01711776511,-3.23508042459,0.582083446278,-2.31623047988,-0.701157948612,64.1857041049
off_to_on,4.3025416365,1.67522985346,4.21989998201,1.39716055217,1.72447012685,6.67775070829,0.179401626333,-2.22975113064,1.39750248485,0.13325132317,1.28981852211,0.11692756288,2.1739853095,71.62389752
off_to_on,5.47975617975,3.18565730569,5.34602690117,1.24009854085,2.54335252501,6.21175849859,1.00079663952,-0.467221230313,1.61456497983,3.75116861915,1.83675832272,2.7840864329,4.71225763453,57.8701611319
off_to_on,5.55127503381,4.11229622843,5.467908694,1.00626792143,2.94846164072,4.44057192588,2.10176429006,1.74420733941,1.59580643761,6.71709481225,2.09300190661,4.98724047581,6.29524779647,26.2737980857
off_to_on,4.41965293196,4.21720954462,4.44072661485,0.702487514575,2.76858424583,1.88104202811,2.94673975116,3.6414960864,1.30179113731,8.21717673922,1.97321678263,6.08680759536,6.49875235505,-14.443584277
off_to_on,2.26992238347,3.4339521889,2.37874594774,0.320294770598,1.9582821697,-0.835208973306,3.00416618135,4.52727842209,0.748965791259,7.76846643948,1.46690223565,5.70731490288,5.22120671434,-52.6610790104
off_to_on,-0.450811754214,1.9095133445,-0.334069979383,-0.141249651141,0.633938223681,-3.11681796369,1.97562281907,4.01869494594,0.0181876674644,5.38588255042,0.651482081593,3.87491200695,2.73214741513,-77.2096690455
off_to_on,-3.12778575703,-0.0117412746805,-3.11089803934,-0.654225236659,-0.936023775414,-4.5337697569,-0.0480744923423,2.19206937221,-0.756558437461,1.61358184313,-0.318317562615,1.03565379931,-0.380468522485,-80.6205693908
off_to_on,-5.12658455247,-1.86589090942,-5.29652274162,-1.15271781961,-2.38948631517,-4.88295966072,-2.56848846466,-0.428422578564,-1.41781041773,-2.59971552255,-1.24392754497,-2.05874514832,-3.35575822852,-61.32421538
off_to_on,-5.95657781832,-3.19175667232,-6.3363993402,-1.54136263942,-3.36405004385,-4.19552931692,-4.8152982198,-3.03622047609,-1.82439911436,-6.15338784841,-1.93073526954,-4.5669203864,-5.46082071241,-24.1646584353
off_to_on,-5.40448215199,-3.66300773606,-5.93293187604,-1.71974977558,-3.59905635363,-2.69817630594,-5.99644276139,-4.80687975413,-1.88903893069,-8.10502000224,-2.23664277932,-5.80957536767,-6.1905389466,20.9139164388
off_to_on,-3.59897167034,-3.1884246188,-4.14151901216,-1.61443386213,-3.01485690519,-0.747693766735,-5.57903748728,-5.17214521157,-1.60171293871,-7.94542228361,-2.10711919152,-5.47672389979,-5.40736527192,61.6256935291
off_to_on,-0.985436999308,-1.94553800612,-1.37397032036,-1.20708939104,-1.74326982586,1.24301992322,-3.50188612229,-4.01047407425,-1.03138260027,-5.75281097593,-1.5865167921,-3.7226761194,-3.37812622926,86.7561798044
off_to_on,1.78504053348,-0.332314888084,1.69707099937,-0.548456749238,-0.0973998158915,2.87538967343,-0.2396902584,-1.68912930059,-0.305743521844,-2.17503969211,-0.802809621021,-1.11630281792,-0.694865980498,89.2640797139
off_to_on,4.02399237454,1.15225407138,4.30986409457,0.247450765014,1.5122403547,3.8267820059,3.31256407599,1.05663625713,0.424044785914,1.75893388497,0.0688734364144,1.53911757467,1.89825910916,68.2087280324
off_to_on,5.18593377402,2.06351788817,5.81526913155,1.02776626956,2.69119713144,3.90179733247,6.10521949362,3.36652894938,1.02210258328,4.94358457596,0.852295748311,3.45941926275,3.72096421371,28.9831156454
off_to_on,5.01155219799,2.15341197863,5.85200739743,1.63667768604,3.17018651026,3.07086513957,7.26650330645,4.53828331894,1.39804906442,6.52504963307,1.41186072962,4.12495078815,4.35085862086,-18.1859884423
off_to_on,3.59429470569,1.4523503414,4.44536380084,1.95232178541,2.87681136341,1.48975599375,6.3926016909,4.25559945593,1.52044614635,6.15176513468,1.67851820078,3.43852941727,3.73687415904,-61.0286622793
off_to_on,1.35184913076,0.261340551354,2.00031462024,1.91439377902,1.94837364525,-0.509986588881,3.696188349,2.68481363912,1.4116130195,4.06934627098,1.65420092948,1.74485547358,2.19805180539,-88.5254678848
off_to_on,-1.08988912218,-0.946521855352,-0.810131034629,1.53563712569,0.682736394691,-2.46898190582,-0.0411672357027,0.408960532283,1.12852697763,1.02993662925,1.39645180713,-0.29454862249,0.309117733384,-93.7980548141
off_to_on,-3.06875659166,-1.68580985742,-3.23075376597,0.895553765902,-0.55640045204,-3.8883492416,-3.70305380433,-1.77699244352,0.738821199221,-1.95526072542,0.99100786279,-1.92950404077,-1.29041591512,-75.8255512305
off_to_on,-4.06720908004,-1.62864402128,-4.63226130748,0.119707369248,-1.44941904225,-4.34757048953,-6.18651119603,-3.13924033744,0.301428739794,-3.94164623905,0.52303454253,-2.57713611274,-2.1029218891,-39.5583580213
off_to_on,-3.85265041578,-0.727927998553,-4.68335713234,-0.648699975645,-1.81139060554,-3.62656934493,-6.75266140876,-3.25349757921,-0.141772878352,-4.35127851141,0.0566927836177,-2.02090867292,-1.92945448035,5.54968705306
off_to_on,-2.53859994547,0.749774117788,-3.43835456881,-1.27746596888,-1.63589390961,-1.79679821905,-5.26478216968,-2.14458451297,-0.562415512246,-3.15142625625,-0.371555689634,-0.486294267615,-0.926841004116,48.141400356
off_to_on,-0.549521745401,2.29726354434,-1.31563681166,-1.66815037455,-1.08029753426,0.753617310893,-2.23420912418,-0.270587115853,-0.934694268641,-0.854471254958,-0.746266182331,1.43322378126,0.45303028576,77.9492168391
off_to_on,1.50160160234,3.32662393919,1.02701665373,-1.76958736324,-0.399912499959,3.38252501432,1.34326522708,1.64213729167,-1.22466182794,1.66061705941,-1.05839025884,2.97707932681,1.62210819424,88.3652413249
off_to_on,2.9897392714,3.36723721793,2.88503685479,-1.58159205504,0.145311817243,5.3419999545,4.30901119095,2.85626965796,-1.38703852162,3.44735766853,-1.29076062977,3.4806449272,2.06186979175,77.9231983058
off_to_on,3.45959515453,2.23808669735,3.71290360468,-1.15030196607,0.379745270465,5.98160729491,5.7172123367,2.88510238526,-1.37315512369,3.8141257082,-1.41108405293,2.61402103131,1.50873487965,50.354436141
off_to_on,2.76140991172,0.135774335116,3.28419803983,-0.557432607481,0.267363310069,4.95267897325,5.14195542396,1.66885012072,-1.14825337631,2.56426822278,-1.37638976542,0.516495086568,0.0577172367654,13.2862148889
off_to_on,1.10095694896,-2.39575189057,1.75912002599,0.094333424177,-0.0839338179368,2.35037209138,2.81488101397,-0.395185122514,-0.711515810301,0.0741500307769,-1.14802281964,-2.22119236973,-1.85183516922,-23.9815880913
off_to_on,-1.01318598054,-4.61109246626,-0.361549177151,0.697969428509,-0.468847866687,-1.25933656372,-0.452395590959,-2.58038181955,-0.109950785159,-2.81894004696,-0.711831961271,-4.72639393837,-3.56722763114,-52.9576872833
off_to_on,-2.91342950793,-5.78483877866,-2.38474885947,1.15901105564,-0.664955971659,-4.95123901653,-3.53644799867,-4.07514520583,0.561343998108,-5.08571330499,-0.095751394035,-6.11642874344,-4.4312678269,-68.0064233199
off_to_on,-3.96974225166,-5.44231328241,-3.63441941254,1.41072049526,-0.518639273169,-7.67367634325,-5.37351648207,-4.26295238188,1.17539564798,-5.84591438862,0.622685897465,-5.7888910752,-4.0039838771,-67.4386498124
off_to_on,-3.7836071708,-3.52715706249,-3.66136616895,1.4250291064,-0.0070385826429,-8.54484677794,-5.31283857757,-2.94439042943,1.60278052793,-4.67186391663,1.32342273193,-3.63790061452,-2.22609569247,-53.4348008426
off_to_on,-2.32185032072,-0.449755809713,-2.39098402851,1.21671957967,0.745352380273,-7.1287229724,-3.33589735063,-0.425594316665,1.74571957325,-1.75480803175,1.8655401789,-0.124175681791,0.530685766691,-30.9412200012
off_to_on,0.0526938969432,3.00482946803,-0.16201939693,0.839141681948,1.50167798266,-3.60449382717,-0.0691292620925,2.55937499393,1.5659557899,2.12370072929,2.11887993038,3.82964321155,3.5475769333,-5.96881021998
off_to_on,2.66866470021,5.88810994512,2.36001617083,0.371593910448,1.98843462819,1.23159425768,3.4151439388,5.07058090648,1.09707866145,5.81213699427,1.99767151572,7.09334899711,5.95654083468,16.1379404309
off_to_on,4.73241972817,7.35967965532,4.37431037374,-0.09908609073,1.98756858134,6.14666983681,5.9457764912,6.25958726685,0.436919509178,8.13674454477,1.48711488722,8.66078900827,6.99554216301,31.9393089754
off_to_on,5.56273614634,6.93932611836,5.18788366336,-0.49806647913,1.41500897623,9.79379675173,6.63573854043,5.64758265814,-0.277780271853,8.2705673721,0.655247059211,7.96003105395,6.24513459463,40.3314386042
off_to_on,4.80576545985,4.66305950331,4.43860728821,-0.777687917223,0.359642829302,11.0901669565,5.17685068161,3.29444131275,-0.906424998089,6.0084667323,-0.354161431402,5.04663859856,3.77353749235,42.1511352627
off_to_on,2.56362286819,1.09283014071,2.2284322621,-0.923738551853,-0.931070524583,9.54181901532,1.95042490774,-0.197558100717,-1.33840788787,1.85956258406,-1.34738661285,0.617167253627,0.142975985782,39.2181310289
off_to_on,-0.607926356272,-2.82783541944,-0.879312345404,-0.951091093952,-2.11608669108,5.41551435104,-2.08294386081,-3.84997439094,-1.51573791654,-3.07668174811,-2.12033942524,-4.16744225247,-3.72936725481,33.2539931424
off_to_on,-3.83990487459,-6.03409060082,-4.00551152002,-0.890640140389,-2.85781946105,-0.30073742666,-5.68029899079,-6.59558435513,-1.43879110374,-7.41836838378,-2.50353107695,-8.00184044348,-6.8189825076,25.1274180004
off_to_on,-6.19383407851,-7.64210646767,-6.20692023394,-0.772732974047,-2.9225108156,-6.14622728951,-7.70601412857,-7.59969224638,-1.15557451172,-9.90353148886,-2.40221905744,-9.80852520789,-8.28021654118,14.7206042491
off_to_on,-6.93986584992,-7.20537495323,-6.76197829094,-0.613779871698,-2.2536829289,-10.5802094222,-7.49071684697,-6.51684093009,-0.740355218206,-9.76694888149,-1.82199840978,-9.05334132518,-7.68816890613,1.44755177922
off_to_on,-5.78582654062,-4.84861976192,-5.40407640521,-0.411698354093,-0.99600738531,-12.4085066025,-5.04579876268,-3.60363078438,-0.270406936252,-6.97723307091,-0.872810107773,-5.90964215933,-5.16517590304,-14.8216534649
off_to_on,-2.98429000154,-1.23775556723,-2.42703861456,-0.152472001225,0.538675565764,-11.1207187328,-1.06582398353,0.347916033158,0.190962109135,-2.26074400311,0.251116248209,-1.2196995118,-1.3537481321,-32.8636587847
off_to_on,0.721045936743,2.60783072726,1.37659855675,0.174468615364,1.95450140603,-7.0385345896,3.28172872042,4.23737954546,0.600562957757,3.09771585217,1.31231145434,3.73862759638,2.75759190802,-49.6888287121
off_to_on,4.30017296169,5.60762372824,4.93362583134,0.558379434889,2.88066690915,-1.23000458148,6.71313440289,6.97561297314,0.931176654025,7.62048485225,2.08363879483,7.61389686567,6.10618659823,-60.9128273669
off_to_on,6.73558636385,6.93217243734,7.20401116175,0.95503239759,3.07535771525,4.78665135746,8.21984964288,7.80146220449,1.16199010891,10.0617408439,2.40203183123,9.36654962578,7.84694523698,-61.9234522295
off_to_on,7.32611142165,6.24340241558,7.49702697684,1.28712603709,2.49450916294,9.46394891535,7.37314610994,6.50122586349,1.27044427529,9.76596427229,2.20887611433,8.56453703169,7.58040695138,-49.5292365712
off_to_on,5.90187082001,3.79157723046,5.69121364747,1.45993915134,1.30518260675,11.6484626249,4.44865512899,3.46631996511,1.23111378588,6.85424635093,1.56579316605,5.50166019828,5.45267562965,-23.535793882
off_to_on,2.88137584523,0.339246562895,2.28599357388,1.3891146964,-0.16092318744,10.8846053949,0.334551015977,-0.426469364766,1.02347529038,2.18375105861,0.64019134468,1.10359956483,2.10053000993,12.3647047057
off_to_on,-0.850469924922,-3.06632925632,-1.73677478881,1.03222031416,-1.50108844893,7.51390097914,-3.74540101057,-4.07471909994,0.64574743991,-2.90679295948,-0.337240015182,-3.35001989737,-1.5397241916,50.8469248865
off_to_on,-4.20854073667,-5.40546989549,-5.20353867073,0.413069921622,-2.35581163297,2.54682916754,-6.60599508316,-6.47155204092,0.128414710229,-6.98917484941,-1.13288673304,-6.60403778942,-4.50186613301,82.4625244518
off_to_on,-6.23645347308,-5.99043312678,-7.10475465751,-0.371068209405,-2.5108586134,-2.64792452214,-7.45556646392,-6.99274699248,-0.459848587692,-8.95860498523,-1.5723445822,-7.79312632202,-6.05843205123,98.0986430954
off_to_on,-6.39560608551,-4.67082250267,-6.90506243426,-1.16441286596,-1.95740689205,-6.7394159754,-6.12360467781,-5.56609265531,-1.01887021674,-8.34552949898,-1.58662627202,-6.68503330758,-5.91122208745,91.7135034773
off_to_on,-4.72301898722,-1.87797061106,-4.70919568341,-1.78772962091,-0.892362758019,-8.79663258047,-3.09427864293,-2.67588162165,-1.43667309931,-5.43582207782,-1.22833188618,-3.73028931187,-4.25132944724,62.5049259439
off_to_on,-1.80796662801,1.5058962657,-1.22889393944,-2.08454217454,0.341814324544,-8.51324388815,0.659648252593,0.794699188913,-1.61734204369,-1.16699487324,-0.651938178053,0.093637546798,-1.67615971833,15.7598446258
off_to_on,1.40453381748,4.41528980807,2.44110896587,-1.96515688153,1.36062744845,-6.23746000857,3.98655281613,3.83261425013,-1.50850647582,3.16473203962,-0.0631222583748,3.5929746795,1.00665069592,-38.0184199898
off_to_on,3.91931041531,5.92593028633,5.1683972168,-1.43498596233,1.8540794664,-2.81129160781,5.91067149577,5.59314425369,-1.1191686487,6.29580512428,0.347956844928,5.72559137426,3.02617494832,-85.5989722474
off_to_on,5.00630049453,5.53831749558,6.13982420888,-0.597900933667,1.68142299736,0.719086854623,5.92197189806,5.63855342779,-0.521306408908,7.36666516453,0.468584910884,5.91260876171,3.87096912302,-114.507498475
off_to_on,4.42338333897,3.33427230396,5.11553691624,0.367274968727,0.91510567289,3.42489568606,4.1143526021,4.04892819372,0.16611854202,6.16283279004,0.300282886797,4.199261251,3.42272379509,-116.532213913
off_to_on,2.47574081562,-0.0418954359238,2.49799703327,1.25089831291,-0.180427397709,4.74819756897,1.13449522089,1.37692096703,0.806286706483,3.15689713618,-0.0426428431962,1.21896273302,1.96505849009,-90.2104035258
off_to_on,-0.104699207154,-3.57318421795,-0.806343562698,1.86479675618,-1.22995569438,4.61572782187,-2.0369492972,-1.53460770127,1.27798944053,-0.656116258194,-0.373815008105,-2.02343549248,0.0706700131964,-41.5088199578
off_to_on,-2.41635607908,-6.17442726788,-3.68748482831,2.0879412034,-1.86510123281,3.3909495319,-4.39923837774,-3.81300213948,1.50338065913,-4.07515516017,-0.502598577981,-4.47719948056,-1.59339335354,17.5779210224
off_to_on,-3.69337190434,-7.02018503223,-5.19610764969,1.8930057985,-1.84282575658,1.69533574048,-5.24089186505,-4.81418496615,1.46216455712,-6.06204587962,-0.306944774032,-5.37571187644,-2.47940364926,72.170520769
off_to_on,-3.5562484206,-5.79704160891,-4.85235746614,1.34736293467,-1.12791929429,0.169402819482,-4.34950217758,-4.30254321217,1.18918709748,-6.05025824063,0.213813185775,-4.46769793578,-2.32547025892,108.517851539
off_to_on,-2.12494298772,-2.80377069221,-2.79836694553,0.589800560451,0.0874359117856,-0.742226251365,-2.06071228002,-2.50225863996,0.757995488981,-4.10202717184,0.925928964757,-2.08017477684,-1.22586416324,117.729801293
off_to_on,0.0403027175069,1.13138874094,0.25456448168,-0.208839120188,1.43527471627,-0.912481346236,0.863380978174,-0.0103489673789,0.257252237979,-0.870717165426,1.5952579124,1.00148814912,0.412540209452,98.1486191392
off_to_on,2.14589109139,4.89186882229,3.26536086686,-0.888947255298,2.48098235582,-0.528088741261,3.4832890574,2.39670887026,-0.231567309671,2.61446846624,1.95991606894,3.79293482431,2.00987305881,55.6756043896
off_to_on,3.44511907864,7.39999984789,5.2090043904,-1.33725209383,2.85787857512,0.0263235950532,4.97776843753,4.00061759655,-0.64840073922,5.27099071316,1.81942766279,5.42355383362,3.00241248111,1.97775446427
off_to_on,3.49381870245,7.93219781267,5.41425824605,-1.50532632021,2.3861210619,0.345142990038,4.89359047364,4.35068833318,-0.957939701873,6.29190274801,1.1111917482,5.40262783629,3.02139561973,-48.8718219454
off_to_on,2.29417906403,6.32808552754,3.7825165777,-1.40893080764,1.13828410469,0.170858628913,3.27434049148,3.38445561777,-1.14391742567,5.38168251255,-0.0524194596096,3.75737929598,2.00705727215,-84.3106851543
off_to_on,0.280268453623,3.03218685926,0.817439199894,-1.11154371736,-0.57065385119,-0.506139527797,0.632983595282,1.42830211746,-1.19959189333,2.83096617605,-1.40140266585,1.005131489,0.225215524792,-96.6106398659
off_to_on,-1.84516551672,-1.04210497452,-2.54181322097,-0.699515835584,-2.26835114904,-1.44985822857,-2.21784467459,-0.915848715525,-1.12056179029,-0.586700113874,-2.57773287438,-2.02415972684,-1.81551913189,-84.6697678078
off_to_on,-3.36152785676,-4.78294441459,-5.22638633302,-0.257475477271,-3.46128166209,-2.27709378218,-4.4208102031,-2.95831157318,-0.904169559331,-3.85858838276,-3.23776543201,-4.45228538303,-3.51783002699,-53.8270824138
off_to_on,-3.77880103311,-7.20179387513,-6.38080484949,0.149107985159,-3.78166542222,-2.61112137999,-5.33325900927,-4.12471644232,-0.555993821071,-6.03862539662,-3.15640542136,-5.61719170314,-4.37279390719,-13.8661096299
off_to_on,-2.99691921662,-7.70977215291,-5.63160707613,0.480917896187,-3.10047871252,-2.23128857184,-4.71209891312,-4.11431834164,-0.0999706410317,-6.52158869692,-2.30027377237,-5.25547470518,-4.10692662315,24.0899381586
off_to_on,-1.32334756652,-6.26794648391,-3.19689983094,0.722090720069,-1.57142861176,-1.16273429816,-2.77135201624,-2.97049033663,0.413756730396,-5.20565038915,-0.846018360695,-3.5519836138,-2.75737067375,50.7942205435
off_to_on,0.65214844427,-3.37134464264,0.193727050858,0.871586703704,0.408554048822,0.325823564964,-0.100657451675,-1.04896223037,0.908975209959,-2.50057648123,0.863212797696,-1.05101119166,-0.656469488028,61.2371518478
off_to_on,2.27583286822,0.121835843232,3.53714522608,0.933532189379,2.31129413597,1.8136680268,2.52419456965,1.0998440944,1.29441288799,0.812780978418,2.41073831267,1.53225662278,1.66575947141,55.5174089444
off_to_on,3.06014549013,3.25770346434,5.87104629022,0.910635288971,3.62852813797,2.87378510843,4.37639946058,2.89446252743,1.48411558616,3.82208486065,3.42081363758,3.53289084116,3.62961643782,38.1000331752
off_to_on,2.84289836429,5.26556278683,6.56223851,0.802678764522,4.0168695022,3.21849550331,4.98607526984,3.88220590692,1.42147329742,5.74617667249,3.660090536,4.51842894844,4.76011647196,15.8555330544
off_to_on,1.82122703602,5.76324825212,5.47973800364,0.609692947096,3.39321392944,2.7921549232,4.26040916192,3.85090055381,1.09889230594,6.14294116249,3.09606766585,4.37997947891,4.80490074324,-4.37256682785
off_to_on,0.453421957339,4.83076319347,3.00515854739,0.33762926203,1.95266471274,1.77873254047,2.48554486519,2.86613289421,0.565759007209,5.00623961508,1.89655879617,3.31486372388,3.78614777702,-17.8407899226
off_to_on,-0.729577734184,2.93810922327,-0.112395578759,0.00370529349492,0.10504574699,0.524136773429,0.217407163006,1.23123151557,-0.0791769781612,2.73279626387,0.372984063939,1.72063224812,1.97765506658,-22.9862250577
off_to_on,-1.32922012124,0.75981970118,-3.00082983578,-0.360938992985,-1.64903430036,-0.59536087804,-1.89822110382,-0.611038805678,-0.709769347733,-0.0202347979769,-1.11245717203,0.0469673909571,-0.180393782237,-21.2762452034
off_to_on,-1.22317251408,-1.05707480114,-4.92557520062,-0.712476505037,-2.863666971,-1.30794228684,-3.31745740873,-2.20239900808,-1.20269079571,-2.53605511646,-2.24558812847,-1.34012390231,-2.20069062716,-16.0342507043
off_to_on,-0.595328161869,-2.09370623908,-5.48464193766,-0.999454536452,-3.27035352883,-1.53350159086,-3.74376638923,-3.18324842745,-1.46695564566,-4.23421903207,-2.83505095834,-2.2392938145,-3.66759237627,-10.7867830604
off_to_on,0.15629808961,-2.26531501401,-4.68497769293,-1.17068819214,-2.84215352401,-1.3914843498,-3.18754161364,-3.36933416908,-1.46403991136,-4.80670095698,-2.84304049406,-2.62296059083,-4.32503063034,-7.79750238333
off_to_on,0.595333028429,-1.80388722446,-2.88991167027,-1.18455389457,-1.78292589745,-1.12831076689,-1.92964931003,-2.77707631878,-1.2130989259,-4.26265252215,-2.36779312133,-2.58598925298,-4.11516759667,-7.32559336509
off_to_on,0.436402271507,-1.13165992252,-0.669540440159,-1.01817333828,-0.449150613727,-0.994624559673,-0.408959864568,-1.59897867814,-0.780772472288,-2.88103116614,-1.58976258524,-2.26609036904,-3.16497220604,-7.82986415187
off_to_on,-0.3267478124,-0.676052409896,1.38704023227,-0.675003954584,0.767697743925,-1.12247070259,0.924619956733,-0.142479654288,-0.260005370955,-1.0974245776,-0.704204491929,-1.77391841837,-1.73203714119,-6.95978586987
off_to_on,-1.40550013441,-0.694651954559,2.83437170792,-0.189311730027,1.55954163102,-1.45336457193,1.74339494337,1.24844429205,0.254567566794,0.632933425457,0.135098573768,-1.16097968354,-0.129846039691,-2.87383286194
off_to_on,-2.3210113007,-1.17309498756,3.4621603094,0.374045920525,1.784260704,-1.74940835337,1.92216356283,2.26979638788,0.686852937869,1.95324393523,0.843195010324,-0.433164099462,1.34543812539,4.68722529694
off_to_on,-2.59098974019,-1.83156067279,3.30020359941,0.925882108345,1.48944994451,-1.68777367206,1.54675012939,2.71758928038,0.989836730058,2.67410507063,1.39750357026,0.403974532108,2.46918252086,14.0322997968
off_to_on,-1.92827908758,-2.23671469361,2.55255852134,1.36553692706,0.874599192319,-1.00562731231,0.856412295106,2.52295918081,1.14529342973,2.78303487171,1.8063487858,1.29610163918,3.11464029215,22.0278968722
off_to_on,-0.375108275617,-1.97863129458,1.49769729184,1.59935438924,0.208782172434,0.359610477356,0.145930792348,1.7595172141,1.15567209799,2.40406091948,2.07066912681,2.11595263959,3.2520298661,25.2982356031
off_to_on,1.6804372648,-0.849059010593,0.395685399779,1.56180996185,-0.265973371861,2.1921530867,-0.336939591753,0.624038518161,1.03367000394,1.73022919634,2.15868252359,2.68082572416,2.92819838611,21.6500185395
off_to_on,3.61632041651,1.04394055493,-0.568153908309,1.23449036316,-0.413040837252,4.02012110559,-0.465577773011,-0.605789512203,0.794987628545,0.955443790468,2.0067632344,2.8087394057,2.23808501299,11.1493297957
off_to_on,4.78022982207,3.26913587782,-1.29431901147,0.657303599655,-0.23706242817,5.24164411886,-0.26001923153,-1.63049728078,0.457382212226,0.226337320622,1.54783305199,2.391622482,1.29836953307,-3.60666498986
off_to_on,4.71425299757,5.18125521766,-1.74648066967,-0.0728358321573,0.131148126987,5.31980042716,0.138304288629,-2.19587399903,0.0455163843351,-0.376486497052,0.755958802547,1.4542602509,0.229771070761,-18.1858724351
off_to_on,3.32115084075,6.11516224334,-1.91825624335,-0.817871313689,0.491735867852,3.9830686197,0.5282867076,-2.15563719149,-0.402166247231,-0.830510189258,-0.312426178245,0.171334274338,-0.850676858368,-27.7817265373
off_to_on,0.912873940398,5.6046802005,-1.81172454218,-1.42699471212,0.652822778591,1.36042304896,0.723172957008,-1.51508355277,-0.829788061521,-1.14765129725,-1.50084110814,-1.16947632025,-1.8304792428,-28.9325236502
off_to_on,-1.8767512558,3.55552328432,-1.43860463433,-1.77136617921,0.500322552584,-2.00276199507,0.611987574872,-0.441698197386,-1.16788066047,-1.34831444054,-2.57121729512,-2.2489411665,-2.60112286721,-20.8709561103
off_to_on,-4.2857705755,0.314271644297,-0.839441221524,-1.77614229317,0.037799523625,-5.26491915946,0.190864316297,0.766045957111,-1.34591875351,-1.44350060276,-3.2580144225,-2.81436810605,-3.06138424747,-5.98120188334
off_to_on,-5.65837085618,-3.39353345082,-0.104196001253,-1.44053550866,-0.614918080754,-7.5165277026,-0.441293596018,1.75047493556,-1.31079775739,-1.42923479245,-3.3436620434,-2.75849134486,-3.1274498692,10.8559198508
off_to_on,-5.64107558836,-6.6431276669,0.624884173794,-0.839382475045,-1.26144175873,-8.05026857242,-1.11659803462,2.19319504774,-1.04533775502,-1.29158889126,-2.73152870415,-2.14945860784,-2.74934615785,23.8536105839
off_to_on,-4.27743700185,-8.55872929476,1.17913913218,-0.104857632529,-1.69185374874,-6.58910232442,-1.64745653179,1.9149874237,-0.579865480489,-1.01712149471,-1.49119379296,-1.20032836528,-1.9298247665,28.3220050042
off_to_on,-1.974635869,-8.55934212197,1.4141718421,0.607018183926,-1.74791724675,-3.39737539143,-1.87561173435,0.946339725427,0.0084157673568,-0.603411054437,0.141763800713,-0.189583106747,-0.7396506508,22.3872322027
off_to_on,0.639926245777,-6.53100886646,1.26671223571,1.15556361686,-1.37046971153,0.765924579771,-1.70874501477,-0.458282040861,0.609713717421,-0.0665880400086,1.81526249719,0.636878696745,0.677161614364,7.80031520213
off_to_on,2.91770905263,-2.87514878177,0.791891355701,1.44885295697,-0.616293289681,4.84413858856,-1.13884324202,-1.87541863606,1.10638207174,0.554551417007,3.1474375884,1.14463526337,2.11308205469,-10.4952846656
off_to_on,4.37425762265,1.58205120498,0.159639418987,1.4616801759,0.357889151947,7.77498120986,-0.242690396441,-2.82896291809,1.40115079805,1.19694147676,3.82614357919,1.34057054871,3.32353387589,-25.9452840935
off_to_on,4.80133532894,5.79498053784,-0.395902387949,1.23343533764,1.3369218394,8.79141353789,0.831533894655,-2.93829471679,1.44048268897,1.77396465976,3.69211227946,1.34343646595,4.06775450081,-32.6160973019
off_to_on,4.27742398575,8.76278357938,-0.660075079146,0.847897551618,2.1007326264,7.64073709499,1.88712992626,-2.05375173427,1.22614872827,2.18031745522,2.78123472067,1.30905235417,4.15753728821,-27.328838906
off_to_on,3.08670568467,9.78118156412,-0.524272424541,0.402864531352,2.47514215319,4.65540520692,2.70845510553,-0.333184983988,0.811938757503,2.3043715617,1.31377866828,1.34289373108,3.50407820765,-10.9501408766
off_to_on,1.58843326471,8.61562177504,-0.0399874055412,-0.0193959944922,2.36837632886,0.654139629056,3.09606264181,1.7728755135,0.287222193497,2.05061177819,-0.365639346514,1.43865392744,2.15169911213,11.6471763487
off_to_on,0.091984032614,5.55232957581,0.585762353376,-0.370807955549,1.78726376104,-3.29624310115,2.90598005939,3.63331287422,-0.246882356157,1.37095807802,-1.87903915899,1.47142578654,0.288241484696,33.0057669083
off_to_on,-1.21610186173,1.31762398393,1.05852638884,-0.639782484117,0.832810010161,-6.18575299592,2.08889639663,4.61985518562,-0.701092718744,0.298007725991,-2.91034257971,1.25193746489,-1.7743554743,45.4719238114
off_to_on,-2.27331585106,-3.10924761997,1.10759079961,-0.838218158773,-0.321064237121,-7.34111183126,0.720828138074,4.30933900364,-1.01452933276,-1.03198681375,-3.278332196,0.622322874456,-3.64975228548,43.7904890237
off_to_on,-3.08335072329,-6.73802020248,0.600363266182,-0.980310685586,-1.45998863305,-6.59825974955,-0.986265801625,2.64060029016,-1.16062088468,-2.38017804999,-2.96883138457,-0.445426675224,-4.9503854457,27.0459859073
off_to_on,-3.63703595051,-8.80089820383,-0.38503983923,-1.06345871223,-2.3671044316,-4.31983797089,-2.70475029453,-0.0295060926292,-1.1428185175,-3.43980199032,-2.12076501806,-1.7917490673,-5.37048757928,-0.727913079992
off_to_on,-3.85732166753,-8.92017483707,-1.56172646885,-1.06059204887,-2.86142131701,-1.25855771494,-4.04728230577,-2.99837746186,-0.98407063119,-3.90411960563,-0.974475974907,-3.08310932009,-4.76078950718,-31.5355599324
off_to_on,-3.60080584293,-7.17277134264,-2.51705956477,-0.928431032465,-2.83179046575,1.68578178377,-4.65269961247,-5.40598157738,-0.715582958713,-3.55428846306,0.199335209069,-3.90133097901,-3.17616097693,-55.755132057
off_to_on,-2.72085024153,-4.04289314889,-2.85266220711,-0.629313425088,-2.26147153077,3.73735458306,-4.28395500838,-6.48814500521,-0.369577877608,-2.34251081215,1.16818923009,-3.88314840688,-0.881639169619,-65.1273548752
off_to_on,-1.1668760117,-0.282570059726,-2.33365212922,-0.157971025772,-1.23802763032,4.46006491387,-2.91122379873,-5.81882294297,0.0219307094004,-0.441180361545,1.78553233077,-2.86220454163,1.68913226041,-55.4659178798
off_to_on,0.926041869935,3.27884802409,-0.992346055894,0.438460135165,0.0559053790966,3.85561964419,-0.751780074279,-3.46368264761,0.423675490798,1.76586444025,2.00777339429,-0.960177793071,4.01779254347,-28.2154446187
off_to_on,3.20456047176,5.92604821296,0.855116481796,1.05744201573,1.37268145271,2.32106678188,1.75355479451,0.00903798150077,0.792842216131,3.75855636063,1.88130827673,1.41201111965,5.61105515127,9.67996816526
off_to_on,5.1495611922,7.20416151265,2.69130042992,1.55956154202,2.44751742245,0.487814308958,4.03074503077,3.67181448573,1.07841671273,5.00959676523,1.50895426059,3.6521630163,6.11196202731,47.6195807644
off_to_on,6.20903317643,6.98999945657,3.95578406293,1.80507287789,3.05554093972,-1.00003548396,5.51211517496,6.49810841329,1.22707523745,5.13423667369,1.00974006068,5.13814495023,5.38583719834,74.3889351181
off_to_on,5.97275054979,5.4796372619,4.22744535747,1.69759142275,3.06485706342,-1.69433887843,5.78948218934,7.66363980608,1.19541450106,4.01603604241,0.485414316988,5.41919142391,3.55870522905,81.5071034284
off_to_on,4.32878474769,3.10553246178,3.36827914384,1.22023646825,2.47117035871,-1.47305366871,4.73649417675,6.79673243165,0.964984812732,1.86589238772,0.00228499054985,4.36387965159,0.996627186668,65.8682196877
off_to_on,1.5422188046,0.41231231446,1.57791325727,0.450846601481,1.40271023939,-0.554904642661,2.56078663998,4.09884519579,0.55447104185,-0.811398420604,-0.409720666956,2.21360859702,-1.77125951452,30.8612842495
off_to_on,-1.78047554326,-2.073070571,-0.661832371991,-0.45082529196,0.0916785902971,0.599566084121,-0.235078061011,0.295119061915,0.023445536935,-3.34124302047,-0.745035011697,-0.479179500547,-4.16894868881,-14.4025232792
off_to_on,-4.83970503873,-3.94473880917,-2.7349128355,-1.28185177742,-1.18182025793,1.46240363173,-2.97813840174,-3.57273354086,-0.535485625375,-5.06261757274,-1.00532586802,-3.01044890402,-5.70167845942,-57.5636398279
off_to_on,-6.86223453239,-4.97454086105,-4.0818640341,-1.84984305744,-2.15857228502,1.62757856698,-5.0023925118,-6.449335905,-1.01541818663,-5.51770402663,-1.18537056949,-4.73120259664,-6.06521922697,-86.4884800399
off_to_on,-7.32378956956,-5.11741510322,-4.36907863066,-2.0252774655,-2.66229066705,0.952725677465,-5.82835311564,-7.57203544339,-1.32007261929,-4.58923444718,-1.26739333505,-5.23494593225,-5.21019245976,-92.7409969702
off_to_on,-6.10318802393,-4.47575075347,-3.58042742752,-1.77618323573,-2.63692491808,-0.391279352773,-5.29157185689,-6.68717566453,-1.38768944388,-2.54048641492,-1.22521303353,-4.4664148544,-3.34667685814,-74.0420013241
off_to_on,-3.51778547033,-3.2426166036,-2.00318701844,-1.17452346265,-2.14888095398,-1.97618761067,-3.58132720573,-4.11115525073,-1.20661173001,0.0579648870296,-1.03562829387,-2.71900582066,-0.8894809904,-34.9983276043
off_to_on,-0.228947065167,-1.64569991153,-0.117771676477,-0.372855430161,-1.35513673156,-3.25690129736,-1.17797078464,-0.620284474948,-0.817743733042,2.4948536469,-0.692064643243,-0.525984836902,1.64082674132,14.1147621106
off_to_on,2.95099465124,0.0916880799623,1.56605948275,0.440570282886,-0.449405578589,-3.74983731911,1.29108195691,2.7928117916,-0.303236051542,4.12770879017,-0.215174694067,1.51443698074,3.73570249237,60.1725054931
off_to_on,5.28734674071,1.76656277869,2.66709853514,1.09348238695,0.394569614729,-3.19203665456,3.23143837402,5.21758379657,0.234890097808,4.56986685483,0.343456509786,2.91984737134,5.00647510046,90.817693608
off_to_on,6.31492689461,3.19438664279,3.03072160769,1.47183926066,1.0634607648,-1.6317735372,4.24203893624,6.08511273299,0.699456886188,3.79605684851,0.905927933639,3.45112298478,5.25777966113,97.8510862974
off_to_on,5.93642873144,4.20235379773,2.73812737404,1.5406118843,1.51638133578,0.575986507516,4.20760287367,5.31060132838,1.01883612562,2.13366749368,1.37997499921,3.14918946684,4.51238371652,79.4458152044
off_to_on,4.40464936901,4.6322872064,2.03250073202,1.33908437203,1.76778719026,2.86628652893,3.29858537941,3.28063724329,1.15819902401,0.144133186889,1.6755762556,2.27716799274,2.98632531668,40.5819861996
off_to_on,2.20587877433,4.36215203881,1.19865104131,0.955537779127,1.8520989089,4.62270220124,1.88510786934,0.698052653103,1.11947975257,-1.56502560834,1.72280088078,1.19717747202,1.02544872496,-8.39099896433
off_to_on,-0.106999434542,3.34488949977,0.447957855504,0.492673515759,1.78800284785,5.35034832364,0.399295971094,-1.65797439182,0.932156341557,-2.53440291353,1.48754601603,0.231881359938,-0.977566955694,-54.6298298915
off_to_on,-2.07131220939,1.65214612342,-0.14531306955,0.0369966962068,1.56009856183,4.81372074901,-0.804288842586,-3.17485439147,0.639735121216,-2.58882593648,0.982305177924,-0.437665725555,-2.66447969734,-86.2839118738
off_to_on,-3.4116175609,-0.496854456035,-0.634282969715,-0.357800596309,1.12776145993,3.10181655562,-1.5429716967,-3.5747140518,0.287497308917,-1.87172527386,0.269740643391,-0.803895602113,-3.77350976655,-95.6182048628
off_to_on,-4.05504720943,-2.74102180107,-1.12658464179,-0.670128589724,0.458696812933,0.604966282543,-1.82690128673,-2.95928716352,-0.0844726714285,-0.769556284027,-0.542446469645,-0.989640235386,-4.17221216243,-80.9275308645
off_to_on,-4.07634623902,-4.62896716568,-1.68597962738,-0.896566065462,-0.42739701099,-2.08727031743,-1.80674666455,-1.72711097997,-0.441938813397,0.243921839263,-1.31587131375,-1.15492271371,-3.86017242216,-46.761321736
off_to_on,-3.60956042455,-5.71288945644,-2.25734571827,-1.03396806308,-1.42628572845,-4.33713018434,-1.67536515716,-0.401582768705,-0.752920626497,0.786377349385,-1.90410864482,-1.39701709398,-2.94788009641,-2.46412709629
off_to_on,-2.77163516527,-5.66476269441,-2.6542426198,-1.06777324115,-2.34704648925,-5.61746800621,-1.56656011592,0.564111143424,-0.983863719655,0.704406802914,-2.18074142145,-1.68796930708,-1.62212061397,40.4961979954
off_to_on,-1.63190250768,-4.38258189445,-2.62134723518,-0.973071021378,-2.94908701174,-5.63780333052,-1.4930637434,0.93594425121,-1.0995430573,0.121138716395,-2.06785895545,-1.87696035194,-0.108292143527,71.6258124133
off_to_on,-0.236175874885,-2.05152055861,-1.95063809494,-0.728511321491,-3.01163715948,-4.40797421266,-1.34860862107,0.753545762681,-1.06870374067,-0.621982922853,-1.55855296581,-1.75734341162,1.36296616548,84.0615072489
off_to_on,1.3338644059,0.866397204261,-0.603986483975,-0.336573075559,-2.41435769321,-2.2272335628,-0.972122058742,0.278522333223,-0.874409410239,-1.10683109743,-0.726852521978,-1.17079940007,2.58181013996,76.0894431166
off_to_on,2.90396711253,3.72162496502,1.2129975362,0.160110527422,-1.19983797261,0.394501437861,-0.246056403428,-0.136416453232,-0.525276170092,-1.01092343422,0.279625116541,-0.104571698343,3.37863557295,51.186882911
off_to_on,4.1923491512,5.82913470822,3.06620103162,0.676010991737,0.408565623103,2.86101289895,0.814217033264,-0.203533601032,-0.0624562766853,-0.246223369184,1.26529122912,1.26133894481,3.63944757202,16.682869863
off_to_on,4.85820423487,6.64558460138,4.40492614306,1.09814464476,2.0469019627,4.62862947065,2.02111545287,0.178916828935,0.441945378853,0.988306587012,2.02659135268,2.58199604212,3.31903135893,-18.4841236755
off_to_on,4.60654615054,5.9225107646,4.7395064007,1.3167864178,3.30253160445,5.32739065629,3.04828233268,0.885163796527,0.896590341548,2.2625558403,2.39791543327,3.44674825902,2.45141145317,-46.2134775098
off_to_on,3.31383075138,3.78932813059,3.82418413451,1.26159771946,3.83226912235,4.83845230187,3.53097473662,1.61301616908,1.21064487864,3.0627467635,2.29213721398,3.51797700458,1.15434143771,-61.1946896846
off_to_on,1.12309701529,0.737434336498,1.7766321737,0.929826634837,3.46961422487,3.31274329807,3.2000456181,2.00581778241,1.31620517905,2.98019037117,1.72471697473,2.66033225779,-0.376979910518,-61.8693588347
off_to_on,-1.53801795439,-2.49572621558,-0.916911680188,0.394870682157,2.28466666781,1.12917691625,2.00012085096,1.79774991977,1.18659960532,1.87464766069,0.813833731297,1.01203119725,-1.89103312306,-50.2449542471
off_to_on,-4.03841499452,-5.11427954393,-3.52376747678,-0.210092046924,0.573990627127,-1.19654142165,0.144686317106,0.92736006162,0.844655456606,-0.0474788368696,-0.244891804396,-1.03167393213,-3.11680945081,-30.7611098992
off_to_on,-5.7096332642,-6.47259155991,-5.2815798651,-0.729744042862,-1.21987054503,-3.13156367923,-1.9189493803,-0.423136367857,0.358037969251,-2.27192425793,-1.2235488885,-2.92275999574,-3.81237967053,-8.67613648011
off_to_on,-6.04843743469,-6.24657602054,-5.64089962962,-1.03373646245,-2.63588262181,-4.24756757045,-3.63031304095,-1.87751556635,-0.177140404609,-4.12451625999,-1.915682478,-4.12155310272,-3.81633535104,11.4623521208
off_to_on,-4.88856386854,-4.51881880377,-4.45160122615,-1.05729602033,-3.32913077749,-4.31774593147,-4.48599991854,-2.9865819324,-0.659539915447,-4.98280726666,-2.1846693698,-4.26325429842,-3.09007487904,26.7940719284
off_to_on,-2.47916111553,-1.7531129752,-2.02683890137,-0.820950850207,-3.16933015657,-3.36744785579,-4.20352371871,-3.37780539363,-1.00573969553,-4.48298043038,-1.99407262397,-3.27537639818,-1.73886892139,36.3451746838
off_to_on,0.564327598654,1.33405592717,0.941881114241,-0.421967960871,-2.27142639368,-1.66638244057,-2.82223322302,-2.88145749946,-1.16677946714,-2.65339276784,-1.41231109768,-1.40715869811,-0.00322235116653,40.5264051482
off_to_on,3.42871691911,3.9678215651,3.59445955089,-2.77329032105e-05,-0.948974277532,0.337127688369,-0.704298540874,-1.59041823146,-1.13410523556,0.0712492360039,-0.591156847593,0.839278507219,1.78136856281,40.257905132
off_to_on,5.34125204029,5.51940675584,5.16942485123,0.311058136336,0.393126702115,2.12609675651,1.5680078846,0.165304334042,-0.934638459479,2.96307816269,0.275248128102,2.85440644026,3.25018902657,36.1611308695
off_to_on,5.80170683385,5.66355520625,5.24060846384,0.428608814723,1.3897134645,3.24415589059,3.36716338243,1.91884117011,-0.618181602905,5.20878956218,0.999142358474,4.09754354221,4.0873164093,28.1956225343
off_to_on,4.73245078257,4.44715317544,3.84491630173,0.347277196404,1.82596689417,3.41309807839,4.21082719014,3.20652042801,-0.242400766804,6.14878392723,1.44251305385,4.24940172471,4.09820490602,15.9061940531
off_to_on,2.49663335965,2.25450312455,1.45963027856,0.136952636161,1.69122383802,2.60846443829,3.90561242012,3.70142527761,0.139448901522,5.47455701257,1.54433480233,3.29566555842,3.25907196912,-0.834356088062
off_to_on,-0.221639175342,-0.314975883028,-1.1612266714,-0.0866467857023,1.1602247704,1.07148057874,2.59767883582,3.29916418386,0.484871078183,3.32428049811,1.32621242149,1.51963585888,1.7297902025,-20.9426586486
do_nothing,-2.63509810429,-2.61683531542,-3.23446118392,-0.2077737604,0.511810501514,-0.749389620475,0.715265291854,2.13302203932,0.762330991619,0.248172323909,0.877323040245,-0.589052497141,-0.174854501168,-41.5625412812
do_nothing,-4.0966208616,-4.12896185081,-4.19497200874,-0.155952339167,0.0168626438376,-2.31582839111,-1.17529836172,0.520173716612,0.947781194368,-2.94496321113,0.324999031047,-2.47773530374,-2.05076287964,-58.2026203568
do_nothing,-4.28824069137,-4.5707067314,-3.86073789232,0.0659115755017,-0.162704488506,-3.1477179019,-2.55012324102,-1.13775179966,1.02129517162,-5.41338568352,-0.199700767712,-3.6810783816,-3.49299560354,-65.7053980593
do_nothing,-3.29613509407,-3.94630809558,-2.4640774278,0.380989417432,-0.0273347657407,-2.9629438976,-3.08421932444,-2.46493964362,0.96705276418,-6.51359623245,-0.592115463956,-3.93549257055,-4.18700678983,-59.8474353504
do_nothing,-1.55202754373,-2.50959522854,-0.545188236885,0.665832631199,0.272525365414,-1.76923377748,-2.73377763636,-3.19912638691,0.777822605463,-5.97105940259,-0.793119432237,-3.22953667808,-3.98114441335,-39.0743593788
do_nothing,0.332757376405,-0.669695351255,1.24872235582,0.795609919258,0.507875462863,0.121343153363,-1.72163196333,-3.23580895414,0.462381532981,-3.94463753841,-0.794623233721,-1.7839634859,-2.92280576373,-5.73177580715
do_nothing,1.77907735446,1.12841289061,2.38492878539,0.690845090939,0.473045938887,2.16492239808,-0.437488268535,-2.62537291581,0.0522068723043,-0.971393390493,-0.632759924404,0.0241673000689,-1.24897391199,33.7663083499
do_nothing,2.42346128316,2.51256885883,2.6101231341,0.348720955371,0.0781990414807,3.73092863093,0.706822197164,-1.5350711888,-0.396758638454,2.18718208985,-0.372804853671,1.7655397487,0.667302089072,70.0917562103
do_nothing,2.21292564291,3.25447595539,2.00558139004,-0.152331245788,-0.603651965347,4.28303990847,1.413716896,-0.19587671126,-0.810111131386,4.75038142299,-0.0908260607314,3.06018987577,2.40223146498,93.3086630143
do_nothing,1.38507124265,3.29207084197,0.921097327471,-0.676364104102,-1.35403401521,3.54599172965,1.58108988025,1.14690973969,-1.1088041031,6.11696318442,0.143571913328,3.65278489486,3.57830031727,95.738009433
do_nothing,0.349302755652,2.70850735873,-0.179923315511,-1.0734676083,-1.88550438018,1.60831621129,1.30469008809,2.26865965118,-1.22765838339,6.00554275471,0.280559959337,3.44987964651,3.94988156665,74.5211285375
do_nothing,-0.48085959521,1.68442442162,-0.901783212148,-1.22778795093,-1.94957452202,-1.07406706001,0.808405489512,2.98587594381,-1.1331639769,4.50479918592,0.298161767264,2.51987508108,3.45704839389,33.021853037
do_nothing,-0.840026880887,0.443586891447,-1.05594368957,-1.09347169987,-1.43617716648,-3.78210563329,0.335522159145,3.16941201239,-0.834745310411,2.02816507829,0.204843793309,1.06480517181,2.23502149894,-19.5040383668
do_nothing,-0.693134255099,-0.792224739196,-0.709779691573,-0.706762968125,-0.42719815268,-5.72333077976,0.0465613780568,2.75880581015,-0.385349173027,-0.807171058026,0.0367755940763,-0.624287738135,0.577663528036,-70.0384506789
do_nothing,-0.222208863139,-1.83192844334,-0.132391338493,-0.17128142356,0.817214756532,-6.25775519306,-0.0361429295395,1.78072495405,0.129518426447,-3.34002592106,-0.149974089159,-2.21873777059,-1.13521620506,-105.226991573
do_nothing,0.27052258631,-2.52918088426,0.335319318311,0.377007576967,1.93676989073,-5.09632108145,-0.0176916300812,0.36597135575,0.611482202771,-5.02130651076,-0.291738247717,-3.40472161712,-2.52820192438,-115.149914314
do_nothing,0.500489673868,-2.78872676571,0.43157790518,0.811944560852,2.58753832707,-2.41172943676,-0.0618580410739,-1.24730843576,0.97208686325,-5.5298594233,-0.332652000112,-3.93386298811,-3.3157822025,-96.3138386528
do_nothing,0.323446289196,-2.57202759657,0.0852335571225,1.05171856242,2.55679887894,1.17694054702,-0.296100863914,-2.73728137111,1.1521519361,-4.82557877132,-0.240475010408,-3.66878268376,-3.36247717952,-52.9165568501
do_nothing,-0.204826310957,-1.90476619374,-0.555129418758,1.07497052797,1.83639005357,4.74986011469,-0.732638737863,-3.75500854159,1.13245036071,-3.13468034883,-0.0189545942036,-2.61758399235,-2.70421288502,4.07580799144
do_nothing,-0.853330086625,-0.882956373218,-1.18408065754,0.915226309709,0.629030476455,7.32828027531,-1.24128286332,-4.00721607147,0.933453044873,-0.878041025922,0.287519648881,-0.94818267731,-1.5279996383,59.8452808858
do_nothing,-1.31318511838,0.329562313364,-1.46777280318,0.638653385405,-0.714755302961,8.14807626355,-1.58869245157,-3.34496705262,0.605445696318,1.4354045782,0.600131021126,1.02698487642,-0.117737597724,99.8194045715
do_nothing,-1.32760229697,1.51912652574,-1.18639210462,0.315811700995,-1.80769204215,6.88735809287,-1.53145432547,-1.82966451386,0.213180399628,3.32360025884,0.823229487488,2.9009800551,1.21787465503,113.753601534
do_nothing,-0.802760918579,2.45774551313,-0.334306607377,-0.000851925885439,-2.34734599818,3.77963120065,-0.927508507862,0.250636592899,-0.179602641785,4.42965663302,0.870183398018,4.25324848424,2.21596312712,98.5842452768
do_nothing,0.143911504361,2.95063676506,0.861618928619,-0.285695278633,-2.20795687926,-0.426007181976,0.179074636594,2.42927392103,-0.521261880139,4.58491207746,0.690939210959,4.74653955766,2.71136421604,59.1986301962
do_nothing,1.21693603912,2.88366592246,2.01351892046,-0.533393446013,-1.47319171578,-4.65313137829,1.53717306472,4.16820101659,-0.776769801899,3.82732845271,0.292881743857,4.21622616536,2.65918554865,6.89889762821
do_nothing,2.04508355527,2.25587773156,2.70772913288,-0.742758128719,-0.401100761773,-7.78642510079,2.74625593027,4.99852183961,-0.926327566937,2.37563381814,-0.252674764585,2.72589807217,2.12649417095,-43.9595220396
do_nothing,2.31450508198,1.18529066966,2.65385428332,-0.900488089852,0.664655729314,-8.98061320189,3.37825071099,4.65451713278,-0.960949619493,0.568438414569,-0.82250515935,0.569156601875,1.26014545115,-80.1216652927
do_nothing,1.88345180898,-0.115927398329,1.79312231229,-0.974225457788,1.406156648,-7.90123512117,3.12439594149,3.15977964219,-0.878598775324,-1.2160476237,-1.27065727602,-1.78868584878,0.243299014616,-93.1196564593
do_nothing,0.836980646194,-1.39075041999,0.327000088297,-0.919815484597,1.62817004062,-4.82572922467,1.91636731665,0.836350298251,-0.683475920344,-2.64107357657,-1.46770345071,-3.81771396443,-0.745784265032,-81.403738343
do_nothing,-0.537177565292,-2.3966666162,-1.34344637396,-0.700883346835,1.31054545901,-0.572362714177,-0.0226408420618,-1.76963557935,-0.388914744512,-3.47552124612,-1.33893586962,-5.05240988833,-1.56243178134,-50.338281665
do_nothing,-1.84149604979,-2.95761536692,-2.74484761261,-0.312641269696,0.602277501901,3.72549458847,-2.21893084385,-4.02666279942,-0.021992076983,-3.62834416291,-0.88967443554,-5.20750943012,-2.10773435149,-10.1622969509
do_nothing,-2.69609585089,-2.99424367587,-3.48008166393,0.20109495,-0.236742802426,6.93620704245,-4.07300220311,-5.38175960042,0.373501573703,-3.14818312077,-0.209020835022,-4.24829142305,-2.32686710534,27.3586567985
do_nothing,-2.85598900831,-2.5266114051,-3.34718742883,0.746992800022,-0.923987408695,8.24627134171,-5.03140901443,-5.5028175894,0.738987694108,-2.19200612589,0.55034642131,-2.39580410325,-2.2008333375,52.4874976903
do_nothing,-2.27947920856,-1.65353148315,-2.39076637034,1.20086433015,-1.2426374969,7.38377480657,-4.75309945383,-4.35967968545,1.0094790531,-0.974409238517,1.21131102245,-0.0667072922814,-1.73985667168,60.1677903912
do_nothing,-1.12867757644,-0.520333090089,-0.873763470379,1.44161796507,-1.10287245679,4.68340742033,-3.21872244507,-2.22372276817,1.12731353083,0.286436759416,1.61922628379,2.23349328589,-0.983734907508,51.0123096744
do_nothing,0.291963221185,0.711125725458,0.81421026559,1.38961940584,-0.560149263306,0.974706461384,-0.749152812688,0.409599914248,1.05759788628,1.41077496748,1.68271177343,4.03234852176,-0.00901870620464,30.4459345673
do_nothing,1.63255340816,1.88060541709,2.27567956725,1.03584791716,0.210534163613,-2.67163075588,2.07242050322,2.94903790335,0.800350924763,2.27724823138,1.39620916042,4.99377419146,1.06274601248,6.42899039346
do_nothing,2.59459186627,2.83464025797,3.20971257403,0.450626093489,0.972086674187,-5.26176774758,4.55153759765,4.84854268759,0.394787771744,2.8196390495,0.837896881127,4.97749658958,2.06473524129,-13.3786546716
do_nothing,2.99721728222,3.42614244888,3.47092047388,-0.232502991553,1.49461243494,-6.1644987702,6.06275141094,5.7238657179,-0.0865986977012,3.008020405,0.144392057585,4.04505109915,2.80071117201,-24.0299333457
do_nothing,2.79808083471,3.52033048953,3.07279721839,-0.853434474407,1.61637082707,-5.27906096158,6.20896077337,5.41972075599,-0.553271091083,2.82773453241,-0.529051779194,2.41974432567,3.08007959093,-24.5125235768
do_nothing,2.07308783804,3.0164912914,2.14708073735,-1.27095712039,1.2819513341,-3.03674162605,4.91841651323,4.0201471059,-0.917213687803,2.26980359473,-1.04989697381,0.420253742811,2.76726338719,-17.4778965998
do_nothing,0.973573589119,1.88628546026,0.88501600424,-1.40198815463,0.551810404509,-0.240323369549,2.45787636088,1.81106337027,-1.11302474772,1.34052985313,-1.33848903998,-1.60881658809,1.83264224436,-7.71540398875
do_nothing,-0.316416017798,0.217571669272,-0.512240826416,-1.24171949493,-0.414663228312,2.20403440554,-0.63585147456,-0.786454507346,-1.11184379749,0.088090514654,-1.37883575289,-3.35140179172,0.387680198133,-0.0338074016053
do_nothing,-1.6068586346,-1.75654329669,-1.85768114926,-0.858618007937,-1.39533833788,3.57514793573,-3.68348858464,-3.29291838356,-0.925438776259,-1.36629932681,-1.20894664233,-4.55245494887,-1.31212428971,2.62282180431
do_nothing,-2.71010374921,-3.66541970084,-2.97772215122,-0.367158061173,-2.15202218852,3.55356065729,-6.01597771496,-5.24408111239,-0.59995865941,-2.81118003385,-0.896828403936,-5.032830186,-2.90555538962,0.139955717276
do_nothing,-3.4415129704,-5.05896048855,-3.70245855685,0.111116570096,-2.4796794385,2.29986398967,-7.11705286255,-6.25663557617,-0.202054767277,-3.95879835075,-0.512775897827,-4.69758118566,-4.00240080036,-5.02243648438
do_nothing,-3.62900287702,-5.51267231524,-3.86818702505,0.483970964466,-2.25152935983,0.373961230413,-6.72762929786,-6.08634186023,0.197835016682,-4.497989369,-0.108929472354,-3.54772085255,-4.28256212239,-9.12839248992
do_nothing,-3.14357270595,-4.75627306768,-3.34669928099,0.709814907276,-1.45373962599,-1.47317495034,-4.89552283534,-4.67820544868,0.53993880327,-4.17877155457,0.286831840841,-1.69770806788,-3.59155243345,-8.9398427616
do_nothing,-1.9496306005,-2.78696707522,-2.0995564471,0.797873125452,-0.202828940084,-2.56269928111,-1.96584594181,-2.20221639955,0.783709160456,-2.9060669948,0.662138210482,0.609604464562,-2.00337980803,-3.23382855083
do_nothing,-0.15809098229,0.0751953121579,-0.237316453135,0.789506778106,1.26136888159,-2.51706369823,1.48309635041,0.93919711473,0.909430624358,-0.810344037155,1.00258289381,3.00646249157,0.17227368393,6.55013130265
do_nothing,1.94517697386,3.22085060411,1.94749610264,0.730218249275,2.61228589394,-1.37950997691,4.74700167918,4.14875858031,0.914445638677,1.73607430267,1.27543849736,5.03801196494,2.44768006503,16.7943486668
do_nothing,3.9215928077,5.8796342486,4.00245141043,0.645066627968,3.50218866228,0.413432913583,7.12971527121,6.72774645005,0.807233727144,4.17534245089,1.42442775361,6.24091809743,4.27012071249,23.1326840832
do_nothing,5.2641054282,7.31778776873,5.40400876058,0.528198984277,3.64731503964,2.19353824974,8.08401872881,8.02041274945,0.602703932106,5.88932486737,1.38080219635,6.25311457274,5.1634202386,22.2647756773
do_nothing,5.53095740471,7.05241333334,5.69846966843,0.350826866605,2.91364202835,3.29855995487,7.33495944528,7.58362985512,0.320713789518,6.36555646719,1.08884186278,4.92798724851,4.85998190299,13.4342617768
do_nothing,4.49263285634,5.01700333503,4.65514657175,0.0838357342814,1.37815508948,3.30323963959,4.95968008915,5.33754474369,-0.0123224477651,5.35741291779,0.536919760947,2.41584410684,3.38489298203,-1.03327869633
do_nothing,2.24192583251,1.62077505497,2.37827510752,-0.275395023214,-0.658528363937,2.16463764539,1.40030867121,1.64601833058,-0.360845930426,2.98704197279,-0.218681863035,-0.822591272861,1.06480016934,-16.3869545874
do_nothing,-0.779179793133,-2.32762201606,-0.67020468932,-0.684749364759,-2.72230714059,0.233471556951,-2.60399746357,-2.71392331483,-0.679601152525,-0.248514648803,-1.04914001679,-4.09007879804,-1.54558905574,-27.1018249552
do_nothing,-3.85979192697,-5.82088750949,-3.75982274591,-1.0575643726,-4.27503476988,-1.87003058173,-6.16295196152,-6.70643798828,-0.917545788601,-3.58105370166,-1.773815313,-6.60745061345,-3.80291372145,-28.9357673987
do_nothing,-6.19680793805,-7.92670666556,-6.07841012003,-1.28391663417,-4.85946724839,-3.47056918091,-8.43486822895,-9.28931483945,-1.02677159955,-6.16415751461,-2.20366325882,-7.71396498174,-5.14395508691,-20.6259532253
do_nothing,-7.12191805605,-8.05576720344,-6.96591479989,-1.2669743327,-4.23994874355,-4.06688413073,-8.83640568045,-9.70207450966,-0.974584657107,-7.30453378409,-2.19584303182,-7.05818266038,-5.23711648285,-4.56448218853
do_nothing,-6.30997031702,-6.14238446872,-6.12261647426,-0.961603373655,-2.49405674293,-3.49613622374,-7.20764710695,-7.70596435638,-0.754981030267,-6.66462805673,-1.70251667637,-4.71997260574,-4.07316248224,13.8519431685
do_nothing,-3.89910967866,-2.67876898915,-3.72110094649,-0.400309778313,-0.0200612905286,-1.97807504763,-3.88172007994,-3.69615699429,-0.395183346117,-4.37346577674,-0.79688738201,-1.21956816682,-1.96813282847,28.0233975069
do_nothing,-0.476846306313,1.4131808776,-0.378387324451,0.304811503489,2.55190806794,-0.0265016769641,0.371288732806,1.36209195895,0.0459831932756,-1.00722772206,0.334464278239,2.59893366352,0.523714916981,32.492541421
do_nothing,3.07228564059,5.03883793892,3.01120757562,0.987317108979,4.52698746282,1.73766556417,4.52303248161,6.17035541708,0.488617748292,2.56066561421,1.43365145057,5.78386487787,2.7628402131,25.0036412716
do_nothing,5.81608645286,7.24192917465,5.53520015528,1.47227551862,5.34553348547,2.803341385,7.54808047702,9.44854266677,0.848940534449,5.39988605657,2.23750939809,7.53338657447,4.19954963767,7.51318213467
do_nothing,7.04558257586,7.47669606012,6.53398363951,1.62838393924,4.7555009898,2.93848545597,8.69855293759,10.3012684664,1.0585465394,6.78450780141,2.54882622083,7.41916756373,4.5208371736,-14.2628183843
do_nothing,6.48202048199,5.75869876066,5.79690884849,1.40909741802,2.90083891483,2.25231964022,7.71311007798,8.48753379957,1.08021763005,6.39736237866,2.29149219281,5.50843951781,3.72676157266,-32.6725024484
do_nothing,4.35318221125,2.64864439673,3.61912287643,0.868723867926,0.292754292797,1.13090253919,4.89531284605,4.50602492292,0.915758263748,4.41533766898,1.53257234256,2.34537487137,2.11529655288,-40.7391755828
do_nothing,1.31396943258,-0.924836063118,0.699924518661,0.147660075126,-2.33325714582,0.0728248108673,1.03233840504,-0.537749403133,0.603809048224,1.44927870849,0.464167733127,-1.20502763522,0.182143047575,-34.6745981345
do_nothing,-1.76283315123,-3.94770034628,-2.08420166545,-0.568709826539,-4.23432251998,-0.511764058857,-2.82723983133,-5.24855818533,0.208722921719,-1.64320219224,-0.649776801802,-4.20502247054,-1.53247873538,-15.4091898545
do_nothing,-4.05693367527,-5.62041633672,-3.95695764265,-1.10413409743,-4.8847234385,-0.462337237782,-5.67335320732,-8.34924525235,-0.195747449186,-4.01433649948,-1.54582508561,-5.90988928652,-2.60248024098,11.4378342755
do_nothing,-5.04366106332,-5.58329458712,-4.47857561375,-1.34116164989,-4.1365833656,0.0722058683092,-6.82234852895,-9.05435027786,-0.542920678717,-5.0731838665,-2.03097802935,-5.97149484618,-2.8317152014,37.2076941003
do_nothing,-4.63177886536,-4.00025903355,-3.66431427478,-1.25078371059,-2.26377442819,0.698921223953,-6.10467081013,-7.29308548872,-0.785269765728,-4.64754193038,-2.02975905194,-4.51929676873,-2.29303456063,52.9765101635
do_nothing,-3.1547339668,-1.47989296918,-1.94906074186,-0.893624109576,0.126996929185,0.948092450977,-3.89414984962,-3.71174583473,-0.899542577707,-3.01282887655,-1.59559265584,-2.09700880067,-1.28153775113,52.5604165045
do_nothing,-1.22453408532,1.1358461797,-0.0147378467159,-0.394011243928,2.2906024951,0.479815946788,-0.970510079277,0.544233654577,-0.884988713484,-0.782510357169,-0.884995290917,0.521694913319,-0.20038616569,34.748648284
do_nothing,0.496140305144,3.04423774064,1.45645063884,0.102871939777,3.58083400227,-0.749581136322,1.73976245641,4.19753060257,-0.757053150509,1.30156749631,-0.104540525668,2.57788178538,0.581294855444,3.98844084099
do_nothing,1.52178019263,3.72788065458,2.01605809619,0.475655228077,3.65321989695,-2.4285990478,3.4596358721,6.23652584746,-0.540003263021,2.60965395377,0.551625788047,3.55460194563,0.850794911825,-30.7632962282
do_nothing,1.69296059058,3.09810500955,1.59053512501,0.658729325944,2.56686558481,-3.96888470087,3.79845990451,6.21543731674,-0.261551057535,2.81789065142,0.954140644771,3.31663661141,0.614377725896,-58.7101045638
do_nothing,1.19798436646,1.49520464131,0.483752133194,0.65247151238,0.752437398836,-4.70069679355,2.85345334734,4.36262792122,0.0490925220914,1.99481976002,1.06559168724,2.12270577809,0.0805655783317,-70.5904118726
do_nothing,0.465792431402,-0.4477502416,-0.755130968113,0.510970091501,-1.14165816643,-4.12087050879,1.14537959585,1.46722023458,0.360369198703,0.556108604136,0.936506652652,0.512049121095,-0.42837047738,-61.6903883014
do_nothing,-0.0251133230825,-2.02754837024,-1.54732094287,0.314267351756,-2.47188256445,-2.1057226056,-0.585970554209,-1.41204557256,0.636967697492,-0.893687806601,0.674582123897,-0.892629247351,-0.604925631453,-33.5222206601
do_nothing,0.0520608059841,-2.70458940051,-1.50436875655,0.136740620667,-2.81506886764,0.991037248748,-1.65372391166,-3.31362494625,0.840519998007,-1.77718321032,0.39983004793,-1.59857974871,-0.27949395759,6.39833438539
do_nothing,0.736526914963,-2.27235877436,-0.573772149967,0.0232254470728,-2.10409307103,4.39888825964,-1.66841828236,-3.69063160295,0.934114289176,-1.74523508581,0.201840306554,-1.40276662667,0.505586671227,46.6492974302
do_nothing,1.75942530373,-0.91135521509,0.940226028274,-0.0197552741568,-0.639097126968,7.13979743193,-0.670722018114,-2.573627486,0.890424329816,-0.796617694776,0.113268064075,-0.447891751786,1.49829862941,75.2599760677
do_nothing,2.64543448514,0.884418272594,2.48570665894,-0.0168123407908,1.02709982682,8.3245184147,0.892364288654,-0.528511436141,0.701189718016,0.722260628979,0.107014621137,0.839964094271,2.31685921762,83.3144347727
do_nothing,2.89817716312,2.47909670747,3.46108262569,-0.00585102005198,2.28747908057,7.44166567229,2.33771132569,1.56956519108,0.384476930132,2.23626211693,0.115903136574,1.90780701864,2.58192796112,67.701894234
do_nothing,2.2006119286,3.30574530012,3.4307722217,-0.0182882554784,2.69302618933,4.54395797438,3.00149569582,2.86275268682,-0.0137654630985,3.13894313934,0.0660056078341,2.27227978668,2.05714989721,32.1699267313
do_nothing,0.556346930253,3.04799319027,2.28281516871,-0.065668718693,2.10502878102,0.266896493657,2.48916588368,2.82140256078,-0.425790556714,3.00320756766,-0.0893333167551,1.69090358352,0.749890869592,-13.6503573844
do_nothing,-1.68074233028,1.73697005774,0.274905107194,-0.137331463411,0.736072999603,-4.33167680776,0.831442514188,1.43124173776,-0.775197277144,1.7360898098,-0.347151766868,0.252542403455,-1.06416419455,-56.9664304694
do_nothing,-3.90122757843,-0.262604736385,-2.04457905913,-0.208551039915,-0.931852835866,-8.06487293409,-1.50912882227,-0.806040416996,-0.994003069377,-0.373105758544,-0.651820634528,-1.64118328645,-2.9047447693,-85.4911310382
do_nothing,-5.42790379727,-2.36773132773,-4.01070455304,-0.254096955735,-2.32062845332,-9.95351905333,-3.78439130137,-3.05562136495,-1.03888914763,-2.72790008047,-0.911846269483,-3.3966443577,-4.22257037872,-90.9757470345
do_nothing,-5.73315934738,-3.9541699115,-5.05032385576,-0.260257811491,-2.95796071464,-9.5029931185,-5.2098347937,-4.44902072488,-0.901815805534,-4.60061698877,-1.03026054278,-4.41243607327,-4.5663607741,-71.5799798961
do_nothing,-4.61301198343,-4.53964394809,-4.85499844559,-0.229710433767,-2.63691439704,-6.83633947796,-5.23167670767,-4.39424798206,-0.611806906193,-5.35542568797,-0.938013424973,-4.26968388704,-3.72953568952,-32.4016502915
do_nothing,-2.26076780328,-3.91968625447,-3.46451291764,-0.177421625606,-1.47872600078,-2.64627202607,-3.72070891555,-2.78888297401,-0.227411692695,-4.65016995309,-0.619229803513,-2.87041106255,-1.82986557072,15.9668182756
do_nothing,0.781945789474,-2.22029037881,-1.24003654175,-0.120252222971,0.11982562366,2.01389049056,-1.02733285192,-0.0637830134653,0.177782776372,-2.55523383017,-0.120312608014,-0.482738245575,0.704815069436,60.4170545102
do_nothing,3.77814343895,0.142056214222,1.2562066229,-0.0660431060902,1.63201862152,6.03100521019,2.12025038366,2.95539129383,0.532198030131,0.447312859046,0.459634063053,2.32008706801,3.24327283683,88.9700429249
do_nothing,6.00119603553,2.57599648428,3.42889665691,-0.00828768769511,2.58529049888,8.53007031377,4.83985159616,5.31921392178,0.780990637563,3.58554210818,0.993693574975,4.80905327354,5.12025663748,94.0502523792
do_nothing,6.92836706608,4.47088937344,4.80860075782,0.0701384388101,2.71778906293,9.08121712639,6.36628447049,6.26468632448,0.894729382555,6.00644306233,1.35958474428,6.29498056239,5.8199088266,74.4825298146
do_nothing,6.36586973167,5.34981917465,5.15484535781,0.185168236564,2.0537130052,7.76203132107,6.28096023913,5.46048229618,0.870589340581,7.01277436372,1.47026995869,6.31659786984,5.12033256997,35.6900817419
do_nothing,4.47539873132,4.98262646358,4.48097478619,0.33691265586,0.874973607267,5.07119273758,4.62788375887,3.10809060316,0.727179560386,6.26146272921,1.29462419855,4.77081264811,3.15810910412,-11.9100195522
do_nothing,1.70545456257,3.43529901488,3.00760520763,0.499602261308,-0.395180922751,1.73682927889,1.88373460804,-0.129558777526,0.495985527166,3.86812534575,0.863557400385,1.9513888286,0.395176221137,-55.8173227884
do_nothing,-1.34086930585,1.04931260463,1.07388411584,0.622364422819,-1.34998277038,-1.50781660122,-1.20136712491,-3.34223173196,0.212954907185,0.388467846407,0.261321908228,-1.51343982312,-2.5013922029,-84.825833748
do_nothing,-4.05579192665,-1.63959273858,-0.956100960925,0.642954689595,-1.73907527762,-4.1066380476,-3.83487463976,-5.65408126201,-0.0871049597166,-3.31907738634,-0.394481349443,-4.80842669717,-4.83204040191,-91.9351063355
do_nothing,-5.95168077337,-4.02239550906,-2.76181909859,0.510973469118,-1.54077387602,-5.76981461935,-5.40760572498,-6.47975334855,-0.372451771768,-6.31329672794,-0.978452220735,-7.1274311858,-6.04193123112,-76.0271990485
do_nothing,-6.73477787888,-5.55109852624,-4.09762170937,0.212359010426,-0.944409564759,-6.45827367439,-5.64470753348,-5.67592847345,-0.613717683655,-7.81485888837,-1.38239094259,-7.87078671775,-5.85573572162,-41.9125113211
do_nothing,-6.32383728712,-5.85945192711,-4.79427649772,-0.214858899302,-0.255190449903,-6.29159621004,-4.64223755181,-3.54880269153,-0.782891090597,-7.41158832696,-1.53483095407,-6.79673959734,-4.33697006658,1.19059087754
do_nothing,-4.82779967723,-4.84666670809,-4.75034532343,-0.681423927976,0.237362683886,-5.432800304,-2.79064517143,-0.727693724821,-0.854273733303,-5.17063670126,-1.41220228551,-4.09057663157,-1.86083225531,42.2560659773
do_nothing,-2.50430412095,-2.70709959485,-3.93312224831,-1.06667233303,0.374377627458,-4.0056140042,-0.623194785352,2.04284338213,-0.808539218638,-1.62788688933,-1.04079286716,-0.333736539499,0.987288974335,71.3774365259
do_nothing,0.283164983196,0.102271566335,-2.39756582561,-1.25263038623,0.181675873801,-2.0792788521,1.35239001218,4.11912903823,-0.639179090491,2.34361725313,-0.490273868461,3.62222816196,3.55755945152,82.2227389413
do_nothing,3.10330272029,2.95379173759,-0.315097100925,-1.16187427691,-0.15589614698,0.278323234925,2.78273451655,5.11521485069,-0.358939964969,5.75343944348,0.139471459325,6.8500861791,5.28735132202,73.393444404
do_nothing,5.495970216,5.18541624564,2.00912416117,-0.786295032049,-0.386533838244,2.91217002545,3.52317717871,4.96092732052,-0.00310366019157,7.74610428187,0.735972092522,8.56631543497,5.82285038033,48.4005776939
do_nothing,7.02335525186,6.25461010287,4.15454056587,-0.196161252183,-0.310440261938,5.50857118954,3.61412681993,3.8596176788,0.372952048424,7.82142823536,1.19369763105,8.3242734998,5.08564619441,14.367266475
do_nothing,7.33995042182,5.87517635755,5.65279367101,0.474893983331,0.12401044325,7.58978996908,3.20461983793,2.17775145162,0.702687555004,5.96549332043,1.43266306677,6.13354025531,3.27476096162,-20.0921104606
do_nothing,6.2751422642,4.10148698711,6.0979702452,1.06525196647,0.787069839619,8.59884239894,2.46396313963,0.316000455639,0.922255125465,2.65699166947,1.4130857511,2.4728556916,0.80985398817,-47.1733410839
do_nothing,3.90726496827,1.33316861681,5.27105353901,1.43029781153,1.41213071931,8.06062859175,1.52018061562,-1.39161812769,0.985678078168,-1.25463652335,1.14321307028,-1.81183384801,-1.76714591988,-61.7237438311
do_nothing,0.598927511395,-1.76891875295,3.23641962016,1.48282972526,1.70145332741,5.76951244801,0.446437736537,-2.72409780814,0.87688064551,-4.76931156495,0.678220348994,-5.70453456271,-3.90876867802,-62.1682280916
do_nothing,-3.03354880355,-4.4410884598,0.369789446778,1.21615376012,1.45167334933,1.93372915031,-0.707977501003,-3.56601348728,0.614748994944,-6.99798229463,0.109626283451,-8.26638553799,-5.17338927448,-50.3685581087
do_nothing,-6.22726822721,-6.01247120086,-2.70470280649,0.702979075175,0.648827980658,-2.78751651446,-1.86657283176,-3.86951948089,0.249422064657,-7.39662724939,-0.45321067029,-8.87187536984,-5.31118845875,-30.5892962392
do_nothing,-8.24174662213,-6.0860360177,-5.26110104673,0.0713660952841,-0.506575666542,-7.38783005319,-2.88777400341,-3.61792103731,-0.149295064868,-5.90906980564,-0.905803710328,-7.37230801089,-4.31059771447,-7.99046779485
do_nothing,-8.5497095177,-4.65253593196,-6.66417855534,-0.533522681151,-1.65753240421,-10.7456591653,-3.56693025115,-2.81575886681,-0.508078203326,-2.97840202193,-1.17028341855,-4.14065048805,-2.39814230894,12.8365001859
do_nothing,-6.99466420536,-2.1005443129,-6.55045729298,-0.988920109789,-2.41267237452,-11.925786328,-3.68595254346,-1.51143381569,-0.766169113051,0.577840852476,-1.21085210604,0.0183984979054,0.00809365596352,28.8485474202
do_nothing,-3.86280018121,0.885617438034,-4.93937707776,-1.22274997828,-2.48837844038,-10.4617874822,-3.09528608681,0.16291355252,-0.887025536711,3.7955913498,-1.03903199054,4.07312679142,2.38380029972,38.8191256529
do_nothing,0.161843738611,3.51466261877,-2.23600571411,-1.22310492763,-1.81783807398,-6.52910275749,-1.79556450617,1.96315198326,-0.862831072347,5.83214433351,-0.70748701912,7.03173439381,4.20793148217,42.9409810122
do_nothing,4.15567273301,5.11049324002,0.879138766425,-1.02850041998,-0.585111510902,-0.946523403651,0.0178858731709,3.54468560247,-0.711599783918,6.19817643472,-0.294402425662,8.19970598207,5.07583445694,42.046695479
do_nothing,7.18786001783,5.30178526006,3.64062886727,-0.705298160363,0.83055705753,5.00596789991,1.97335110388,4.52651578861,-0.468919339239,4.88702440637,0.116907601763,7.3566257657,4.79235349858,36.8476664281
do_nothing,8.56182622681,4.12102815641,5.40988130756,-0.322549285842,1.98186878256,9.90869488236,3.60695874741,4.59671681404,-0.177741201571,2.36339342246,0.457243599327,4.80296429428,3.42256737183,27.5503261149
do_nothing,7.9956123125,1.9821122754,5.84230749309,0.0658933203161,2.50705471961,12.5744317757,4.49059316863,3.62598803886,0.120371766309,-0.585166796739,0.684340508742,1.2641085061,1.28475915197,14.0240795717
do_nothing,5.68815779609,-0.456383988787,4.95983451703,0.426417367385,2.25469566707,12.3647209781,4.36291029818,1.7453818739,0.390370479107,-3.08946665331,0.78633265457,-2.31977951987,-1.11757291383,-3.5618552851
do_nothing,2.25313177376,-2.49835725346,3.11135798386,0.738514789359,1.33465469076,9.35880714313,3.2187831476,-0.648956467766,0.604938642042,-4.45946170955,0.776168844151,-5.05616551128,-3.21264910869,-23.9470694599
do_nothing,-1.45748944418,-3.62106336749,0.841309813887,0.981702039388,0.0767498158291,4.32676617355,1.32462323147,-2.97834878804,0.743254043427,-4.38496175396,0.680264970697,-6.33806678946,-4.50000580061,-44.2609614556
do_nothing,-4.58501536473,-3.62209545459,-1.28431608988,1.12530340478,-1.08768063083,-1.48379394316,-0.848797308686,-4.63461024423,0.789599698278,-3.01480143306,0.526347249929,-5.98933479085,-4.6776877905,-60.1433772567
do_nothing,-6.48133617235,-2.65668964459,-2.83462716463,1.12840512242,-1.77824951411,-6.68376753171,-2.75676524957,-5.15888740827,0.73380733651,-0.890896493529,0.335203484461,-4.27863044249,-3.72225595024,-66.6492858518
do_nothing,-6.85084113858,-1.15704129246,-3.60456212467,0.952335080667,-1.79691772929,-10.1035757596,-3.93379947224,-4.38813177463,0.574198317648,1.24041993216,0.119045911433,-1.80453466606,-1.89737735087,-59.7679193193
do_nothing,-5.78332845797,0.334484922967,-3.6189577327,0.581683091621,-1.1913919222,-11.0776649009,-4.12171379594,-2.51785104538,0.321989841789,2.67798375684,-0.113805786628,0.70623833853,0.314491013465,-38.0950047251
do_nothing,-3.68057383073,1.35748804835,-3.06258095966,0.0448533859476,-0.228863765213,-9.57766002659,-3.33355581778,-0.0555385898714,0.00483401324648,2.99466181141,-0.351010655123,2.62036507961,2.3409096953,-4.04278441082
do_nothing,-1.11155089834,1.68296332833,-2.17465731679,-0.576310211429,0.708657242845,-6.16711365287,-1.83604346529,2.32467112602,-0.333127365837,2.17048270309,-0.569637834763,3.56917080492,3.6739053821,35.9679767059
do_nothing,1.35107856061,1.36898369856,-1.15525033355,-1.15528389129,1.26777834334,-1.80395365061,-0.0597094063893,3.98172106117,-0.636376209524,0.586509092032,-0.735075529229,3.51965218213,4.00634814081,72.6128420242
do_nothing,3.26248461652,0.706781359526,-0.119974216907,-1.54890756847,1.2528025875,2.4413186613,1.53174300867,4.49795605161,-0.848138342782,-1.1177492512,-0.807303782174,2.73102823453,3.31068730685,95.9253426961
do_nothing,4.3733395225,0.0820208396096,0.885734371273,-1.63788579841,0.693516453767,5.6651197577,2.57067002692,3.79858291646,-0.923292348041,-2.27464038956,-0.753213338359,1.62157846379,1.83699670995,98.1493355279
do_nothing,4.62901200714,-0.192780150487,1.83016534956,-1.36702237741,-0.17193623494,7.33043746423,2.87485651037,2.16223230625,-0.84040389134,-2.42757598708,-0.560746683282,0.599388475456,0.0314273321659,76.3339852643
do_nothing,4.12023613427,-0.00863322043093,2.63378206601,-0.770858703802,-0.991100726746,7.340807739,2.47445446041,0.12105759782,-0.609008258126,-1.49658494889,-0.249221383329,-0.0803423901887,-1.599561723,33.7999636759
do_nothing,3.01803458737,0.49788709042,3.14195092737,0.0259822877423,-1.43202901232,5.98534276071,1.57558547224,-1.71445882844,-0.269446000056,0.187976684813,0.129064818102,-0.382181459191,-2.63726049568,-20.1245199087
do_nothing,1.52305043857,1.00759647216,3.15507528671,0.836566940679,-1.30833546429,3.79057978806,0.479358479179,-2.8466272152,0.115229273212,1.99708417554,0.498092925051,-0.462773114813,-2.865785398,-72.2001845574
do_nothing,-0.15577733597,1.16198565862,2.51114043736,1.46086788858,-0.648417617538,1.33828624298,-0.513649715721,-3.03481423225,0.473270166076,3.22353126454,0.776546014132,-0.566037204424,-2.32004263596,-108.728500075
do_nothing,-1.79812905236,0.729757778833,1.18772824526,1.74201274925,0.315883661518,-0.889993739543,-1.18325317614,-2.34816762,0.740310707085,3.33631995151,0.9001522848,-0.887381402445,-1.25447305616,-119.409630353
do_nothing,-3.16475472282,-0.271388351571,-0.624745166075,1.61200219806,1.23582883782,-2.59927793148,-1.43323486869,-1.11487001536,0.873030428377,2.18073342637,0.84080959493,-1.46378271057,-0.0461250462755,-100.457617118
do_nothing,-4.00855657564,-1.55040158693,-2.52172070294,1.11208056546,1.77458866187,-3.68621329539,-1.29269050293,0.208505576273,0.856817066597,0.0527286575691,0.615913910646,-2.13562789829,0.933660754263,-55.9811479876
do_nothing,-4.11719058003,-2.63213433837,-3.97318516919,0.380806219702,1.73039838333,-4.18114000221,-0.883156072697,1.19822191774,0.70585013897,-2.38192806451,0.284262176167,-2.59777218301,1.43573067941,2.8774925772
do_nothing,-3.38114908083,-3.03208599008,-4.48420166245,-0.386754393884,1.10904235921,-4.16532417309,-0.368166266692,1.59850987069,0.456436173599,-4.30053458027,-0.0707098241176,-2.5220427128,1.40023889492,60.8817386115
do_nothing,-1.86250491637,-2.45312198654,-3.77590894625,-0.995927825486,0.120028234772,-3.70472742906,0.0967548375321,1.38671431171,0.156372378374,-4.99915955375,-0.365271132193,-1.70457248153,0.955047867106,102.906204409
do_nothing,0.16984061138,-0.928130935909,-1.91943495733,-1.3075193724,-0.90079615942,-2.82842477823,0.400483166913,0.751974605747,-0.146054696555,-4.13884032634,-0.539523323989,-0.179787252904,0.350215707801,118.180703574
do_nothing,2.26677601242,1.15131792248,0.63573286082,-1.27401951995,-1.61263317261,-1.55632604405,0.493636449972,0.00249040012887,-0.410325598498,-1.87782401884,-0.573425969663,1.74685123505,-0.144891774705,103.304747924
do_nothing,3.89553719981,3.14038862887,3.16419885835,-0.946358690184,-1.79018591668,0.043086239963,0.388473548535,-0.559436949968,-0.607616196029,1.157865814,-0.489478934998,3.56658701353,-0.343509861853,63.1222243113
do_nothing,4.5865303075,4.35092578436,4.87673389767,-0.450493009435,-1.39961743165,1.79920815486,0.146763025534,-0.746916959336,-0.720701283361,4.05979728655,-0.341338524374,4.71809092943,-0.206032009172,9.19539769964
do_nothing,4.0865116437,4.29528243681,5.17777164342,0.0570902080686,-0.603748774105,3.42422418601,-0.138820794822,-0.544198902453,-0.741616198063,5.92044623518,-0.192487295072,4.77219408511,0.154412959883,-43.6456803475
do_nothing,2.46406996879,2.87653017896,3.88124142433,0.439432028083,0.303329272822,4.55586992535,-0.366265241987,-0.092950885639,-0.669368986158,6.12310415361,-0.0925479765031,3.58709186145,0.525010865066,-81.6137095912
do_nothing,0.123103338927,0.452312477428,1.30503188708,0.618245911576,1.00637527718,4.85326402596,-0.447180769495,0.379707466096,-0.509398179051,4.54388547517,-0.0596837146261,1.37837103026,0.68335577345,-95.81935152
do_nothing,-2.29204097946,-2.25815405684,-1.79856421429,0.590291915078,1.2824666207,4.11681476856,-0.329652342338,0.659346606768,-0.275094087653,1.59958530162,-0.075414011069,-1.32392105617,0.490082465925,-84.522973242
do_nothing,-4.07889666316,-4.39913093974,-4.46401699698,0.417528880495,1.07648474902,2.38848808012,-0.0174579040761,0.629012673978,0.00980639169907,-1.8746918621,-0.0937911464746,-3.82081064968,-0.0506421746995,-53.1625308889
do_nothing,-4.69270180185,-5.26206269191,-5.81885075369,0.196703410174,0.512446004579,-0.0102056763067,0.420480602112,0.309064501674,0.310082228143,-4.8789282934,-0.0617300210412,-5.44719326821,-0.785100590891,-12.2502515372
do_nothing,-3.92544426411,-4.53058471665,-5.37506533177,0.0206585991072,-0.161202243438,-2.52758849527,0.857364990094,-0.160115873804,0.581195457637,-6.55142862942,0.0568348991146,-5.76700735366,-1.46065105674,26.1055188925
do_nothing,-1.98560823162,-2.39969334717,-3.20579655961,-0.0544066932459,-0.669958973093,-4.51490127951,1.13656823129,-0.581878539677,0.775678867133,-6.42578724921,0.261909259485,-4.6985730888,-1.81461482749,51.8976888431
do_nothing,0.553411167463,0.476335439508,0.0575149364092,-0.0246686227766,-0.817654359415,-5.40917140872,1.11775516566,-0.785531864695,0.852904032471,-4.56210908837,0.51095327198,-2.53161753615,-1.66947008189,59.9702146816
do_nothing,2.9248122651,3.19360213315,3.41305036286,0.0667646002241,-0.558149292453,-4.9108340182,0.729801391505,-0.69356846947,0.789717440684,-1.51503605398,0.728214470508,0.166261797833,-1.00050778134,51.0220595693
do_nothing,4.40697665042,4.89647611261,5.80417401008,0.152674408859,-0.00884563024933,-3.09724185252,0.0125825709941,-0.348267647164,0.588553501974,1.84594106399,0.827683795152,2.72002513723,0.0477359120729,30.6800821684
do_nothing,4.55176830685,5.06217090264,6.46018351272,0.172035399271,0.597367689273,-0.429161639615,-0.871212621745,0.110538124423,0.279972164599,4.60233505125,0.742587724671,4.53762577204,1.2017075835,7.0992853205
do_nothing,3.32676405735,3.67364952704,5.14906594355,0.0957736586743,1.00242232094,2.3609963113,-1.66622071844,0.505062816858,-0.0819123545405,6.05281904142,0.451689270695,5.26059332234,2.14155598511,-11.9945687044
do_nothing,1.12349859712,1.22055641723,2.25700650599,-0.0616290409761,1.02139245913,4.47279483975,-2.09484708926,0.690940580892,-0.430444892169,5.89836225956,-0.00676968482659,4.83227365928,2.59818414037,-21.7823505362
