label,COUNTER,INTERPOLATED,AF3,F7,F3,FC5,T7,P7,O1,O2,P8,T8,FC6,F4,F8,AF4,RAW_CQ,GYROX,GYROY,MARKER,SYNC,TIME_STAMP_s,TIME_STAMP_ms,CQ_AF3,CQ_F7,CQ_F3,CQ_FC5,CQ_T7,CQ_P7,CQ_O1,CQ_O2,CQ_P8,CQ_T8,CQ_FC6,CQ_F4,CQ_F8,CQ_AF4,CQ_CMS,CQ_DRL
off_to_on,-3.77104290694,-3.9502728585,-2.06235044523,-0.323892121158,0.754378954254,-2.09805418331,-0.229740309523,0.976189291743,0.729846236286,-1.58111777358,-1.47072507083,-3.71765158015,-4.71231247992,137.617696099
off_to_on,-1.53306398506,-0.00311492990632,-0.434070362617,-0.752226615965,-0.843617124068,-0.61932745495,3.17298620464,0.375608612383,-0.729665055734,1.25746413948,1.07445278534,0.28321113302,1.37454020495,-95.7302440968
off_to_on,4.50623358871,4.75568110394,3.40622761779,1.73987628577,1.06535632216,2.56815382988,-0.0229336423999,0.253644162061,0.83068464633,1.81827945006,2.3213430411,4.04233175405,4.99566005324,-189.04965603
off_to_on,-0.947305852186,-2.15093221038,-1.34950866783,-0.906735510729,-1.31856653286,-1.52894007501,-5.48570322027,-2.56104450184,-0.880260107537,-3.18659232551,-3.00242487138,-2.43952558239,-3.45665914433,145.556308811
off_to_on,-1.8000515921,-2.2321169745,-1.41177206872,0.154041733927,0.609994505837,-0.453087039581,2.68003045996,1.69542547856,0.841658632821,0.97677707044,0.107585020007,-1.08487649942,-2.12744275152,129.594277674
off_to_on,-0.755054789332,0.169334524332,-0.609382350604,-0.992687609499,0.0912731281952,0.0983793876051,3.04595859511,0.689188228143,-0.869179205137,0.56007047796,0.799543336701,-0.0433733255911,1.03804405851,-80.3190419846
off_to_on,3.19195098211,3.64652745586,3.1799025665,1.5724894141,0.916994103686,2.31821509366,-0.0430377428728,0.625460979402,0.961410140865,0.943216421269,1.6035593482,2.73667590632,3.67288100034,-189.787040112
off_to_on,-1.47303428162,-1.77029778874,-1.09464634636,-0.684042560497,-2.19137940899,-2.8356059146,-4.74469945227,-2.87809952936,-0.969680058999,-1.93612751927,-2.24280254849,-1.3958983779,-2.3397683149,140.365746343
off_to_on,-0.668543377226,-1.5822109266,-1.40204252932,0.30257574761,1.28965414941,-0.116345684159,0.233068776543,0.932355295681,0.929495814453,0.605431122351,0.0272247108923,-0.909133466781,-1.84560176789,121.439949784
off_to_on,-0.00589493108532,-0.0244815675389,-0.674405591477,-1.41923241478,0.28783457209,2.24541262269,4.23733930372,1.38518703011,-0.977169348064,-0.0854840392489,0.254746792627,-0.564978823802,0.278034761189,-70.9523785478
off_to_on,1.34914066423,2.73471127614,3.22396424357,1.86425415312,0.429974735418,0.341379015343,1.74850875387,0.806394453333,1.047508934,1.24683044307,2.00509647751,2.41822829567,3.33802463499,-184.442357184
off_to_on,-1.26021639182,-1.25832519895,-1.41098886194,-0.710113656587,-2.15869619798,-4.07896173333,-6.30466961268,-2.85768601086,-1.0216828505,-1.13744398533,-2.06839684325,-0.555188807367,-1.42741916593,135.333450929
off_to_on,0.640827247909,-0.858195026852,-1.14855455377,0.224028601255,1.71255440292,2.7743281684,-0.592513264904,0.504683824036,0.989161864722,-0.00134123088814,-0.246580351598,-1.15648554594,-1.66056902262,112.345650343
off_to_on,-0.562641447487,-0.60193304465,-0.177744713361,-1.31863503073,-0.083898706049,1.99494753122,5.0053562681,0.731851959179,-1.04711533687,-0.927175417936,0.158359773347,-1.19894667538,-0.715294413681,-59.6664412361
off_to_on,1.29826376313,2.67581854116,2.70288388319,1.74503965463,0.427107856446,-2.39893653325,2.86590201622,2.62042793641,1.08730594282,2.79632072258,2.32699482312,3.74223225522,3.78264245168,-195.725077161
off_to_on,-2.54523624317,-2.25346566401,-2.32550837767,-0.668094688095,-2.02449161789,-3.01005435989,-7.76564863331,-3.81920452013,-1.03685289,-2.13936838288,-2.54963334681,-2.42708191791,-1.91345703592,160.933602704
off_to_on,2.34887734237,1.07004431383,0.459919531382,0.337525504295,1.87035126632,5.94007818211,-0.0456147789169,-0.377492741749,1.01684856952,0.18292885462,0.44649307484,-0.0743549531499,-0.273896698304,92.7506891569
off_to_on,0.338150222186,-0.282168960679,0.016723582469,-1.52303511953,-0.336792716673,-1.2770949567,5.16000811891,2.26196164041,-1.07436134434,-0.09180419185,0.00154098430704,0.537778647233,-0.952134487257,-94.4796282686
off_to_on,-1.98144932961,-0.725991776701,0.507723810144,1.91726986523,0.105317274234,-4.07026019858,1.62374115733,1.74091647391,1.08118815497,0.787936308382,1.11852058069,0.0632507233731,0.948751216569,-116.324279635
off_to_on,-0.6607339235,0.233161933314,-0.937028685848,-0.686482969656,-1.23424507795,1.89887939721,-5.55911550535,-3.77986566342,-1.01613249697,-0.399039414293,-0.974009340169,-0.845664556019,1.23921374029,118.011555279
off_to_on,3.72824401574,2.45525930546,1.4856004563,0.141750560728,1.70286368707,3.97573942807,-1.09752014656,0.0398926185814,1.00822408614,0.62490568969,0.501952173944,2.09998235523,0.262459278732,60.9081266016
off_to_on,-2.04333346094,-3.02929520072,-1.70513650578,-1.27646775739,-1.15929464405,-4.32019682706,3.93108817594,2.01085230751,-1.05279097811,-2.03683130619,-1.58887522014,-2.00312198724,-4.10911449892,-59.8820473872
off_to_on,-1.3679720212,-0.228199351573,0.893125024107,1.8818956882,0.675450552668,-0.256035578331,3.42490980831,1.49952879764,1.02656913467,1.79397725987,1.99785851179,-0.181849687301,2.50056082874,-74.6226632288
off_to_on,0.477183747038,1.47637976264,-0.250356477817,-0.782762346176,-0.560896067949,1.53535139191,-6.60908230884,-3.86948353678,-0.96326753315,-0.0741469346491,-0.215622158555,0.538140474998,2.13026310829,41.0435754334
off_to_on,2.90390181252,2.11486977431,0.930822255407,-0.00502274147502,0.777248877916,1.77511969553,-0.334600131491,1.32386927031,0.978971262736,0.564838605627,-0.321569823036,2.52099241168,-0.524050240515,65.5532055303
off_to_on,-2.96294904459,-4.07608049947,-1.60581671077,-0.873329420985,-1.45644531422,-3.26780748023,3.99979716219,0.74291950741,-1.00816890676,-2.45198483528,-1.92346908871,-3.61491122087,-4.50310318608,15.7406597194
off_to_on,0.348223528899,0.687561450361,1.10256726367,1.7244286887,1.75596501584,0.98022925557,1.36728769735,0.704437704015,0.937194305115,1.50713590646,2.63767015202,0.118798812731,2.98013296947,-119.883623142
off_to_on,0.402530133942,1.81898340885,-0.655993540837,-1.14131407289,-0.750888943351,0.690914694265,-4.34896128952,-1.62360565972,-0.861627810552,0.817398882858,-0.0589632201634,1.97802970897,2.25522673096,-5.28041821687
off_to_on,0.539979903603,0.544646572602,0.990363537534,0.442506511217,-0.24507430204,-0.0713588561069,0.110368159822,0.422981274716,0.899922319144,-0.0117145828297,-1.02673346791,0.72852181003,-1.3479557209,131.682605996
off_to_on,-0.491006405438,-2.40579295535,-0.825879923991,-0.860912633936,-0.604486042424,-0.58412880376,2.04315809147,-0.396918273336,-0.928587580498,-1.91334584162,-1.39802306481,-2.52652183418,-2.96274110564,-3.37552783128
off_to_on,0.301091687942,0.508568842896,0.115018219069,1.27137327203,2.03365352411,1.15284279813,1.2032154843,1.592791433,0.805038921994,0.656966957581,2.51096674107,0.192330840138,1.89649412565,-98.6410622572
off_to_on,-1.41360624152,0.469896185333,-0.514487056856,-0.649656348498,-1.49472359229,-2.39030326164,-2.32610668867,-0.907474114579,-0.66556916269,0.867965694227,-0.249993576826,0.854511490816,1.38301291079,-79.45955268
off_to_on,2.00094153137,1.52707957595,1.67041626771,0.122003388492,-0.178555849043,1.93297633717,0.00706357844124,-0.339167149319,0.709751274428,1.42656158846,-0.757604298976,1.88543538497,0.564831106942,191.816784794
off_to_on,-0.984546124877,-2.20364555201,-1.55635395214,-0.692371508799,0.128161335212,0.905700803077,-0.70647268185,-1.20380735041,-0.843066234107,-3.51865416897,-1.37291616562,-3.00181993362,-3.71253323179,29.0548364401
off_to_on,0.304496587273,0.511805877845,0.453744797843,1.28663784199,1.34465742365,-1.53018609759,3.34046468566,3.03645412297,0.799071177275,0.986706200037,2.2568855577,0.46655317704,1.52650083489,-176.033646632
off_to_on,-0.47686378437,-0.0403194448596,-0.145731688442,-0.795344189828,-1.44297126068,-1.89230954428,-1.05334695839,-0.910127624459,-0.550742492489,1.78677014462,-0.213328651087,0.848864622034,1.60441708656,-50.216885006
off_to_on,0.113853653016,0.736668427667,0.405038895505,0.0502120806333,0.0854280003571,3.72767591796,-3.163763843,-2.11208079169,0.39538050932,-0.128073219647,-0.770611032666,0.44942033932,-0.113477477304,204.545245883
off_to_on,-0.109912839023,-0.138664294495,-0.341601876781,-0.231541181637,0.142113442836,-0.494957079331,0.792815079147,0.500914460592,-0.553151328837,-2.09540206763,-0.727857063152,-0.692809014193,-1.90275622609,45.8438356689
off_to_on,1.45588280279,-0.142367896448,0.66811329612,0.925676259034,1.0111858387,-2.91175441667,4.38071191003,2.93758267896,0.779929150818,0.714006780156,1.31947523126,-0.120565900286,0.426476019437,-241.425463169
off_to_on,-1.28035775329,-1.29272566582,-1.29306311161,-1.04459969877,-1.08195918419,1.9366457465,-1.77489750431,-1.59891775032,-0.641496874298,1.07992011534,-0.0700391657939,-0.564767090227,0.810159997323,19.4158354656
off_to_on,-1.48829064835,1.14137056462,0.595492498958,0.495874026818,-0.239528826907,1.19742585164,-4.60925061686,-2.24528040992,0.226263214752,-0.0185828687562,-0.154818034644,1.05247961697,0.485102135829,179.886459821
off_to_on,1.71316785292,1.02430026087,0.679464430596,0.017919322282,0.367972140201,-3.1387841578,1.60564572129,0.973983407126,-0.122382971474,-1.48455082065,-1.02684644205,0.288077934802,-1.09499090557,9.444061933
off_to_on,2.55326812275,-0.288552402613,-0.0664481915857,-0.0789357697274,1.19123885621,3.05031277222,7.13351867998,3.75049157223,0.450269471041,1.25239750235,1.08681678635,-0.10029345873,0.477617544851,-184.190441334
off_to_on,-4.19492619717,-2.80625268233,-1.36799793265,-0.185545009947,-1.54384688028,-0.315872871824,-5.11054661143,-3.00351165312,-0.571483756724,-0.621295260367,0.0482125545995,-2.33031075898,-0.986258169785,9.3332409708
off_to_on,-0.458684504849,1.77410715421,0.838543403873,0.450591916765,-0.332918208784,-3.09332004045,-5.79741584167,-2.66365442913,0.184296143553,0.160237389806,-0.256263328586,1.89293093475,1.08558456177,144.031447998
off_to_on,3.55432451624,2.14702477645,0.307489333815,-0.461554478529,1.37006217161,1.76684208223,6.18313144698,3.14974185771,0.103535379746,0.589942842971,-0.420864725329,1.62838922956,0.835552161254,10.7722086405
off_to_on,0.09251206039,-1.42166662141,0.208290868783,0.185345175136,0.219465770622,3.42282914363,5.01299248961,2.52098262205,0.114974793954,-0.366627662342,0.451973331609,-1.80661620486,-1.19041345461,-128.048259992
off_to_on,-2.99781036282,-2.02733170887,-0.190985474654,0.158121490933,-1.5637815884,-3.41671366982,-7.01092271352,-3.60489127491,-0.291637071598,-0.837164235,0.0471224355515,-1.34766617322,-1.11418652345,-23.2336445479
off_to_on,-0.40502854225,0.425803044982,-1.54095792704,-0.26723474697,0.208498796389,-2.89814657493,-4.01120197936,-2.28118946599,-0.00704005619666,0.22763614602,-0.245822535555,1.00319680537,0.938742642362,118.37135123
off_to_on,2.93778915585,2.86799814692,0.864480707179,0.0322580322128,1.46005737091,4.38559227356,7.17162894439,4.08349754402,0.268743881311,1.76721690087,0.30948589482,2.03940584649,2.00869582172,16.6028881301
off_to_on,0.71884679018,0.107400202248,2.59991529768,0.256482988362,-0.607313344802,1.9094303652,3.2998825368,1.78986285776,-0.0588834453823,-0.876488002739,-0.233240647862,-0.750262814684,-1.16033838373,-76.3953976173
off_to_on,-3.24664450636,-3.99765738612,-2.05255686614,-0.092871962465,-0.971086525206,-4.21907895619,-7.16670505938,-4.27084483279,-0.132252096665,-2.27419439887,-0.341195105726,-2.87718800864,-2.86925105445,-57.5404386118
off_to_on,-0.54263663901,0.125874835772,-3.04969952303,-0.538121723446,0.390425036523,-1.38026782428,-2.39550284983,-1.1896030827,-0.141092582979,2.003764343,0.596803106135,1.32992566623,2.02357117737,99.3357073087
off_to_on,3.20273304586,4.45758611636,3.42707407272,0.868750525938,1.04756830072,3.38520748666,6.15945513027,3.85633586062,0.441086374251,1.57514837139,0.264527209515,2.59811998954,2.64253685851,18.0853591675
off_to_on,0.470722942109,-0.223671758232,2.45492237328,-0.368182039824,-0.625397435059,1.94354024702,2.91514922405,1.23782781189,-0.319970780398,-2.2282873327,-1.00044211194,-1.19654743799,-2.13909001635,-29.5268661725
off_to_on,-3.09505429573,-4.56712190217,-3.71104773005,-0.258574830748,-0.617746591992,-3.29016760003,-6.30266593197,-3.54957763667,0.121644135401,-0.594330581773,0.465103692508,-2.17778139011,-2.2106246639,-85.7765159486
off_to_on,-0.802040167946,-0.392345526638,-2.50965787451,0.022045523407,0.0718643541379,-2.70992368597,-3.44266047627,-2.19744483291,-0.26092968888,1.0396445236,0.0207273858498,0.015241547323,1.12729935774,84.3134411269
off_to_on,4.39018581422,6.12661256113,4.82586180329,0.721915112682,1.40534516247,4.95261125726,8.53556464283,5.43055494234,0.514407154633,1.5998671667,0.650351532052,3.67297818664,3.59502811773,15.9693092213
off_to_on,-1.60432850165,-1.48815129145,0.774412865943,-0.834531937985,-1.12432731356,0.378132875885,0.0904502641576,0.137405921741,-0.551906510863,-2.0456844761,-1.01374328417,-1.40588089812,-2.49978468807,4.19483642336
off_to_on,-2.47300508668,-4.84025896748,-3.49938850971,0.333462442403,-0.436587902366,-3.81632336627,-7.2711336093,-4.72215037871,0.484379737669,-0.397975625464,0.160227837392,-2.64018792873,-2.4161371352,-95.9313335861
off_to_on,1.74005482572,1.33956146099,-1.20008136432,-0.261216469657,0.48711579738,0.932703470032,2.22208560707,0.668732233766,-0.512660032118,1.11090343772,0.133420674148,1.06200896417,1.80995950159,67.2377268164
off_to_on,1.4153788177,4.60293799682,3.81183379621,0.732650539108,1.1638175865,2.50912519313,5.14198748326,4.56340593285,0.591118242926,0.665925757672,0.965631725383,2.56431472397,2.56077380642,9.41936217212
off_to_on,-2.18019124384,-2.1775661714,-0.0141733142912,-0.829305220467,-1.85245757441,-2.75094408677,-4.30041729666,-2.74239704623,-0.646946828163,-1.25847395138,-1.37579499194,-1.53979546335,-2.16919566039,28.0453051452
off_to_on,0.508593250719,-2.83322626875,-2.14626617057,0.482906219062,0.56840892331,0.741096539231,-1.22043321055,-2.00147339934,0.701690393261,0.0462717690803,0.177186401658,-1.40162845563,-1.45187961958,-90.3117156906
off_to_on,0.824805468327,1.20767856888,-0.974865229446,-0.577892515916,0.507627496397,2.15189630614,3.60891494326,2.15455210163,-0.731272713449,0.110223603524,0.352279730593,0.64242651842,0.965455262569,47.0847924637
off_to_on,-0.0070114912929,2.97190902484,2.90016404895,1.02029361418,0.364998980197,-2.03977089544,-0.486111255523,1.67169286338,0.721670053394,1.41927444263,1.00186753495,2.19810769997,2.42799248363,1.37745694412
off_to_on,-2.27363665625,-2.83213110923,-0.921295844622,-0.812091547307,-1.80048119718,-3.59001902023,-4.75666194835,-3.92155195083,-0.760066726997,-2.42164885225,-2.05413884744,-2.88832978945,-2.90506229134,42.9446593654
off_to_on,2.80177417186,0.734898335777,-0.253604103136,0.263723679625,1.60347981136,6.75385961256,5.11752053351,2.1620827821,0.853281449011,1.57033800523,1.17459105476,1.37377595365,0.973817036206,-74.4242918001
off_to_on,-0.138501847433,-0.192970852825,-0.732171297924,-0.67922807171,-0.19446301952,0.151507131909,1.38666142368,1.01660700761,-0.876508123417,0.247378363111,0.0409347029577,0.485650951004,-0.0125382448355,26.7836236164
off_to_on,-1.59978189455,-0.218068643852,0.878810357274,1.59600316281,-0.146082746061,-6.7818665852,-5.12490475628,-1.40542541398,0.834080880541,-0.956867782638,0.167339735172,-1.20386513365,-0.242663712148,-6.11897445033
off_to_on,-0.919877401417,0.249066001706,-0.565597691525,-1.27017581955,-1.11576148567,0.348496251148,-0.871484157182,-1.41954511166,-0.869655002702,-0.665734747664,-1.06388895623,-0.546900437459,0.0985627217997,48.7422891996
off_to_on,3.17908892225,1.79184886258,1.51325969166,0.17033516088,1.96766074831,8.41003684014,6.21694121384,2.79362854139,0.963994084279,2.56639948703,1.27211120645,2.89565224991,1.60572051206,-52.6342342891
off_to_on,-0.573907025415,-2.62533206984,-1.59711342541,-0.477852926675,-1.08376777975,-2.73091226318,-0.725459780736,-0.295419597257,-0.968863778465,-1.46692383883,-0.892797755788,-1.608627788,-2.62835343443,8.96390273826
off_to_on,-2.00866610541,-0.227281201708,-0.110031873514,1.82087943664,-0.0502901085746,-7.34701530432,-4.97012497796,-1.28327259706,0.920277582466,-1.16922701918,0.692178259753,-1.6969612769,0.288875151421,-11.9277072677
off_to_on,-0.942107893276,1.48031714812,0.0827435917607,-1.62687286902,-0.44980879245,2.4880049688,-0.912625442224,-1.57000318397,-0.958528755218,0.438303896227,-0.835254895822,0.566772503209,1.59546876575,46.2646133797
off_to_on,4.25359981342,2.02676903051,2.14129440324,0.0709851387663,1.80862161953,8.62665239666,7.27151962885,3.73149246109,1.02863162738,3.06909499616,1.09244396585,3.82700682174,1.16278334292,-28.5713777524
off_to_on,-1.8067573076,-3.91694946312,-2.22086134294,-0.0219806974891,-1.91047683561,-5.59084724713,-1.73075789922,-0.994039823311,-1.00741644027,-3.40328762518,-1.29856902358,-3.55869365467,-4.15982478781,-7.07474435855
off_to_on,-1.26131646836,0.800547519539,0.142873425807,1.64699677541,0.7826782433,-4.67041515931,-4.11063194484,-1.22116564825,0.970721001852,0.181332549733,1.31016887835,-0.636113293188,2.17108829604,-6.23881420112
off_to_on,-0.926221350975,0.757818503802,-0.423083313008,-2.0654945303,-0.36406924008,2.66481511829,-1.4881944079,-1.45389694598,-1.01951320051,0.540509094442,-1.04546315429,0.47039335854,0.823271853613,17.8507378842
off_to_on,2.89412052757,1.6718310795,2.17187802095,0.775457967111,1.09823209533,5.62075336013,5.80525244393,3.17312734223,1.05711533889,1.83385870143,0.668396592194,2.80582738356,0.085005125435,14.9246300809
off_to_on,0.414006231531,-1.34803881291,-0.873976666665,-0.30203220883,-1.4325968109,-2.83407312748,1.5483029242,0.134958534441,-1.00665366686,-1.40135624568,-0.52252050811,-0.912901657837,-1.34067558189,-14.0451861744
off_to_on,-2.23516803896,-1.99655915868,-1.18891589162,1.20146098971,0.911141978875,-4.44339077143,-5.626643717,-1.84866410406,0.983052567398,-1.62030146073,0.800826587408,-3.07130952739,-0.245314392823,-49.7930306311
off_to_on,-2.2855811333,0.150972140724,-0.981113859332,-1.46705185836,-0.884665191177,0.509904359295,-3.4483907706,-1.92921561643,-1.03885245761,0.416221375114,-1.26338248185,-0.327312757304,0.0909153717107,67.505801743
off_to_on,5.10782447773,5.38304537971,3.9936109164,0.826056979503,1.5622897169,7.0851561972,8.76821163869,4.05833748263,1.0454850307,4.40602437189,1.42864769538,6.51200129414,3.58679256137,3.52782299389
off_to_on,-0.818279704334,-3.93468995039,-1.98182526784,-0.828874739015,-1.38786310837,-3.32902575058,0.121224825297,-0.778978945629,-0.974278301157,-4.31382960366,-1.15777596354,-3.74111901023,-4.0376489004,-48.2249925881
off_to_on,-2.46273254878,-3.01355671414,-1.61902535824,1.24906274553,0.21562573413,-4.4730574038,-6.23748772037,-1.07989058917,0.961806088366,-1.38261071245,0.804891846084,-3.7710062231,-0.898445845369,0.491045087874
off_to_on,-0.864285905563,3.03590067263,0.588381985519,-0.835663154464,-0.0302670553276,2.12998149201,-1.22182964634,-1.44353240391,-1.01374824461,3.24792075851,-0.727510202055,2.73590669832,2.95634331326,51.215906931
off_to_on,3.71018377511,3.87129161029,2.55367503977,0.401224569267,1.41203265261,4.87230491251,7.21880203082,2.39742527908,0.991437753466,1.89881475502,0.964585760138,4.56114690146,1.76532438039,-23.1904173492
off_to_on,-1.43086024716,-5.38081486686,-2.4937172725,-1.10995917162,-2.21933469862,-4.4945353344,-1.80892566465,-0.464242249568,-0.911014076131,-5.41443575344,-1.26386630139,-5.11234682532,-5.20552331304,-53.3224568966
off_to_on,-0.437136847951,-0.310208730642,0.630319647174,1.67318415477,1.07772249242,-0.519497735821,-3.41771150928,0.467644330041,0.907803473577,1.55082512533,1.16093339258,-1.13417485899,1.51873524805,95.4086427546
off_to_on,-0.37335204497,2.986422152,-0.0332381385982,-0.896571727713,0.369456751456,2.25467716567,1.04727340213,-1.34812068176,-0.94573160055,3.40257580635,-0.543267548653,3.3266457947,3.14060663029,-52.44186201
off_to_on,-0.282404591785,0.11881427462,-0.157670798348,0.298713059932,-0.0813383974899,-1.0345282781,1.64450597541,-0.451305641732,0.897934485319,-1.84393738817,0.220619273761,0.43897242668,-1.67041285676,-29.6603186563
off_to_on,0.732057887295,-2.45352788,-0.143376379011,-0.975266652558,-1.47001766491,-1.22103439938,-1.95109653472,0.593564174023,-0.818371338737,-3.49162651823,-0.89705831749,-3.14718576352,-3.03977414429,25.9939377626
off_to_on,3.25045415654,2.25519789166,2.47513880466,1.28045263935,2.27851982051,4.4587389042,3.46979760801,3.75591465412,0.82141726189,4.729097831,1.70641622172,2.684618322,4.29463751358,72.642363471
off_to_on,-5.46264522,-2.1964200016,-3.51855734493,-0.394123924927,-1.36415118441,-4.32612306969,-2.4573155154,-4.36715365382,-0.838027018582,-0.73903227895,-1.28917166242,-1.52932527372,-1.37196364625,-85.8333823485
off_to_on,-0.764665308168,0.707936218093,-0.391518823676,0.167272203457,-0.38091568994,-1.57999764553,-3.27760847338,-2.30361719426,0.76982148211,-2.473338378,0.0844489056475,-0.434596007815,-1.65234657883,-44.3014487435
off_to_on,5.86837835477,2.33248837796,3.56427449449,-1.15403042935,0.899886015198,4.63256692855,3.34102847436,4.53485088408,-0.698256995334,0.867249903745,0.105977950962,1.98423183118,1.48176607904,85.8327854584
off_to_on,1.21871626229,-0.365382611555,0.987879631311,1.29307391733,1.08078227287,1.88526088196,5.98505306512,3.63717937423,0.703714180594,3.32670058074,1.24649358635,1.43269635518,2.31727208363,64.3809297089
off_to_on,-9.73361091063,-6.05469804513,-6.64137753721,-0.217883451388,-3.36848544748,-7.95521519244,-8.82290564348,-8.3484374298,-0.695827526447,-4.71560069066,-2.28372331667,-6.50208124421,-5.58182342834,-129.805072357
off_to_on,2.70029271478,3.99804272832,2.12866988527,0.0803804722399,1.74691235008,1.57632829238,-3.54795290014,-0.586144799223,0.613822055084,-0.201044500606,0.788176685489,1.95132359657,1.49190741569,-29.5481269808
off_to_on,10.8896080457,7.71544548939,6.99350408897,-1.06063641818,2.83510046684,8.88837350445,12.763657261,9.65197052028,-0.55389737091,7.04500588077,2.0905674186,9.44193095578,7.53828356336,99.3284231513
off_to_on,-7.16378978486,-8.47909133518,-4.60248669285,1.03378806913,-2.95565858428,-5.43028782641,-1.62650021901,-3.01220744956,0.557176142209,-4.55403216073,-1.65505777385,-7.34194250661,-6.5378544012,82.7537433848
off_to_on,-10.932537936,-8.55412140093,-7.60455440095,-0.0426680268544,-3.35127212108,-9.20164328877,-15.0067690764,-10.233668183,-0.525478473356,-8.2231788323,-3.17466442124,-10.9378270866,-8.3384259883,-164.45832616
off_to_on,13.8482209792,15.7448033945,9.42626103186,0.0949113814534,6.13200812135,11.8428862167,11.0249734032,9.30848253773,0.437340195853,12.3935422729,5.18767857663,16.1610076183,14.5573224274,-28.1038356737
off_to_on,5.54997399104,3.63726746887,4.02414035227,-0.867625286862,0.839861501791,4.2532486236,9.19044219914,5.2214844051,-0.38991846817,3.21171279291,0.706626635597,5.47889706576,2.79989916543,105.692187195
off_to_on,-15.9557357237,-18.5439785322,-10.9988823572,0.50756002862,-6.67922603635,-13.9473477982,-14.9231839968,-11.1590527319,0.386483936441,-15.6788438473,-6.02682490357,-20.0247976581,-17.6700222263,106.835654442
off_to_on,-1.21502518298,0.540815899247,-1.14307193766,0.323694186409,0.596368580691,-0.618473851711,-3.64618302438,-1.08768367254,-0.334508677687,1.31557379652,0.783603257473,-0.25724121516,2.08690179046,-183.796681231
off_to_on,17.4946834562,20.7216737329,12.3575672734,0.146747705071,7.46740088544,16.2208156866,17.6137791379,12.2567508153,0.247743362229,18.0036765929,7.13469925307,22.6476573985,19.6179424645,-42.2302352922
off_to_on,-4.37916341069,-6.41433760766,-3.15090931085,-0.994085451977,-3.08538913863,-4.93016237144,-3.78242051245,-3.93241327163,-0.211705815088,-7.25873544713,-3.30372490118,-6.65448266708,-8.0620265601,109.631887198
off_to_on,-15.8853117615,-19.0842154729,-10.7095978891,0.462957654005,-6.09185205356,-14.91729396,-15.9618522773,-10.6192315556,0.198141566871,-16.7191335909,-6.47267966028,-21.1417454558,-18.09845333,134.581928961
off_to_on,8.1061171271,10.0513173798,5.26036432573,0.472177262844,3.73953598751,8.18898711237,8.86536486636,7.09765865706,-0.131387941151,11.076892325,4.71185819681,11.4101624771,11.9265704638,-194.441667303
off_to_on,13.2813687711,16.2717262636,9.06812222646,-0.18477301419,5.10191773564,12.9098140896,12.7965599457,8.3755823586,0.0522736831849,14.2600943697,5.54241426359,17.9025180257,15.2333605577,-63.8154053142
off_to_on,-10.2750238449,-11.6531735305,-6.60940380945,-0.430407145407,-3.97806162195,-9.67240655457,-11.7118348632,-8.86953947358,-0.0252153201575,-12.9606238454,-5.47872228634,-13.7054855576,-13.4606245864,112.915956338
off_to_on,-10.0815145499,-13.2329118856,-7.04122673031,0.0403740767714,-4.08007517631,-10.9481464688,-9.0135956119,-5.98382414185,-8.87831781267e-05,-11.3293986849,-4.34875679851,-14.2189030792,-12.3181960095,158.016882765
off_to_on,10.2183134308,11.17027853,6.5947840999,0.517823197794,3.64669166375,9.39281747837,11.6139426732,9.08375769679,0.0750232714702,12.3121280671,5.25525455289,13.2004437771,12.7516726341,-194.232564183
off_to_on,8.43125956866,11.6589705443,5.87267842842,-0.216379568878,3.31751553461,10.7272692061,7.52662247968,4.77915709299,-0.14207640787,10.3757263309,3.75495246322,12.6559582922,11.2204117031,-90.094276001
off_to_on,-10.4468749762,-10.7462005422,-6.44878537333,-0.205761461444,-2.87415477093,-10.0863983326,-12.1200285391,-9.48364805583,0.163153690769,-12.0136858504,-4.85079856161,-12.9988923471,-12.32625442,117.544287548
off_to_on,-6.73919900661,-10.4425417718,-5.16537841136,-0.0187474051906,-3.33043719315,-9.98103838366,-5.95589042341,-3.70227809186,-0.199742235582,-9.83626601178,-3.61707085907,-11.5534465155,-10.5306661035,171.615086917
off_to_on,10.868656341,10.8903921269,6.87797400834,0.415620633034,2.91664220991,11.2555432498,12.8023479981,10.3635518294,0.275989401171,12.5940370123,4.96757700202,13.6608745479,12.7342837976,-182.916395111
off_to_on,3.48788898036,7.65529484002,3.30579559786,-0.540479904269,2.35401632411,6.9459605316,2.74991181936,0.908039439293,-0.328638462386,7.29212707537,2.49784178966,8.47007250655,7.9101338201,-116.814481364
off_to_on,-8.47429247036,-8.68550723402,-5.6679563931,0.447982507235,-1.66610002125,-9.4033653673,-10.453868033,-8.58795693804,0.34668851637,-10.4062922523,-3.54453262784,-11.6774084225,-10.4882114575,121.605924621
off_to_on,-2.49216448915,-6.60067459026,-2.77391717228,-0.109578404465,-2.81691428678,-5.36549975497,-1.85901496287,0.0199525933171,-0.392197584328,-6.70667313422,-2.94059495749,-6.98014511782,-7.1530607291,175.784028253
off_to_on,6.62109693731,7.01944670431,5.22271023817,-0.0370050196438,1.7744370342,6.84600398423,8.30339491232,7.09515849807,0.463363603293,8.74058509782,3.28082138144,9.74159421481,8.80693309715,-163.674167921
off_to_on,1.7158100171,5.27423843561,1.31012364528,-0.69946511218,2.01865647658,4.77316897295,1.72757824017,-0.945823605927,-0.501146174052,5.94127470178,2.4209138289,5.56051762646,6.01625973221,-140.244590243
off_to_on,-4.15683205697,-4.36796706124,-3.04689470448,1.43557668399,-0.477831985318,-3.50002779575,-5.87103700087,-4.36501116805,0.518524871572,-6.09625611323,-1.77717668493,-6.81384870481,-5.93633611842,123.735754873
off_to_on,-2.67501527843,-5.59249113917,-2.08734578129,-0.640809777478,-3.05756273616,-6.83403423891,-3.38795460668,-0.461052736332,-0.569140147235,-6.88813659697,-3.64705339674,-5.74682435759,-6.64380215996,172.467149849
off_to_on,3.71770769538,3.5136456208,2.98381623691,-0.570009983108,1.44365132053,2.99911006186,5.77905234212,3.95852413963,0.629925785805,5.32396157167,2.42688217778,5.29504151565,4.81640098391,-140.416162722
off_to_on,1.75142207032,3.90361478224,0.903798098702,-0.179542460987,1.74363423633,7.26415491183,2.88943756526,-0.166312231139,-0.653840575691,5.83100715784,2.52580850615,4.3544465136,5.35797958365,-158.322412418
off_to_on,-0.978948411901,0.192761993868,-0.506400970265,1.7989167164,-0.166635875397,-1.45143375197,-3.40801429828,-1.0319920734,0.671908057454,-1.93292025807,-0.619029018773,-0.948722210941,-0.842246093115,123.998666956
off_to_on,-4.09596150507,-6.1298070137,-2.94762935666,-1.27835790544,-2.81181640181,-10.165537637,-5.43006795941,-2.74726657468,-0.722977484904,-8.25520850697,-4.08465960626,-7.20573891397,-8.16359539062,163.891014283
off_to_on,2.0062038951,0.168719783111,1.60475839885,-0.399116046398,1.73109921625,4.41556716134,4.71451192844,2.058673969,0.769596644807,2.37944030311,1.77426914175,0.948596633778,1.2872019971,-117.110890139
off_to_on,3.24735252863,5.42627136421,1.86823063956,-0.190552905736,0.69585858515,8.54872775104,4.69311432478,2.46475698871,-0.781580124472,7.49653923571,2.63184771316,7.17571604046,7.70292254759,-170.013403001
off_to_on,-0.854760676991,1.08993704335,-0.23396998711,2.12491073231,-0.180709150697,-5.15274128612,-4.00433932966,-1.06626127747,0.800521668171,-0.87779007036,-0.181713618642,0.296378297584,-0.0928377829618,123.08896256
off_to_on,-4.15332798982,-6.20407286067,-3.19310899968,-1.63805015805,-1.4450344511,-7.21368099191,-5.10810098251,-3.83023637809,-0.847211453197,-7.97248156589,-3.69112513548,-8.1428187851,-8.40412646124,152.228669073
off_to_on,1.91778742163,0.0782004305263,1.86204429862,-0.450215588584,1.47164960903,6.71012336838,4.92586707034,2.49104473943,0.877569813456,1.05394926912,1.22229681846,0.638083384302,1.06295189085,-97.0105030323
off_to_on,1.98444202871,3.68241459012,0.862875873003,0.088409827311,-0.961653312453,2.86422249277,2.45535397764,1.67648238911,-0.879965871568,5.56678025932,1.6924241769,5.59850138525,5.64061413305,-175.293917756
off_to_on,0.81555679951,2.25986730329,0.358909944594,2.15369250264,0.774697625552,-3.76005025835,-1.58011219532,0.15314848427,0.898840511356,2.80688559527,1.27361430821,2.4943523103,1.98529529715,121.978621565
off_to_on,-4.04232746404,-4.64953507675,-2.15059528019,-2.0849789684,-0.250445540854,-2.82674666405,-4.35008073584,-3.57897409949,-0.936742971038,-7.79869534097,-3.5913713306,-7.14507849844,-6.82281907916,139.30152588
off_to_on,0.976467274604,-0.759185862795,0.878455839503,-0.140927770129,0.39364057035,4.4612276554,2.5294109231,1.27407891938,0.950385236377,-2.08053860538,0.287897048009,-1.40955060679,-1.10763949924,-82.1355808865
off_to_on,1.2569393371,1.0356899903,-0.351832717984,0.424099144995,-1.94326557501,-1.28679098198,1.99020315027,1.12342083128,-0.945483592257,5.87539690073,1.47354260002,4.10392676777,3.68727497598,-175.057766019
off_to_on,2.21234184721,4.38400873005,2.25616821934,1.6566890235,2.29057604181,0.0226649843579,1.03461902232,1.81701749211,0.962467124123,5.20020693001,2.0543136196,5.14032869865,5.1004718067,121.80311771
off_to_on,-2.91444215914,-2.09766570984,-1.55185511794,-2.45599343276,-0.121755163898,0.396449062292,-4.0224182332,-2.79635342352,-0.988090763369,-7.76045235865,-3.16433176914,-5.4047171994,-5.39417371394,124.579012739
off_to_on,-2.2492632308,-4.86733512392,-1.82623911597,0.950937798669,-0.919784303163,-1.55308134593,-1.2609065898,-1.59245716155,0.985960385976,-4.79450574828,-0.751781156943,-5.87898577237,-5.38252282574,-64.8083139361
off_to_on,2.57427691943,1.40203468644,0.752963398217,0.116259078331,-1.38422219849,-0.712346488993,4.17479303205,1.79951678262,-0.975654654861,6.92797708181,1.45237106917,5.08009915401,4.90891796813,-191.856903066
off_to_on,4.40755733071,7.38248110069,4.34928042528,0.602805202994,3.15356956579,4.98949852331,2.97775068647,4.11495426355,0.988413355993,6.59309010222,2.79676096416,8.32441628627,7.5798736972,152.825931061
off_to_on,-5.75888322416,-4.51935230155,-4.11549307057,-1.51208163576,-1.28490077564,-3.11036640374,-7.37834359866,-4.3982535066,-0.999509884796,-9.03302360809,-3.38246588155,-8.2715674268,-7.84433143002,98.9889818454
off_to_on,-1.64810196291,-4.61346939242,-1.89983851543,1.38974953058,-0.884583793578,-3.12540093128,0.793541627664,-1.98128405047,0.983587822243,-3.88439147019,-0.821687219311,-5.33698752553,-4.54057597949,-93.6832020109
off_to_on,3.7334264138,2.37793451169,2.85260999828,-0.840344753238,-0.265744772382,2.22293847284,3.93812301721,1.73622395198,-0.969181109117,5.51632206003,1.13607344432,5.5931961597,5.0552231391,-117.91627202
off_to_on,3.54641091838,6.33847365489,3.32794133792,0.681152658156,2.46171175286,5.31295382586,1.15092189141,5.09375888451,0.975300337216,6.89130867178,3.0302332972,7.50619582341,6.50906572194,115.870468318
off_to_on,-5.86036758939,-4.42119587398,-5.36889000966,-0.942193415616,-2.09165592091,-5.78916443031,-4.50930973867,-3.90634055799,-0.971008394029,-7.08964669702,-3.05740378,-7.44207787706,-6.4665289248,60.0651257836
off_to_on,-1.52196351253,-3.83798156815,-0.531806730622,1.20650343158,0.142919615847,-2.61932512096,-0.102120743699,-4.13324360912,0.943902786623,-5.92957748392,-1.28592671142,-5.53119825075,-4.84417930784,-51.8217578784
off_to_on,4.38859847684,2.62521930757,3.57363048924,-1.1160767101,0.338779858562,5.32186794712,2.36082804036,3.01382226913,-0.926064938773,6.04296318892,1.51243562907,5.85891128321,4.8861654764,-82.559696592
off_to_on,2.66604508195,4.43907001015,1.49239706212,0.847795410135,0.890920447523,2.5272514367,1.78259140455,5.67543161308,0.923460844502,6.94796748878,2.67138726848,6.2233187463,5.70669834752,43.8866552188
off_to_on,-5.9625686558,-3.61497874881,-5.01348893483,-0.901297439152,-1.86847568352,-7.24028978549,-3.29938675865,-5.16564980167,-0.90427251725,-7.73306633412,-3.29173441711,-6.9800797289,-6.10864836508,61.1153091691
off_to_on,-0.505998904377,-1.93783535984,0.861626071571,1.10869637721,1.47924434763,1.18942806186,0.293161399544,-3.1353095614,0.868824166459,-3.97044155615,-0.30451007951,-3.49270753778,-3.05221004796,27.1211275543
off_to_on,3.93068230018,1.05343611155,2.75471446725,-0.818326132408,-0.311454010473,4.52096281591,0.0770231708365,2.97021525792,-0.847682069731,5.15754257801,1.22139400004,4.21425506731,3.5021634314,-132.763495405
off_to_on,2.23777658827,3.28313269582,0.607884177198,0.298611122461,-0.163726458691,-0.577313627334,1.75198000752,4.32858846886,0.834938272598,4.613057614,1.53152519606,4.69466069712,4.12683697663,3.75523689496
off_to_on,-6.30294441563,-2.64808392611,-4.18526795497,-0.468016914696,-0.853003924871,-5.46425840666,-1.06808036616,-4.13712388205,-0.802517278726,-6.05744287147,-2.57355620862,-5.68140473209,-4.85672072617,122.74572453
off_to_on,0.884286291544,-0.207618096283,1.52512345639,1.13204939545,1.9888927862,3.83665497389,0.846004020729,-1.78405518556,0.761471157001,-0.997969819216,0.746269110483,-1.13497680425,-0.627790174558,10.3302264518
off_to_on,4.41683041242,0.201840702559,2.20941418291,-1.23468123603,-1.16098536423,2.10231111438,-2.52111648541,1.34232988402,-0.736796028292,2.36056923596,0.437681324595,2.77170355988,1.72980301485,-115.564037544
off_to_on,-1.78857996989,-0.282029024286,-0.98068026049,0.719803608326,-0.770895185477,-3.68757124321,-0.221016774632,2.36277562322,0.713386225063,0.592712652852,-0.0316373858668,-0.0148404132257,-0.0337682587629,-62.5120653809
off_to_on,-2.77309323027,1.31109741919,-2.05641139885,-0.386859951785,0.525271687924,-0.223810349041,4.83546181457,-0.345469959979,-0.670282190436,0.313673683877,-0.564064376138,-0.151576512905,0.715756891494,174.762500341
off_to_on,3.49861985184,1.89412306968,2.55116311423,0.398269209022,2.1992855663,4.48688725739,0.401387202066,-1.31582467568,0.62605628287,0.504528569586,1.44862465499,1.88431936829,1.2582214756,47.3070528168
off_to_on,-2.84219822877,-6.53314158737,-1.84603548337,-0.518065575736,-3.22171222955,-4.65451594383,-9.95146534543,-3.78761459177,-0.597502027972,-6.19177782868,-2.24114210579,-6.55890056788,-6.48911433836,-195.782200446
off_to_on,0.776239530405,2.2213888201,0.563414274681,0.857621361669,0.0648367254199,-0.0941623120781,4.44030092139,4.70626072474,0.563880574588,3.97219801424,0.773011469239,2.76633589197,3.30341000956,-28.7674168394
off_to_on,4.69837957685,7.74339582731,2.60069714678,-1.06837171533,3.24964306912,5.10559854086,10.692690992,4.46688354984,-0.513190751728,7.77951894753,1.9634469267,8.94113605663,7.99690519212,182.348713241
off_to_on,-5.00337396688,-5.84724464109,-2.91518624807,0.367472580274,-1.18334377007,-2.48186815302,-7.45733101111,-6.74476188048,0.467753694216,-7.547710274,-1.09019796814,-7.3163119806,-7.36911443755,66.9273290517
off_to_on,-6.93642259896,-9.3060331595,-4.17044452259,0.574788138471,-4.41080200644,-7.0161326154,-13.0843150027,-6.4921042614,-0.435098827097,-9.90070198282,-3.5378417485,-11.3673410703,-9.56814626293,-262.169817201
off_to_on,14.0734837994,13.7364697898,8.66305074529,-0.0415331371382,5.07174123563,9.13699253143,15.097907235,12.4398177468,0.39266142308,15.2296914878,4.40903139748,16.6103449028,15.5241877368,42.6157639959
off_to_on,2.11538917026,4.35307708404,0.971537062616,-1.48401057923,1.85866104086,3.59268390363,9.70209312842,4.03471237404,-0.337689608436,5.89115302959,1.77384751138,6.50184800531,4.45097412738,154.753560699
off_to_on,-20.5004598969,-18.9045652663,-12.1239808787,1.41826632281,-6.77783137385,-13.8894694287,-21.349949339,-16.8699919183,0.292540555071,-20.6482864689,-6.10219820242,-23.3291987919,-20.8002453465,33.2349270241
off_to_on,7.25872024075,4.46075893412,4.13290936972,0.48814876164,1.22835440242,3.23861694857,-1.53858597886,1.7118874858,-0.255892037883,2.29913580316,0.695086870165,3.60243966954,4.85490738908,-206.824934578
off_to_on,19.8928951934,17.6986754356,12.1101820403,-1.26318706921,6.84782047057,13.5291782015,21.6709361825,16.8377068817,0.206825509919,19.7337159503,6.41129611544,22.3097348461,19.0312352165,33.9091501429
off_to_on,-13.4300195511,-10.0648079259,-7.90156724035,-0.2913302255,-3.97195260982,-7.61588882119,-4.9791565154,-5.77817422831,-0.15079689375,-7.64606932415,-2.9833016813,-10.5581925229,-10.585368217,117.858638256
off_to_on,-17.9821162286,-15.6585204494,-10.4425937551,1.41063842826,-5.39433191972,-12.917039823,-20.1164949264,-15.3182446742,0.107255233184,-17.5902258815,-5.42165134667,-19.1069303295,-16.1361657015,35.5110252376
off_to_on,16.6231815452,12.7590971176,8.00440830309,-0.154111600042,4.06635766939,10.4431827669,9.12054623642,6.1421816564,-0.0683117602365,9.75947965243,2.8381800571,13.3156487039,12.7606628926,-151.672797617
off_to_on,21.7351900715,19.8363910847,14.4809800351,-1.245353357,7.50406493932,17.909248031,24.1089298788,21.1266887902,0.0178474272379,22.1498574267,8.33352309495,22.75309357,19.9872901123,1.78680865963
off_to_on,-30.6454160952,-26.481229702,-14.3485530649,0.425084858754,-7.65808117881,-25.4513522164,-25.880019618,-16.9983624689,0.0353333935309,-23.5395195807,-6.94904559407,-27.9026498349,-26.227796523,92.6841300698
off_to_on,-15.5685869174,-15.0598551313,-17.7575568787,0.962105654908,-9.76265656849,-11.6322913914,-15.5562749406,-21.3679154612,-0.083240491264,-17.5073775168,-10.8209430707,-15.9797818054,-14.8383337276,40.6940642259
off_to_on,46.4047107698,43.2475516287,28.3149924826,-0.365886315293,16.6884967854,41.9438861486,43.6647001586,34.4009706957,0.137519735118,40.9970491355,16.1835149891,44.7753138801,42.9792896774,-99.7636560218
off_to_on,-1.69637611367,-0.90297211544,13.9619891453,-1.04092626718,7.34863942499,-6.52959850509,-6.59822310567,10.5609444869,-0.191604425574,0.322214346302,9.06183517752,-3.65942096743,-2.14629469453,-33.1871310538
off_to_on,-57.5167929894,-56.589619663,-46.3754480096,0.633429870625,-29.3061965462,-52.7067019922,-52.9752494546,-50.9684996171,0.221107924244,-53.5782336748,-28.907097235,-54.8168626141,-55.332177595,75.287603874
off_to_on,26.6303825816,25.4731686412,-0.490036010123,0.700513824295,3.00939538521,31.8565693365,34.5883360814,8.66268327235,-0.244922012147,24.5003380964,-1.44495630881,29.6829310527,26.7984958532,40.4117729195
off_to_on,63.5434329181,65.3146723636,65.9132068318,-0.168250184553,42.5696637102,57.7827350142,55.836668589,67.4165873347,0.307672592734,61.8209955407,45.7137757091,59.7059081322,63.6119863991,-51.5577224408
off_to_on,-64.1311658269,-63.7057051471,-29.8675447992,-1.5261438294,-26.525980705,-68.4698131471,-72.8227309928,-45.1950840221,-0.385583706266,-62.8094308105,-20.48900028,-67.8302602094,-65.2892904318,-63.1417294526
off_to_on,-46.1583858781,-50.4786958289,-68.9322109136,1.22797265123,-42.7288557241,-40.2098792546,-35.661621573,-62.6756123433,0.412351539162,-46.705965447,-52.6735019237,-40.9133371657,-48.1415655074,62.8268816646
off_to_on,89.286379826,90.7623832647,60.9159412085,0.649006934469,50.6903185112,92.3405202557,97.2923839467,77.1345408847,-0.408073947399,90.1045544524,47.5160267377,93.0580845229,92.2844254769,35.6479475296
off_to_on,19.1911325898,24.8878931126,56.6165997848,-0.552742909991,31.1977767672,13.874072433,6.16989191184,43.1164385716,0.456066384269,20.2728550476,47.3408609346,11.9553310018,21.89899811,-15.4393179322
off_to_on,-96.4812504589,-100.140057398,-81.2184954145,-1.51016551185,-67.9708565749,-98.3250339983,-101.307308517,-93.3804396141,-0.546845820381,-98.4869699302,-71.106750098,-98.1693183129,-100.86705518,-76.113146358
off_to_on,2.77097886705,-2.84396480913,-37.9229543868,1.70445978957,-12.4818370242,6.61728822138,15.1209917959,-22.6808939022,0.589659310878,1.27523571632,-32.3140522637,9.76585040701,-0.193241089298,49.1347267644
off_to_on,93.5839173035,98.5642420456,87.9519733616,0.364312521864,72.8466070221,95.1048200809,96.1137924013,97.5752540278,-0.582012280002,96.4156623337,84.5517855877,93.7359984333,98.880770086,25.7799853565
off_to_on,-17.3002805658,-12.4410200995,21.7272992018,-0.681610010805,-3.66073597109,-19.8371182447,-27.2949512616,6.2422677344,0.61464994944,-15.4854285469,15.0527699771,-22.8557407505,-14.3107633904,11.6662989218
off_to_on,-85.0060455579,-90.1966161599,-85.3850069474,-1.5189147329,-69.6331964523,-86.7053639977,-87.3065669886,-93.0438288352,-0.701098916989,-88.5302150884,-88.2480171579,-85.1767587591,-90.8312016284,-74.2404817049
off_to_on,23.9538678964,19.6857560474,-10.2894379594,2.15484436365,14.9348962556,25.7064918314,32.4956939291,3.96879565806,0.753191018243,22.2929817598,0.929513456579,28.9172330343,21.2710819329,33.0370883079
off_to_on,73.4938388299,78.361860231,74.8428154095,-0.102917042254,59.7660415993,75.3078456639,75.4928764423,81.9463535093,-0.74245605529,76.9901129921,80.5938201364,73.4496236071,79.0961191028,13.9008039189
off_to_on,-20.8879105649,-17.0657763681,9.86503183784,-0.673248952431,-15.7770569598,-22.1648900035,-27.9146503298,-3.35927917648,0.744174713742,-19.2028916034,-5.39511797919,-25.1394653516,-18.2587750044,30.4712273311
off_to_on,-67.5760250713,-71.7493825784,-68.6493421728,-1.21369510827,-54.1364199464,-69.2303870904,-69.4267198287,-75.1802363766,-0.794790743139,-70.7210949952,-75.4891376273,-67.4254261455,-72.6687809051,-62.767451692
off_to_on,18.9311436685,15.342335393,-8.57787823809,2.0979814521,16.4524581536,19.6499700684,24.3882681182,3.13351435585,0.838900873197,16.992834753,9.24533990345,22.4063363542,16.1918941371,17.2494536661
off_to_on,58.598077868,61.9214918536,58.867548736,-0.481783687258,45.9992612528,60.1682045232,60.6045210852,65.0330710502,-0.847444649971,61.4380384359,66.5614915922,58.5697628105,63.0828609071,2.18740282061
off_to_on,-11.2827638498,-7.74702858599,12.3938592871,-0.384116401118,-11.6224597294,-11.6094237966,-15.4807327373,2.60422797672,0.855646068754,-9.27279619887,-7.63388220553,-14.2081047103,-8.45766934897,40.6415863441
off_to_on,-53.9608010335,-56.4991087827,-52.1204364229,-0.963305900341,-41.9754292752,-55.3303023908,-55.9810441264,-58.2829325705,-0.864367226747,-56.1879291472,-59.2738642649,-53.8848249275,-57.632319835,-45.7951066043
off_to_on,5.94992428665,2.54667927964,-14.452845799,1.79750052593,8.80326147146,5.85346954784,8.7923481231,-6.67755611956,0.850531837747,3.66251166134,5.67093956602,8.12121678439,2.89798328175,4.17141132292
off_to_on,46.6440648175,48.2616274734,42.5061677815,-0.897455392565,35.332792218,47.9202613309,48.9524404532,48.8916699385,-0.869215430384,48.3821637197,49.8248257458,46.7800321849,49.5629597405,-8.0567506294
off_to_on,3.43622162344,6.88200594295,20.5951527331,0.453199348761,-1.84918847331,3.76538948937,1.6094733409,14.8353505532,0.964669508536,5.86912995981,0.648130297583,1.86534586426,6.63352160724,42.8183056403
off_to_on,-44.1162922603,-45.0327344912,-37.1271402492,-1.1967575586,-32.986941649,-45.2326101873,-46.6958087197,-44.0562386021,-1.01793472479,-45.3186756872,-44.116875675,-44.570258964,-46.2348475382,-26.9274002175
off_to_on,-8.28028261163,-11.6018927449,-23.1626089551,1.260177287,-1.624468671,-8.75042736876,-7.14069491255,-18.8919305752,0.91687325799,-10.8030432714,-4.17898945377,-7.05241027798,-11.6439998956,-5.60593163076
off_to_on,38.2163530037,38.3901231069,29.1269359083,-0.448515950455,27.794656228,39.1311543104,40.8743747441,36.2318218113,-0.813682486614,38.8788151492,34.9955411931,38.8589645039,39.6627432756,-12.0670208823
off_to_on,15.9001576735,19.1742194564,28.5488895849,0.572214661221,8.24007714084,16.4279956724,15.2676370965,25.7585150425,0.912927723698,18.4693334563,12.833101504,14.9360379371,19.256270648,29.3415757687
off_to_on,-36.4929435498,-36.1493931139,-25.6368010822,-1.47598130481,-26.9127089978,-37.1461901402,-39.0466016345,-32.9224168457,-1.07946418022,-36.6709705041,-32.4636309395,-37.2450947128,-37.2208628344,2.41668361624
off_to_on,-17.9932214581,-21.0510521904,-28.8354365423,1.31782636677,-10.0232416249,-18.5550322326,-17.7564270995,-27.108765499,1.02688253305,-20.5164422691,-15.3240892269,-17.2196554959,-21.3655152172,-13.6794603852
off_to_on,30.491168106,29.6679216297,18.798695144,-0.412311891157,22.3446676962,30.8663674515,32.7743727603,25.7910904194,-0.823196776896,30.2106796887,26.3211105023,31.242666536,30.6937975825,-31.9375072507
off_to_on,22.6124459523,25.4270919672,31.4382708293,0.615944297545,14.4728888483,23.2109812879,22.7567772197,30.84343155,0.784698266492,25.0531733328,19.3632848427,22.0439787336,25.7839757046,49.1253269297
off_to_on,-27.8509171631,-26.6940224977,-15.7917111113,-1.55597990772,-21.3541515769,-28.0134489197,-29.8574562056,-22.4555657007,-0.934110013244,-27.2337584004,-22.0107871492,-28.5972351896,-27.4971105254,-2.77674588929
off_to_on,-22.3659571186,-24.8249959852,-29.162968933,1.34775371826,-14.1972885827,-22.9040620979,-22.7159964841,-29.4110361187,1.01282849907,-24.5666815172,-20.8880443816,-21.9176578508,-25.3366422281,-20.8952780105
off_to_on,21.2078883104,19.7849000006,9.22226492607,-0.326988585623,16.3600277353,21.1000311985,22.7398033753,15.2364795858,-0.950011811657,20.2202591274,15.692777809,21.8276235556,20.459822059,-14.8856472878
off_to_on,24.7230022768,26.7703218821,29.5853548157,0.428380893583,16.838043479,25.2723998518,25.3930856409,30.6664959723,0.880929050338,26.723993418,24.8192910681,24.4766700289,27.3331061119,39.5080742723
off_to_on,-17.8788214206,-16.2564910174,-6.51451425857,-1.45271483107,-14.8463531627,-17.6509213348,-19.1144949273,-11.8395911813,-0.83254076049,-16.7006480303,-14.0871543926,-18.4621597052,-16.7446720423,-18.0294091083
off_to_on,-22.8070352537,-24.4305533988,-25.5884602715,1.40005200884,-15.168583699,-23.2065178466,-23.5090498761,-27.2782619058,0.791240328419,-24.4281701721,-22.9345942233,-22.615028475,-25.0508843537,-9.91386568741
off_to_on,11.1730915252,9.46012626052,0.518856536719,-0.227894052912,9.63570400499,10.7103673262,11.8643421195,4.97001711029,-0.851410233015,9.73045478487,8.27014014109,11.5685574835,9.77747327567,22.2504699593
off_to_on,23.4679619795,24.6074869162,24.5342120267,0.00486990817935,16.4941502693,23.8574535635,24.4002935701,26.7688795293,0.948383218937,24.8133496254,24.1151431428,23.4465178092,25.263230145,-19.4039565549
off_to_on,-7.83859432977,-6.04724149925,1.57919117061,-1.16893092543,-7.92886651429,-7.34594423448,-8.26367583981,-1.99269415456,-0.824937552402,-6.32942619629,-6.57849545883,-8.16974585979,-6.22401130146,-5.40675104458
off_to_on,-20.4294927002,-21.1572792288,-19.646405333,1.70654961125,-13.9774810164,-20.6199455557,-21.2760291247,-22.2514821063,0.569674440294,-21.3514866954,-20.6437102475,-20.4336493215,-21.7849742405,20.458237428
off_to_on,1.82682024399,0.0937098745453,-6.48526271413,-0.706148206689,3.07636741554,1.16101372355,1.76034727615,-3.84177416529,-0.614617469215,0.186294488888,1.69077897922,1.97156999872,0.0935374834453,15.2218767877
off_to_on,19.8450391459,20.1084841318,17.7265221545,-0.112586037116,14.2970361425,20.0143176241,20.8128600927,20.597437932,0.900818645923,20.4652454294,19.3468413195,19.9767273459,20.7430975024,-48.1060334267
off_to_on,0.858921621772,2.55624980608,7.67549368234,-0.477925567767,-1.57280855024,1.46956139027,1.11100699376,5.9079716105,-0.836084541077,2.455572372,0.508776764919,0.774624457812,2.64752285515,7.38597672613
off_to_on,-16.1688898057,-16.0929735323,-12.7104661464,1.16422453897,-11.3886601406,-16.1190944979,-16.9556585596,-15.6849973696,0.40986002954,-16.3953916113,-15.1682777023,-16.2974085823,-16.6352776588,37.412154869
off_to_on,-5.52807980061,-7.04819077208,-11.0510549814,-0.665335944796,-2.36868499966,-6.24344501131,-6.15016358614,-10.1258371681,-0.348641810132,-7.11940856483,-5.1657526141,-5.59023779227,-7.29346166029,8.71159858358
off_to_on,14.6937055255,14.239416404,10.4288148469,-0.003696749879,10.9255300761,14.6181126999,15.4761996591,13.3898200017,0.7697031966,14.6366347743,13.9704998643,14.8852940478,14.75566117,-65.3464920265
off_to_on,7.13178411778,8.51844307221,11.14146641,-0.364235115893,3.37772097593,7.73238110267,7.85927655487,10.9645767786,-0.860562256179,8.59374628982,6.04714837856,7.24663232729,8.80979570175,20.9424858405
off_to_on,-10.7661464632,-10.0811102627,-5.82894519674,0.926406062647,-8.00538263114,-10.4845660087,-11.3119841723,-8.63094238095,0.370273922839,-10.4015096253,-9.79363917535,-10.9304847743,-10.4682130994,36.8800931874
off_to_on,-10.1339282692,-11.2595514283,-12.7977606587,-0.598184557048,-6.0184661838,-10.7770415817,-11.0873146036,-13.2976273702,-0.114594508876,-11.4670255093,-8.51237138156,-10.3427297344,-11.6635025322,10.8870633455
off_to_on,8.70717632465,7.76329181385,3.51066644323,0.140074099036,6.93623054029,8.40788527492,9.14226881651,6.06177493381,0.457630387046,8.10848454877,7.15476068654,8.86788904713,8.097086889,-69.951810519
off_to_on,10.5882603785,11.512780234,11.8876405034,-0.45590120074,6.32222261069,11.0833979553,11.5819761877,12.9437272385,-0.660027544168,11.7389803642,9.04552075123,10.8469211119,11.9250122175,20.9051224042
off_to_on,-4.94087525441,-3.88534378237,0.279157659069,0.716854199534,-3.96043355141,-4.47709569723,-5.13645875064,-1.91182145624,0.311784079856,-4.15310247974,-3.19042278941,-5.06679011928,-4.08154320248,35.2691654168
off_to_on,-11.9119169847,-12.5355993426,-11.9508042217,-0.152178787452,-8.14165923133,-12.3975688986,-12.9864818224,-13.4712662033,-0.0378102810215,-12.8398045261,-10.443600521,-12.2079834258,-13.0096736607,15.8121158691
off_to_on,2.64146503881,1.4540099065,-2.375965651,-0.249687849733,2.9685129679,2.17792785412,2.66035915322,-0.597741570057,0.215907832028,1.68661761468,0.716308791226,2.71046726497,1.58167226943,-66.5261313684
off_to_on,11.3986909148,11.793985158,10.3557626962,-0.24342320379,8.04320285972,11.7261511092,12.460516933,12.2130108983,-0.327935325173,12.1274700283,10.1588365697,11.7410982126,12.2455236235,11.7078157778
off_to_on,0.540510250673,1.7280206466,5.06010196774,0.508399409198,-1.42186688037,1.1114642959,0.720921492697,3.75330108629,0.0859476098125,1.5572109621,2.58445814881,0.499682574059,1.72358068765,34.2933095112
off_to_on,-11.2331427389,-11.3342675042,-9.14634304119,0.134943829984,-7.53616306922,-11.5140973819,-12.2478120977,-11.2386038601,0.0589945262509,-11.6863368227,-10.5480612401,-11.559609926,-11.7963177262,22.0612642037
off_to_on,-2.74730724176,-3.94975046016,-6.73927088017,-0.396851660381,-0.10374839257,-3.29573284981,-3.12586853053,-5.91813278047,0.0800347048603,-3.85830855108,-4.41731737953,-2.7978141362,-4.01638028737,-60.3321151151
off_to_on,10.065808961,9.95159136273,7.27042812263,-0.340186975024,6.62154017293,10.1988210357,11.0277924702,9.48356758463,-0.090694513547,10.3382169769,9.81833319565,10.4336541029,10.369296051,-0.0559137433815
off_to_on,4.99514657995,6.10603697118,8.14677761088,0.528273131438,1.52171195141,5.58929961658,5.50324914396,7.81332388143,-0.125009074306,6.04980132586,5.73407468999,5.05598359764,6.26372365243,33.7126170069
off_to_on,-8.72041534855,-8.3588394209,-5.19352198989,0.487285933464,-5.28667244523,-8.7864880758,-9.53592690378,-7.42364903182,0.185747195744,-8.70720132112,-7.91301392414,-9.02699595118,-8.73729124033,26.597301401
off_to_on,-6.85131446366,-7.88184646936,-9.3070720306,-0.883311040074,-3.024837505,-7.40177301109,-7.54062935642,-9.44575718263,-0.0703727867882,-7.93220519769,-7.54114947354,-7.01830106574,-8.10827759614,-52.1990223041
off_to_on,7.26614160249,6.73400621308,3.44325319625,-0.175302552562,4.01977665332,7.21058230907,8.00315973315,5.60469424999,0.129783097763,7.11836461969,6.22962446287,7.60738359845,7.04505013464,-11.0818589968
off_to_on,7.94641691265,8.82237707981,9.40703710111,0.673065844864,4.07521069328,8.48582018823,8.68246176745,9.96890049476,-0.31882279907,8.87561849343,8.82885434768,8.09975136356,9.1527097352,33.2772575508
off_to_on,-5.10352212783,-4.3989751585,-0.905270155945,0.528570487274,-2.33140752516,-4.97616842844,-5.63019740787,-2.89939353553,0.31708111346,-4.69730693775,-4.30449280017,-5.34950386359,-4.69599932595,27.5450433851
off_to_on,-9.31099882757,-10.0404256024,-10.0554222992,-1.37818299211,-5.43992750002,-9.79183117538,-10.1854103817,-11.0142685169,-0.223832328623,-10.2115982455,-10.1356503755,-9.56922460436,-10.52198916,-42.3949793097
off_to_on,3.72124504527,2.91158405556,-0.377200533963,0.347537479476,1.62198919842,3.51207724086,4.1606598311,1.42205725787,0.327836594028,3.24538138841,3.38394975803,3.99737341434,3.56563990672,-19.4354086984
off_to_on,9.19937876792,9.73662193342,8.95802339458,0.721878803083,4.93835761232,9.61314516712,10.0360852406,10.1890572358,-0.489043291297,9.87953378107,9.33476694853,9.40563822301,9.69837398181,32.0850214867
off_to_on,-1.11485706622,-0.204030704912,3.02907871346,0.0432259420221,1.21795192695,-0.812619567418,-1.31097420929,1.55574990349,0.452353799079,-0.425097972411,-0.515476515008,-1.23747677272,-0.738608308698,25.241289005
off_to_on,-10.0501194835,-10.4280596198,-9.21566732695,-1.26080154321,-6.68983607546,-10.4418257765,-10.979461935,-10.7092871397,-0.384279574613,-10.6720097101,-10.0559670234,-10.3989660935,-9.56424554091,-31.8392851667
off_to_on,0.093447190089,-0.853307531882,-3.62151045395,0.947474597291,-1.42665617422,-0.249641551356,0.233612780775,-2.53943517862,0.502846726729,-0.606367060601,-0.312484027626,0.207243415188,-1.57267745823,-24.5766952132
off_to_on,8.89153983544,9.1347842388,7.29846212073,0.0135802254391,5.98613867979,9.34918013752,9.64642970645,9.19091580885,-0.630204543755,9.28696865579,8.17153939562,9.45206048513,8.83093043205,30.114674326
off_to_on,2.51451008223,3.37200952078,5.80414464531,0.251031518357,3.22047077628,2.56863543709,2.7222074097,4.73358979886,0.593572565634,3.35979522142,3.47066897215,2.03102743806,4.37706625773,20.5656479279
off_to_on,-9.27593861379,-9.29978806651,-7.14056992385,-1.20241699209,-6.59920027195,-9.41625102853,-10.1096287338,-9.02538477178,-0.570538576652,-9.64824877206,-8.30368301208,-9.69894928334,-9.3921304993,-21.6808548287
off_to_on,-2.72237639226,-3.45135685525,-5.12499659536,1.08529443221,-2.94575382795,-2.45655105748,-3.16822123223,-3.8536504863,0.669446956665,-3.46457299753,-4.47963786156,-1.46110648101,-3.92163094064,-26.7793976228
off_to_on,6.67196332876,6.37692778728,3.37493734707,-0.181977778714,4.53520061578,5.73351386799,7.71477214175,4.22475876701,-0.696065180844,6.89080580122,6.35230156632,5.48474499191,5.17934348362,27.9753291906
off_to_on,5.92314971232,6.56431128731,8.07678459312,0.186258938048,5.36637431038,6.45596025789,6.34366520407,7.7257379876,0.605299192942,6.51397484992,7.51321043546,5.59150747296,8.30606483911,14.4688243477
off_to_on,-7.38707028401,-6.6722051854,-3.0569894372,-1.07520518567,-5.37918885589,-5.89142687447,-8.49193173109,-3.20692137555,-0.643214984772,-7.35146202148,-7.26942147986,-5.16334781272,-5.09216861763,-13.0949415143
off_to_on,-5.6018608145,-6.34277629224,-8.12424586637,1.21348751111,-4.4524848833,-7.54155941173,-5.95740862194,-9.28880344936,0.837747369286,-6.02520577931,-6.57522069646,-7.17284798832,-9.52399702003,-26.5095606243
off_to_on,5.86887285067,4.77153097459,0.765462053139,-0.381140236072,2.98690163227,4.89106189884,6.91821612951,1.24586576003,-0.878358632577,5.32814410259,4.21914962321,4.11865198985,3.08049470063,26.2776414989
off_to_on,5.60629649781,6.72009174075,9.91535960183,0.169979799637,6.49264545337,8.55727468422,6.11582112985,11.6114581851,0.685164703549,6.33860837531,8.92536026707,8.21122263374,11.7107095613,7.89174317156
off_to_on,-4.65381916133,-3.51044166659,-1.12877180569,-1.06085045508,-3.95135903865,-4.66134378676,-6.07738741071,-1.16770609395,-0.609232330598,-4.06657583839,-4.34820688388,-3.23331382969,-1.96375655528,-6.99335590438
off_to_on,-3.17485599609,-4.70786663209,-8.26247042515,1.54975361327,-4.57373133371,-6.7430654963,-3.32355394713,-10.9940511041,0.848819352031,-4.07800964562,-7.94910675536,-6.87494973478,-12.6693127103,-24.3020144228
off_to_on,-1.09181256482,-1.80540961733,-1.87064708044,-0.89588825247,1.1927583553,0.311799043865,0.313234872757,-2.29136652008,-1.07764826149,-1.62941854134,1.5277390665,-2.02345237312,-0.830119332628,25.4008218091
off_to_on,6.08231994527,7.5543925124,10.0271235252,0.367526366071,5.62793111828,9.43009904094,6.28140035909,14.7045098539,0.956646626414,7.29257686123,9.66477781293,11.0838078672,16.6831909583,1.66152251844
off_to_on,1.3741945898,1.84766641058,0.625070992225,-0.771205193672,-1.16989208451,-1.11207251075,-0.661744974438,-0.220782370521,-0.715372152062,1.34937247279,-1.90865841756,0.963518355076,-1.71860118973,-3.81390831032
off_to_on,-3.59846454469,-5.07069697862,-6.84136060576,1.10792605174,-3.55540416289,-6.01676989172,-3.41426587223,-11.730011631,0.797053776968,-4.83012225595,-7.72446392442,-8.69172149112,-13.9231232804,-20.7527957771
off_to_on,-6.6312411418,-6.70745898548,-4.24234809651,-0.795907982204,-2.55044116036,-4.43255551508,-3.23865581834,-3.03984229807,-1.08522868194,-5.39221672013,-1.19689421809,-5.9890827228,-2.0712552546,25.3838638297
off_to_on,5.28767867653,6.61125923621,7.97664570059,0.767931239258,5.69831637271,8.00139682567,2.72101307338,13.2133614275,1.06328930242,5.1252774566,9.30755509085,11.2069504509,16.2703904691,-3.36893564698
off_to_on,9.04805609084,8.6254837799,4.39540556415,-1.24776569066,1.98526766085,6.5513982982,6.24070600232,2.88037147281,-0.749280368538,7.69336681565,0.211076920031,7.97737131787,1.87312392759,-3.8190884771
off_to_on,-6.00107322566,-6.83514040099,-6.80830313555,1.09611388675,-4.25161729055,-8.99091729473,-1.47911174895,-12.6824059786,0.730392154356,-4.34615099037,-6.71671840506,-13.2083617011,-16.1389445593,-16.6714703119
off_to_on,-11.2773184573,-10.6576436522,-6.24803594492,-0.3722145687,-4.30576653884,-8.09956434476,-10.0260297331,-3.13963696048,-1.08101312331,-10.8129325982,-2.66529459165,-8.63515395694,-2.28684440137,28.1672138187
off_to_on,7.44647293228,7.83846713978,7.91661247818,0.588702641017,6.00764024731,9.91834215457,1.90971639907,12.134930196,1.14186201159,5.1186289782,7.01567420232,14.3099746704,15.8409600345,-11.0943949809
off_to_on,10.5646363904,9.90484684411,5.00197336824,-1.58840773905,2.57638518014,7.67277747352,10.7301569324,2.30991820187,-0.73859179734,10.9411004192,2.16113525238,7.9981118758,1.73377112382,-3.56938861695
off_to_on,-4.39217399481,-4.56423085722,-5.78373708039,1.48066130961,-3.64645852132,-6.91547323709,2.40642263804,-8.76137056712,0.588843254129,-1.51583838857,-4.20968395905,-11.9460721812,-12.3981664353,-8.70151653942
off_to_on,-15.147044788,-14.154112726,-7.24548338867,-0.31408930895,-4.29330491555,-12.5653967717,-18.2725607362,-6.15484319863,-0.978692856257,-16.9859024114,-4.94672737214,-12.7205382605,-6.45800606813,23.322700596
off_to_on,7.73291996473,7.26370897954,8.31403669061,0.162778757821,4.43510501186,10.4854909533,1.9823737833,11.8648774469,1.17620556135,5.55443935505,5.20110672326,17.1953104443,15.7843528075,-15.2961222547
off_to_on,12.5742434754,11.6750729281,3.80763530031,-1.15849618035,2.55677616278,10.293657156,17.5888130665,2.74326537831,-0.797884978554,15.2287069614,3.6778926057,8.46292601055,4.08132052841,4.46670409119
off_to_on,-5.03830182501,-4.14633234206,-5.67444294011,1.34149242353,-1.53140068434,-7.9093447292,-1.6220687862,-8.85087069612,0.534974002586,-4.37171429527,-2.63857734741,-14.9569732903,-13.4578036359,-10.850211555
off_to_on,-13.5979824493,-12.7876889582,-4.04950807919,-0.575649042809,-4.49710804588,-12.17863968,-18.016114768,-3.20121818056,-0.816404850978,-15.4043945903,-5.49834102747,-8.19609099172,-5.46195554381,14.1190166708
off_to_on,4.02043543053,2.77007569436,5.68968119588,0.563515411729,2.23145648135,7.96196992124,1.30708482118,7.93994733297,1.02385812326,3.72335387233,3.42010031077,14.067300939,13.7564627758,-1.39910468886
off_to_on,14.1182407955,13.1812847344,1.91354753463,-1.19379327585,3.1480519,12.5558616674,18.0149195668,2.37508558077,-0.749129748916,15.0910115498,3.8180482908,7.48432972813,4.82128055092,-2.24435551074
off_to_on,-3.46072530543,-1.24728931611,-3.43798402589,0.937595877907,-0.258455485288,-7.90399752249,-0.939338893077,-5.9759527134,0.534624230698,-2.98787558319,-1.38808135884,-13.122700501,-13.0821921066,-8.12622410218
off_to_on,-14.4806734344,-14.217679551,-1.94006042257,-0.23614989058,-4.11296898878,-12.4006074481,-17.8934405448,-2.95322735321,-0.708305469002,-14.8927167124,-4.24359973481,-6.81902206952,-4.33064079897,0.386831941294
off_to_on,5.31691676914,2.43829735709,3.4911314648,0.541763811388,0.80577286055,8.97704781879,2.5754604003,6.29137136705,0.784438430796,4.45700517917,1.67610795376,13.7330399628,13.4936451461,20.6339606452
off_to_on,9.28293852457,10.2538973152,-0.791911822748,-1.12786877971,2.25206398754,8.01975720999,12.3668048247,0.513852770669,-0.558634219333,9.41768279869,1.63332095539,1.94856474777,0.342901980674,-12.3559581506
off_to_on,-0.535321053508,2.20221572,-0.221554893257,0.615713828826,1.49560172204,-3.93680445575,3.00349230538,-3.36275750017,0.498401909859,0.830613158391,1.48234274852,-8.4804491076,-8.5972806967,-11.6200944783
off_to_on,-9.50028454442,-11.5747966634,-0.014387111962,0.00686959397446,-3.12421738615,-9.24805809998,-13.3786390653,-1.38657211493,-0.675219927544,-9.86670087805,-2.41732785758,-2.39540738091,-1.5477064036,-1.2212542618
off_to_on,-0.657658084332,-2.666792544,-0.0581311410496,0.579379480842,-1.27292571894,2.69073424641,-4.18496374182,3.77869771023,0.607652893599,-2.23567373782,-1.73082909746,6.73340009311,7.42815090267,26.4133325371
off_to_on,7.39734662523,10.1938757072,-1.2535542244,-1.17187744071,1.87498906443,8.25102610123,12.6015823007,-0.71615134671,-0.344192726345,8.52787930933,1.09063697848,0.764436388692,0.513477484132,-0.139930202524
off_to_on,3.56600469577,4.37526179636,2.09012224727,0.476778147814,2.88836335075,0.190210862517,5.09609469255,-2.00941242878,0.401466368381,4.13173059149,3.58432759404,-3.28112533368,-4.77891133776,-40.6243887325
off_to_on,-6.68209653574,-9.43159287556,0.474891259916,0.201161105512,-2.60333240874,-9.00435421243,-11.0581903852,1.4910572429,-0.640139354673,-7.48064235439,-1.47843555148,-0.821275424531,-0.736772826942,16.2628203265
off_to_on,-5.73897263981,-5.35157510551,-2.20927205358,0.403113341332,-2.4172984933,-1.43216463844,-5.99971548522,0.86383481806,0.498723623678,-5.59909427734,-3.69257270256,0.850515978429,3.08009424745,29.3478311087
off_to_on,6.06039740437,7.87598715912,-0.823149780019,-1.01059869539,1.68246921977,8.80421763747,8.57795726089,-2.75999870745,-0.16025120538,6.14011398329,0.643481685543,0.841813162053,0.433714375766,-3.19343032967
off_to_on,8.15802694018,7.27901265634,3.14235545709,0.389111892424,3.03727682065,3.4439178331,8.80814823047,1.76497361991,0.213489841224,7.74456422956,4.72489426774,1.84223760204,-0.651931734061,-47.6203749948
off_to_on,-7.65810958917,-8.12951373823,-0.28068400926,0.390116691074,-1.82904332525,-10.5401110991,-9.20903943699,1.07562637656,-0.472921078988,-6.93690931293,-1.27511808244,-2.9109374493,-1.93333345334,20.8194130523
off_to_on,-6.67638457668,-6.44341396822,-2.10301131805,-0.171950046535,-2.32948787849,-2.20106329634,-8.09891769052,-1.18353717784,0.354004478306,-6.56684367127,-3.70652044992,-0.965621429442,0.981628733664,35.9919999669
off_to_on,5.80086564149,5.58543751032,-0.19537881095,-0.445670689564,0.704447761821,9.14629594667,7.42570567891,-1.27346971811,-0.0185601521047,4.79406980037,0.0902064772481,1.70085944599,0.71700282888,-16.3220153305
off_to_on,6.97656612049,7.78155669967,1.9753081778,0.638161774912,2.58942716117,3.00852125092,8.56153320755,1.20185576139,0.0249145640163,7.22111273052,3.88543419131,2.01891481286,0.778721748041,-34.3551216137
off_to_on,-4.68521538113,-4.58624654534,-0.0032977684622,-0.420565284603,-0.324851071997,-9.11252335859,-6.6743915412,1.00154210474,-0.267392463307,-3.83764114787,0.242609964583,-1.35950484306,-0.989060517607,13.0320699203
off_to_on,-6.92964438419,-8.52844128711,-1.30692394209,-0.0757565271518,-2.36490325234,-3.02379158469,-8.10004462945,-0.59465649558,0.239855395054,-7.38335375129,-3.51409132454,-3.10044359552,-1.97282347757,35.2671635949
off_to_on,3.90383535526,4.37819775268,0.153056712746,0.507191452658,-0.125214119079,9.59087524663,6.30305904709,-0.771149491711,0.0392688787701,3.70380754986,-0.593082537886,2.22125193937,2.11159385268,-15.8235570028
off_to_on,5.81087950475,7.83817916743,0.131594827478,-0.177031239188,1.94971670484,1.32730174284,5.71538515432,-0.914277222674,-0.148088426651,5.83789904138,2.78581081569,2.34818481541,1.47999167459,-24.5783751023
off_to_on,-2.05470126204,-3.54192946959,0.286795491514,-0.557032871314,0.722267097588,-8.79945227994,-3.83292278191,1.81808645951,0.00108817430119,-2.41139360081,1.27444406656,-2.02547362382,-2.23361568108,1.78875974435
off_to_on,-5.0467395595,-6.52128549376,0.94115629219,0.326575589276,-1.63596703549,0.842232043962,-4.02751989244,1.70660989139,0.08763500765,-4.09207208045,-2.27105740154,-1.11570491585,-0.473684400344,34.6288855469
off_to_on,-0.394249713953,1.54055857205,-1.27641098446,0.741718496673,-1.0782367549,6.42706469237,-0.0614908940317,-3.38440158051,0.0842588610082,-0.145211815648,-1.7991249534,0.322956166199,0.899959162204,-12.435235944
off_to_on,5.70125720977,6.19517551593,-1.33844427653,-0.915762108685,0.886138902233,-1.93608335869,5.24446247008,-0.959637929447,-0.337104940096,3.87797820777,1.68461370649,1.37219237694,0.779078883727,-15.7345575784
off_to_on,1.41572800918,0.0616454017865,2.37157440982,-0.030924042889,2.08731851447,-3.981980583,1.76526545029,3.75135736089,0.355724436567,1.96079061194,2.53945417006,0.829907750996,0.0069486094973,-9.83153233832
off_to_on,-6.16133075246,-6.43355704899,0.53478471428,0.423233807173,-1.06100841518,2.50407891957,-7.17361726539,-0.345630782645,-0.159185384025,-4.51401858388,-1.93750617679,-2.46809446076,-1.78576821028,33.6993866504
off_to_on,-1.02954985661,-0.197662580174,-1.85606076312,0.220229142923,-2.01641081264,1.92035630208,-0.182587370713,-1.84651726033,0.138435017646,-1.78245214343,-1.77768036926,-0.141330253327,0.651352606717,-8.64083660344
off_to_on,4.50945027499,4.84432531896,-1.0515087734,-0.661383738406,0.144768409303,-4.01478805381,5.8325065089,-1.00583762096,-0.428323983175,3.24255381679,0.516392932157,1.56099829462,0.93202121662,-8.01036025733
off_to_on,2.64743467219,2.37426371633,2.63064792582,0.49279661954,3.23930406627,2.76422191813,0.166283480349,1.97513192919,0.602587654271,3.17449605442,2.59812156895,1.41636255707,0.578440465664,-18.805286159
off_to_on,-4.8552036015,-5.81330470132,-0.343015521291,-0.405972739645,-0.953189513531,1.75414486364,-5.12072310032,0.893060836439,-0.403909673089,-3.99728838955,-0.741288342877,-3.07057424365,-2.18427215044,30.9523446357
off_to_on,-2.16001189187,-1.86054839526,-0.97068850288,0.428855253271,-2.62619514666,-4.90389245246,0.938859789381,-0.757310339411,0.26156390992,-2.07799061508,-1.71946311438,0.0460604893193,0.444327183862,-4.77533525555
off_to_on,3.53412167144,5.12419109604,-0.437543912279,-0.312490948525,0.332629271545,0.685743492392,2.74352356907,-2.18065052453,-0.507918984215,2.98163752626,-0.533906813454,2.74792910954,1.78042916433,-2.15946773054
off_to_on,2.48823276746,1.54988209135,0.764896321188,0.542317338454,3.18078219773,5.73152457259,-0.661217908736,0.854027544914,0.726913026569,1.3982583658,2.15815329719,-1.44801652358,-1.03662514076,-23.4579218187
off_to_on,-2.65604739432,-4.22230540061,0.124708790111,-1.06131368069,-1.28601412252,-3.61161918629,-0.895054985956,2.3979514379,-0.562161082605,-1.87995996474,0.376972527919,-1.59974587283,-1.07126712551,26.2479284514
off_to_on,-1.79050135289,-0.468237826008,0.970418786006,0.824600406917,-1.51902936345,-3.61187570576,0.564289574651,0.104165280607,0.41917772993,0.0646947336159,-0.860832132401,3.17988892208,2.0483941025,-2.19812299437
off_to_on,-0.516776534313,0.991445215678,-2.30774856142,-0.0141576340374,-0.231476149759,3.10686239485,-2.28583693533,-4.37410107587,-0.640769473282,-1.67116417862,-2.35705115577,-2.33511880559,-1.958453763,3.00909657593
off_to_on,4.70135761878,2.9063441245,0.528048097165,0.170880475014,2.27717707409,3.99263761295,3.21762498083,1.96996553656,0.823737888957,2.48615979031,2.22834857624,-0.270398662434,0.976330670259,-24.5489833653
off_to_on,-0.498847401684,-1.57717275448,1.327125174,-1.18131187315,-0.730042699034,-5.13032027222,0.128375834504,2.36547609557,-0.661826665888,0.631920113819,1.2751683212,1.60988808531,0.572813478207,20.1412626358
off_to_on,-3.96517538315,-2.0674629366,0.524667826131,1.21992881677,-0.319299564485,-0.511538331553,-2.2719273271,-0.092137163658,0.560071271551,-1.16320191959,-0.604100106984,0.751220586679,-0.425976659114,-0.904046817066
off_to_on,-1.13657463699,-0.473845671206,-2.56160503282,-0.266833096577,-1.25722271762,2.56218481691,-0.622803104101,-3.56158852463,-0.772388967885,-2.29110718641,-2.83538361757,-3.28401031205,-1.80239719704,7.4676925167
off_to_on,5.52761192729,3.84305417505,0.90057820633,0.224947244054,1.41762157384,0.692848244818,2.56179954057,0.660536522596,0.889859097842,1.99112769993,1.43435862954,1.17987463701,2.21885223613,-22.9802583252
off_to_on,0.178079513207,-0.390276042552,0.962385840265,-1.23003298726,0.269591227801,-2.10067490833,-0.109741648152,2.72587747808,-0.719628068274,1.77096921583,1.96684136164,2.35118975245,0.532779726639,13.5952584814
off_to_on,-4.58572453754,-2.94420309879,0.451520677308,1.4295488049,0.246503632085,0.350038186875,-1.19935003235,0.738348729006,0.673329941509,-0.748134717046,0.0868897094244,-1.04618174644,-1.63367917048,-0.618160842305
off_to_on,-1.04046846907,-0.727622160187,-1.86215285352,-0.542676699233,-1.95886579727,0.323684616121,-0.987642274735,-4.13067147442,-0.878956424097,-3.19137618383,-3.49133870628,-2.74258711537,-1.23697953213,10.7080715415
off_to_on,5.39912173177,4.00608501175,0.723786806322,0.199008816993,0.955718140916,0.854570523097,2.08483242566,0.659087898313,0.925453310149,1.97942916073,1.17836085568,2.59816569875,3.08777324566,-19.4356733989
off_to_on,-1.21452042019,-1.28300006311,-0.277135185825,-0.808129598594,0.517390136548,-2.29160179063,-1.30512697476,2.09339440881,-0.748797278371,1.04657671748,1.73817015512,-0.178322451511,-1.08063406702,7.46192594905
off_to_on,-1.23226169394,-0.422837632339,1.8311038965,1.16440524192,1.10886452879,2.97196651112,1.82461473813,1.92297444119,0.753737187906,1.24344477685,1.08052791846,0.809880511649,-0.110933402848,-1.04202776108
off_to_on,-2.29917227906,-2.05686525168,-1.70372805634,-0.903063377456,-2.42070594243,-1.03897121042,-1.87859441451,-4.28985250635,-0.944657479664,-3.71859865294,-3.60598248847,-2.35272223598,-1.95108555489,12.3255707893
off_to_on,1.98873858048,1.64300656248,-0.477596750473,0.783188515983,0.230719556719,-2.22392706595,-0.924836023988,-0.531805365514,0.931784433445,0.207392275644,0.358355250538,0.448907486623,2.3275062213,-14.2099110581
off_to_on,2.6062351588,1.99946994649,0.413443584132,-0.949964271759,1.01958921708,0.802598384304,1.90108161799,3.30996320831,-0.766731374841,2.55254097681,1.94775116958,1.63591697048,0.993705886252,0.0212840010661
off_to_on,-0.811901597079,-0.768310380138,1.87458632402,0.903671687688,1.5341689392,4.35257908659,1.86890251761,1.51064821747,0.817296882023,0.784895674792,1.23926789921,0.302229708644,-2.17428381053,6.37345967606
off_to_on,-4.81805918507,-3.74179129328,-1.78660945022,-0.684212362025,-2.72609513697,-3.19180650315,-3.81158210912,-4.54078780189,-0.977594605704,-2.79428454868,-2.95611996526,-2.47960661665,-1.41819343002,-5.08629531635
off_to_on,2.35668415146,2.37828985863,-0.436665722459,0.703413848232,0.0435890012085,-3.89740836849,-0.036114396028,0.191962160263,0.89655171563,-0.235437448142,-0.0925137184414,0.960097103073,3.81351849717,10.5805741346
off_to_on,3.69234809845,2.21420858617,0.107144842801,-0.925351286758,0.950506217244,2.97072500172,2.5076537445,2.54794114379,-0.719230661389,0.359556388354,0.90032005815,0.324428757143,-1.44954599974,-3.12668900584
off_to_on,-0.463595912189,-0.342645787015,2.38408629349,1.01082108522,1.77603789042,6.45897637961,1.32759724758,1.73649818575,0.789615860145,3.76326730446,2.31343487585,1.81384075214,-0.78735088227,-32.5948753198
off_to_on,-6.29217144048,-4.6814643526,-2.24567272109,-0.820031773725,-2.49987844088,-6.84558800643,-4.87868371094,-4.71114982755,-0.960313983889,-2.97308652969,-2.49999705298,-2.93649591003,-0.66511819304,51.4865443218
off_to_on,3.15548485077,2.86470016481,-0.335203844052,0.519946778703,-0.195070265116,-3.80520308072,2.5158117446,1.06841174963,0.89806834281,-2.23450126552,-0.692719580607,0.332709433712,2.1879364696,-13.5717333306
off_to_on,3.66161482706,2.4140473194,0.703862472549,-0.506300183674,0.593178175373,5.53962223479,1.24219503795,2.06611500754,-0.702072202168,1.42223870431,0.374043821231,1.08566125319,-1.05637163203,-31.4781441505
off_to_on,-1.09432615475,-1.36564429726,1.4401851422,0.959956685905,1.95177992339,4.99865311503,-1.46305952956,0.208309085374,0.665783156535,3.97684765942,2.47565170805,1.26461029611,0.0838035403036,11.4587988715
off_to_on,-4.39601681665,-3.0191381166,-2.01677380739,-1.33889417432,-1.77021380057,-6.68461932106,0.0169829535964,-2.35054148249,-0.783273654139,-2.89480631009,-1.38596985494,-2.30724037595,-0.822024876933,46.7479226862
off_to_on,1.05357622329,1.90876631046,0.273384676514,1.02184469588,-0.917891901515,-4.2809007783,0.833106749467,0.501962078444,0.856116598897,-2.87645566599,-1.3617987508,-0.5300724944,0.646078657537,-46.1410454447
off_to_on,3.73891670445,1.9060994036,0.569810729699,-0.421266888992,0.365037480536,5.92234247241,-1.68050011323,0.97314272673,-0.784889205904,2.34634141414,-0.185572839652,2.04635437026,0.833361105855,-34.4245830185
off_to_on,0.634887980285,-0.668109266168,0.551958632226,0.392909560897,2.49971186443,5.64299573061,1.79546749994,0.809688617417,0.618241973819,2.97893507348,2.70931238333,0.918971961425,-0.280622780835,91.6962115523
off_to_on,-5.68621987458,-3.08115469399,-1.4764273203,-0.772592765438,-1.8086694883,-7.88255387066,-0.362753134257,-2.39737532229,-0.537824451289,-3.38933574109,-0.986513414427,-3.70010131588,-2.48919239373,-36.2551749391
off_to_on,1.35241621843,2.60643114551,1.14574908204,0.80659133984,-1.12024171752,-3.3450182119,-0.179340118268,1.38671635995,0.67563966861,0.0325423660743,-0.967636560166,2.25763085804,3.22566030159,-56.7574843776
off_to_on,3.475574168,0.258470969263,-0.682847164417,-0.57985558469,0.483411840945,5.92654542859,-1.21624558178,0.0739914276756,-0.811053421749,-0.00427151846339,-0.923883383645,0.475787748275,-0.568239037366,37.6957058906
off_to_on,0.503930476781,-0.355427601342,0.623484439558,0.595018945312,2.25171788107,4.28801687472,1.4420233651,-0.1259071311,0.631981187132,1.44485181386,2.05327341623,-0.628380547981,-1.50369722414,64.5176993179
off_to_on,-4.38036139477,-1.00732282943,-0.288176264421,-0.64427981879,-1.62212177776,-6.64505230454,0.0302881219068,-0.595252110701,-0.352458595387,0.0975514624972,0.233756395884,-0.631944799045,0.32064561015,-57.3669291572
off_to_on,0.0834083410908,0.615357666949,-0.189960346211,0.472865058989,-0.882714773439,-2.35073358606,0.279597848588,1.12061427974,0.440244613733,-1.15075950531,-0.750551970461,0.73516477374,1.57923279769,-72.5083786204
off_to_on,3.26479296131,0.0611575093459,-0.282861706265,-0.514604895655,0.440165365521,4.32902021119,-1.57165683853,-0.818318916895,-0.73095690577,-1.14998492226,-1.66055329766,-0.277417263798,-1.23081382185,92.8696904293
off_to_on,1.0902066336,0.585370728705,1.38121023133,0.791291261862,1.43549717266,2.52831295975,-0.412666569135,-0.408916977074,0.647892531787,1.94232068719,1.30535084416,0.486958733028,-0.320334863788,51.4903864312
off_to_on,-3.64438502292,-0.546902551643,-1.12339391164,-0.575714265926,-0.826095439332,-2.54346584124,3.03268870892,1.00622854437,-0.272776401992,0.839012235904,1.44441878658,-0.282299434872,0.616042038113,-94.6470216434
off_to_on,-0.976725202645,-0.514473461801,-0.575637241982,0.0341676734317,-0.532471755775,-2.87562410656,0.114854864063,0.477085927158,0.222391380121,-1.40830176721,-0.316245518879,-0.557863707232,0.479201828824,-55.3882366564
off_to_on,2.50459240216,-0.38839600701,0.752452545861,-0.188442960298,-0.378262067283,-0.284474909542,-5.68277988309,-2.39460944226,-0.502299040257,-2.13689862114,-3.02696665874,-0.477425257288,-1.63097091468,105.255826303
off_to_on,3.22313148987,2.76351743744,1.5043340765,0.716718720119,1.43103059204,6.63985318488,4.28336288204,1.94833869303,0.526549538174,3.47200622835,1.64891553139,3.11492395242,1.91274789168,62.246581906
off_to_on,-4.5872495522,-1.9645079661,-2.27397527201,-0.359041827657,-0.215306752018,-1.62800070469,2.87687948586,0.495085207223,-0.227857019523,0.136514348177,2.17175114365,-2.32280743982,-0.75117566104,-125.777066202
off_to_on,-2.30670992545,-1.86906225614,-0.514513058819,-0.357327212269,-0.888672828273,-7.02912691693,-5.2966752688,-1.92733015202,0.108108316148,-2.85049951861,-1.21259243769,-2.48594456599,-1.20398350354,-48.5690792098
off_to_on,4.76962873805,2.55141635995,2.22050275958,-0.0997468374972,-0.184202047178,3.25222346104,0.224991310326,0.729787184108,-0.2506996181,0.579050758581,-2.24836270361,3.63163740443,1.41039828289,111.328985201
off_to_on,1.56920961913,1.21862134007,0.453288090753,1.02040876401,1.17168310667,5.76977044624,4.42057527343,1.53332560307,0.260285976349,2.52487203733,1.42176960641,1.65122683401,0.783127480765,79.6484214513
off_to_on,-3.96561292854,-2.67152017147,-2.44920874545,-0.531103143009,-0.330047608985,-3.96457929135,-2.94952091538,-1.75306997654,-0.0854508294582,-1.20457761012,1.63647151092,-4.00401665709,-1.56583897338,-146.071792649
off_to_on,-2.00728180433,-0.951708947597,-0.431076404615,-0.681413849773,-0.549545948017,-3.62157080966,-2.09186896031,-0.909804755375,0.0279436139663,-2.63135389014,-1.16842178321,-1.60691993684,-1.0993653983,-54.9758751749
off_to_on,3.75095643331,2.81762812089,2.630910454,0.532351756017,0.222593870637,3.45550360138,4.74929370114,2.63625235865,-0.08478349677,2.55224026022,-1.0663949845,4.71682723166,2.36595344302,115.488459972
off_to_on,2.80791901159,1.01092757211,0.748467693167,0.495218048354,0.172025397723,1.38756275946,-1.21537222142,0.227933638393,0.0260161103739,2.42072512542,0.863919575217,1.75340477435,1.24295278582,102.499363351
off_to_on,-4.7245108571,-3.69412225718,-3.40945325189,-0.418964979308,-0.168916536885,-2.09887817601,-5.39012282304,-3.90504597325,0.0905554948343,-4.85949933569,0.203513390175,-6.4077593756,-3.84388006877,-161.293738013
off_to_on,-2.21052555058,0.106353175714,-0.396220014812,-0.437226282576,0.347904374771,1.28668956043,5.75673394736,1.73915956375,-0.0908114648474,-0.0208058950795,0.10973822124,-0.0652464785401,0.0317331669795,-67.8458187613
off_to_on,4.79966482532,3.24461876242,3.74706862874,0.440354944421,-0.188941117683,-1.81836661722,2.57886104117,3.59601803108,0.0784720515529,5.09633805823,0.00812251946901,6.17372389368,3.99311798217,118.957585351
off_to_on,1.76860128378,-0.403438712524,-0.0248591101911,0.0732862210443,-0.693579436208,-1.06188850851,-7.76519721009,-3.09360932595,-0.18119823608,-1.9825860216,-0.964681956327,-0.837921431137,-1.04039471792,123.874836789
off_to_on,-4.52390156835,-2.57969376103,-3.51688717015,0.0890860795103,0.903634578912,5.25788822975,1.17159418463,-2.31682417158,0.259553639853,-3.88192072302,0.430349695399,-5.11323358162,-3.09414254374,-168.531682558
off_to_on,-2.06496292906,-0.536583991061,-0.361828086565,-0.40398262105,0.106380475724,-1.89303904833,6.29907552373,2.52367111587,-0.224491868387,1.97282037278,0.677889108912,-0.0780165415606,0.228783782581,-85.6296796627
off_to_on,5.67168877714,3.7346479737,4.2244724496,0.0699227230639,-0.469490499019,-4.87207303018,-2.03896129044,2.86954724272,0.239013727492,4.13445307973,0.257239438607,6.08688100973,4.1778891193,123.467784478
off_to_on,0.131902556899,-0.401763237048,-0.428375443604,0.0801276340624,-0.56642344126,2.63595981798,-5.49800090963,-3.33369277309,-0.359069873274,-3.05269193391,-1.32801757956,-0.91013254172,-1.31168467101,138.723407705
off_to_on,-4.49398923253,-3.38964941332,-3.58282509677,0.57471803193,0.995925521345,4.66426682667,2.58300556771,-2.23072261957,0.409794027431,-3.06523138647,0.0311299688375,-5.56283910949,-3.62110611333,-166.776524256
off_to_on,0.469771772086,0.439389608865,0.0189666912329,-0.983351270295,-0.00903744703185,-3.37691681555,4.21209160863,3.06376110992,-0.363181917947,2.74572344087,0.803660196052,1.14933462621,1.29220275516,-104.81643708
off_to_on,3.35708549029,3.4885937958,3.87677006923,0.504716777721,-0.343265724502,-3.21668262649,-1.86775835765,2.32094308626,0.393514844236,2.75292025697,0.934341548211,5.13014699948,3.51291873571,127.034425776
off_to_on,-0.715549373755,-0.864024447501,-0.572331663745,-0.0833744822484,-0.742194965045,2.34937143624,-3.66513894322,-3.19603997223,-0.503449367279,-2.41816700304,-1.48534961277,-1.42750476965,-1.35872915858,146.986566932
off_to_on,-1.76382950727,-2.90283124589,-2.87263907685,0.314173498727,1.19587548028,2.63793916249,0.98987810505,-1.86558329139,0.529488608457,-2.53229622436,-0.683028765102,-4.18038694621,-3.13122941552,-157.94619819
off_to_on,-0.819281231192,0.0238530250885,-0.58473234038,-0.618018927308,-0.214196427997,-1.41957532457,2.95873255934,2.12571230726,-0.492597334341,1.24021935288,0.739494919089,0.473724978981,0.355759715458,-122.225915245
off_to_on,3.03463139969,4.56059718468,4.05079978823,0.692050848376,-0.161583849538,-1.06471402892,1.86829315211,3.54862352614,0.537786835055,4.81362373425,2.37362290219,5.48137255398,5.12125420011,128.220465748
off_to_on,-1.12739883475,-2.65017295333,-0.986826979983,-0.735642400141,-0.873502969366,-2.57344868474,-6.27537414532,-4.11983852096,-0.621754929179,-4.15233461741,-2.66646146663,-3.07844005902,-3.03115127824,149.801699896
do_nothing,-0.71646129912,-2.0872033697,-2.20962614803,0.594799692173,1.34915830854,3.9521214763,-0.0649522150009,-1.70719748111,0.622323087006,-2.48675047201,-0.949089096566,-2.36611384227,-2.96913759542,-144.685083384
do_nothing,0.000422232868811,1.7435648483,-0.178102640911,-0.340052705208,-0.458237869406,2.51403299331,6.29547368932,2.99343436397,-0.602481181612,3.47027334441,1.79915954776,1.77343211833,2.35494712138,-136.078384733
do_nothing,0.545639952398,1.74987528358,2.5188768664,0.60019638023,0.00902685071378,-4.44119331268,-0.730726144468,1.98534626673,0.658987070737,2.02650570179,1.55874303111,1.42313118821,2.78516894932,127.063510848
do_nothing,-0.337912561642,-2.07900064308,-0.515134377912,-1.14524696135,-0.705252248629,-3.4761557915,-6.00027224015,-3.20788331648,-0.712458356992,-3.73638358419,-2.63424811962,-1.03307512123,-2.8269610831,148.432195278
do_nothing,1.07085155354,0.0689011037926,-0.785286559428,0.957520956822,0.957639667442,5.89310294829,1.70134056319,-0.991946046781,0.692208575647,-0.131128671351,-0.0866485490569,-0.126666730118,-1.30735790943,-129.909505175
do_nothing,-1.13202541497,0.183629921401,-1.16365671995,-0.354949374942,-0.42063043319,2.50488260734,4.06009709511,1.68110832079,-0.689550694277,1.59098733892,0.866642481369,-1.1418030434,1.47717222371,-145.349723507
do_nothing,-0.590266851616,0.783140826427,1.58552492843,0.560625958502,0.63986252634,-4.48668832659,0.212331762197,2.42979881276,0.749228436274,1.0531557616,1.39706858563,1.49162359853,2.04564921868,124.285894998
do_nothing,0.191078070415,-1.07796121932,0.286619018251,-1.09628557141,-1.43735854675,-4.7599866637,-5.6299581484,-3.3050550307,-0.772570384752,-2.23939056908,-1.87526446905,0.0761300723111,-2.78943380061,144.089287184
do_nothing,3.3000741492,1.45749033684,0.292111762747,0.672615740129,0.977771781052,6.54151573633,1.60409199669,-0.212663145657,0.739481436045,1.18161141708,0.185068655083,0.559418456063,0.645499232343,-116.144095761
do_nothing,-3.62223964174,-1.81438564868,-2.48805988983,-0.124522543296,0.133384929468,3.16832601218,3.41856558927,1.21461717421,-0.751067617128,-1.14980572521,-0.262552499447,-2.80813340282,-0.135573204889,-149.827253823
do_nothing,-0.958133127524,0.739086560188,1.40469999235,0.885725036047,0.451527283821,-4.66332403999,0.467112531128,1.40069663374,0.804554928419,1.21269667743,1.59835819196,1.71089669168,1.17288515706,120.969679824
do_nothing,2.73919391694,0.416343429673,1.05352145301,-1.70208741467,-1.90901182688,-4.99563335635,-5.27718502614,-2.16021292249,-0.800977647275,0.390917853809,-0.942677002481,1.35716031136,-0.883976265122,137.762058985
do_nothing,1.12352900243,0.153248696067,-0.0647672371906,0.836737606942,1.30521377776,5.48704263251,1.25610273294,0.189652555068,0.763511039049,-0.856436186857,-0.413982939496,-1.04528100826,-0.216980283552,-105.080107771
do_nothing,-3.06562181937,-0.620077101608,-1.94793327172,0.204602766811,0.530321635909,4.7167929843,4.62105509366,0.572070439167,-0.784664309839,-1.0971465568,-0.330745888549,-1.25587157933,0.233650496585,-150.068736464
do_nothing,0.199001472166,-0.0253052478674,0.956916820387,0.615941913243,-0.0949642771887,-4.74549255181,-2.14695684898,0.422722982865,0.823575066553,1.73663473608,1.58510787535,1.1388541685,0.596488002747,118.477681113
do_nothing,0.666141131522,-1.00033760647,0.0673621141542,-1.75417386816,-2.00405027631,-5.8610352946,-4.39430459385,-1.01880930465,-0.797796973216,-0.263356396559,-1.14407104374,-0.519586757917,-1.58583879751,128.04940421
do_nothing,2.17311808694,3.3415595661,1.59117769139,1.03161680742,1.87396296222,6.3471387784,5.30700166973,1.50297314121,0.762856527581,0.598368243142,0.556951284605,2.14350109487,2.29344595602,-88.2912654995
do_nothing,-2.33914196638,-2.19236177368,-1.99748025799,0.10564569239,0.20895025266,3.01313190885,-0.933622789239,-2.32066635313,-0.788295571796,-2.46604130825,-1.08678617478,-2.44245882669,-1.46991609645,-169.774869844
do_nothing,-0.278757275348,-1.56658001149,-0.398130413864,0.430883704155,-0.216294298846,-2.92255101379,-2.06814499956,1.52362944333,0.807154718988,1.62611077514,1.15404468205,-0.310003918827,-0.345270952532,148.756323706
do_nothing,-0.413493246824,1.10551248681,0.594081739456,-1.33922683519,-1.82497770347,-4.93578255557,1.20447373511,0.658654733485,-0.764847460911,0.661407670373,-0.430567147251,0.789378248072,0.038279970102,106.641706336
do_nothing,2.67285905099,3.08954474275,2.18614217216,0.900315840717,1.88149662296,3.30439314195,1.47068747911,-0.705057279428,0.736511187547,0.00951674282355,0.546380636353,2.26974271012,2.17732203258,-120.817141042
do_nothing,-0.459742287898,-3.03196422118,-2.17376606141,-0.404392403246,0.189804800874,4.01541276567,-2.93589174217,-1.41867149125,-0.760696014829,-1.60624878293,-1.08410802662,-2.22099506787,-1.76137180645,-91.2973913739
do_nothing,-2.51059941732,-1.43745912293,-0.889739532486,1.0326960019,-0.421735942193,-1.50921871829,1.10187948022,1.60166550391,0.757531084912,0.220730997345,0.55418063422,-1.71935705858,-1.34669604996,106.641966612
do_nothing,-0.325043070105,2.07780541873,0.868009239562,-1.25089243296,-1.49822534054,-5.15937467099,1.82839188284,0.219714643006,-0.704991787391,0.819707961872,-0.0863373510763,1.63424957501,1.26946308824,66.6697862805
do_nothing,3.94906051249,1.80141424281,2.12758584053,0.303316877953,1.82202206781,2.17788289044,-0.713650861027,0.144204919227,0.684548845677,1.73715186471,0.935192988187,2.99530351112,2.49114536824,-71.6479738627
do_nothing,-1.27561932659,-2.65755122803,-2.04854233949,-0.0513013153869,-0.110268798316,3.53195439661,-3.35255437013,-2.11650030767,-0.702192485357,-2.7054957068,-1.31844203032,-3.23081316716,-2.99439436281,-58.7515920395
do_nothing,-2.05532247748,0.066124064975,-0.527344172265,1.03594535949,-0.291132807889,-0.104580738245,3.09191548562,1.25302240186,0.678101691078,-0.727857351935,0.303295411439,-1.23790545101,-0.686941155592,30.9693394457
do_nothing,-1.09974990847,-0.501521743874,-0.0883621876955,-1.24665825476,-1.07463641902,-4.93162053392,1.21254450842,0.858711123949,-0.621541271948,1.24043066823,-0.262359014378,0.799054601026,0.895952533942,64.4147770841
do_nothing,4.47106253652,2.868593903,2.51966474044,0.32854242388,1.40594463964,1.97817879876,-0.811187968971,0.758951746763,0.608077436478,3.6444522854,1.64825135663,4.132052695,3.1861204077,22.8062778896
do_nothing,-0.640648556344,-0.751297771015,-1.1282378144,-0.241585505319,-0.342389093327,1.77551645152,-3.87416844066,-3.22184344545,-0.614877951117,-3.9349130098,-1.32050853071,-2.74279883175,-2.75370694889,-121.371920241
do_nothing,-3.81149100186,-3.03538154198,-1.95048035786,1.01353158254,0.013718591887,-0.0184927996211,2.28234307705,0.50155118224,0.573292860333,-3.18549015178,-0.831067804386,-3.95461847823,-2.88111141967,-11.4398678924
do_nothing,0.713998607718,0.816001079059,0.582770002079,-0.773134750707,-0.549499354781,-0.730710202573,4.52970100982,3.29561425149,-0.518080209044,4.93369949933,0.780425976389,3.29008642708,3.1853787264,132.655565091
do_nothing,4.07646783501,4.02479581783,2.99058581113,-0.0589286532931,0.588733665412,-1.32603270254,-3.29473183297,-0.541843709988,0.509221411326,3.00490195691,1.67621699441,4.24657512457,3.15371894669,7.15799268807
do_nothing,-1.89390972391,-2.35213476013,-2.02878183286,-0.396860204955,-0.426111859319,-0.538220754074,-5.13915378983,-4.14794404051,-0.50246663332,-6.2085708457,-1.94389969332,-4.66645500373,-4.22162428683,-105.97964454
do_nothing,-2.84638906099,-2.98483262252,-1.84092764406,1.29176510384,0.71859642334,3.74426319598,5.21563081762,1.80438133127,0.448299418722,-1.30432209035,-0.478317135496,-2.69573576423,-2.19045240561,-85.5419743283
do_nothing,1.44564234074,1.87495643568,1.53459551979,-0.601096754214,-0.648051810388,-0.800245593497,2.98709809149,2.87269223098,-0.398391357877,4.79372395277,0.862679635424,3.53011257657,3.28782660428,194.104333484
do_nothing,3.50558559149,3.96589679782,2.42727630273,-0.633558626818,0.079875504363,-2.43384900735,-3.06206326989,-0.246378272885,0.391069692484,2.52059308932,1.471777624,3.81730474523,3.7861053131,46.7985288704
do_nothing,-3.63178219117,-3.96543890101,-3.01722696458,0.245171225594,-0.231124959595,-1.48709533445,-4.73998272589,-4.58507918992,-0.369977154319,-5.99015750608,-1.87250605829,-5.22777434919,-5.33174346445,-197.276891176
do_nothing,-0.800593242578,-1.8139619678,-0.678685517026,0.920482031846,0.780045677807,3.72190279188,3.65563980077,1.36489211045,0.3087978777,-1.30997187612,-0.426328401385,-1.90990219304,-2.35533473732,-46.1020507377
do_nothing,2.67791697683,3.27779450199,2.32736578074,-0.908987564443,-0.282122202833,2.22575144828,4.92551612409,4.37059277754,-0.266475612966,4.98332735486,1.02293217988,4.30577139781,5.00172808558,202.754570501
do_nothing,-0.227084551885,1.07274984757,0.280869870553,0.19157029897,-0.442897421988,-4.09274587509,-3.55914834041,-1.58823775545,0.257615093601,1.60520140184,0.791889722402,1.38577737427,2.11223713169,69.3354848979
do_nothing,-1.58029188723,-2.58187430713,-2.08234121325,0.0159821829143,-0.189068482207,-3.63251089449,-5.29352887482,-4.2935565789,-0.223331819383,-4.47969666146,-1.00696943762,-3.39687287447,-4.89183466292,-275.052861976
do_nothing,0.258476909069,-0.890335499918,0.246739085096,-0.0466444621354,0.854934142449,5.16722765253,3.6889995922,1.95009897471,0.160645052729,-2.19346394693,-0.750600783651,-1.56329243483,-1.97408547697,37.6951379629
do_nothing,0.893304167214,2.15228393749,1.38668701678,0.106555736755,0.08432785258,4.36801025659,5.10753113947,3.56388975922,-0.126585615661,4.52463544608,0.701458634259,3.03944384132,4.88718065993,169.976775043
do_nothing,0.527006617934,1.00375408106,0.0937362263478,0.380365461307,-0.783419912385,-6.00522957185,-3.17173062412,-1.28463984968,0.113674584281,2.74068823275,1.15232018476,2.06588919816,1.87394172495,33.8266179793
do_nothing,-1.78661101097,-2.55920617294,-1.65420430846,-0.683934978821,-0.443636745112,-5.1410575092,-5.66513749743,-3.89396815725,-0.0689758397173,-5.74201783655,-1.09010771512,-4.28360836656,-5.59957014774,-217.934278015
do_nothing,0.210668732352,0.212542697487,0.381674847165,-0.24616210697,1.26842549288,7.90488797738,4.10845396431,1.70399778216,0.00962771373658,-0.98801469543,-0.721157145759,0.00402206881006,0.111464274345,32.6533045989
do_nothing,1.63125914484,1.43028506156,1.25201696529,0.961418163816,0.129250166586,3.26576071874,3.80831825371,2.91276580504,0.0167755888429,4.65644742204,0.750759222352,3.04628891229,3.82900691192,126.701033545
do_nothing,-0.315191762348,-0.31215008147,-0.330936558293,0.126568388585,-1.20528582703,-7.01123212015,-2.58168555079,-0.711866327175,-0.0352495104499,0.308050868649,0.679388382058,-0.808445483759,-0.456100857354,38.5547708697
do_nothing,-1.82375147203,-0.453392453363,-1.06524985698,-1.1069060217,0.0957380583836,-2.31110317629,-2.9524561881,-2.73165751817,0.086211038381,-3.11586672519,-0.32450823093,-1.46047551269,-1.94153864893,-161.349834589
do_nothing,0.321315607753,-0.426521672922,-0.021150281356,-0.0715285481215,0.737099950446,4.79140379734,-0.383557434672,-0.932338960685,-0.137095801777,-1.03637288043,-1.21993866694,0.0929258060265,-0.686614282321,1.84893092239
do_nothing,2.95201349789,0.85633933929,1.70793602257,1.26529884644,0.292638164355,3.72946655446,5.48942643374,4.65805734777,0.153686508941,3.22475948745,0.832998799225,1.75185888074,1.83477517014,96.0794004404
do_nothing,-2.19057329442,-0.209232610311,-0.714168914433,-0.144680182831,-0.851536817793,-4.76191010656,0.138553547103,0.25981121811,-0.17479137917,0.341570948439,0.769335100084,-0.956323481192,0.521999226305,47.0685076702
do_nothing,-1.95927682619,-0.20698706128,-1.39775544714,-1.02427780743,-0.081690063717,-3.74507209229,-7.26114666534,-5.54873598643,0.234641728698,-2.34358596824,-0.53250859702,-0.964189703321,-0.924253863303,-108.642058826
do_nothing,2.7614173633,0.139566407273,0.833890199713,-0.241807551318,0.145807238791,4.255577475,1.76866654953,0.881814299697,-0.298875459664,-0.235295357104,-0.983176019079,1.106352397,-1.07171485772,-32.3689889814
do_nothing,0.929558342208,-0.0583041503261,1.50674799292,1.66834956411,0.993119899106,3.60120911846,7.36771760571,5.65880675675,0.32966944858,1.73304836048,0.938004633319,0.524330229719,0.769734489872,74.3406640808
do_nothing,-2.53053181523,-0.0345357878041,-1.45371269873,-0.684629901422,-0.675949660717,-3.41334102425,-3.94056012657,-2.11164279551,-0.334283228017,0.203939505564,0.425815832962,-0.975215988535,1.30439528736,49.5124821193
do_nothing,-0.300744962967,-0.0164649265601,-0.906638072719,-0.688517465413,-0.846107088484,-3.72344972574,-5.98597189699,-4.81754557607,0.3404210037,-1.3739771347,-0.617321624441,-0.863522686797,-1.04465246001,-59.7248063598
do_nothing,1.40557717321,-0.180005895663,1.12921749397,0.0489692458287,0.317608928916,2.39824646773,5.19666864896,2.2322284924,-0.386162712453,-0.459424284432,-0.652244104815,1.06594719004,-1.21855575083,-61.8331448495
do_nothing,1.99544958727,1.64924259358,1.64784569046,1.02359003063,1.85192410265,5.26207192293,4.93281964935,5.11121716746,0.478223706338,2.69257059369,1.51927691724,2.81310591005,2.6447617184,58.7684871988
do_nothing,-3.43324074894,-2.78410770342,-2.74737911457,-0.717179512709,-1.74969621502,-4.29732897779,-8.04630735482,-4.17740389006,-0.522726246654,-2.48708695634,-1.01653026143,-4.75496897133,-2.31392947237,46.5660810783
do_nothing,-0.633845148841,0.437547222987,0.00255946825274,0.28486939324,-0.666668998919,-3.58575560256,0.0341503781938,-2.47855449942,0.44572209032,-0.13637976416,-0.126854486278,-0.489823709611,-0.0124921765785,-23.4846718234
do_nothing,3.09927157612,2.86501632416,2.05895691289,-0.652681027564,1.198159398,4.08294665616,6.04345938918,2.67002209989,-0.390155849261,2.08578532788,0.529992736532,5.13884884221,2.65906165606,-73.5024213957
do_nothing,1.09541416777,-0.831730313182,0.215577742366,0.560758634423,1.0783644826,3.1789207632,-1.52678010925,2.82795527851,0.524793965997,-0.256328198926,0.529895575082,-0.0211868426784,-0.990784905925,42.5726626146
do_nothing,-4.58719122,-4.22661501868,-3.01403259915,0.0454560550406,-2.32175517837,-5.63114705961,-5.36792646225,-3.19902777345,-0.682663355028,-2.88803405234,-1.75228824903,-6.64513143312,-4.05013495416,37.4101947683
do_nothing,0.324294399571,2.83983872964,1.39259809902,0.429324225056,0.674206279773,-0.35376509688,3.28212930541,-1.91073545611,0.598065035625,1.54023503938,0.994394946305,1.86405366,3.45404219254,3.71914127203
do_nothing,4.66743423417,3.79717293388,1.92239085746,-1.4907675731,0.99888360521,5.44620973793,4.25555396262,2.79281928356,-0.440516257559,2.68626077006,0.922140203498,6.68023480613,3.68031703811,-69.8561292941
do_nothing,-0.916632200251,-3.36883916367,-0.983849344672,1.09660953757,-0.144110409783,-2.06564200188,-3.95442721396,2.21577454269,0.557997023229,-1.48623405072,-0.556084051757,-2.49202668836,-4.44385754997,24.4454899718
do_nothing,-6.08349538667,-4.87160487,-2.85632483416,0.188333951476,-1.80757764712,-5.85180526469,-5.27422817664,-4.64576034698,-0.794432167325,-4.62894147064,-2.19181469613,-8.30527856144,-4.84916076791,25.3903164042
do_nothing,4.74225063902,6.54498990508,3.08636355248,-0.104324694056,2.05545217534,7.42015102056,8.40942066352,1.04692158527,0.746568270865,4.88758559718,2.87548709023,6.37004046982,8.2787767174,22.8005603181
do_nothing,2.4389352263,1.72343550586,0.492978714249,-1.07559479217,-0.375341925245,0.856156310183,1.18787692221,2.37162664449,-0.541773736924,2.12815526176,0.0200120256523,5.01443289531,1.50078581554,-56.6951654105
do_nothing,-3.49980485668,-5.0724862748,-1.54704119384,1.3697159606,-0.787804367692,-7.30143282012,-8.25516924368,-0.852339390598,0.590823693224,-4.0457854749,-1.7640409316,-5.43136170906,-7.36532005593,7.33176559042
do_nothing,-2.1578966734,-2.06853409062,-1.29631170017,-0.783190339377,-0.268806748834,0.904906675191,0.458504735197,-2.38382864197,-0.797595882022,-2.79024899982,-0.636850206676,-4.89100187749,-1.43598862095,12.8913956785
do_nothing,4.04367585352,5.64777845264,2.40991648609,0.626779270134,1.95027987605,8.55882911358,8.83707043002,2.40828488811,0.808532726674,5.50862168243,2.93024972021,6.32164198064,8.29458574057,33.3983604874
do_nothing,0.308752221198,0.872597733024,-0.0278805680417,-0.839817699734,-1.58002431329,-4.38815147692,-3.14643933294,0.30021060499,-0.714449521645,1.37289651588,-1.06598439313,3.032671915,-0.335090120421,-38.4459534439
do_nothing,-2.52448862654,-4.48512703346,-0.848410160645,0.768771533505,-0.247366609858,-6.87307357009,-7.10336502406,-1.40724037132,0.749218178329,-5.0572566606,-1.52700580683,-5.15919293652,-7.08053775177,-6.21143025743
do_nothing,-0.658488887455,-1.59257715687,-1.4325731734,-0.712302392297,0.410640378474,4.93463620278,3.11178937065,-0.766140602277,-0.762349078118,-1.53187710967,0.134584481737,-3.21222530723,0.0298610512593,1.36510792075
do_nothing,3.19704032948,5.57619705349,2.23807682803,0.854082359134,1.3834929553,7.38994473373,7.86529023999,2.90894910726,0.65624229172,6.45379564783,2.81365755092,6.32390690772,7.93217976933,36.1344479749
do_nothing,-1.89063649423,-0.916294560053,-0.215841569605,-0.719673750315,-1.97706908556,-8.22983677615,-6.25494066236,-1.87648777307,-0.709819209563,-1.51884896404,-2.25158289479,-0.243909889537,-2.91333771593,-18.6580173198
do_nothing,0.23581393801,-2.33830620541,-0.296208971702,0.52455954094,0.424379088978,-3.44097888564,-3.99980662371,-0.302963056013,0.925683497174,-3.2275945448,-0.602449289343,-2.32451066328,-3.97358586403,-17.3415908049
do_nothing,-0.204692618633,-1.12171330724,-1.55601122539,-0.840791461505,0.360691584692,6.33320688379,4.30258307573,-0.0143523701458,-0.869589895758,-0.0956451539339,0.819401761967,-1.718691416,0.586941509762,1.98708941608
do_nothing,0.400261334893,2.93201516309,1.66013438099,1.05976448002,0.911162922427,3.6958513458,4.29451091146,1.75002517758,0.559392026823,3.46903759662,1.57104289468,2.52667237287,4.08890942738,10.9009359781
do_nothing,-0.84867733491,0.101862923405,0.195378927388,-0.544546588789,-1.66503667411,-7.46029451503,-5.56842865701,-1.36508173944,-0.540090264015,-0.73047652206,-2.25063848321,0.900944083021,-1.06089353987,22.3513833266
do_nothing,1.58672426081,-0.793387355432,-0.0812202015899,0.294794854517,0.508197915566,-1.39208906965,-1.72187546273,-0.518332865722,0.82812996806,-1.44178654745,0.31223638046,-0.562884067896,-1.80315197292,-18.2579881467
do_nothing,-0.42546818205,-1.61271648172,-1.49722382639,-1.02316047261,0.296430369234,6.58323402445,4.72801589827,0.576998762602,-0.872014677671,-0.695329835952,0.830680975447,-2.15327176879,-0.886632629035,-52.8981560211
do_nothing,-1.71473646877,0.760898271691,0.872177691411,1.37201106087,0.678079961129,0.184967983003,-0.169486303655,1.00830762475,0.640521111375,1.16869668397,0.372382381624,0.397408658737,1.63504394451,73.6872688164
do_nothing,0.157300760984,1.33503026994,0.504473750811,-0.49555292511,-1.52884920498,-6.82108250319,-4.12094893627,-1.61292997651,-0.599265124415,0.759408853728,-1.66559955288,1.86463708039,1.11039743105,1.47139221489
do_nothing,4.02034533121,1.5168958629,0.908693109608,-0.0431411785735,0.846828182936,3.75804658683,4.14380054786,1.2726435823,0.71570023887,1.18148455917,1.36118825979,1.91996419599,0.631902083668,-49.0503659783
do_nothing,-3.67190240054,-4.58358025711,-2.60559802425,-0.70647527418,-0.0793760858822,2.49776575645,-1.42789862569,-1.31600310373,-0.635279404468,-4.57436784502,-0.568323249384,-5.28855013226,-4.76283996287,-3.33070968174
do_nothing,-1.28571862798,0.859487127029,0.802491682961,1.17353937374,0.490833084521,-2.8839796797,-2.1315283221,0.762154016124,0.530018194318,1.38617964114,0.474935405944,0.736268590805,1.75314956697,61.8457468343
do_nothing,2.62396234224,3.30998298373,1.36589459855,-0.481292479865,-1.07684820013,-1.81426167725,2.7495699789,0.796484012443,-0.685390395038,3.9741494838,-0.569271816316,4.01590837655,3.91072474771,-34.0184524295
do_nothing,1.21111865997,-0.039212882106,0.118190740935,0.15253685911,0.76259953244,4.70969318918,1.93034755223,-0.578577812998,0.774642498635,-1.17291769845,0.365362232122,-0.245581625403,-1.07095806504,-49.4118965439
do_nothing,-2.69550096748,-3.83955914398,-2.03393269968,-0.853066564636,-0.124486398744,-1.66762695771,-5.24310153918,-1.9577518535,-0.522557106802,-4.87997824294,-0.400973305134,-4.35578665474,-4.68091261713,96.1985966761
do_nothing,-0.121258673994,0.333605817091,0.616985241036,1.09110111044,0.0755415808814,-3.69910216741,0.133407468227,2.21855736741,0.35750237824,2.15295451365,0.721092408318,0.570329741537,1.34859753207,-46.9412361024
do_nothing,1.17951462935,3.38420785925,0.908689328241,-0.413310254296,-0.567723181461,3.43769183359,5.93837968971,1.25549085612,-0.565188764091,4.52755653289,-0.556969783367,4.09316952982,4.6655234893,-46.4850107849
do_nothing,0.726006178737,0.538819524541,0.627197113808,0.166453384588,0.966527667242,3.09953417448,-1.35712672407,-2.29639615993,0.69320606488,-1.84847065018,0.130628087123,-0.059040751801,-0.764815249693,43.2884917903
do_nothing,-1.10306226148,-4.67397784372,-1.87534572197,-0.512923868702,-0.768837354903,-6.03466645268,-7.54822590834,-2.08450216154,-0.47225195967,-5.84841846932,-0.480242631511,-5.45562150127,-6.16206356797,64.8094720497
do_nothing,0.36118360163,1.15334705944,0.275311375599,0.38500396605,0.106121481769,0.246362845432,5.2624217378,4.5865010934,0.321494838759,4.23670595988,1.11516536876,2.27611281155,2.83768651133,-76.2659008069
do_nothing,-1.64230102055,2.91803150079,0.731355844579,-0.137511715733,0.150209659831,4.79706224924,4.86325501056,-0.227818845963,-0.445648417527,3.52178516071,-0.6022613564,3.38367137089,4.2608197541,-70.0332783074
do_nothing,2.17372451698,0.0396172669101,0.853698842867,0.635695432643,0.535100686975,-0.611514983527,-5.13125069674,-3.44551678286,0.479521699631,-3.04626379977,-0.364384963611,-1.25989423002,-1.80993901596,115.543554947
do_nothing,0.757653164156,-3.55892449788,-1.61093583325,-0.872298805208,-1.2303593773,-5.28112908217,-4.66736969396,-0.162406662117,-0.317043946695,-3.68167411511,-0.0894376867907,-3.6661295496,-4.55098552404,50.4941446389
do_nothing,-2.27961924335,0.682814984994,-0.0143731671993,-0.0269096935736,0.643869849661,2.49906098921,6.27784697987,3.72031033739,0.263409971703,3.13867886078,1.10699773838,1.69044585878,2.21525297036,-120.022480724
do_nothing,-0.58541892488,2.85029526425,0.895447772982,0.483422839223,0.665202644383,4.17763324011,3.58925071371,0.168304461452,-0.308247692477,3.22450365975,-0.396169827187,3.12930709388,3.87361897828,-58.5217847605
do_nothing,2.04309204175,-0.797393789742,0.156849557354,0.536342569551,-0.705762902308,-3.6923019321,-6.76605223737,-3.94777996197,0.217622174896,-2.90983898148,-0.95116094041,-1.82698650108,-2.10174407841,135.019048321
do_nothing,0.556737754572,-2.17105236028,-0.771488581678,-1.09487898424,-0.852197799247,-2.64981304763,-2.83571038594,-0.453044910012,-0.149850660539,-2.84923770443,0.118425363344,-2.42607900883,-3.29779976886,67.1913686869
do_nothing,-1.03640449915,0.96979604931,0.401522759838,-0.0121710963229,1.66100121442,4.71127247694,7.63987858515,4.94720926897,0.282536735132,2.74285289931,1.64800234001,1.82540465292,2.04421230886,-155.817894931
do_nothing,-2.02844718341,0.76256662329,-0.458847277924,0.720130479316,-0.16233926244,-0.269551396086,0.97664045994,-0.527576530193,-0.283578043424,1.95006482128,-0.978692361571,1.06365396964,2.16814611213,-59.3823579275
do_nothing,1.79580862277,0.486883906475,0.451065705823,0.217741214237,-1.44363094601,-3.09976424309,-6.63004668701,-4.4626950479,-0.0153289298392,-1.31829729229,-0.946121195336,-0.0578224239307,-0.637745281355,144.979064618
do_nothing,1.74575926262,-1.53562851566,0.337094633864,-0.765041862742,0.35706392772,0.725595552557,-1.19908057685,0.159992572975,0.115710221413,-2.83422194579,0.481358950966,-2.07617029677,-2.99793804643,91.5548518002
do_nothing,-1.03904921128,0.044329497089,-0.382696907787,-0.147581222245,1.77921289158,2.93541776127,7.47613257965,5.13331583602,0.198410203207,1.71275557133,1.23221530273,0.385481072978,1.19267051071,-176.238189771
do_nothing,-2.44363087993,1.24000056839,-0.564095429979,0.504230016411,-1.10721846602,-1.90809778834,-0.0657179751168,-0.838442520148,-0.311626176513,2.4807999615,-0.499857927942,2.04466592919,2.65650635265,-75.909562303
do_nothing,0.463265413502,-0.734971755371,0.220522085472,0.431985932621,-1.57736775486,-2.28208478856,-7.82537322098,-5.24752204471,-0.0782740030303,-2.10292210139,-1.43785654377,-1.14447632757,-1.97836744987,150.874137418
do_nothing,3.90712504223,0.20078821024,1.12642755252,-0.572683014368,1.69658131546,3.20048261374,2.74929689712,2.1317959336,0.323696027712,-0.68153788815,0.869913656585,-0.273773064434,-0.681916101653,121.398122716
do_nothing,-1.44625811203,-0.051381654297,-0.505727592846,-0.479458401522,0.950557650627,0.224471834446,5.21643079849,3.68154309411,-0.0515117156057,0.319895761113,0.939970375014,-0.251087283139,0.544582353049,-188.542608683
do_nothing,-3.69372793896,-0.55413018627,-1.2523767817,0.585440668943,-1.58117820298,-2.2388603898,-3.15247711739,-1.92522154496,-0.130117033499,0.438921173822,-0.493223557101,-0.0809161846095,0.282206994321,-99.2532330125
do_nothing,1.50134263439,0.490590216807,0.499530156191,0.253061335989,-0.81453861754,0.413110556956,-2.28011286613,-2.27278146151,-0.167417277296,1.41655314852,-0.888571602236,1.54281245054,0.698205339701,154.60101151
do_nothing,3.38376832831,0.720608577054,1.51200268819,0.113817255999,1.66455128454,0.757769738056,1.2453040456,0.702324658928,0.400070830254,-1.35181994654,0.207274051884,-0.382678044142,-0.723152824631,147.938079891
do_nothing,-0.94708667873,-0.627922106584,-0.57989108867,-1.11479058819,0.403377202563,0.644541612552,1.19720569456,1.85856262066,-0.212187477326,-1.97685324469,0.852774172167,-1.99981867952,-1.08379592792,-190.092714579
do_nothing,-3.52561664527,-1.1065002386,-1.63792217678,0.438002019244,-1.10940808911,-0.45814474118,0.805214818672,0.506492663182,0.0869308706235,2.07759509464,0.277393127493,0.631325143039,0.967496009321,-126.713950304
do_nothing,0.254094412976,0.772143458799,0.342072950608,0.767222909557,-0.911705056284,-2.00583768306,-1.71807324077,-2.44616575585,-0.320141352399,1.62210324786,-1.4453421218,1.977242862,1.0273654303,158.572382268
do_nothing,4.78818658516,2.16608843604,2.58574214736,0.127056638487,1.54548668038,1.80311802493,-1.07151023075,-0.239737833351,0.478856074578,-1.31204314348,0.346941680319,0.218438764379,-0.297650125312,164.945899086
do_nothing,-1.88795500351,-2.78949308902,-1.66860571423,-1.55597253975,0.426473162439,1.11814594998,0.691562089125,1.48260357232,-0.334862337461,-2.97497292565,0.557734357792,-3.82964731091,-2.5015956396,-180.418349086
do_nothing,-3.00678557238,-0.392419702272,-1.50547429666,0.598642483245,-0.936069699713,-1.10385210133,3.10639719899,1.65304056193,0.27532497534,2.5674642393,0.70395213418,1.65666449923,1.88546047905,-153.796496684
do_nothing,0.798100208096,2.08746489604,1.14279136683,0.882653987798,-1.12730816553,-1.7328377359,-1.97288376338,-2.49313024381,-0.458043260785,1.93891392416,-1.41812182522,2.65818279143,1.41722721262,160.833996357
do_nothing,3.01837486839,0.348425904344,1.78977612934,0.239947199297,1.74686502964,1.78025996573,-2.66721103479,-0.996587167973,0.538565074995,-1.46656668802,-0.00224407056948,-1.15730888718,-1.35201978991,172.712457927
do_nothing,-0.818190449285,-2.31004281479,-1.76973673125,-1.85471832023,0.20216143215,0.589044319391,1.36434524276,1.85166080641,-0.428755916598,-2.63669043557,0.61011972646,-2.71653435545,-1.63050734344,-162.892161264
do_nothing,-2.11328059052,0.589819620598,-0.763237392843,0.677760999695,-0.950357932371,-0.605827633485,2.9847979752,1.25962938731,0.434130430089,1.15296711132,0.799877774393,1.02577143005,1.44410213045,-176.446307281
do_nothing,-0.0497416396133,1.36306404067,0.894538623441,0.981693106424,-0.689744611153,-0.599735502847,-0.430932823579,-1.62963741659,-0.578143581367,3.34979597005,-1.15290773357,2.68353335523,1.52286314879,159.955107188
do_nothing,2.12427272366,-0.328793015031,1.33156704448,0.294929058499,1.55644689507,-0.184313740064,-3.87064099575,-0.924982703387,0.590032243047,-0.911314261119,-0.238177313159,-0.516348489102,-1.05485697939,173.212559428
do_nothing,-0.344531819251,-1.71045685674,-1.80264088856,-2.10709743495,-0.627536222631,-0.0754930583781,-1.15159855583,-0.154449326898,-0.501201735224,-5.16475828171,0.0700734680255,-4.00057303989,-2.73253998886,-141.66365201
do_nothing,-0.0636030855712,2.14607381733,0.258439929252,0.947457144427,0.19656097456,3.26154200732,7.84182860898,3.56260183709,0.549953765455,3.75185868617,1.83334088208,2.89423739691,3.38784699241,-192.474111718
do_nothing,-2.3886265037,-1.3061919045,0.155174191163,0.858616766609,-0.663462566327,-3.46807488258,-2.469353032,-2.09887924644,-0.662521142137,2.57454588157,-1.71547773589,1.21770295385,0.0298509108363,156.126188535
do_nothing,1.95038091462,0.201773349605,0.968677173963,0.131599121131,0.51369135867,-1.20582590538,-6.59429381898,-2.18003130105,0.63336686598,-2.56057722973,-0.49165756383,-1.19647967036,-1.6525209583,168.688690349
do_nothing,1.13593698055,0.520362728446,-1.42335949196,-1.8081882174,-0.325954948294,2.59606974646,2.91124344476,1.33314062737,-0.566072062481,-2.65367693047,0.72994978612,-1.49834423647,-0.597155066036,-120.920299628
do_nothing,-0.785078307978,0.0679050717267,0.615591452989,1.07798585643,1.14663746921,1.92653188536,6.61015786834,2.76137379452,0.631473417668,3.17500899273,1.31653090469,1.61380831627,2.23998387656,-200.860787804
do_nothing,-1.55007961687,-1.25582589247,0.261878910872,0.125696528368,-1.28419085641,-3.26359416758,-4.5056082905,-2.16782221922,-0.707082262743,0.960367386229,-1.74818185342,0.0966912246335,-0.583340889161,150.286961624
do_nothing,0.375805499489,0.774732370717,-0.306264321229,0.655879190886,-0.199871610973,-1.40341502533,-4.66534892305,-1.56302254809,0.65863588747,-2.05240200445,0.0329792885633,-0.633390625086,-1.38214891814,161.286062085
do_nothing,1.04887909287,0.633176017023,-0.732235400629,-1.37221814349,0.539914817578,2.44697654648,4.15055468599,1.02025022481,-0.61848308988,-0.606935038844,0.378822707621,0.197941057146,0.469834450996,-104.035265045
do_nothing,2.06351251888,0.345328480191,2.02291968378,0.206036106951,1.48749267005,2.91046478915,4.06015296121,2.50259007951,0.683579866951,2.20842082609,1.13917321177,0.945596429726,2.08541700179,-201.750701404
do_nothing,-3.97157225011,-2.78760130499,-1.69138291956,0.370000477183,-2.3335596493,-4.6560067984,-5.56495053298,-2.40590911964,-0.719316288739,-1.93995334989,-1.72103585101,-2.86549916112,-2.87812307246,143.742531203
do_nothing,-0.242298087796,2.21776092124,-0.223741688919,1.12770455183,0.229208427114,-0.406804556849,0.0593388674061,-0.230035704397,0.665401559393,1.31162934525,0.708430668962,2.71297585809,1.06806597501,152.734762402
do_nothing,2.76269402634,0.66688226901,0.737433867657,-1.80524307228,0.99046241736,2.84030292197,2.05476059207,-0.0566954007147,-0.652300048751,-0.127647483296,-0.234195620233,0.539489833347,0.600021186919,-93.0087391726
do_nothing,1.8989662124,-0.681021371212,1.20663622582,0.222474232895,0.928218503869,0.953352029315,0.429523213023,1.98338923091,0.70554443478,-0.550591409736,0.795396179245,-1.83094154992,0.145692819967,-196.343730796
do_nothing,-4.62035866774,-1.78583845186,-2.22652229079,0.527572604648,-2.29390774598,-3.30440405064,-1.5713521889,-0.971282063561,-0.704056752436,-0.797659311371,-0.902957417191,-1.10381913984,-1.48674065977,138.031194073
do_nothing,-0.62821065483,1.44473170721,0.380752708338,1.06557344325,0.653468401091,0.984742018443,0.817086994492,-1.32190685112,0.653976061396,1.54814619088,0.317883635719,2.34183234108,0.609317782209,142.120688241
do_nothing,4.0357124088,1.10324765988,0.962545951797,-1.97511049059,0.670449054999,0.802935524154,-0.545899244446,0.491038518278,-0.662835244591,0.407891003646,-0.198922890478,0.546587801941,0.931563137042,-78.9937034571
do_nothing,0.962334413075,-0.39015430887,0.724459195053,0.641377396444,0.647680831762,-0.274966699603,0.176285946437,2.14515523403,0.696895018208,-0.936758408613,0.826305679908,-1.02497980829,0.249868077367,-210.09070764
do_nothing,-4.72955121552,-2.55466614674,-2.26539767172,0.26712618599,-1.71817964839,0.0229142989513,0.0618620239856,-2.27682974971,-0.66530050604,-2.20807528653,-1.30521407194,-2.48600045983,-2.51041352586,167.236337523
do_nothing,0.646613797293,1.84799141998,0.796468198797,0.613226842629,0.665780498659,0.952675315035,1.4450501824,0.0793539101783,0.624542286971,3.09284065775,0.95005584469,2.37225726345,1.53148698705,119.158746057
do_nothing,2.35405659644,1.1184019665,0.702220335294,-1.09634177949,-0.0574447343581,-3.55356053041,-2.57745213191,0.768489717248,-0.646590085836,0.764556911485,-0.197977156282,1.63806546083,1.09728107263,-116.269403908
do_nothing,1.69069146482,0.0719591020259,0.855207868647,0.386163838428,1.08054491999,3.1158061816,0.907908457347,0.980818042369,0.657585018455,-1.67640059477,0.289384678066,-0.294180238919,0.0234590821696,-123.006124157
do_nothing,-4.27458615841,-3.63939341271,-2.55960160801,-0.406399401551,-1.20348453286,1.58130121806,0.426895835757,-2.7247994671,-0.605921419559,-3.09208054679,-1.39672907936,-5.14554719395,-3.49309690694,121.330293777
do_nothing,-0.058548618274,2.16056205554,0.869201746813,1.24294600785,-0.0936098444063,-3.04046947172,0.926276309203,1.59875805671,0.577413264658,4.03428611205,1.61016449605,2.7989742102,2.48760399354,80.8827832348
do_nothing,3.30087007254,2.74114650765,1.57237153532,-0.891653493259,0.0724251447623,-1.5999126699,-0.937270370007,1.49238940083,-0.602752912105,2.18277437317,0.085996506642,5.32544172298,2.42710790734,-75.1734371906
do_nothing,-0.0698438260628,-2.48809269013,-0.58713855793,-0.218178432823,1.33463017556,3.70537263296,-1.87930812751,-2.20078960691,0.589614640904,-4.47015431344,-1.18722116698,-4.19995921497,-3.08431318644,-78.549660314
do_nothing,-2.93333415326,-2.40906204305,-1.98836816113,-0.157822445479,-1.14202705656,1.01002159431,1.73466363866,-1.06010606673,-0.528196398793,-1.70467114306,-0.406716314723,-5.08697516058,-1.7138515883,38.0818652408
do_nothing,0.911297286579,3.21009254967,1.79386729649,1.40772182108,-0.442638556586,-3.43632773305,2.80423351435,3.51988124134,0.512492335592,4.90832706331,2.08333889464,5.62153822541,3.69921820821,83.8179582435
do_nothing,0.869306873372,0.573984007385,0.235714755282,-1.13458860384,0.210399621878,-2.00923490553,-4.33059774047,-1.25221165876,-0.5324626035,0.0547186532546,-0.955648196704,2.93279254839,-0.246568658749,8.9714924683
do_nothing,1.13174648338,-0.97650254356,-0.200762938409,-0.138959552007,1.50612354546,5.87325595454,0.182516658447,-1.61599228806,0.497083912456,-2.324270181,-0.584833287315,-3.45770724097,-1.2637529194,-127.711469352
do_nothing,-2.26287225103,-2.36334765622,-1.29282484116,0.127149871007,-1.33273121516,-0.668181148415,2.33841799409,-0.0178352297373,-0.434843403049,-2.5388690274,-0.443911843986,-4.79533703359,-1.83604297125,-12.2942362638
do_nothing,-0.0383927209883,1.96850408429,0.93281350661,0.80566377161,-0.419213637797,-4.7017196604,0.455840198222,2.6423522339,0.430143558769,3.65322573936,1.57786520122,4.82905588741,2.53398158587,153.648413368
do_nothing,1.23599031025,1.822588659,0.410019885143,-0.753079500157,0.364027311537,0.752060686622,-2.71152545931,-0.835085126876,-0.438433220527,2.26743324002,-0.0706720200372,3.91485084706,1.34282745833,-9.16597735311
do_nothing,0.808108614393,-1.42347242099,0.231522193357,0.0832335145985,1.21780886365,5.19571961304,0.651102847129,-2.00683637228,0.385317001792,-3.52875984125,-1.10336885896,-4.42487346045,-2.35186874972,-106.008037963
do_nothing,-1.62925148513,-2.3145557573,-1.3887908546,-0.288244488361,-1.03631340164,-2.2894837385,1.67444612838,0.366581410522,-0.32900925856,-2.70640546661,-0.707260791765,-3.85561870516,-1.63949171509,-91.4602049494
do_nothing,-0.761273417784,1.66770776368,0.123249344178,0.831273920445,-0.583977236879,-4.25162148074,-0.895594622191,2.27924289647,0.331720379286,4.14352824607,1.94582434433,4.37827525039,2.84304643305,215.205785123
do_nothing,1.86354823066,2.11088197703,1.36171839908,-0.424460392041,0.434458289424,3.02285192117,-1.01479126487,-0.534868484855,-0.32481432521,2.11015182098,0.113487897837,3.37918080156,1.08316236592,32.0573995966
