label,COUNTER,INTERPOLATED,AF3,F7,F3,FC5,T7,P7,O1,O2,P8,T8,FC6,F4,F8,AF4,RAW_CQ,GYROX,GYROY,MARKER,SYNC,TIME_STAMP_s,TIME_STAMP_ms,CQ_AF3,CQ_F7,CQ_F3,CQ_FC5,CQ_T7,CQ_P7,CQ_O1,CQ_O2,CQ_P8,CQ_T8,CQ_FC6,CQ_F4,CQ_F8,CQ_AF4,CQ_CMS,CQ_DRL
off_to_on,2.59226260677,2.81624229916,2.59965650946,-2.29116736115,0.442163858876,2.75208267456,3.89196064741,1.20689347349,-1.10077377849,0.548580166123,-0.52636828111,2.12833003432,1.55637493687,-25.0193477991
off_to_on,1.9146026155,1.98425699491,2.14623146409,-2.42621913755,0.314169926086,1.4284868717,4.44912172527,1.98070128451,-1.44619683551,-2.04200387366,-1.50172820047,0.900267358785,-0.467433447836,-39.0694015021
off_to_on,0.645537183374,0.666204063271,1.20143812341,-2.07031539804,0.116188928305,0.36034501223,4.27983395132,2.22904910768,-1.60756185933,-4.18281872412,-2.20505767272,-0.678237197449,-2.54030649458,-50.0364705607
off_to_on,-0.949890500869,-0.904316816032,-0.140450662282,-1.37635858821,-0.144808577953,-0.436678735726,3.38695958961,1.9806996722,-1.56020626968,-5.39581630067,-2.52156188221,-2.25671621471,-4.11439539847,-54.148739061
off_to_on,-2.48764529415,-2.41860047339,-1.66448636484,-0.55044566315,-0.443060937339,-1.11299487833,1.87592697131,1.37054149281,-1.29500609474,-5.43537984388,-2.41405786578,-3.46674117905,-4.76660855297,-47.7763918594
off_to_on,-3.56667110996,-3.55605112635,-3.06148057006,0.216928762983,-0.733398419559,-1.8510326918,-0.0509501833488,0.57059517646,-0.825441153048,-4.34564708449,-1.92556723575,-4.02250678519,-4.3269164355,-29.0706209418
off_to_on,-3.88204693636,-4.05508701433,-3.99200677221,0.801933103185,-0.957312048325,-2.72367419699,-2.10949107883,-0.26956782138,-0.196255952179,-2.43765610717,-1.16371558741,-3.7946505182,-2.92581696984,0.586131461825
off_to_on,-3.31452598691,-3.77490741848,-4.17388795987,1.16523450286,-1.05465953127,-3.61000715677,-3.96135318156,-1.04952776721,0.51185191689,-0.194235271856,-0.272170082243,-2.83631120224,-0.946320058619,35.9849475901
off_to_on,-1.96835720276,-2.73254652943,-3.46838738124,1.33528853832,-0.978216230913,-4.20874139522,-5.25732207788,-1.70683049646,1.18705084291,1.86753688661,0.602303674329,-1.35731514481,1.1011849404,68.7909977465
off_to_on,-0.145485729848,-1.10527532834,-1.9374759861,1.36930973655,-0.707502285671,-4.14880629464,-5.69562176912,-2.18265288975,1.70337054164,3.33394330916,1.33796280336,0.340493391984,2.73668077081,89.5484593185
off_to_on,1.73559297426,0.803027006079,0.148877057198,1.31185063133,-0.258534985985,-3.15539471062,-5.08863485834,-2.39114012863,1.94778760573,3.99104824583,1.85449227243,1.94251999862,3.64653087637,90.5023585984
off_to_on,3.25085161793,2.62387358292,2.36229240394,1.17004107158,0.31294318509,-1.20421330968,-3.42463502603,-2.21794915556,1.85053142419,3.85315806514,2.11524887022,3.18936428568,3.75321235801,68.371097683
off_to_on,4.07779114538,3.99999771572,4.2122069896,0.915836135992,0.916033981934,1.40276429997,-0.906414392124,-1.55897826344,1.40897444617,3.11966811333,2.11793832152,3.91536266806,3.19991293396,26.096103919
off_to_on,4.06782120395,4.65764957969,5.26404766824,0.51292516357,1.43713977507,4.07972212042,2.05115771354,-0.388494111067,0.696111442094,2.08053937423,1.88015430481,4.05331231785,2.26293061365,-27.1727912972
off_to_on,3.26627919676,4.45983734686,5.24763982068,-0.0454026229025,1.75923351228,6.11347350301,4.87594877089,1.17343820138,-0.151203273303,1.00710088331,1.42743069195,3.6146380523,1.23077642899,-78.076155328
off_to_on,1.88032254575,3.43056488006,4.12670829486,-0.706474214771,1.78560295221,6.88556802,6.94437774244,2.83182938754,-0.962686915566,0.0681251306836,0.789580807965,2.66238462326,0.299288718217,-112.59615121
off_to_on,0.211122356833,1.74745046631,2.11141680006,-1.35269475478,1.46430446764,6.08374017647,7.72107094407,4.1543291798,-1.57576065121,-0.699997474126,0.00677815285393,1.29385089807,-0.476857164828,-120.164807133
off_to_on,-1.42436681473,-0.293083932875,-0.388276174729,-1.82649515833,0.808202451977,3.8259935449,6.90104391188,4.67979707065,-1.87541862408,-1.36169896141,-0.858303121212,-0.358987061127,-1.16048535798,-97.0620579771
off_to_on,-2.75783855825,-2.32932714651,-2.85512331154,-1.9790475334,-0.0952542763215,0.648665102293,4.51576184706,4.07178673867,-1.82085885537,-2.00616076281,-1.70987989491,-2.11581134795,-1.85095800397,-47.9708717337
off_to_on,-3.60561758305,-3.99614313464,-4.77888578156,-1.7253067793,-1.08971937037,-2.6432999826,0.967764381637,2.26621909876,-1.45103354556,-2.66143714661,-2.4185421436,-3.73638593622,-2.58525411147,14.9212670364
off_to_on,-3.87503422616,-4.98558646942,-5.76494128339,-1.08387192746,-1.97373840053,-5.21675600598,-3.02657488541,-0.445250923463,-0.868160737818,-3.23814862031,-2.83668837809,-4.92991937882,-3.2689021062,75.1300986168
off_to_on,-3.5515814532,-5.09855577835,-5.61363591811,-0.184580200381,-2.5408732478,-6.46137213026,-6.5830103651,-3.44015304194,-0.20543064092,-3.53141892716,-2.83005796023,-5.39801199904,-3.67328756178,116.50086581
off_to_on,-2.68217976562,-4.28153007639,-4.35585405505,0.761859971937,-2.62905208224,-6.16644849973,-8.85489558127,-5.9085092891,0.409954148594,-3.2871236798,-2.31863067211,-4.90955327932,-3.5087522537,127.875024814
off_to_on,-1.36660546174,-2.64346831214,-2.24116720126,1.52380128852,-2.1674098286,-4.56433719199,-9.24826992961,-7.08226325212,0.886402305748,-2.31206886256,-1.31465335447,-3.38896026564,-2.55030831615,106.362699518
off_to_on,0.24022973429,-0.44862681158,0.315405058947,1.91837044074,-1.20688092488,-2.22821368473,-7.58851532255,-6.48294262167,1.1816467787,-0.587316902846,0.0563067845541,-0.986653971477,-0.76758231948,58.1926208209
off_to_on,1.92307198206,1.91755193261,2.81539746625,1.86691652076,0.0771443960627,0.136707467403,-4.18884995317,-4.10490533625,1.29832691336,1.6623112551,1.56239484134,1.90116886395,1.59672131648,-3.14199115358
off_to_on,3.4124976244,4.00906578294,4.77190079369,1.41676315677,1.41544208602,1.93232837154,0.205207113311,-0.465117828915,1.2660428587,3.97816858776,2.90429224649,4.68503968824,4.04100923696,-60.8757207837
off_to_on,4.41524920294,5.40058040675,5.80138103888,0.721694512387,2.50486273498,2.85171316634,4.58778516514,3.5100632292,1.11917031285,5.76680600097,3.77975836757,6.70643288104,5.92072854114,-99.8645871705
off_to_on,4.67194292189,5.77652509333,5.69739745012,-0.0116687169376,3.08389377965,2.944421393,7.93979455975,6.73735024507,0.880519010806,6.46570500503,3.95874710856,7.40721656126,6.63678736653,-110.870848123
off_to_on,4.03135460186,5.00938818035,4.47363607985,-0.592337573295,3.00357299873,2.54451250394,9.48650775909,8.2954577815,0.557607701393,5.72646653201,3.34872211071,6.49745590735,5.83686549298,-92.9427126351
off_to_on,2.51813181096,3.20627388715,2.36720945285,-0.904005146836,2.27249557421,2.09408372711,8.89521964018,7.71064887692,0.152313275661,3.55458965765,2.03048765508,4.06802421788,3.55956660565,-53.2207565792
off_to_on,0.366090770015,0.706408879129,-0.201516005263,-0.934348177127,1.06052015714,1.93411903843,6.35748236561,5.11467403484,-0.321596702868,0.353848143773,0.251748636945,0.605596422347,0.265855156252,-4.33400181636
off_to_on,-2.00437830961,-1.97766846093,-2.70888899329,-0.765569533782,-0.342710598845,2.14629860118,2.53213268658,1.21898031261,-0.822450681441,-3.1490980471,-1.62303523078,-3.10553090462,-3.2623307427,39.6940841725
off_to_on,-4.06978947052,-4.26787882147,-4.63520077196,-0.531589865775,-1.60446991849,2.50971287564,-1.63514627658,-2.89215123565,-1.27550510686,-6.08625553626,-3.19542648137,-6.17556936063,-6.13182595564,67.674306841
off_to_on,-5.33156427138,-5.65476217247,-5.57826581626,-0.359409822953,-2.43919990853,2.59228533977,-5.16447724439,-6.08695450738,-1.58381428743,-7.68656841311,-4.12750893099,-7.84466028575,-7.59376409755,74.2824313114
off_to_on,-5.45378850755,-5.82467478331,-5.34742523079,-0.317497088844,-2.68526298056,1.94438286487,-7.29481542119,-7.52697867309,-1.65370454862,-7.50003920183,-4.22317147669,-7.69373678344,-7.26438837172,61.0176334477
off_to_on,-4.36791223876,-4.74465477745,-4.01308350209,-0.390729364132,-2.34437800632,0.321015199686,-7.6663308226,-6.91375918342,-1.4269061286,-5.53771646915,-3.4744118673,-5.76669944295,-5.23981674101,34.9402761419
off_to_on,-2.30802497881,-2.67827659255,-1.89531197664,-0.490838614735,-1.57126163641,-2.15531224072,-6.38324040947,-4.56209275013,-0.907634966609,-2.28134426078,-2.06043460161,-2.56432081454,-2.06705477163,5.77898125312
off_to_on,0.239801266545,-0.123708483865,0.51021568678,-0.497545358479,-0.617001454117,-4.96077709218,-3.94477359989,-1.27799645097,-0.173541333388,1.44398972196,-0.300397841315,1.09150782525,1.41968211138,-17.5026059904
off_to_on,2.6634919141,2.31254260722,2.6532702526,-0.313858284643,0.254924434409,-7.2902982165,-1.07159245499,1.91558266683,0.635577772704,4.69818205392,1.42663846343,4.2847576477,4.344424439,-29.4865785175
off_to_on,4.39052218152,4.07288751845,4.06658763989,0.0862939688812,0.851682180469,-8.30065260698,1.51473775692,4.11189793558,1.34979080034,6.6874910287,2.77247217384,6.25656613136,6.03794044696,-29.548377161
off_to_on,5.04312401265,4.79283526829,4.48236731808,0.636945083263,1.10503774979,-7.39920203553,3.29011210189,4.80062946866,1.81278773571,6.98047935426,3.49718539286,6.60630830704,6.2114725566,-21.2886351706
off_to_on,4.53545166856,4.39041373567,3.89431531968,1.19429438904,1.07813611513,-4.48006480855,4.04551666657,4.00343122485,1.92387035966,5.61440356149,3.51418025599,5.38377073101,5.00496830406,-10.5269467752
off_to_on,3.08332739358,3.0746740867,2.54665591726,1.58179759857,0.923712721682,-0.0226079963251,3.89413002637,2.22423298344,1.66482150262,3.06256844591,2.89389061304,3.04811969943,2.90235148719,-2.7210674205
off_to_on,1.12553741202,1.27136688163,0.853148413167,1.65023521885,0.809969772064,4.99003819174,3.17535979972,0.238204003482,1.10315712413,0.0767299656224,1.82921368336,0.310958515242,0.550550623431,-0.821281481266
off_to_on,-0.815720369204,-0.510705297188,-0.729220019318,1.331343167,0.842548862976,9.31648545147,2.29663919446,-1.20154980173,0.371105088874,-2.54309356957,0.575858890875,-2.0839704688,-1.45130828017,-4.3395550877
off_to_on,-2.28866608145,-1.8308135747,-1.83277290516,0.665954238048,1.01314924741,11.7966351158,1.57233603939,-1.63381820518,-0.372350697307,-4.17836446124,-0.613746271283,-3.5743268227,-2.72076711087,-9.90733512715
off_to_on,-3.03069061337,-2.4379638587,-2.27679175727,-0.203216801473,1.1961873881,11.683629519,1.11697483277,-1.04078639784,-0.983742114516,-4.55150843986,-1.54484836806,-3.92129994256,-3.16703013787,-13.0119188612
off_to_on,-3.01679733537,-2.32619684352,-2.10064832326,-1.07153077886,1.1973457092,8.8676293765,0.828303675089,0.169515902186,-1.36835971043,-3.77072345039,-2.11063496742,-3.24166845904,-2.95706957786,-10.158693727
off_to_on,-2.42818012514,-1.70868054273,-1.52429511813,-1.73134484716,0.83800417257,3.92387188874,0.462290271464,1.33911821758,-1.49507956891,-2.25426279704,-2.29462456502,-1.92840818972,-2.39776919897,-0.56587183566
off_to_on,-1.55920832423,-0.922563256417,-0.852327411896,-2.0302225164,0.0446139218503,-2.02885098626,-0.231432086301,1.82695457625,-1.39042493825,-0.56695597646,-2.15006174582,-0.494235963939,-1.78738013108,13.2961055658
off_to_on,-0.701050198701,-0.299186444285,-0.356647670768,-1.90999989416,-1.09216232659,-7.61654495044,-1.36720794391,1.26732871801,-1.11692538888,0.77228481197,-1.76712550522,0.605078227869,-1.29645855707,26.5422567398
off_to_on,-0.0453626807467,-0.0450857944599,-0.179439750364,-1.4158234921,-2.31509724142,-11.560873697,-2.83056438687,-0.275331844488,-0.745858668512,1.44786485557,-1.24045644864,1.10852676041,-0.922325931762,33.7643448071
off_to_on,0.359392439725,-0.174572847024,-0.290244372073,-0.675046406147,-3.26233510133,-12.9938948909,-4.27421161636,-2.31265005944,-0.335323042326,1.42173592136,-0.646991036909,1.00728969154,-0.529005748875,31.2357645578
off_to_on,0.588693591705,-0.516184180151,-0.511118097197,0.144215374993,-3.57797687009,-11.6537825859,-5.21055948115,-4.09828168417,0.0788305899017,0.907338652197,-0.038736557321,0.510591252814,0.0506123718476,18.5592618438
off_to_on,0.774287595498,-0.789256741861,-0.599134094755,0.879502891277,-3.03658523962,-7.91749473189,-5.1735011833,-4.89498162695,0.477838817982,0.260845010851,0.550933154676,-0.0592467174503,0.898301707856,-0.910040099836
off_to_on,1.02053611628,-0.722277392651,-0.354657907547,1.41047272559,-1.63894028592,-2.67461383695,-3.89586739411,-4.24764317728,0.845607470595,-0.166179910724,1.09353410851,-0.399355524694,1.93249706943,-21.0737628653
off_to_on,1.34160790831,-0.16992896297,0.285605572181,1.6761401379,0.356962870058,2.91110713552,-1.44045185974,-2.16476222589,1.15394485423,-0.15872920398,1.5522380539,-0.337526655819,2.90509766419,-35.1950669856
off_to_on,1.64598208419,0.814010409509,1.20640481433,1.67193013059,2.48599419976,7.68154414969,1.76490872229,0.85715304247,1.35633350858,0.289856105927,1.87594966633,0.115060039227,3.47841566577,-38.3388331934
off_to_on,1.77411435888,1.97562896749,2.13984836928,1.43298961123,4.19688945377,10.7328155007,5.00791284268,3.97679058824,1.39519018069,0.987108934666,2.0040707211,0.782760730076,3.35434785027,-29.2426178755
off_to_on,1.57265299285,2.93457521294,2.75198361948,1.0139768829,5.0096220824,11.5786288008,7.47039208742,6.27122235021,1.22134593724,1.62300285041,1.88104073806,1.40253625524,2.4053648361,-10.9049462607
off_to_on,0.973244367041,3.3093017549,2.7603917211,0.474523585346,4.66076501323,10.2041539421,8.45465703759,7.03036042816,0.818545434614,1.89062461227,1.47608884284,1.72606305967,0.754034549513,10.3635396524
off_to_on,0.0417725298316,2.85231409878,2.04141876909,-0.125309257391,3.1902868749,7.01677799158,7.59016685807,5.98407266423,0.222593364695,1.60127031705,0.80168311408,1.60786153875,-1.23422437457,27.1203226791
off_to_on,-1.02440322457,1.54946192022,0.688631804865,-0.721500139855,0.940564945789,2.72241281579,4.95713347155,3.38746988438,-0.474229931183,0.754073884786,-0.0756910084685,1.04927359787,-3.04838239963,33.4397003054
off_to_on,-1.95277183713,-0.351660942298,-0.999337078564,-1.2410589389,-1.53421397429,-1.83435748049,1.08769544538,-0.0610931805112,-1.13793963417,-0.461459445897,-1.03683951979,0.187290683266,-4.18822458383,27.0806176432
off_to_on,-2.48544863753,-2.39637920527,-2.5991628019,-1.60313804303,-3.62164057094,-5.8303915293,-3.15833612361,-3.43839159793,-1.62421219834,-1.72719819389,-1.92463996885,-0.761327228994,-4.32608562773,10.3791523369
off_to_on,-2.46850519881,-4.04594087527,-3.6857454436,-1.73075096226,-4.82098446533,-8.5983823512,-6.80896393855,-5.87607892866,-1.81725886557,-2.69792602723,-2.57041225273,-1.57484636918,-3.41668797421,-10.4853026126
off_to_on,-1.90654173381,-4.83199962484,-3.95783270651,-1.57179720659,-4.87778962802,-9.72125269006,-9.02609318311,-6.80972188224,-1.66370319014,-3.10664283357,-2.82720922327,-2.0906301548,-1.71562832988,-27.6252301192
off_to_on,-0.961379203213,-4.49547754044,-3.32618868941,-1.12227537627,-3.84331258378,-9.08139659943,-9.31383443209,-6.1197370864,-1.19000970051,-2.83935423754,-2.60349270915,-2.23705914603,0.300664123425,-34.2526919673
off_to_on,0.104672557457,-3.06749920245,-1.9374194767,-0.441467421725,-2.04340733395,-6.86457738762,-7.63335832105,-4.12688098235,-0.49724116609,-1.95839388553,-1.8899511054,-2.02782064868,2.08581536559,-27.1781299463
off_to_on,1.01908989337,-0.868046623067,-0.128360244633,0.349848793071,0.0296754258025,-3.52038685847,-4.39717987877,-1.45528528046,0.265535433546,-0.672449994914,-0.772762089804,-1.52956488148,3.19293524778,-8.10878623449
off_to_on,1.58831210096,1.57692197064,1.67162465057,1.09162640581,1.86549021674,0.316863731377,-0.350714971521,1.18125264992,0.940760242242,0.730911652809,0.571545384441,-0.823884756812,3.40479198074,16.7413576626
off_to_on,1.75216703174,3.67500399565,3.05772323503,1.62299479632,3.07584761899,3.93882609911,3.62055026412,3.1932866297,1.40226724447,1.96441577996,1.90136433537,0.0159452808253,2.78228053352,38.639920424
off_to_on,1.58424691629,4.92287981416,3.74999976319,1.82583561559,3.4851734076,6.69078200561,6.70273478828,4.26071891856,1.58334529817,2.80642319711,2.95303896999,0.923331733543,1.61888873255,49.2784887924
off_to_on,1.24091802867,5.03418643365,3.64961034737,1.65922856013,3.14748931453,8.09470907849,8.32871031608,4.37004839846,1.48533846838,3.13617072214,3.49476855438,1.81673763294,0.322457708184,43.685488799
off_to_on,0.882414616161,4.00602740258,2.84049031267,1.17255093925,2.29238976952,7.94230113794,8.27722800967,3.74672225664,1.16615916446,2.93616670603,3.3806187503,2.57562715679,-0.729826290048,22.1179547714
off_to_on,0.60058177971,2.10943169916,1.54446817262,0.491794822176,1.22558810768,6.33503267414,6.6816999046,2.72227723128,0.714895870971,2.27107044178,2.59183565678,3.035554633,-1.310344397,-9.73297613208
off_to_on,0.384658691726,-0.189144679324,0.0509306307874,-0.217189520175,0.222472035326,3.65845456251,3.96008130641,1.5949601493,0.222819198435,1.2583799995,1.25356274551,3.01684311697,-1.39372019802,-42.3366135426
off_to_on,0.140127997167,-2.35023887258,-1.35397352007,-0.796682703311,-0.548292287599,0.493693233237,0.695778841486,0.537927030932,-0.238864396388,0.0445308181877,-0.380600882187,2.38544430798,-1.1300350795,-65.2386297294
off_to_on,-0.247404736894,-3.89335969836,-2.43921495473,-1.14044770868,-1.0484554502,-2.51396421317,-2.49385805872,-0.415730186786,-0.627984127095,-1.20767087391,-1.97648494561,1.12657766871,-0.755865694862,-70.3817865546
off_to_on,-0.831697929327,-4.50511104068,-3.05403415787,-1.21824463733,-1.34002596389,-4.79713130295,-5.07015050713,-1.31621110831,-0.926580383726,-2.32376344274,-3.19132313915,-0.600241146669,-0.482874907262,-54.773837168
off_to_on,-1.54619966851,-4.09969094665,-3.13051173533,-1.07413698627,-1.52050197531,-5.98344133991,-6.64864428409,-2.20351680074,-1.12748307331,-3.12434675183,-3.75384577194,-2.45583924255,-0.40985049373,-21.6438957941
off_to_on,-2.19619850909,-2.82244258989,-2.6749553557,-0.800693747778,-1.65453893336,-5.95942808955,-7.03439619108,-3.02623941807,-1.22065445135,-3.4437642081,-3.53241279725,-3.98245345224,-0.492184542405,20.2999584146
off_to_on,-2.51363582612,-1.00173432661,-1.75943515106,-0.499782868304,-1.73224895025,-4.86858429352,-6.22483293827,-3.61463035204,-1.18707833001,-3.16429533042,-2.5723094689,-4.72385445786,-0.578024205747,59.3083673017
off_to_on,-2.2591471988,0.934628710544,-0.518366173399,-0.24514191519,-1.67162684776,-3.04993661113,-4.3919599311,-3.72531110357,-1.0040045067,-2.2592789524,-1.09016324737,-4.37189484484,-0.492736127603,83.9976605993
off_to_on,-1.33391381185,2.55700196675,0.853844919357,-0.0606340713966,-1.36329568879,-0.93931199718,-1.85280853315,-3.14290182231,-0.659712795644,-0.829503848313,0.575532866251,-2.8906004459,-0.133819587528,86.7066579003
off_to_on,0.144560384607,3.52440420874,2.11434273939,0.0784224981045,-0.737517253264,1.03679098306,0.969409130354,-1.79729687887,-0.171036683629,0.88616722229,2.04655736696,-0.569330583148,0.465468746994,65.804402621
off_to_on,1.8392105758,3.65123436381,3.00261661328,0.222702692552,0.176628267421,2.54705656632,3.59630228021,0.154902378764,0.405219474167,2.5400753302,2.99871875854,2.02452536824,1.13242168687,26.2700552519
off_to_on,3.27433105164,2.93987733793,3.29314924937,0.415348521867,1.22787232003,3.40367156659,5.56080819113,2.32574021098,0.974161415074,3.74670675821,3.2420333388,4.19048119103,1.61503019263,-21.6188862621
off_to_on,3.9806465246,1.57545437133,2.86060573847,0.662039719387,2.16962993751,3.56981170344,6.48703538444,4.18126560691,1.42028549584,4.18127789154,2.76522783494,5.29961372716,1.6833617883,-65.103034668
off_to_on,3.65790304328,-0.115119213285,1.7372340397,0.917806922427,2.73169915652,3.13509097392,6.17185216311,5.19550137242,1.63663199544,3.67868535431,1.73225198911,4.99598066346,1.23176411578,-92.4509939745
off_to_on,2.2972573295,-1.73248028259,0.137743741637,1.09709782023,2.71283340348,2.27399027474,4.64784439319,5.02322320362,1.55657654472,2.30038032745,0.432171538173,3.32683203048,0.339536832493,-96.1715451789
off_to_on,0.215404639278,-2.89076337893,-1.56736679785,1.10430093256,2.06022333874,1.20153424576,2.20420849496,3.63059863472,1.17731100763,0.342663931039,-0.802723707393,0.752221996177,-0.73743166792,-75.0427191732
off_to_on,-2.01951758234,-3.30458111506,-2.93375137319,0.87353515853,0.904561135027,0.134777532918,-0.651836580515,1.33366799489,0.566214589011,-1.72396224862,-1.68669773328,-1.97804214016,-1.64545153965,-34.4214368362
off_to_on,-3.75297848966,-2.85927600655,-3.56395051478,0.402280074305,-0.465939761952,-0.738090268332,-3.29556426358,-1.27557068491,-0.153158377562,-3.37316381793,-2.05252146778,-4.04796929605,-2.05618139319,15.2182051736
off_to_on,-4.44951688822,-1.64735056929,-3.23283163096,-0.23495933031,-1.68756262489,-1.28317619198,-5.12973284958,-3.49728666305,-0.831838888812,-4.16767738352,-1.88588735086,-4.83132329818,-1.78981415118,61.0893839588
off_to_on,-3.8710013892,0.0412816580552,-1.97601905739,-0.899812223723,-2.43340970431,-1.44232080777,-5.7385811813,-4.73443652775,-1.33356736726,-3.88827279044,-1.31442410882,-4.09702479378,-0.892010717932,91.464207733
off_to_on,-2.16600791565,1.77851651809,-0.10633152498,-1.42715052221,-2.51816740893,-1.24767625023,-5.00638519853,-4.67756605465,-1.56842724811,-2.60611921334,-0.557333174643,-2.09386181197,0.366338689006,98.7098692365
off_to_on,0.163621336726,3.09793526202,1.85635415993,-1.67435778124,-1.95862969622,-0.821931769736,-3.16102280746,-3.40203541062,-1.51183724103,-0.67306169652,0.146843565622,0.518435442613,1.57020194232,81.2020194387
off_to_on,2.41245431351,3.6142567374,3.32829539173,-1.56619542189,-0.967720283916,-0.355728533835,-0.722020268159,-1.34378874748,-1.20395912701,1.3714563101,0.611269570151,2.87471309856,2.29679047695,43.6446013984
off_to_on,3.89130113292,3.13269014354,3.83825354295,-1.11985849368,0.117445723456,-0.0589103876768,1.63915287969,0.84028050415,-0.731326346655,2.95226180494,0.749525241569,4.18325963732,2.2611374984,-4.24772759704
off_to_on,4.14638814431,1.71710482424,3.18217949787,-0.441498507001,0.949742945511,-0.0927076341909,3.28997864553,2.48284451817,-0.19828817694,3.62538764425,0.589221788968,3.98820256323,1.42037935997,-50.3249593194
off_to_on,3.10590278217,-0.306460344196,1.50403115251,0.304721903208,1.28946427715,-0.501730903157,3.82298401176,3.11907239897,0.301384924863,3.21019520984,0.249565301606,2.32831234087,-0.00033322202731,-83.1424705888
off_to_on,1.10508035587,-2.41868050591,-0.72872217996,0.944631995496,1.08420865071,-1.17192562377,3.17850124892,2.63226762239,0.703555378453,1.84597184857,-0.106854695464,-0.263021149125,-1.57091134973,-94.8478046553
off_to_on,-1.21923340586,-4.03580941497,-2.85354525237,1.34314029533,0.482992791552,-1.83833601433,1.66221795776,1.28443505125,0.978703146701,-0.0457410205996,-0.330712532067,-2.92076753896,-2.78885364297,-83.0795609076
off_to_on,-3.13065836758,-4.667310605,-4.20957642771,1.43856839125,-0.22096805069,-2.15297552335,-0.152652959814,-0.37818333339,1.12398222313,-1.88365561495,-0.332738659018,-4.72467450896,-3.23832549319,-51.4153233852
off_to_on,-4.02647995995,-4.05962745566,-4.34286987846,1.25203937585,-0.699406293606,-1.80146954173,-1.61161921395,-1.71343155067,1.14843148277,-3.09886099709,-0.107299501726,-5.00126289987,-2.72423768677,-8.28960631162
off_to_on,-3.62672189942,-2.28378718929,-3.15501034062,0.870708248165,-0.712164851123,-0.634911747777,-2.19619802939,-2.20337993519,1.05952885374,-3.305863368,0.271950533829,-3.55345537157,-1.33841764084,35.2996498079
off_to_on,-2.05902159441,0.26239234765,-0.945935529169,0.412610130667,-0.200960149452,1.23018314815,-1.70183897261,-1.6337223238,0.857822513158,-2.42146010332,0.679926172947,-0.7417757845,0.562493947867,68.6689993247
off_to_on,0.186110938023,2.94386146212,1.66561311436,-0.0133212478828,0.680121080471,3.38850636956,-0.315798858194,-0.173025539104,0.542073600674,-0.695274445349,0.980478174476,2.61198784732,2.45935302683,84.1452120284
off_to_on,2.41284790328,5.04967644823,3.92181951272,-0.337888471627,1.60981929225,5.22340019449,1.43523790296,1.67515737827,0.122057475045,1.35841991317,1.06606615441,5.47093318235,3.82023006928,78.8778172193
off_to_on,3.93795992534,5.984113339,5.15126750474,-0.543258089217,2.20699573277,6.07590952381,2.85591667532,3.23320457299,-0.36786423181,3.10889733498,0.885787601263,6.90304315325,4.25153873994,55.3204708645
off_to_on,4.29908520041,5.43481860496,4.97069760449,-0.653677218416,2.16471756071,5.46070871986,3.31930549454,3.87272039502,-0.862344564593,3.99476188137,0.456043110201,6.3750413897,3.60641852681,20.3044175279
off_to_on,3.38896744032,3.46959710581,3.40078059735,-0.711355208268,1.36588799933,3.25991161641,2.49357876335,3.22914445213,-1.27132824141,3.69337803282,-0.145980071884,3.92793845857,2.02141280736,-16.9860905091
off_to_on,1.47726633754,0.532156914165,0.860704300405,-0.748808476061,-0.0595656741724,-0.17647486755,0.481294313775,1.3386580821,-1.49947393716,2.22412833027,-0.801391359769,0.179063313515,-0.124830494255,-47.5337285908
off_to_on,-0.88152772447,-2.66489947515,-1.95561953915,-0.769594276519,-1.75719259234,-4.07124323586,-2.18033803864,-1.34793550023,-1.47354146143,-0.0457774981052,-1.37483859513,-3.85060100903,-2.31463759134,-64.7854661728
off_to_on,-3.02021171308,-5.32241655901,-4.28237710403,-0.745345878292,-3.24548107022,-7.40606234448,-4.66607686593,-4.08186195079,-1.16857469728,-2.49652797945,-1.74021997311,-7.03118238551,-4.02448980611,-66.1045782098
off_to_on,-4.35469694227,-6.76324654398,-5.50098957416,-0.630068138657,-4.05897825218,-9.20723453916,-6.11572457501,-6.03085814055,-0.62306284882,-4.42658906638,-1.80325087793,-8.45152373429,-4.85186243241,-53.0300068385
off_to_on,-4.54394518081,-6.61012902032,-5.30979948345,-0.385512881057,-3.89265163266,-8.84653381321,-5.91611874317,-6.52846766051,0.0636322117478,-5.25181881155,-1.51919045608,-7.68182451939,-4.60507220129,-30.3659858873
off_to_on,-3.56990302005,-4.88444094621,-3.79609558843,-0.00686949867602,-2.70228589161,-6.2596571947,-3.9212871245,-5.28376979896,0.752469626786,-4.67655603504,-0.904737576102,-4.89495396884,-3.33846815836,-4.47378901058
off_to_on,-1.72106693307,-1.99954793713,-1.39401938338,0.462320759189,-0.729317261787,-2.00473489476,-0.535941873794,-2.48800481833,1.29898769606,-2.78737313036,-0.0424992872148,-0.813918749202,-1.33055075815,18.6447390924
off_to_on,0.506619422655,1.34816422324,1.25288731011,0.933134499014,1.55807644687,2.86854528567,3.37160381457,1.21578203706,1.59038307943,-0.0411544747423,0.92459545691,3.49497222084,0.984416371539,34.8632230544
off_to_on,2.55516113974,4.35955560467,3.47838067408,1.29250002754,3.59022135597,7.10737524506,6.70760459919,4.89432628172,1.57398603273,2.85152928398,1.81164368853,6.91951102961,3.11275283854,42.6194074647
off_to_on,3.95083101116,6.3347043877,4.77200213296,1.43616218117,4.85044498222,9.61624850392,8.47365952282,7.57320312163,1.26848829517,5.11720383199,2.42363526241,8.60236062346,4.60459525774,42.6657354592
off_to_on,4.41181971802,6.84279917418,4.8990247686,1.30231578033,5.01390297052,9.77668398414,8.07299354421,8.50415482405,0.755021453398,6.13231959786,2.59753537987,8.16109831278,5.1446390436,37.1093567821
off_to_on,3.89431811982,5.81698635654,3.93345062005,0.894330245973,4.03175344634,7.62370199233,5.5066043738,7.37576201843,0.151802054489,5.59868828436,2.24629143148,5.77061921314,4.61505289747,28.208387803
off_to_on,2.57485004083,3.55331433357,2.20419107,0.2846055711,2.13896403384,3.82171273622,1.39541091425,4.40801505029,-0.418817783256,3.63140003828,1.39266995473,2.09272622212,3.12022174602,17.4457920537
off_to_on,0.784261360492,0.61951255908,0.180095645301,-0.402035826158,-0.213202017291,-0.551893250326,-3.18288659108,0.303506942861,-0.860204651966,0.732835371162,0.180404341734,-1.9190681844,0.968470390848,5.25303978681
off_to_on,-1.08168209163,-2.29726983846,-1.66574316078,-1.02023616988,-2.47787723696,-4.3434466825,-6.99647715729,-3.93230543024,-1.1194623382,-2.34179338368,-1.1456718087,-5.27931324882,-1.38779307838,-8.54034020502
off_to_on,-2.64992944631,-4.56075507421,-2.97146926011,-1.4412759211,-4.15103251992,-6.668400975,-9.01231655266,-7.25316479575,-1.18973580854,-4.79090259774,-2.29049061127,-7.22175168635,-3.44476104173,-23.7839022907
off_to_on,-3.63782863715,-5.7296019614,-3.55296186924,-1.58428871351,-4.89007124649,-7.15249999694,-8.69363548624,-8.84522022209,-1.09876663236,-5.98724177805,-2.98042724582,-7.37670272153,-4.75627439557,-39.0934454251
off_to_on,-3.8926327986,-5.64169509874,-3.41188359034,-1.432814195,-4.58356757651,-5.99342454444,-6.15281963784,-8.33738191153,-0.89027752557,-5.65000858355,-3.03709837246,-5.83453045253,-5.036506339,-51.4662788759
off_to_on,-3.4032957703,-4.42374783625,-2.69496643411,-1.0332062689,-3.35895607354,-3.8311055727,-2.11426419902,-5.89243960107,-0.606490603382,-3.91866081525,-2.43120756301,-3.0883081824,-4.23134495422,-56.75533026
off_to_on,-2.2898463883,-2.43199971757,-1.62698133794,-0.477325712394,-1.532689451,-1.48166379712,2.30049342005,-2.15560502651,-0.278449353755,-1.30671604724,-1.29810602679,0.119421832814,-2.53765949,-50.9834146451
off_to_on,-0.776367946959,-0.146654220361,-0.442961175676,0.123538826153,0.478288645198,0.363871819501,5.89951898365,1.92362851457,0.0733385208173,1.45115672326,0.0928069590039,2.99881350728,-0.360701016253,-32.0959960868
off_to_on,0.847967419148,1.94842996873,0.660699113858,0.664880213737,2.25756505127,1.3658499383,7.76044264582,5.34593265835,0.430297161668,3.61371839201,1.40851160025,4.90904307341,1.78402429069,-1.48627556591
off_to_on,2.27673072806,3.46985743741,1.54799030839,1.06807799916,3.47727207868,1.6082418973,7.48277022708,7.32237018794,0.765162004786,4.64562518219,2.34299050442,5.50080419521,3.40132255115,35.4008696929
off_to_on,3.23920740999,4.20032128821,2.14131467495,1.28880928163,3.95484792792,1.49760259166,5.28027543938,7.46960721061,1.03614069335,4.36429456115,2.70078789911,4.77484849661,4.14440629608,69.8325502891
off_to_on,3.55197839359,4.10664410839,2.40689053045,1.31545476857,3.67095779612,1.53574689763,1.89117126717,5.88886034156,1.19047147268,2.97745992413,2.44739468271,3.0497223947,3.90350556692,91.9093943949
off_to_on,3.15923539034,3.31463351931,2.34008739776,1.16142860543,2.75148788069,2.06114224063,-1.66079764898,3.11097806529,1.17770917537,1.0012819389,1.71042554681,0.854376699545,2.82763586512,93.5209481125
off_to_on,2.15057140703,2.05515344951,1.9590322869,0.856456755558,1.42403986817,3.06571507613,-4.37749972641,-0.0719227632351,0.968460695441,-0.91393604209,0.731498318036,-1.22200741346,1.27157116952,71.225889022
off_to_on,0.747622435963,0.60012033348,1.3076813913,0.440633892895,-0.0374337943992,4.16450454308,-5.57410333261,-2.83643113609,0.571276042305,-2.19429636956,-0.214815267877,-2.68295484411,-0.316522716119,28.0486303377
off_to_on,-0.742014574223,-0.794474751829,0.463019550365,-0.0376056392048,-1.3670333342,4.73601350315,-5.0585937756,-4.55181582243,0.040263190828,-2.5214747594,-0.907430001162,-3.24253708259,-1.53172870004,-26.564350587
off_to_on,-1.9954491542,-1.92740171447,-0.462017817572,-0.521313389318,-2.35098626058,4.18338725339,-3.15478432365,-4.93464879947,-0.531117648313,-1.92301570781,-1.24131330774,-2.88102472654,-2.12952501181,-78.8389362054
off_to_on,-2.75262965202,-2.66954720395,-1.32683966351,-0.94603560898,-2.85633947671,2.21630449319,-0.570085136912,-4.0934640063,-1.02976205235,-0.74524000728,-1.24551073541,-1.82778506641,-2.08558670742,-114.355711781
off_to_on,-2.88028920052,-2.96333236492,-1.98461956668,-1.24514635527,-2.84296189577,-0.959774696027,1.84369150648,-2.45696149552,-1.35081326303,0.48105941012,-1.05204820661,-0.479298866803,-1.57958229893,-122.282499785
off_to_on,-2.40242242707,-2.81174791739,-2.31256919084,-1.36058861991,-2.36005975578,-4.63054030522,3.35814692315,-0.614295768471,-1.42519266813,1.23613391034,-0.829020753492,0.723643789927,-0.910518114167,-98.8499785384
off_to_on,-1.48726151776,-2.26497132509,-2.2422007744,-1.25714506884,-1.52977234475,-7.75654160196,3.58176504437,0.878758636995,-1.23801514777,1.20104612371,-0.704359145796,1.42535047011,-0.375270653964,-48.9135011187
off_to_on,-0.394131418514,-1.40988898773,-1.7796167381,-0.935810678839,-0.521171706835,-9.30076788169,2.55709908361,1.66606306229,-0.832048187203,0.375983602008,-0.710257403015,1.45549385383,-0.155114271827,15.0104374256
off_to_on,0.603430658354,-0.363655629112,-1.00861979933,-0.440887017958,0.481340415452,-8.59018285129,0.718683583228,1.6796272,-0.295336186178,-0.915015938567,-0.770507661862,0.872346318326,-0.252149530673,76.0661149462
off_to_on,1.29403726331,0.731458632758,-0.0748354722422,0.143373478211,1.31049674107,-5.58243094449,-1.26737868986,1.12715881906,0.262701995855,-2.13663415817,-0.736618451701,-0.0632531239441,-0.499161020394,117.809934785
off_to_on,1.58036207212,1.71668453249,0.845078175142,0.707667938584,1.84420485949,-0.936384584474,-2.72606705641,0.388905933016,0.738860904474,-2.73526221185,-0.459490941569,-0.975761612626,-0.638949296012,128.971880752
off_to_on,1.49129405674,2.43291952684,1.58084899111,1.14128882094,2.02408591314,4.14961453338,-3.18625837612,-0.136822873536,1.05891823132,-2.34660993931,0.13127863327,-1.49879868977,-0.442580935496,106.761711716
off_to_on,1.15297009426,2.74542022313,2.00311685068,1.35842158948,1.86084267011,8.2875542236,-2.51867632981,-0.184638242313,1.18940524992,-0.945081074305,0.972977635392,-1.39754752055,0.179711081639,57.6814162384
off_to_on,0.731544028213,2.57357573557,2.04731167101,1.319557577,1.42542569266,10.326164908,-0.960557824303,0.2822209314,1.13650059417,1.12008181136,1.86503063245,-0.651307613553,1.11980941358,-4.42432129587
off_to_on,0.369847343853,1.91824895915,1.72280677192,1.04150726258,0.828292200684,9.71285202831,0.974478200185,1.06300218664,0.934752730617,3.21952548522,2.52107249311,0.531313666911,2.09140924155,-62.4816170241
off_to_on,0.141081626549,0.877130121967,1.10727208205,0.592732028656,0.192092081124,6.66907164064,2.66759633134,1.79852080038,0.631471260151,4.64242641412,2.6635565249,1.77198448788,2.72504669957,-101.187755557
off_to_on,0.035103810806,-0.360348154909,0.329122580813,0.075118596713,-0.375180200356,2.11877317632,3.59023609321,2.10904678072,0.273229113881,4.83530137485,2.12922499818,2.64083814394,2.70605789835,-111.35313346
off_to_on,-0.0202786012255,-1.54256448811,-0.457677774629,-0.402554407825,-0.799850664377,-2.6072921355,3.46289711978,1.74181872885,-0.101058675286,3.60109529044,0.947082522833,2.79739789588,1.90483647817,-92.2698593566
off_to_on,-0.114188233049,-2.40695800022,-1.10213948215,-0.751725900513,-1.05068989673,-6.19288078844,2.33070338572,0.6759306982,-0.459594742469,1.18922393324,-0.642461984828,2.10921978602,0.448916732069,-51.4424753749
off_to_on,-0.303744384528,-2.74287413016,-1.48420933124,-0.923969619567,-1.13480785015,-7.74279643137,0.537058096559,-0.85288106996,-0.772425643341,-1.75833384388,-2.23975237837,0.708321296737,-1.29439206855,-1.86828814867
off_to_on,-0.582033957962,-2.45037039568,-1.53843732277,-0.918343473231,-1.08438352802,-7.04073100927,-1.39139414132,-2.41750395682,-1.00628399261,-4.39260325242,-3.39734239386,-1.03604126485,-2.82432040249,42.1752110439
off_to_on,-0.876161274452,-1.57768788375,-1.26931793452,-0.774803804596,-0.939848707878,-4.57675147853,-2.90918890511,-3.53385242076,-1.12416537713,-5.91822831313,-3.75718645979,-2.62316313089,-3.668434696,69.4426578125
off_to_on,-1.07586302143,-0.323494898923,-0.754077617215,-0.556626541455,-0.735651597632,-1.34231253926,-3.61378355582,-3.81975631164,-1.09181565373,-5.84607457888,-3.16910155277,-3.57404769685,-3.54448574449,74.7737604005
off_to_on,-1.08046472883,1.00177348843,-0.129569372021,-0.328014638635,-0.493085831748,1.53043147379,-3.35619096786,-3.12508025684,-0.889717445035,-4.15541116503,-1.75005808202,-3.58379126281,-2.46442406674,60.0059673396
off_to_on,-0.844331593589,2.04992130103,0.437296516151,-0.134252982677,-0.221568415021,3.15733029672,-2.27006406034,-1.58919660351,-0.525989613759,-1.31124833096,0.1380837907,-2.62343203007,-0.741286964882,32.6131025588
off_to_on,-0.40149226079,2.52755516584,0.791552308638,0.00940113722749,0.0736119639288,3.18548634855,-0.714930079684,0.393967208952,-0.0442540316734,1.87122492018,1.98848985668,-0.956405371576,1.10687266851,2.69095930279
off_to_on,0.141418921589,2.28267055652,0.835317901704,0.116983508316,0.381426060863,1.87799466871,0.844687751771,2.29246632566,0.478342798612,4.4736132746,3.29729923767,0.938175099404,2.52529818092,-20.5824699757
off_to_on,0.641758515346,1.35935502694,0.562989987861,0.220101293414,0.678017417798,-0.0213523585969,1.98434086995,3.59680377559,0.94447290871,5.75486644291,3.71359067445,2.51263716661,3.10593517087,-31.7875635496
off_to_on,0.972606144823,0.00101702365488,0.0731900032655,0.349678625949,0.925930149732,-1.58792231304,2.44368164006,3.97258128174,1.2586252736,5.37649256175,3.1439636708,3.32167646969,2.72226764003,-30.5071454696
off_to_on,1.06872656207,-1.40437245779,-0.451093142822,0.517755729214,1.0805155532,-2.06965796094,2.19272112068,3.35677241444,1.35152159475,3.50135364622,1.77854893539,3.16166388951,1.56804970995,-20.6945998144
off_to_on,0.947863438382,-2.42686484626,-0.793588837789,0.705967736251,1.10150014726,-1.1677321434,1.42278887865,1.9681626545,1.19929225577,0.735786935382,0.0304053830579,2.13244419651,0.0857388776643,-8.5648920874
off_to_on,0.698322094931,-2.7192321493,-0.775386709323,0.865284024217,0.965703027363,0.852792269316,0.468402539876,0.230885356464,0.831067457581,-2.06490491122,-1.59204172301,0.600829253902,-1.19075535669,0.096055944466
off_to_on,0.437634637322,-2.12859242564,-0.324248690619,0.92807023853,0.676476432357,3.25749882519,-0.312693049795,-1.36197815885,0.322268207319,-4.06429904893,-2.63879327072,-0.92255858026,-1.82397685621,2.16149134645
off_to_on,0.259341582909,-0.760038364124,0.481724642776,0.829570839224,0.266654683054,5.10516227474,-0.661883801622,-2.39935228278,-0.224469259357,-4.70052604571,-2.8499787084,-1.95250221892,-1.6253913778,-1.86911386309
off_to_on,0.190492995725,1.0316400997,1.4156325508,0.532653272537,-0.205943124149,5.583826818,-0.50513217283,-2.66931926972,-0.704820772671,-3.84994524184,-2.22528228378,-2.18831023171,-0.718702550607,-8.44696291337
off_to_on,0.178851111122,2.72653223093,2.15544222743,0.0480748959069,-0.669025841205,4.30306782354,0.0256376412947,-2.20706279756,-1.03695611144,-1.85012579887,-1.01173350086,-1.60990799423,0.508211739811,-12.7746793722
off_to_on,0.117089419436,3.78203667185,2.37953723062,-0.556839778877,-1.04929458291,1.44325329215,0.641954233116,-1.26220604612,-1.17742919671,0.620707790322,0.383145018865,-0.479019718869,1.54555907714,-11.0553613592
off_to_on,-0.104043026526,3.79530976595,1.87772522075,-1.16544604943,-1.2854003806,-2.28603492147,1.00327665785,-0.20083112172,-1.1250212704,2.76527821412,1.52272433926,0.754601261813,1.94760995577,-2.26893782175
off_to_on,-0.534520327739,2.63832311275,0.642077069375,-1.63499985711,-1.3377188847,-5.8607333816,0.84303815321,0.62213777856,-0.913060377395,3.91721606224,2.07457121117,1.61007630148,1.4965644546,11.2354548398
off_to_on,-1.12184646925,0.522259635923,-1.09605575286,-1.83120646677,-1.19370005771,-8.25577799984,0.0751362116388,0.976882422611,-0.594490718414,3.74076036824,1.90468893238,1.74251908062,0.286450938084,24.5651175951
off_to_on,-1.70676380673,-2.03423111239,-2.90263205897,-1.66563500746,-0.868929100602,-8.75380348203,-1.15525694323,0.822728822994,-0.225834276092,2.32080104476,1.10623803732,1.06419895606,-1.30247950452,32.2021574885
off_to_on,-2.06480046352,-4.33130700886,-4.24859611174,-1.12575858714,-0.404801704604,-7.15226562632,-2.496314447,0.304676614301,0.144403189111,0.1208893821,-0.0417701335149,-0.220820118972,-2.7299202812,30.2605822327
off_to_on,-1.98282186481,-5.67837352302,-4.6621543086,-0.288338548118,0.136288581279,-3.810270075,-3.48626815419,-0.311807275197,0.479981659018,-2.17109836789,-1.16847041163,-1.68010305479,-3.4783497935,18.1908774139
off_to_on,-1.34487487911,-5.59667992066,-3.88160676116,0.689432640589,0.677855559131,0.469110167815,-3.69589486773,-0.741933235345,0.754458189055,-3.85657460388,-1.92575022743,-2.79329662466,-3.22949504297,-0.754972255672
off_to_on,-0.195536206589,-3.97472088151,-1.96007908976,1.60096061339,1.13838542282,4.67376510443,-2.87459268205,-0.782695873135,0.945541889294,-4.43142537159,-2.08787244052,-3.12340647299,-1.97444602967,-20.5174843873
off_to_on,1.24549202226,-1.1272990923,0.715490657634,2.23719170458,1.4425545046,7.85584581515,-1.05424988883,-0.380421217981,1.03093547701,-3.72250620123,-1.60834845048,-2.46315054563,-0.0212250049102,-34.3472459547
off_to_on,2.62811796079,2.26515964526,3.50457806236,2.43821645698,1.53380926471,9.36137485794,1.42463171696,0.355344830508,0.989240332993,-1.92064714676,-0.621839439937,-0.909521236163,2.10073281975,-37.2763634672
off_to_on,3.56599400183,5.3261552275,5.67569718254,2.13604386885,1.3863062551,8.95738674982,3.97847128445,1.19258981716,0.806721770216,0.490753148677,0.603663056111,1.15645675974,3.80498489414,-28.0235885359
off_to_on,3.75206067706,7.21781984232,6.60776129242,1.37647588804,1.01320255859,6.83664576466,5.92477778957,1.85524871462,0.487476597579,2.88165804201,1.74549685881,3.1772717771,4.6254066753,-9.60410435833
off_to_on,3.05852218132,7.37581073259,5.97201375352,0.312984768515,0.468177594349,3.51932661155,6.66760254303,2.11143380581,0.0622414492698,4.64763540916,2.51094992206,4.57928830382,4.34875864306,11.6201382228
off_to_on,1.58783087294,5.67669182661,3.83946102036,-0.827160189525,-0.161748978349,-0.302477651906,5.87264919323,1.84292698186,-0.409224157252,5.35869754285,2.70531936167,4.93653272574,3.0628614019,28.1439045706
off_to_on,-0.343610027291,2.48746921226,0.679133215041,-1.7965558069,-0.771717479447,-3.92495146362,3.58087329393,1.07613890683,-0.845312443713,4.84865655299,2.26939768324,4.0897777527,1.1112531827,34.0036943921
off_to_on,-2.2857214333,-1.4201905459,-2.75575575505,-2.38734054885,-1.2597315393,-6.75706186862,0.224981969742,-0.0309340610509,-1.1589390373,3.23117111837,1.28310486473,2.18879715428,-1.0232117569,26.9797204807
off_to_on,-3.77506763612,-5.06966107889,-5.62333326261,-2.48102820969,-1.54736627276,-8.39176324763,-3.46022602998,-1.23679794995,-1.27903714799,0.851016852138,-0.0590483406058,-0.349782538201,-2.86189447459,9.50491834669
off_to_on,-4.45869123294,-7.53828567627,-7.21535091255,-2.07511009995,-1.5947948866,-8.6289486781,-6.61283962254,-2.28106495582,-1.1706403516,-1.80572274609,-1.49029594046,-2.95194095463,-4.05267438043,-12.0796746243
off_to_on,-4.18455197114,-8.20323231781,-7.14330811262,-1.27947328867,-1.40596208359,-7.46866474702,-8.45877816597,-2.9450227664,-0.846845179663,-4.21445274574,-2.72129010256,-5.02885568139,-4.43560650695,-29.6982705443
off_to_on,-3.0333192378,-6.90548043712,-5.43646555676,-0.28425308684,-1.02286956967,-5.09360515759,-8.50948001264,-3.09280771009,-0.368226569051,-5.90515835405,-3.48950125147,-6.11334230257,-4.04074639863,-36.4033238212
off_to_on,-1.28561111643,-3.98680579,-2.52612768684,0.691141104398,-0.511600194465,-1.84993485085,-6.68945085603,-2.68724771966,0.170747691286,-6.53375232298,-3.60395728055,-5.95767827731,-3.03257138419,-28.9293254212
off_to_on,0.661086950295,-0.191310854058,0.876122175262,1.45293569189,0.054530960103,1.7778298952,-3.36001599161,-1.78388639408,0.664512314497,-5.92973393115,-2.9824021097,-4.57512824263,-1.63261609198,-9.02699198665
off_to_on,2.39750748896,3.53832598401,3.96865097055,1.8763904043,0.608624300574,5.21071280666,0.765977404389,-0.51245138019,1.02163666175,-4.12328231808,-1.67702137587,-2.22424500067,-0.0547303682182,16.9242342686
off_to_on,3.59770406364,6.31069230225,6.06335995949,1.92643515852,1.09636171619,7.84919026711,4.79455125355,0.944664231804,1.18507084731,-1.3536707634,0.117322501051,0.651830788133,1.52422747348,39.9391883843
off_to_on,4.07932682705,7.51140147482,6.74707342973,1.65185970553,1.4740675516,9.176534136,7.86049629098,2.3716956038,1.14186563012,1.94436599782,2.0795775045,3.51249571848,2.95566066431,51.4334077323
off_to_on,3.81867622743,6.94436843388,5.96094630159,1.15777543721,1.70208977074,8.87404842826,9.32299736151,3.53754575898,0.920506424733,5.18434001335,3.80881337102,5.81507119115,4.08963596578,46.2117384812
off_to_on,2.92601952559,4.85502119138,3.98417377523,0.567517179475,1.739583158,6.91677296332,8.90003049887,4.21798674573,0.578101256643,7.70923953943,4.89907581324,7.10480513492,4.75228050298,24.4251638105
off_to_on,1.59805113874,1.83696272127,1.33594745434,-0.012480417876,1.54668084192,3.61490181686,6.71349315885,4.22746574551,0.182690688518,8.90958406057,5.0320170469,7.09076514357,4.75494038284,-8.18941030807
off_to_on,0.067611369562,-1.34394902121,-1.36964579506,-0.513709588747,1.09688686221,-0.423169165906,3.24171809585,3.46101429033,-0.203130915407,8.36336861362,4.06707770678,5.70142840904,3.94410881606,-41.9116422
off_to_on,-1.43430692153,-3.9538469303,-3.57277916001,-0.907597857535,0.39731409205,-4.40800761733,-0.801002389691,1.93876097494,-0.532479475727,5.96769891899,2.10361700582,3.11331128806,2.27927348444,-66.0028636457
off_to_on,-2.69941925192,-5.46623878276,-4.88324209008,-1.1912247712,-0.490826942481,-7.54210748404,-4.62321450323,-0.161801999176,-0.776535961963,2.02255511403,-0.508549938944,-0.255658456013,-0.0926982031318,-72.1038496095
off_to_on,-3.55122453267,-5.66522547006,-5.13934357215,-1.36570855704,-1.44195935788,-9.20379152077,-7.51476336591,-2.50336559188,-0.920551803777,-2.77035554894,-3.22313277508,-3.79594702484,-2.80469602906,-56.985619734
off_to_on,-3.85308485198,-4.65821749126,-4.40674787261,-1.41870754359,-2.27538230747,-9.09073512045,-8.97265662922,-4.62926727586,-0.957414354841,-7.41394597538,-5.4115951597,-6.80213291985,-5.30678236561,-23.7705209758
off_to_on,-3.52441510593,-2.80716574444,-2.92993553063,-1.32026899262,-2.78779874462,-7.28246629604,-8.77512746173,-6.04848065394,-0.883134792582,-10.8194680724,-6.51437345687,-8.6066229858,-6.97948902543,18.7825160318
off_to_on,-2.56626757782,-0.608452470493,-1.05794838622,-1.03518169433,-2.80451190045,-4.20572662652,-6.99926247918,-6.35134746608,-0.69708797928,-12.0680427059,-6.19123116014,-8.72968091134,-7.29947500104,58.7330780963
off_to_on,-1.08758965541,1.43919759344,0.833577967404,-0.547384661799,-2.2362596915,-0.516398096941,-3.98909689718,-5.32820048085,-0.407045041832,-10.6655080613,-4.42820508555,-7.0120732085,-6.00979602888,84.4234344093
off_to_on,0.683560518034,2.94329262472,2.40833503446,0.114147244384,-1.12351349734,3.06378768786,-0.287170304379,-3.05582598547,-0.0362343585852,-6.71756903088,-1.56659429416,-3.6920673738,-3.23754072098,87.9153225563
off_to_on,2.4193689231,3.68080381242,3.41622019945,0.860733644067,0.349291490386,5.90688006706,3.45656558473,0.0798244195772,0.371915674249,-0.965379232784,1.76107482946,0.604509124785,0.488154090535,67.3768423629
off_to_on,3.74915587439,3.61156519402,3.72128993078,1.55022194558,1.8800326885,7.59218834406,6.5865831228,3.44169620044,0.755326151623,5.3448931186,4.77732315697,4.9734613737,4.33661702576,27.7175246743
off_to_on,4.34636332663,2.85195019826,3.3138548811,2.01651075668,3.11421637925,7.95123963283,8.54438535144,6.27523619751,1.04283188285,10.7395493589,6.75284511871,8.4260512131,7.37623347517,-20.7080784765
off_to_on,4.02345364817,1.62637599126,2.3086147704,2.11568790294,3.73475566454,7.04730207092,8.9617896709,7.88881304727,1.17021267198,13.878526513,7.19548292813,10.1256946427,8.82240033297,-64.9451157065
off_to_on,2.8038190813,0.213524581891,0.927717121576,1.77464728411,3.55176735074,5.11329937433,7.73261976886,7.83502238484,1.09816286989,13.9073332283,5.98274339999,9.60751094319,8.26092810287,-93.0110634458
off_to_on,0.94177956167,-1.10219229841,-0.534042779227,1.02516595847,2.56509907591,2.48032555443,5.04832273014,6.04215811588,0.826214140095,10.7024012243,3.39962944403,6.91858925584,5.77815356653,-97.1858232362
off_to_on,-1.12472943142,-2.07109355646,-1.76259278875,0.00956845393135,0.97815060442,-0.477195815774,1.38380857512,2.85534099276,0.397365125106,4.93627965308,0.0693109396146,2.63353305201,1.95455795611,-76.1102967438
off_to_on,-2.88278364111,-2.51259167925,-2.49117702892,-1.04741359633,-0.845079679589,-3.37034287495,-2.57398416188,-1.03005574969,-0.109065059992,-2.06429802079,-3.20584475665,-2.26802316753,-2.28100315545,-35.1363632425
off_to_on,-3.88632630192,-2.34518275417,-2.56699776824,-1.8948543535,-2.47076507186,-5.80790600184,-6.05035084848,-4.73025565727,-0.595013305472,-8.6376864652,-5.65001359287,-6.63643816768,-5.89696527225,15.1354269096
off_to_on,-3.88857086073,-1.60926108095,-1.9990050434,-2.32422669676,-3.5095662031,-7.41301317776,-8.34030653586,-7.39007432702,-0.966823515422,-13.2035447245,-6.71043170933,-9.44033442618,-8.03428868293,61.7011757254
off_to_on,-2.92130324602,-0.474449172682,-0.968088546602,-2.22947687625,-3.72175579445,-7.86384201248,-8.9661537049,-8.39779620792,-1.15721358272,-14.6662093944,-6.19168315986,-10.0308007849,-8.23164855113,92.593708124
off_to_on,-1.29171213109,0.77917074532,0.211190886155,-1.63930271348,-3.08192388631,-6.96377921611,-7.7955877884,-7.53963410137,-1.1396990884,-12.6964479602,-4.29287040294,-8.30833215328,-6.53625733264,99.9937686093
off_to_on,0.506980022727,1.81266491586,1.17388363159,-0.710552556803,-1.78346317775,-4.72536044808,-5.08551173078,-5.05130340033,-0.931660359502,-7.81460954055,-1.5405016816,-4.74517971508,-3.4709174854,82.2023202409
off_to_on,1.94608730224,2.30927417445,1.61316358723,0.316133405206,-0.18103554434,-1.43452285975,-1.43312465529,-1.55257581046,-0.585988783252,-1.25207684783,1.361035372,-0.256160640313,0.12876035971,43.9854165394
off_to_on,2.62637271565,2.06819317223,1.38201816888,1.18515018019,1.31183943563,2.34339138834,2.35971697245,2.11671787099,-0.174835204032,5.37136916082,3.7176675547,4.04609217954,3.35503161243,-4.75974580939
off_to_on,2.40352189978,1.08362527222,0.553367829575,1.69794147062,2.33915131919,5.84204350611,5.47745058706,5.11348882457,0.228859507421,10.4664772629,5.02010742975,7.14289517919,5.47370689765,-51.6330716102
off_to_on,1.43160715608,-0.421114099698,-0.586670827949,1.7658792793,2.69769655595,8.2556119543,7.28753937724,6.80131870554,0.56633840954,12.8765733387,5.05873223125,8.36734578856,6.10408168628,-84.9459368556
off_to_on,0.108235527445,-2.02610842118,-1.61778887709,1.4280263668,2.38326111952,8.94886134234,7.48926348145,6.89723439314,0.800759987538,12.1559908878,3.95206288864,7.55859335753,5.28589641135,-96.680503636
off_to_on,-1.06212245274,-3.21667374006,-2.11780350861,0.829395399872,1.57546395032,7.65514758303,6.17302146521,5.51849778138,0.917036487942,8.65414410639,2.0874747442,5.07421078194,3.42279376527,-84.4386339418
off_to_on,-1.64192759861,-3.53324685576,-1.8087998769,0.168238536368,0.568541763843,4.59448608774,3.77416263454,3.12200713551,0.916099234497,3.38931820711,-0.0030891537037,1.66378892269,1.12937781587,-51.9027022055
off_to_on,-1.41311215193,-2.72734827409,-0.668703171135,-0.369249423746,-0.327830425166,0.460869551232,0.9366443671,0.359358986158,0.80761502071,-2.24604367158,-1.7936014717,-1.75413849916,-0.964267782761,-7.72568225219
off_to_on,-0.455966240874,-0.872518794166,1.03301859834,-0.664967432488,-0.884918668328,-3.73399190412,-1.67121799681,-2.10693354815,0.60502976988,-6.86254474071,-2.8978890978,-4.34469544989,-2.38859129873,36.8226091828
off_to_on,0.873951884443,1.6132690187,2.794738797,-0.697838558774,-1.01792578593,-6.92616349603,-3.53290369428,-3.7724635236,0.325000642756,-9.42877740572,-3.15260761458,-5.56733262452,-2.94083903217,70.8084139799
off_to_on,2.06492357672,4.05330391149,4.02574031057,-0.537732417509,-0.797121630741,-8.29979512588,-4.39994530368,-4.39959228619,-0.00934592546571,-9.51032634318,-2.63203020418,-5.28968992001,-2.69773932832,86.3978290307
off_to_on,2.6253452603,5.69170743156,4.23238297056,-0.308794684162,-0.406428812591,-7.52989373215,-4.31736018041,-4.04105747528,-0.364155464354,-7.33567869472,-1.59784084023,-3.7810942175,-1.94232794408,80.7113486885
off_to_on,2.25813615895,5.91969085839,3.18922840556,-0.136951712155,-0.0662393018722,-4.88750312464,-3.55784007616,-2.9806486997,-0.693313295105,-3.68241201673,-0.404670533956,-1.59795560695,-1.03876765569,56.3099971892
off_to_on,0.973863933934,4.48071933565,1.0378417942,-0.101183105284,0.0514679111859,-1.1675253607,-2.49409139331,-1.61731495909,-0.942486044901,0.373375996516,0.607877473055,0.597236561215,-0.301728147911,20.2362253491
off_to_on,-0.897032290941,1.58689078985,-1.72391339189,-0.205911061918,-0.113880587896,2.54464910262,-1.45765921871,-0.333484257662,-1.05924976303,3.76669844304,1.20556115918,2.22670444609,0.0967677627415,-18.0699375515
off_to_on,-2.79913096827,-2.09858492669,-4.36569419419,-0.38353890678,-0.491438760891,5.1984553826,-0.634277157321,0.610841646682,-1.0069773297,5.72375179247,1.3093451734,2.94406674254,0.15746700028,-49.3589545437
off_to_on,-4.12446574422,-5.61863320643,-6.12878767039,-0.524915196337,-0.907618422261,6.09423317387,-0.0299588717618,1.12883096862,-0.777998939054,5.93834992323,0.995666383105,2.70092118129,0.0194157800957,-66.9266656619
off_to_on,-4.40690526118,-7.98101576216,-6.45043656769,-0.525411646973,-1.15229815725,5.08969832207,0.485423034218,1.2934287111,-0.401020397345,4.60491118459,0.452792560747,1.72364336964,-0.118664080658,-68.0978976577
off_to_on,-3.4753286169,-8.44559542003,-5.13958223613,-0.328971644366,-1.05877741283,2.63057520767,1.07944217894,1.27243218707,0.0607917634455,2.31117869986,-0.0894938055567,0.416900763112,-0.087952309171,-54.4847034726
off_to_on,-1.51587024406,-6.75406175231,-2.4484278508,0.0462997388198,-0.56945208047,-0.40424427863,1.84591559468,1.24037316749,0.521714747928,-0.167236067453,-0.434133467572,-0.771125367026,0.183184879206,-31.0453720078
off_to_on,0.976765108543,-3.2295913751,0.984490983585,0.510291149381,0.23546984397,-2.99236237453,2.72788515211,1.30071679541,0.892624189528,-2.10432711561,-0.473541988007,-1.48037510472,0.645971775515,-4.32769243288
off_to_on,3.34298386677,1.28897227452,4.30458818233,0.929749644606,1.15604875494,-4.29796582474,3.50801415826,1.44550287859,1.10205911506,-3.02354835096,-0.214529000284,-1.53184175409,1.15590662537,19.4980004931
off_to_on,4.95093661212,5.66430763212,6.67480967146,1.17314462178,1.93151130619,-3.9354708565,3.87361314613,1.56446210091,1.11303260722,-2.80695287336,0.232736288484,-0.961079262031,1.53170215205,36.1924903481
off_to_on,5.37759225663,8.76862376443,7.50334547548,1.15528936709,2.32057400868,-2.08270874693,3.53450207894,1.49739653288,0.930702883693,-1.69080330588,0.695536414604,0.0100526351487,1.62390711726,44.151836863
off_to_on,4.52325617455,9.79344505478,6.5989975479,0.865978629418,2.17715845475,0.590081345346,2.35059304785,1.10851843115,0.59895143926,-0.159122460373,0.995379296646,1.04935553966,1.36755860254,44.1502000255
off_to_on,2.62753918713,8.47084126957,4.21105394182,0.373066199522,1.49752835803,3.14860873696,0.420347304427,0.354411096897,0.187441990147,1.22518232439,1.0036635604,1.81353429355,0.80148112861,38.3554523036
off_to_on,0.187027276403,5.1422639064,0.946555633824,-0.200191165418,0.424611933254,4.70286991889,-1.90660094729,-0.679713355941,-0.226403930149,1.99748830124,0.680696276869,2.04349706192,0.0506214214039,29.0958397959
off_to_on,-2.19462603865,0.657052775993,-2.40528953556,-0.714600121357,-0.790846169185,4.69419538792,-4.10353662484,-1.78920677567,-0.574868200687,1.92495435642,0.0880055720059,1.63260308675,-0.71843637573,17.9108751007
off_to_on,-3.97467236767,-3.86656375694,-5.08586928788,-1.05690825553,-1.85933131925,3.06964155566,-5.60797027545,-2.70249460783,-0.811976392205,1.06118947416,-0.628399908262,0.653460291934,-1.34996675943,5.26646952875
off_to_on,-4.80616390087,-7.34548052267,-6.55419509675,-1.16970427355,-2.53030279665,0.291728840309,-5.98649284234,-3.16007787293,-0.917642948631,-0.287649366029,-1.2783346356,-0.660587244703,-1.74002443147,-8.98840767409
off_to_on,-4.60354457358,-9.01177501951,-6.59799407134,-1.06021013667,-2.65581272991,-2.81374214444,-5.0701270213,-2.99453701663,-0.894445324113,-1.66901077457,-1.67980056732,-1.97318191481,-1.85294096926,-24.6817699422
off_to_on,-3.52799096647,-8.59098261762,-5.34592919188,-0.787144921699,-2.22295926866,-5.31763295187,-3.01581854411,-2.18600890793,-0.760001858962,-2.62675636342,-1.70910616658,-2.927995668,-1.71159329656,-40.3886890018
off_to_on,-1.90790902466,-6.33493500588,-3.18994802319,-0.432936968856,-1.34861939759,-6.46958935269,-0.273408868501,-0.87582431925,-0.538941965497,-2.83736003278,-1.33538567632,-3.2384063074,-1.3703459468,-53.0397380388
off_to_on,-0.128425390162,-2.91098622839,-0.652571198961,-0.0733746164771,-0.241383662936,-5.91454972458,2.53214359604,0.665596191535,-0.257753458686,-2.20130212205,-0.630506596953,-2.76367305425,-0.885681407331,-58.404737766
off_to_on,1.47132575748,0.808615865348,1.75432420052,0.243387818158,0.855601125556,-3.78176556873,4.76682898379,2.10646167636,0.0562121151995,-0.866708984545,0.248077161326,-1.55356135954,-0.298826500723,-52.4324223568
off_to_on,2.66319901996,3.9880005717,3.63751241673,0.501428944635,1.72351677021,-0.628153418782,5.95140658631,3.13666236039,0.372673212839,0.817401223237,1.09685822936,0.150985272217,0.36224986459,-33.0364626556
off_to_on,3.34552197262,6.0282649146,4.77349276435,0.705683550232,2.21308660557,2.73626831795,5.87527856304,3.54251638145,0.656091976512,2.4015328817,1.71769031581,1.96468478743,1.06415162106,-1.64907436415
off_to_on,3.51708361897,6.67613832939,5.10226871794,0.861955187148,2.26691513376,5.47998643077,4.63073121724,3.25354870164,0.866178008155,3.45975341259,1.96752649435,3.44492678343,1.74421575979,36.1641120156
off_to_on,3.23158876655,6.02341099366,4.68320016749,0.959274133083,1.91760005185,6.9669570218,2.56421843902,2.35107978995,0.963053955687,3.70307171088,1.79346689291,4.20077232468,2.29684207391,71.4825393202
off_to_on,2.55788656067,4.41533955521,3.64151805924,0.964331813091,1.26701228881,6.8998675941,0.166734620317,1.03988032217,0.916634771588,3.05292575152,1.24412285636,3.99783602415,2.58222561543,94.1927048717
off_to_on,1.56373024634,2.31155312244,2.13048834788,0.832179665132,0.455854941892,5.35988624748,-2.05868514422,-0.406054897847,0.717441828664,1.65774158152,0.454743852841,2.83079449656,2.46069676252,96.0003136424
off_to_on,0.326374568492,0.150728101302,0.320616589644,0.529787142642,-0.36727458713,2.7473278191,-3.71222746221,-1.70719960123,0.384711638507,-0.148914779882,-0.389341156088,0.940711065086,1.84431379235,73.3673188424
off_to_on,-1.04150352916,-1.7401997059,-1.58970796703,0.062560127626,-1.07078797389,-0.34495251725,-4.56636861703,-2.63530215738,-0.0320807189408,-1.93533301001,-1.1006227545,-1.2328031662,0.747865990995,29.3472006404
off_to_on,-2.37087571612,-3.17453553132,-3.36052179648,-0.508686447456,-1.55629746061,-3.28097180811,-4.57886560204,-3.0515437444,-0.460268676187,-3.28015237155,-1.53546681063,-3.15703887565,-0.681910533988,-26.4524389425
off_to_on,-3.43979750381,-4.08018865072,-4.71499194224,-1.07022980737,-1.76670402218,-5.51299545788,-3.85915050953,-2.92119725665,-0.818714990887,-3.87476952633,-1.62607033869,-4.344204737,-2.17540200176,-79.9956672284
off_to_on,-4.01026717375,-4.44702686478,-5.37594809855,-1.48032542652,-1.68839361323,-6.66945033286,-2.61030552082,-2.30658518967,-1.0365042504,-3.5949819116,-1.39046317491,-4.48504372313,-3.39225312045,-116.563374811
off_to_on,-3.89214320814,-4.2800109163,-5.13198441278,-1.61049745036,-1.34952902271,-6.59314645006,-1.07111139686,-1.34454182971,-1.07024806809,-2.5257366736,-0.91924595343,-3.53922730544,-4.00638360805,-125.063684247
off_to_on,-3.01364820723,-3.5823681846,-3.9141947882,-1.38992352835,-0.815111659519,-5.33862110729,0.524725777126,-0.215976413229,-0.914797904788,-0.934714289532,-0.344457422246,-1.75365988493,-3.80070403518,-101.578534298
off_to_on,-1.47123585276,-2.37497784766,-1.85425116115,-0.836836130758,-0.178243519085,-3.14359669531,1.96771417738,0.885988220863,-0.604118463161,0.797213359305,0.199201778893,0.400397429709,-2.74218483591,-50.9685956906
off_to_on,0.464552579819,-0.738558038674,0.704497010206,-0.0640367531115,0.453179204523,-0.386869734115,3.07740834468,1.78512911267,-0.202157684317,2.2706197252,0.609023661221,2.3563529198,-1.01130912042,14.0884480065
off_to_on,2.39703109092,1.14758662926,3.25830423169,0.74609605977,0.973944902811,2.46248593555,3.70599892776,2.34635552655,0.213338046189,3.16370870093,0.835189082703,3.61141296626,1.02763676998,76.4608005535
off_to_on,3.89629772407,2.99733870478,5.25134412866,1.39114319671,1.30074000405,4.90610408648,3.7513194118,2.49382139081,0.569070655582,3.30661633363,0.883260500521,3.86890242534,2.91117873997,119.386581577
off_to_on,4.61153740827,4.45567889145,6.2145465082,1.70769326277,1.38879324011,6.48975764393,3.18110389236,2.22144582708,0.811218532329,2.71608415412,0.799773290803,3.1203447243,4.19442637902,131.319113702
off_to_on,4.36845593458,5.17919415397,5.8948291684,1.62071357775,1.24107003467,6.88550431868,2.05975550612,1.59380250259,0.91346164832,1.58273092609,0.647691783798,1.64136650211,4.56888174338,109.304297275
off_to_on,3.22063029832,4.93646354945,4.33404012059,1.16653518201,0.906475961438,5.96896794587,0.562056916046,0.735508437298,0.876870985276,0.215098354482,0.481190846839,-0.0980335898865,3.9458849211,59.8316898035
off_to_on,1.43751921392,3.69413243628,1.87034968312,0.481210599583,0.466581543639,3.87003008088,-1.04096529861,-0.191133028985,0.723308327407,-1.04431754508,0.328574169213,-1.58117926325,2.4808137141,-3.11901461294
off_to_on,-0.567961850437,1.65555866193,-0.941879942153,-0.24239059735,0.0141320052201,0.974332277464,-2.42995523555,-1.01750182892,0.485862507002,-1.90855145431,0.188526064905,-2.40384213285,0.530628779245,-62.2354445831
off_to_on,-2.35005151526,-0.767361973767,-3.47231799104,-0.814696959588,-0.370392006391,-2.13778539316,-3.31117768138,-1.60296103876,0.200198991135,-2.21720118501,0.0396922709035,-2.39419585994,-1.44271804349,-101.942641458
off_to_on,-3.54490462498,-3.04686369257,-5.17466872098,-1.1067593107,-0.636927735674,-4.81054608057,-3.49596573663,-1.86377665001,-0.100485033773,-1.97004550254,-0.141326491495,-1.65547399289,-2.99446978059,-112.819330457
off_to_on,-3.9552621264,-4.67211136027,-5.72020749927,-1.08575115515,-0.773089489832,-6.4653672074,-2.95900973594,-1.78856728887,-0.38633076429,-1.31469221762,-0.361394174168,-0.518447179526,-3.80927176722,-94.0240038537
off_to_on,-3.58199729566,-5.28330610613,-5.06755083267,-0.817234179783,-0.798701242265,-6.74672357851,-1.85278423469,-1.43535412579,-0.629060849937,-0.492809159122,-0.599450441406,0.579382960593,-3.77192713602,-53.0510240044
off_to_on,-2.59791769696,-4.76657836086,-3.45198157459,-0.43439825142,-0.750356840581,-5.61779703642,-0.468849954948,-0.910671963816,-0.800352883852,0.238394843093,-0.807200917959,1.24662005779,-2.97893837177,-2.99947064343
off_to_on,-1.27811981981,-3.2809233262,-1.30277744203,-0.0859955508311,-0.66242133722,-3.37398753219,0.844863481991,-0.337052039334,-0.872907610151,0.685319292002,-0.922156951901,1.27098086896,-1.6917609688,41.6812223262
off_to_on,0.0860555364333,-1.20963991293,0.881887660777,0.118008632574,-0.552159743137,-0.566029175093,1.78527471932,0.180713278479,-0.825286336034,0.773343010608,-0.888644471502,0.687532474035,-0.250196108732,69.5605094118
off_to_on,1.2600441636,0.947866047781,2.66261155405,0.143558861481,-0.414982563054,2.14728561547,2.1804284871,0.579524941865,-0.649463926136,0.561316221148,-0.679375382919,-0.240531411074,1.02493930833,75.3332993283
off_to_on,2.10488847298,2.71029889836,3.7524737814,0.039396980715,-0.23169518343,4.17373757167,2.03151332585,0.84460214934,-0.358215467997,0.211020651343,-0.309810863409,-1.12117416935,1.90997375259,60.7671631578
off_to_on,2.57590320147,3.73467492932,4.05512342432,-0.0881463802306,0.0153333748732,5.13725997504,1.49645464464,0.99767201785,0.0112411464819,-0.077880000954,0.160085270393,-1.57782606659,2.31641048315,33.3480977855
off_to_on,2.69118368888,3.8890285837,3.64597309795,-0.122535557025,0.32406880784,4.95813530171,0.821769701492,1.07271799489,0.40010458052,-0.145201795901,0.63789108673,-1.38806988498,2.28294180926,3.2469704454
off_to_on,2.49051516653,3.26086512339,2.71358256432,0.0114922005507,0.66100363942,3.84254234372,0.248168056208,1.09025668189,0.738004630243,0.0669332769359,1.0211977463,-0.567936672634,1.93131958497,-20.2562573898
off_to_on,2.00647074281,2.10541020964,1.48833525871,0.3120168601,0.961841860003,2.19026858689,-0.0750794641668,1.04183765727,0.958201550368,0.488373117305,1.22379362012,0.628120103798,1.40692577866,-31.652057483
off_to_on,1.2612917762,0.755516769735,0.184419644679,0.693662450805,1.14623220102,0.455878383008,-0.135526456971,0.892381018375,1.01386274057,0.942680926267,1.19779805486,1.79217564602,0.827548157621,-30.4739268125
off_to_on,0.289215260751,-0.475688438341,-1.02948566904,1.01424772337,1.14255095014,-0.987865382614,-0.0467148472869,0.600447394826,0.890513190117,1.21039085336,0.945465831367,2.50364847331,0.257804428205,-20.6761441176
off_to_on,-0.829749977093,-1.36996794938,-2.03044385641,1.12553987275,0.914391834781,-1.93959800049,0.0131786891444,0.148446441065,0.610665296242,1.11279906706,0.517769290995,2.4772482712,-0.285370750694,-8.51451581583
off_to_on,-1.94606404456,-1.83838093414,-2.7249737029,0.930210881834,0.479025454378,-2.38700772203,-0.11207801227,-0.430548025748,0.228974850576,0.586914794412,0.000920378046539,1.66654917639,-0.803926417547,0.168369918247
off_to_on,-2.8461756679,-1.91189969367,-3.03444124197,0.424333407407,-0.0896903685011,-2.4553984461,-0.480149200388,-1.04284740503,-0.180771090819,-0.276288449122,-0.504645495758,0.286816687648,-1.28355536472,2.20076213507
off_to_on,-3.29513847341,-1.69962288909,-2.89669760606,-0.290645771127,-0.676328126763,-2.31532674288,-1.014876794,-1.54896310718,-0.543000926817,-1.24673544272,-0.906653205779,-1.251467369,-1.67102514533,-1.93113489885
off_to_on,-3.10774352555,-1.33451713087,-2.28768456382,-1.03212208013,-1.1529771927,-2.09087820602,-1.52767524271,-1.80159102286,-0.79699736756,-2.02174357984,-1.13897445781,-2.47611302443,-1.87671590839,-8.65465038831
off_to_on,-2.22480944495,-0.927096482045,-1.25377241608,-1.58984735298,-1.41348997175,-1.8068791516,-1.78849293856,-1.69527961267,-0.90829065448,-2.32427185457,-1.17152651445,-3.00838957257,-1.80364906213,-13.1218582663
off_to_on,-0.764453768607,-0.540786728533,0.063437987063,-1.79152616202,-1.40200216535,-1.39510179298,-1.61932479289,-1.21000156521,-0.87224760196,-2.00061198053,-1.01122902371,-2.68711336391,-1.39209146341,-11.4800945531
off_to_on,0.977104737775,-0.192301317937,1.42879076242,-1.5588063033,-1.12670682542,-0.753762787034,-0.973601653242,-0.431026311285,-0.709981664572,-1.08343685606,-0.695715013664,-1.61979659418,-0.660818482197,-2.67188809685
off_to_on,2.58513019032,0.129483568699,2.55203983862,-0.934918864786,-0.654908088929,0.16836738712,0.0306569331102,0.465340970654,-0.45909996291,0.203803257752,-0.282958236321,-0.144244108704,0.274324614432,10.9563916872
off_to_on,3.63494127872,0.43835452437,3.15853179132,-0.0745591401657,-0.0917563913334,1.30298237981,1.13881524624,1.25865258417,-0.163059860483,1.50616373021,0.159924102318,1.28527392534,1.21635453828,24.4776069473
off_to_on,3.81860722028,0.731483759417,3.07233017894,0.80090298696,0.449575180932,2.44279506084,2.04025078554,1.74992793433,0.137339785398,2.44353069751,0.566437294386,2.24763541641,1.93646367902,32.3143813495
off_to_on,3.04879089634,0.983415266361,2.28297298849,1.46842496138,0.876125999124,3.28630313314,2.47270579402,1.82397491424,0.408333962389,2.73046531079,0.878241416753,2.48914516444,2.24221947524,30.5184480697
off_to_on,1.50253227261,1.15368007264,0.968624508896,1.76764987075,1.13303873679,3.53496120802,2.31186472898,1.48611545237,0.623530209321,2.27003545869,1.05082740625,1.99769691218,2.04150330806,18.4990318383
off_to_on,-0.4148715866,1.20243179405,-0.53899532882,1.64441481767,1.20687713707,3.00815232787,1.61285434976,0.859149337197,0.762075488244,1.18948956752,1.05812783014,0.993702522616,1.37871736253,-0.496011235931
off_to_on,-2.1800515059,1.10591550426,-1.84278859389,1.16052368406,1.11595838726,1.73136974678,0.588430315625,0.140386459487,0.807237225031,-0.195691760848,0.896425699711,-0.156162052288,0.428327519968,-20.3722396524
off_to_on,-3.30456921737,0.865042852336,-2.59663928242,0.468247565174,0.894070339811,-0.0398178599951,-0.467386256158,-0.46660909562,0.747402264225,-1.47899631193,0.586999103769,-1.0700094236,-0.554598043798,-34.3196490041
off_to_on,-3.48331931373,0.504649027074,-2.61270435522,-0.240547972731,0.575809197776,-1.87536150813,-1.28085983826,-0.820955686676,0.579912258113,-2.29011665751,0.176101167911,-1.47985048664,-1.3117604508,-37.3084175514
off_to_on,-2.69010539652,0.0658022103498,-1.92273535557,-0.793072818646,0.190032766885,-3.29222905696,-1.68678989343,-0.888465884609,0.316291711319,-2.41045899484,-0.269318985883,-1.3143864261,-1.66125619807,-28.0202930527
off_to_on,-1.18771645509,-0.403543278741,-0.770275100225,-1.08301528897,-0.236627370825,-3.9030255024,-1.67092011365,-0.743955107908,-0.0138662379306,-1.83877602526,-0.671021078288,-0.708936832972,-1.55220110408,-9.47654057154
off_to_on,0.55296355679,-0.854512448399,0.46654450961,-1.09253946483,-0.66963765501,-3.54125487133,-1.35265547183,-0.530791418392,-0.363192452408,-0.78550853116,-0.953357938285,0.0574614997611,-1.07533335091,11.9092798501
off_to_on,2.00034884126,-1.23795647419,1.39772788433,-0.88410088316,-1.05710931946,-2.31912278262,-0.918227969256,-0.39345039568,-0.672630321004,0.401412923982,-1.05920487791,0.672078268108,-0.425900995498,28.5503499618
off_to_on,2.72908810544,-1.50203434826,1.74907313906,-0.567695184909,-1.32882325957,-0.596247761908,-0.534134645118,-0.410194017987,-0.882820528961,1.3533382028,-0.964133347916,0.904265659649,0.167904546534,34.4009614041
off_to_on,2.55239235125,-1.5919312612,1.45123173499,-0.256969144122,-1.40826133066,1.13174491563,-0.278063532296,-0.554090183661,-0.948080409015,1.80013571215,-0.684697691113,0.685254723439,0.5253116892,27.1920655382
off_to_on,1.57648610167,-1.45684048609,0.659035223915,-0.030322213763,-1.23626275505,2.38801314663,-0.116520037132,-0.700399199171,-0.848876018032,1.65170043074,-0.27770092243,0.124846846582,0.573277070269,9.36614477933
off_to_on,0.159477406825,-1.06590064472,-0.306282990693,0.089931761942,-0.798749683222,2.86099100015,0.0619147683793,-0.680245225339,-0.598694151865,1.01546006633,0.170529726558,-0.538262820453,0.365222107857,-12.6595356407
off_to_on,-1.21131662824,-0.429348773261,-1.07241638448,0.134693781744,-0.147212193878,2.49407219282,0.373110804226,-0.361185892926,-0.242721251813,0.146518168525,0.563073652545,-1.03158135878,0.0519899273268,-30.6813438685
off_to_on,-2.08237122582,0.383738601771,-1.34878947716,0.164785381843,0.598772365959,1.48999111318,0.857444282025,0.277565140217,0.151761180099,-0.649287621894,0.815250322676,-1.15261919034,-0.183463573079,-37.6077835202
off_to_on,-2.18272889663,1.24147127824,-1.03013213122,0.2377289726,1.27248286058,0.230984374566,1.43152747547,1.10830273816,0.510728032841,-1.12325323129,0.8755672667,-0.842850765112,-0.202553255078,-30.0595479657
off_to_on,-1.50910438449,1.96637851724,-0.234010125988,0.378125328911,1.70164934022,-0.855643470787,1.89782258159,1.87690560425,0.770159435942,-1.16394196223,0.739072704343,-0.205645894229,0.0306800385822,-9.74646471215
off_to_on,-0.319717271168,2.37419275358,0.741364843345,0.563121681483,1.75945981397,-1.43941789709,2.01434016075,2.28243011184,0.889482272254,-0.822495673293,0.449123022837,0.53642782036,0.432245130424,16.8952572975
off_to_on,0.959649337733,2.32565664138,1.5244443639,0.728348166009,1.4084946295,-1.38826048543,1.60000997155,2.08941554045,0.858208693863,-0.27718698025,0.0865344390905,1.12693416047,0.829142916429,40.7293463361
off_to_on,1.88417010004,1.77570422041,1.80482667013,0.791869854694,0.721426014053,-0.797763309356,0.633126902361,1.2322698427,0.694584214989,0.245990773363,-0.251492890375,1.3703176825,1.02751414862,52.9592821092
off_to_on,2.14176323857,0.802239143652,1.44698798169,0.687029667043,-0.131327906896,0.0576367826022,-0.701317867234,-0.130295212397,0.437611353728,0.564106301698,-0.477353121817,1.20047778924,0.892379367912,48.1730379081
off_to_on,1.65642597042,-0.398822569009,0.542425600944,0.391880633609,-0.926207676816,0.830515543083,-2.04277898597,-1.63801650618,0.135699299419,0.603845934812,-0.536980786173,0.698561288489,0.408214360757,26.3636904272
off_to_on,0.608728701501,-1.55546362609,-0.618867902876,-0.0557764340236,-1.45127197964,1.22409854636,-2.96245572352,-2.8295989926,-0.164222712044,0.418971032935,-0.425062922546,0.0552667322842,-0.30399050241,-6.7781368542
off_to_on,-0.63200125179,-2.38911016643,-1.64796821011,-0.563550000554,-1.57104369284,1.09081416043,-3.1130580107,-3.29226155751,-0.424114658982,0.153980658211,-0.186923302179,-0.505941440293,-1.02173604226,-41.4421401064
off_to_on,-1.63885183506,-2.69201874089,-2.192589483,-1.00851781156,-1.26989852679,0.47425961654,-2.36682839203,-2.81048631495,-0.617553496634,-0.0290140380475,0.0940112020938,-0.813998221717,-1.49715303467,-66.6765917192
off_to_on,-2.07550305169,-2.38838054483,-2.06067431552,-1.27243532785,-0.658447639063,-0.415509618802,-0.886956834632,-1.45988110831,-0.728589522132,-0.0284766670072,0.320240527049,-0.810826803131,-1.54740006912,-73.8361046709
off_to_on,-1.80998178059,-1.55886179261,-1.28819042033,-1.27670517752,0.0608330871349,-1.28016015214,0.901549140705,0.392522340158,-0.748943078571,0.146950275824,0.409363020387,-0.564822688655,-1.12609423875,-59.4072648533
off_to_on,-0.955359362913,-0.41942623099,-0.127153133513,-1.00603238028,0.658723333241,-1.8346110344,2.43966756005,2.18941107621,-0.676013549668,0.379335219667,0.320183222197,-0.233581101422,-0.34839106457,-26.3091870118
off_to_on,0.175271322121,0.739945296691,1.04173159167,-0.513650010236,0.95418730319,-1.89664589947,3.22121131817,3.35774929385,-0.513254273703,0.493890824111,0.067920899616,0.0078483088932,0.541502508624,16.7599298675
off_to_on,1.18226331159,1.63774618386,1.84068100654,0.0929164322932,0.874041074912,-1.43671032383,2.97386647453,3.50054141493,-0.272827473798,0.342213998697,-0.276657275008,0.0436009292103,1.25083610457,57.7535509437
off_to_on,1.72061263181,2.07872012187,2.02408357019,0.680518524916,0.476715892828,-0.576111307972,1.76732661853,2.53986116937,0.021151947909,-0.118372633426,-0.605005100519,-0.132628667126,1.53947563038,84.7624827022
off_to_on,1.61927831478,2.00278509574,1.55999054229,1.12441729089,-0.0687595179834,0.459863911444,0.00440329294132,0.758534116714,0.331307148024,-0.784370114324,-0.80135958483,-0.413981693998,1.30604685664,89.5149613004
off_to_on,0.937521402761,1.49098284576,0.635871324628,1.33774073712,-0.54220076743,1.41358187952,-1.70813249327,-1.27931671484,0.609791946087,-1.42552833655,-0.777905615708,-0.625409050461,0.62782638656,69.8521844493
off_to_on,-0.0602106444066,0.728973256804,-0.412141349427,1.28873668571,-0.750308863643,2.06611854946,-2.76793444657,-2.9071422622,0.805891822456,-1.76185220187,-0.50438066552,-0.599589256454,-0.261083650754,30.452878366
off_to_on,-1.00070442233,-0.0574105800713,-1.22015538076,1.00260572897,-0.596561454361,2.28679435879,-2.7924267312,-3.57678978155,0.877130582234,-1.57219933528,-0.0228749032584,-0.253529190814,-1.04716566698,-18.3983058931
off_to_on,-1.53500775802,-0.67165654659,-1.52389266633,0.549552114564,-0.118432175447,2.05105830531,-1.76299539003,-3.04682728761,0.800833582038,-0.793725729675,0.557660713979,0.365280884999,-1.44460460466,-63.6345019276
off_to_on,-1.46133287847,-0.99828608547,-1.24743692188,0.0243481806214,0.521757169591,1.4288366313,-0.0427206248601,-1.47248143116,0.582358064382,0.428150586193,1.08701158841,1.08298214291,-1.29539771089,-93.0088463201
off_to_on,-0.795485827455,-1.02205691776,-0.523004871105,-0.4758609684,1.09021558642,0.554316640863,1.74349601238,0.636718633934,0.256841113166,1.76343522847,1.41321710694,1.65435990605,-0.627700192251,-98.4569690265
off_to_on,0.234636072019,-0.81268248704,0.363307855142,-0.86971261306,1.3617561088,-0.409159393943,2.92762081142,2.58065736537,-0.116817235794,2.79262746957,1.42531997345,1.84963319799,0.348252053998,-78.2903711104
off_to_on,1.26742784702,-0.485474897938,1.07833099693,-1.10251199273,1.19944364364,-1.29867801346,3.03977653463,3.70053511516,-0.468558059377,3.14384037068,1.08712742793,1.54118653882,1.30602514926,-37.6364933296
off_to_on,1.93100548802,-0.155652181511,1.36156433076,-1.14963291109,0.606367555465,-1.97193910524,1.98523527377,3.60109343769,-0.733003022874,2.62516609628,0.451843824225,0.757661057716,1.90904873376,12.9640626427
off_to_on,1.96924199413,0.096148240098,1.1148719098,-1.01449273604,-0.26875166827,-2.32022830982,0.0910544092831,2.28722627591,-0.86408087629,1.3045684066,-0.347345727981,-0.315586526417,1.92174603785,60.3907542541
off_to_on,1.32821663663,0.236707567084,0.431351742199,-0.723979201206,-1.17484829495,-2.2789635903,-1.99812792473,0.167389535041,-0.844375884224,-0.493818588984,-1.12879098079,-1.39105134791,1.28917240261,92.4212983801
off_to_on,0.175347268569,0.271557567057,-0.444458880358,-0.323542245407,-1.83679946102,-1.83882858533,-3.54139606431,-2.07855852716,-0.686857082579,-2.27956983525,-1.70760059575,-2.16985829391,0.159419848189,100.919182927
off_to_on,-1.15332536743,0.224293988828,-1.20791770501,0.127380051705,-2.04290448604,-1.05584143653,-3.96302461949,-3.72301419862,-0.42908539416,-3.54428899054,-1.94217860012,-2.43673696325,-1.15786921885,83.8972983039
off_to_on,-2.25853207835,0.11744004236,-1.60223209932,0.560435811053,-1.71264203599,-0.0542027151661,-3.06107187024,-4.230292127,-0.122273809511,-3.91955089621,-1.76937610048,-2.12593800974,-2.28287214705,45.9420100875
off_to_on,-2.80047372543,-0.0343610356094,-1.50377696151,0.905408493199,-0.922548342927,0.985517334194,-1.08745168739,-3.43145206234,0.181096517356,-3.29161540043,-1.2190506941,-1.3359195892,-2.87752953127,-3.07653895292
off_to_on,-2.59973659455,-0.216194146918,-0.955742165812,1.10012103989,0.117728359587,1.85684197048,1.33106188752,-1.57603151964,0.437437104515,-1.83470177487,-0.404962003143,-0.289715981801,-2.74357667348,-50.6349913329
off_to_on,-1.68655631587,-0.396642993233,-0.141497053696,1.10247819704,1.13045913215,2.37320420638,3.40468526771,0.755037234291,0.617612493752,0.0472809496423,0.504283727894,0.742360719489,-1.87820119377,-84.8171602824
off_to_on,-0.286726022191,-0.516492384291,0.688366888405,0.902061811049,1.85384606849,2.41774075486,4.45124933953,2.84357521258,0.707494068791,1.84923432549,1.32526161911,1.52815198132,-0.473330122091,-97.3470177998
off_to_on,1.24716639957,-0.494743309688,1.30521612573,0.527474862714,2.11739242176,1.98072371452,4.1300503386,4.06786205119,0.704954803639,3.11889547476,1.89959066461,1.9364248823,1.1378898394,-85.6151529125
off_to_on,2.5347782899,-0.256567610949,1.57382223485,0.0457804415372,1.88503698652,1.16942201025,2.55631687497,4.09668050483,0.615779705879,3.58461909709,2.1239000762,1.9567441231,2.56907059158,-53.197197394
off_to_on,3.26656908362,0.224031916925,1.48147648938,-0.447893491486,1.25433146958,0.182986023963,0.256460113527,2.98045364095,0.450825102329,3.21661495029,1.96434729686,1.67412104362,3.47697959203,-8.76527173429
off_to_on,3.27507470568,0.884733445708,1.1185194765,-0.849640829599,0.415237543148,-0.742934151429,-2.01862596518,1.11362204374,0.22559617387,2.20665274218,1.45536721097,1.21410148567,3.64115629192,36.2846692022
off_to_on,2.56371864523,1.56044584456,0.623759448585,-1.07092457517,-0.414651897085,-1.4052311878,-3.55433637613,-0.912533465761,-0.0382106905688,0.880685665609,0.686656662292,0.684762113253,3.00934086034,70.8358973401
off_to_on,1.29228713771,2.00998321844,0.121414865377,-1.06135855466,-1.05507006028,-1.69272647194,-3.91363622703,-2.51085687438,-0.310995395405,-0.418616727869,-0.215622757004,0.141431352707,1.70243422861,86.8777203387
off_to_on,-0.269990777024,1.98527728791,-0.32230637506,-0.823480615607,-1.40686386959,-1.61435782882,-3.0737748269,-3.28190699361,-0.555614476547,-1.43492060136,-1.10817707221,-0.411742620777,-0.0168645450372,81.4145898527
off_to_on,-1.80695018878,1.32593555992,-0.705372661632,-0.414562540728,-1.46274412938,-1.28499483658,-1.41264733058,-3.11943153963,-0.731382885348,-2.05203702145,-1.84784477654,-0.986989806846,-1.80076575696,56.9813487725
off_to_on,-3.01749837197,0.0468457870942,-1.05905991464,0.0660798287952,-1.28615863965,-0.873258769353,0.445599749294,-2.20836676525,-0.801737498564,-2.28601487442,-2.30714122471,-1.5646787048,-3.28511401728,20.6804930498
off_to_on,-3.66634263564,-1.61803104568,-1.39779964232,0.501643678674,-0.970989325965,-0.530658759851,1.86521472781,-0.926023276897,-0.74379052616,-2.22874821118,-2.39001660393,-2.05896028185,-4.15791025016,-17.9337867358
off_to_on,-3.61910904187,-3.24286480863,-1.67715013085,0.787988030902,-0.600563618593,-0.329664397134,2.42554129144,0.309247285521,-0.556724520594,-1.9749853251,-2.04902465288,-2.319828368,-4.21794852028,-49.4905909744
off_to_on,-2.86196327256,-4.31306130852,-1.78470316471,0.861146295786,-0.222606934827,-0.236216502584,2.05703641668,1.18241528838,-0.26580137835,-1.56890633346,-1.30227582423,-2.17847447196,-3.41606663484,-67.2011571735
off_to_on,-1.50680750474,-4.38119143719,-1.57458134653,0.714386156854,0.151626296723,-0.129723521732,1.0399520621,1.56758822837,0.080160787988,-0.99498020086,-0.245051572217,-1.52246213511,-1.87273049407,-68.3681038781
off_to_on,0.218626810186,-3.22905515177,-0.936058629018,0.399737129054,0.527073179631,0.134984208599,-0.128237056592,1.5304735714,0.417978020997,-0.215750574872,0.951187348782,-0.370752564063,0.13327342085,-54.6433009453
off_to_on,1.99851336659,-0.979575218658,0.130880270557,0.013219179048,0.895913782482,0.647023703305,-0.941269315317,1.25706069006,0.683861431163,0.763939953485,2.05871571364,1.0864963506,2.2077982648,-31.0628461821
off_to_on,3.47682583748,1.88799276885,1.46772303207,-0.332341523964,1.21618496797,1.37325560023,-1.0856997183,0.946337894003,0.828018290422,1.84095168276,2.83407601226,2.50885128293,3.91359911812,-4.25359248843
off_to_on,4.32343064867,4.63815669668,2.76527904713,-0.539387124008,1.41071826605,2.13700238471,-0.557721981708,0.716159749564,0.825943477551,2.79952537652,3.07367524774,3.49100997821,4.86195347975,19.5681415239
off_to_on,4.3089794601,6.47540681549,3.63568062682,-0.553524387361,1.38990789798,2.65717812705,0.348176163903,0.561989771142,0.683221883093,3.35540929024,2.67151098502,3.69036389952,4.80561122592,36.1687388417
off_to_on,3.37157220417,6.78227818711,3.73175563534,-0.379199359939,1.09061011294,2.64076121501,1.17132896092,0.382800366004,0.432688759017,3.24954955168,1.66166237261,2.95416065159,3.7097681437,43.997363262
off_to_on,1.65430857657,5.32536817725,2.87557980581,-0.0784509993722,0.515037490851,1.89952835086,1.48310211168,0.0579188814469,0.125159071665,2.35837034606,0.229185228427,1.39809918129,1.77856689976,43.904406146
off_to_on,-0.504024730528,2.35954745904,1.1493013423,0.247205262327,-0.248451780053,0.448968093075,1.0709909092,-0.464080646558,-0.183192653588,0.775582158341,-1.31977127943,-0.599137038004,-0.576828043317,38.1226406263
off_to_on,-2.63201623083,-1.41113709485,-1.09020640913,0.486875822675,-1.03508727263,-1.45103152828,0.0344215581957,-1.10874262604,-0.442976411746,-1.17363272875,-2.62601522086,-2.49319148965,-2.82741918802,29.0034238538
do_nothing,-4.23320897323,-5.01310318546,-3.28752388079,0.553918883352,-1.64494341524,-3.33720294911,-1.24679539111,-1.68150536321,-0.620013323757,-3.00238408424,-3.36808813779,-3.73760353283,-4.45406574663,18.0535987011
do_nothing,-4.91279727338,-7.47463749942,-4.83907410065,0.413400321048,-1.90390440116,-4.66196156428,-2.25987795055,-1.93823349594,-0.698422908384,-4.20044528474,-3.35093837252,-3.96132533172,-5.08070822036,5.65915879226
do_nothing,-4.48796686148,-8.1081629988,-5.27343822441,0.0951347598304,-1.723416026,-4.95856157581,-2.56465771736,-1.69307969425,-0.678742354224,-4.39751307046,-2.56550591068,-3.09847723089,-4.57495025654,-8.42972567474
do_nothing,-3.047126271,-6.71579901431,-4.40364393178,-0.312070418706,-1.13659669563,-4.00103150997,-1.97585617506,-0.917249972463,-0.573050078462,-3.49407948693,-1.1988959245,-1.4213889717,-3.08464831992,-24.1209948551
do_nothing,-0.935990889084,-3.65264355679,-2.39950497747,-0.684098162553,-0.295439687384,-1.90459114109,-0.648681459743,0.217420421268,-0.399702521032,-1.71020788357,0.411125211412,0.540339178838,-0.99700121815,-40.0179141762
do_nothing,1.33000003288,0.273684308526,0.247427091251,-0.897038833779,0.572625311161,0.872265206918,0.968508761088,1.37578528594,-0.179802215345,0.470471762823,1.86633033927,2.17197082427,1.16969682186,-53.0122895437
do_nothing,3.20392151921,4.03682806922,2.85880276104,-0.864729959649,1.23552814817,3.63313060745,2.29883152307,2.17049889805,0.0638085335111,2.44710410371,2.81719355738,2.98011432778,2.90977381381,-58.7770075556
do_nothing,4.25584293511,6.6860487495,4.76343618383,-0.567420782405,1.53063926175,5.63102602046,2.85659007822,2.30773937444,0.305770574476,3.69031715331,3.05823663225,2.7615721248,3.86548251158,-53.1361038562
do_nothing,4.28639817946,7.60986938097,5.48935477599,-0.0626562527305,1.41583421604,6.28419006577,2.43695529366,1.71046809739,0.517453438205,3.90831859804,2.58028516679,1.67300075778,3.91238765073,-33.8923916041
do_nothing,3.37058026752,6.68923533895,4.89345248296,0.525851593546,0.978801448183,5.35484451584,1.2005394286,0.5667209941,0.668150875645,3.13197541353,1.56368877151,0.173261961993,3.16989039856,-2.419247014
do_nothing,1.81925604636,4.29787952698,3.1892052979,1.03943054513,0.400733652334,3.03415195445,-0.382591962531,-0.723037084307,0.729270360417,1.68892035734,0.315505368873,-1.14440020336,1.93724618557,35.7033094339
do_nothing,0.0728784980461,1.1580008178,0.867032051937,1.32783389739,-0.112626027701,-0.0962865414134,-1.71065287947,-1.68645166932,0.681041886899,0.0769097796107,-0.828144816586,-1.77227857414,0.580644316994,71.4703997936
do_nothing,-1.43593502648,-1.89460553891,-1.4628080929,1.29289127321,-0.407151673626,-3.21875616714,-2.2827553401,-1.95824743238,0.51976918829,-1.21635431036,-1.60219685392,-1.48080828173,-0.587076257528,94.6409398887
do_nothing,-2.40484835824,-4.15574861237,-3.25074042384,0.91974725014,-0.435084612849,-5.50620500564,-1.89656869372,-1.42919200574,0.262828892198,-1.88003420435,-1.88276062355,-0.411476856736,-1.39166760214,96.7905025612
do_nothing,-2.72997135351,-5.23032079136,-4.15299815832,0.285928032912,-0.267330373965,-6.35526723668,-0.73270368328,-0.303792533109,-0.0510993360634,-1.87212746261,-1.7058527408,0.968289628713,-1.82004331821,74.2890320757
do_nothing,-2.50109276143,-5.09256963548,-4.09822126356,-0.455558410091,-0.0581324399479,-5.55668140884,0.710181748616,0.962477165105,-0.367736830852,-1.40403882453,-1.2317630143,2.03689704195,-1.97749835832,30.163040623
do_nothing,-1.93227018251,-4.02349741829,-3.26228127327,-1.11546054236,0.0246897145721,-3.3526940758,1.80817812093,1.82988166894,-0.628039161662,-0.826847154751,-0.671253653919,2.25796231767,-2.0025561459,-25.9371377869
do_nothing,-1.25929115054,-2.46252715442,-1.97081722713,-1.51948780865,-0.123154094453,-0.364830035612,2.06087170078,1.88635152458,-0.781486718888,-0.466845268317,-0.202796316873,1.40027727886,-1.9788430343,-79.8811756192
do_nothing,-0.646312529626,-0.836994176269,-0.572511695285,-1.55711470956,-0.489009267547,2.58594016546,1.30005821783,1.0241257135,-0.798108231276,-0.478181246391,0.0878645009896,-0.345736301553,-1.88396846531,-116.837167671
do_nothing,-0.138261680892,0.565782254434,0.667790647857,-1.21373152244,-0.936635335861,4.71296995372,-0.225095553773,-0.491056637719,-0.675699089487,-0.774109977517,0.224140432029,-2.40501712129,-1.59955088354,-125.618168366
do_nothing,0.324445709618,1.64229361139,1.61987358978,-0.576289641204,-1.2521199849,5.48287815017,-1.92481789414,-2.09334535418,-0.440092214666,-1.0672979189,0.307048529199,-4.00398595146,-0.980183490703,-102.255213101
do_nothing,0.838849834411,2.42854843748,2.27257786395,0.189860405503,-1.22767856109,4.75659557967,-3.08442516251,-3.11481478605,-0.138467876385,-1.00539560578,0.450830243728,-4.44611233542,0.0473972094926,-51.6107845251
do_nothing,1.45257160903,3.00051263149,2.66996580505,0.886719027821,-0.752754444544,2.81377475676,-3.14138547734,-3.04067082486,0.172196079378,-0.347835805026,0.714087854388,-3.38094229951,1.3995442153,13.5933303112
do_nothing,2.0990095641,3.37351623269,2.83664445273,1.33885507595,0.12323188747,0.257008122765,-1.9194919062,-1.72739405733,0.438066443324,0.890283440457,1.05684973986,-0.967477756166,2.8080330525,76.1623570285
do_nothing,2.58849718877,3.45264743639,2.73228511554,1.4418900571,1.1838520319,-2.17246117794,0.271993847804,0.502829879029,0.619156637875,2.39242558173,1.34385941077,2.13451587239,3.87214696959,119.27863044
do_nothing,2.66651589612,3.06154049036,2.26041266076,1.18987718655,2.1024910905,-3.81104884163,2.71886695658,2.9370191223,0.695193486414,3.6223109739,1.39572754959,4.95341489883,4.18184661477,131.365147451
do_nothing,2.12109769726,2.04016973405,1.33028024746,0.67351074378,2.54760119353,-4.25731994845,4.54081933692,4.70044662966,0.665859635619,4.01251161505,1.06946745772,6.51896725475,3.47255960462,109.466945031
do_nothing,0.897933387855,0.368532882305,-0.0559044667218,0.0500104756847,2.30165026723,-3.47249461791,5.00699446398,5.06580998678,0.546500283909,3.19426802991,0.336257751713,6.19685939686,1.75421686904,60.0918211668
do_nothing,-0.82658520368,-1.7432743264,-1.73360832671,-0.505734883716,1.35134758624,-1.77137686582,3.81483341628,3.73379391341,0.361647044803,1.18053227216,-0.677238059066,3.92892203267,-0.639727981211,-2.76189388735
do_nothing,-2.65266238383,-3.84950743026,-3.36489566932,-0.853406234748,-0.0858632981951,0.288788404728,1.22798308845,0.979902661048,0.138948723731,-1.57523423322,-1.70577283648,0.290778812928,-3.11295464401,-61.7804413925
do_nothing,-4.05484486759,-5.36737521226,-4.50513423661,-0.926606382782,-1.61347182853,2.08439474504,-1.98309479124,-2.39504071699,-0.094684734424,-4.28068289308,-2.4210138624,-3.6617880485,-4.96797500381,-101.412538324
do_nothing,-4.54538260676,-5.75698124894,-4.73536437225,-0.747363401451,-2.77320436533,3.11178920259,-4.78431208122,-5.30563842641,-0.314315434078,-6.04467561166,-2.54287161044,-6.71483518775,-5.62184578263,-112.279259263
do_nothing,-3.84982731487,-4.72279324571,-3.81823227483,-0.411985834246,-3.19152127194,3.1283629994,-6.22465652097,-6.73953305752,-0.496556613882,-6.18002240221,-1.94785224546,-7.88451407845,-4.80485298773,-93.5814828098
do_nothing,-2.03091741978,-2.36057456446,-1.81941626104,-0.0538341212687,-2.70666377232,2.20863833666,-5.76679335851,-6.11176765631,-0.619233317179,-4.46387007339,-0.733278154946,-6.74366757667,-2.671446309,-52.8327296173
do_nothing,0.490395936873,0.813848735932,0.857908474025,0.203957214299,-1.43194999544,0.702502258256,-3.48479349621,-3.49105224859,-0.662700929202,-1.25857428443,0.790702114108,-3.57615113513,0.221229388352,-3.1103755203
do_nothing,3.03489114741,3.97931076942,3.55124954599,0.28969184913,0.26899232125,-0.887427515414,-0.0568275751929,0.387298016497,-0.613400372586,2.5602624718,2.18489366973,0.696371588337,3.06811556457,41.2020158992
do_nothing,4.86181120973,6.24168164392,5.51606822908,0.204495516375,1.89020393202,-2.06855504371,3.44845687641,4.33565664641,-0.468843991497,5.85631563149,3.01677625109,4.79530914338,5.05882763557,68.7694823755
do_nothing,5.40176609154,6.91267351212,6.15090847976,0.0171017956407,2.9412816199,-2.50968494164,5.92109039494,7.09080644182,-0.242079435801,7.58887449483,3.0039641716,7.48441464938,5.63011035397,74.3835873181
do_nothing,4.44830091745,5.74166266901,5.19729364783,-0.165475267351,3.10404321158,-2.13474465422,6.5760417627,7.72984709647,0.0366893870771,7.15616770601,2.11577065589,7.95811112748,4.64400806089,59.8763652458
do_nothing,2.24054216909,3.01766789721,2.8443900474,-0.240553367057,2.33604600698,-1.13182760099,5.21186480553,5.98500448696,0.323005733461,4.60845008956,0.595423817864,6.09264304362,2.43074050112,32.7403500581
do_nothing,-0.596232984628,-0.500300744396,-0.303196887745,-0.150296945341,0.885897133256,0.122268904882,2.27423659623,2.34830679669,0.565806037343,0.654307978722,-1.10837634959,2.47914597139,-0.319622375565,3.08697675151
do_nothing,-3.23761569322,-3.80833616913,-3.39144146451,0.0944275218174,-0.785687251619,1.19518022576,-1.2956765686,-2.07336997623,0.718273310717,-3.54784349322,-2.4806529969,-1.77014892674,-2.78106858708,-19.9153457651
do_nothing,-4.91586757064,-5.96747032509,-5.5679622623,0.415502013591,-2.15371962955,1.74511594502,-4.37435810782,-5.90817987293,0.748996859486,-6.74823693017,-3.10493286689,-5.37692788129,-4.25577798181,-30.8886353033
do_nothing,-5.16060802347,-6.39627158643,-6.23884392716,0.694002418341,-2.79724138315,1.63187411876,-6.02275753276,-7.95956417448,0.650114743925,-7.99762227673,-2.79836088071,-7.29574552127,-4.38946364522,-29.4779038009
do_nothing,-3.94406126128,-5.04807432525,-5.24787722847,0.812461921183,-2.53279582308,0.956609735831,-5.78295487849,-7.59113253454,0.439848050464,-6.94365548569,-1.67098029211,-7.02785545061,-3.26641428169,-19.6945257109
do_nothing,-1.68215029897,-2.41313108263,-2.91938368203,0.698112811321,-1.46951630859,0.017963197269,-3.80780686228,-4.92874589801,0.158501627792,-3.93468072289,-0.0884481867717,-4.75215322539,-1.35531084842,-7.780052726
do_nothing,0.908326144909,0.654135261728,0.0492025525246,0.351806507776,0.0314179750048,-0.799957283186,-0.786215141174,-0.813971299192,-0.14097325398,0.101329412553,1.44949382431,-1.23830357305,0.670674326395,0.502216225147
do_nothing,3.04702216157,3.22234654156,2.80878859308,-0.147776026671,1.47830910617,-1.1692197967,2.3029045483,3.4733505161,-0.405099182723,3.95944645194,2.47343187094,2.42051240338,2.17254691212,2.09767514624
do_nothing,4.14048415841,4.58532085663,4.62026776273,-0.666449852506,2.41016862727,-0.940313693571,4.51834965307,6.6289137802,-0.591205874266,6.53901279823,2.69551481681,5.16060197064,2.75713989217,-2.39080501024
do_nothing,3.96093497599,4.47578639176,5.07039828776,-1.05601691177,2.54395403728,-0.201751750755,5.25300500857,7.73583079717,-0.67496763172,7.17669437058,2.09639152722,6.26863408997,2.38833158158,-9.3103716298
do_nothing,2.69507483817,3.12012307821,4.17346090191,-1.20095314387,1.85992253096,0.745630659643,4.40228722142,6.53994359339,-0.652568145349,5.82470289743,0.919592449747,5.56967630593,1.36316890634,-13.7907573295
do_nothing,0.85127250952,1.12123557985,2.33091401225,-1.05462699439,0.598934975421,1.4934095193,2.35697683635,3.5028839357,-0.537761823193,3.02342145405,-0.422277580708,3.43165026544,0.16880710883,-12.014815718
do_nothing,-0.936407567705,-0.78185296666,0.170461623177,-0.653144401909,-0.824503432553,1.67527852201,-0.164569827988,-0.376261640193,-0.355671523314,-0.311020592277,-1.49446453644,0.599545991927,-0.720279753644,-2.998431419
do_nothing,-2.13355273422,-1.98614405322,-1.67386744232,-0.102742609264,-1.96184755551,1.11049702199,-2.37607347136,-3.90258383328,-0.135902408227,-3.20231764878,-1.98723146038,-2.07178640238,-1.0250006838,10.8322704983
do_nothing,-2.478397856,-2.22816249721,-2.76192023431,0.454271553858,-2.47481902609,-0.110407814112,-3.67968329721,-6.07066619596,0.0927507856073,-4.92056405866,-1.81175558857,-3.88923177148,-0.754656117798,24.4943179611
do_nothing,-2.04279058174,-1.64670311637,-2.96066094297,0.882952217032,-2.23685453482,-1.63168205492,-3.83255891202,-6.36496055217,0.304866051552,-5.17804465892,-1.11307057253,-4.5075517956,-0.177273691864,32.3960361346
do_nothing,-1.16498506064,-0.687355977058,-2.43829467875,1.09378411024,-1.3605376082,-2.93405641907,-2.97577746768,-4.88161479384,0.478539869168,-4.15798439293,-0.199215459424,-3.97804323836,0.316833180244,30.615105486
do_nothing,-0.286716518342,0.10821567311,-1.55230696579,1.06328412635,-0.146100299255,-3.50309889956,-1.53036565372,-2.24336548808,0.594561207089,-2.38283154919,0.583788732195,-2.66065042742,0.400112802081,18.6082769087
do_nothing,0.237608579304,0.341773639074,-0.68279660958,0.831808198925,1.02720308202,-3.010469914,-0.0121315745954,0.649304812327,0.63639328867,-0.485240098901,0.982618472114,-1.04854671195,-0.036039858361,-0.334970583979
do_nothing,0.282867933349,-0.0697980655851,-0.0798937591755,0.481575810433,1.82706401542,-1.44671649654,1.15868211553,2.93471896812,0.592152330984,1.0251102362,0.923947759801,0.419755033976,-0.820109754876,-20.1086362665
do_nothing,-0.00958108456335,-0.859969178295,0.215449911754,0.104711701426,2.06821628155,0.842882279102,1.78253173642,4.06168254537,0.4585270309,1.91215311143,0.527130807773,1.48976170389,-1.56262594204,-33.9312505698
do_nothing,-0.312836859392,-1.53025673775,0.350161657863,-0.226116139674,1.75509491151,3.23794888938,1.90160406866,3.92739202778,0.245239799635,2.23353608247,0.0402555740402,2.12140909138,-1.82009774014,-36.8324855617
do_nothing,-0.279030212579,-1.57433586677,0.552052339451,-0.474002042693,1.05742305005,5.01899085155,1.7216817693,2.84615283187,-0.0221726462545,2.23701716075,-0.272915298691,2.42380373463,-1.2965605052,-27.5592049051
do_nothing,0.281561355507,-0.718772943591,0.987198427052,-0.636617920122,0.233090022963,5.58762578349,1.4784545234,1.37615118479,-0.303365956779,2.18919625974,-0.248958315801,2.53663588544,-0.000200867857772,-9.17191164025
do_nothing,1.28361274803,0.919226334175,1.64650131686,-0.730563955975,-0.469856770676,4.66191318799,1.31079730508,0.0804307532451,-0.54899111831,2.21721755167,0.103107266918,2.51980322988,1.71366104774,11.9268265684
do_nothing,2.36594220016,2.82765933826,2.31453515822,-0.770179948238,-0.895269484854,2.38286337905,1.19633675342,-0.683575592939,-0.710589239225,2.2350663363,0.603019120811,2.30525368001,3.24026494296,28.2173158572
do_nothing,3.01544010496,4.26201080914,2.64006887576,-0.751733089138,-1.01678721783,-0.705385556055,0.975330501969,-0.869170289527,-0.752186383421,1.9877382996,0.974183643579,1.73469106676,3.93642370927,33.7599931817
do_nothing,2.77378950227,4.52159423157,2.28493561929,-0.65119432484,-0.921782684281,-3.79977644156,0.449943650234,-0.708487731184,-0.660208036061,1.19462700277,0.963297906761,0.666528877196,3.37096872045,26.3953344257
do_nothing,1.44863806654,3.23955908502,1.09302855843,-0.437514798528,-0.752642179135,-6.06523982142,-0.486754749934,-0.566531298763,-0.448480851953,-0.271015906665,0.45717357884,-0.897895526031,1.52029929375,8.6369340581
do_nothing,-0.756587535044,0.574340839492,-0.791725522573,-0.0959843573855,-0.632366258647,-6.87567773425,-1.75133036823,-0.747494578857,-0.156398376781,-2.24862742283,-0.451063741909,-2.73133077144,-1.1707027306,-13.0972283064
do_nothing,-3.254417075,-2.77939971947,-2.91452889439,0.349058732636,-0.606172044723,-5.99528685075,-3.04846521798,-1.33591311291,0.159615049634,-4.27019757663,-1.47592092416,-4.38926619117,-3.89652271324,-30.6818452742
do_nothing,-5.23640362088,-5.77957517201,-4.62377902303,0.823871402409,-0.623035487778,-3.64501019696,-3.94489276198,-2.1389665836,0.439106477748,-5.67735218629,-2.23287279541,-5.32293649608,-5.74093650546,-37.1624116586
do_nothing,-5.94009597279,-7.37129793266,-5.279939647,1.21498855168,-0.564211085323,-0.435043613877,-4.01749382871,-2.75461557042,0.631419163132,-5.84394897141,-2.37938972881,-5.06571076206,-5.98831340515,-29.3108788685
do_nothing,-4.92973037158,-6.85649008513,-4.48968027969,1.39895419613,-0.306364632575,2.81381099488,-3.02270158458,-2.7395793455,0.706479403243,-4.42630361976,-1.75211753717,-3.42754315656,-4.38863465337,-8.94872029806
do_nothing,-2.28879814296,-4.16840665689,-2.28017292008,1.28364891038,0.207448889316,5.30326641564,-1.02239590624,-1.81086158058,0.659728703964,-1.54496406832,-0.447713432851,-0.621315710684,-1.27950406291,17.4598524314
do_nothing,1.35216604037,0.0521192478495,0.856223571437,0.846862883767,0.919602452729,6.47344890731,1.58601312048,0.000186821138753,0.510308336875,2.17995580358,1.1863906055,2.73686421405,2.48540430038,40.8511855169
do_nothing,4.97481380592,4.61699718342,4.07460684639,0.156962059989,1.65497046567,6.1381579881,4.1549326776,2.30597952119,0.293717914985,5.76879298955,2.65305737972,5.76944089201,5.78617402823,52.5834017396
do_nothing,7.47637735545,8.14510602804,6.42067182633,-0.634511339823,2.16852397716,4.50421144246,5.96599337419,4.45655514354,0.0517361448372,8.16374649903,3.46648888818,7.58631156114,7.58695200159,47.4309189947
do_nothing,8.0216163576,9.4990139202,7.12975653843,-1.32916496833,2.22894170958,2.07764287457,6.44774673941,5.74211820614,-0.177104959001,8.56395205125,3.3184704093,7.56439735285,7.27200369467,25.5390516108
do_nothing,6.32650378926,8.16070864738,5.883640233,-1.73748331503,1.70883636238,-0.505466217076,5.36055306657,5.6357740036,-0.363868497065,6.70195137912,2.1914152464,5.56507203839,4.85490598704,-7.34255027068
do_nothing,2.77562030068,4.41942759563,2.93678649011,-1.73675026228,0.647879734313,-2.66514983729,2.88680503577,3.99100017727,-0.491269471692,2.96389982087,0.377113064375,2.01238339495,0.989198225068,-41.4678203361
do_nothing,-1.67159184148,-0.695055628641,-0.93550538926,-1.31196740513,-0.736784319709,-4.02220161542,-0.404840979001,1.12209914869,-0.552052328911,-1.69449322958,-1.60766485894,-2.20161893342,-3.22536078442,-66.0605009441
do_nothing,-5.76080233362,-5.71660476856,-4.65634863575,-0.565273116415,-2.10063219456,-4.46186055856,-3.71150546801,-2.26465821901,-0.545571551215,-6.01642652018,-3.18179025635,-5.96158491766,-6.57875637282,-72.708763412
do_nothing,-8.32160490256,-9.18857717835,-7.16734270971,0.310623328721,-3.06891029505,-4.10766800356,-6.21732220535,-5.27036442083,-0.474809196535,-8.81448052215,-3.88319467583,-8.25038958619,-8.119914867,-58.1122459807
do_nothing,-8.62412082196,-10.1087098434,-7.74856537896,1.08753406021,-3.35032707546,-3.22744476609,-7.31569467111,-7.06977296053,-0.345419764027,-9.32540497305,-3.51377218882,-8.44758023617,-7.44040034754,-25.304329734
do_nothing,-6.59912712704,-8.23109194918,-6.23664685806,1.56824142572,-2.83003767469,-2.1137575238,-6.76612022618,-7.15839209321,-0.167080740626,-7.43581323363,-2.19794510721,-6.51111064017,-4.78399729057,17.0518107533
do_nothing,-2.85230616986,-4.13093736695,-3.07192919804,1.64312176591,-1.61077233519,-0.984924504936,-4.74219638255,-5.5011193202,0.0439633514673,-3.70776397391,-0.336950097248,-2.9859030085,-0.952502488614,57.0969971283
do_nothing,1.52927995712,0.984152396419,0.838875420312,1.31894522866,0.0121538931306,0.0604634784054,-1.76317333215,-2.5367067921,0.263132984279,0.801053326269,1.52355843585,1.16177774752,2.95494019651,83.2126690874
do_nothing,5.31326625852,5.65106914488,4.39890794353,0.711179933946,1.63440031807,1.02639858233,1.46264257101,0.959616508905,0.45842976645,4.86138385813,2.86636153065,4.83015284909,5.87948477022,87.4327101794
do_nothing,7.49117930724,8.59274339328,6.6474162655,0.00335729950582,2.85800651332,1.95578151548,4.23000949591,4.10732607563,0.594960074445,7.43494427104,3.3578824885,7.09763820488,7.10748857712,67.8185079335
do_nothing,7.56424643692,9.08485374151,7.03388203903,-0.612097484116,3.40196739934,2.8534996887,6.00617727625,6.16959925058,0.642462542346,7.96126690998,2.9361501456,7.47190242224,6.44998738827,29.1035648474
do_nothing,5.66060073532,7.13799958549,5.55797525154,-0.991480047176,3.17383254601,3.63286568833,6.53280333466,6.74268025631,0.583782303692,6.48414061133,1.8070768694,6.00065644713,4.25062073283,-18.5697930848
do_nothing,2.4564473777,3.44943673993,2.73898047741,-1.07716527863,2.28206128222,4.11105277102,5.8417465889,5.83239437291,0.42146215812,3.58878850048,0.356880604864,3.21911847775,1.23447283835,-62.4442534266
do_nothing,-1.06235048753,-0.846418820408,-0.566493956764,-0.903832845349,0.989006117018,4.05872405034,4.19512605219,3.80487472349,0.179885540695,0.183160184064,-0.983829394528,-0.0389668800466,-1.73978668315,-90.6645126701
do_nothing,-3.91337467709,-4.53841982133,-3.43359562381,-0.57400347076,-0.376336154686,3.28716059506,1.98175364809,1.24019030914,-0.0983308937214,-2.79592431381,-1.87520933234,-2.89978942849,-3.93717402439,-95.5236669018
do_nothing,-5.40282428648,-6.69182519581,-5.137637108,-0.213997435496,-1.51489192199,1.74095102423,-0.390091069563,-1.25383402743,-0.361163039837,-4.65359468501,-2.1580136913,-4.69447121409,-4.93236287167,-75.5450547811
do_nothing,-5.29708067917,-6.88797391017,-5.34123827636,0.0723844489229,-2.23195693923,-0.439042645479,-2.57066174581,-3.20370149246,-0.558942061749,-5.10286242808,-1.87337989699,-5.11921338645,-4.67660708235,-35.8506588855
do_nothing,-3.83852426007,-5.28926283306,-4.15148530208,0.235550254879,-2.46843079205,-2.90848421517,-4.3023081027,-4.36035567093,-0.655745789181,-4.28587817329,-1.21477446039,-4.27228896568,-3.44317544293,13.2496666061
do_nothing,-1.61699346638,-2.52844270319,-2.04288841472,0.286872754272,-2.28472418172,-5.17610104307,-5.41385281819,-4.70065487556,-0.637184148329,-2.66211090828,-0.437988754594,-2.57149218071,-1.68928764599,59.0313218379
do_nothing,0.646977306045,0.524429508218,0.316564930793,0.280349856233,-1.81034806614,-6.71158058334,-5.79617747165,-4.35746191432,-0.51249439094,-0.817303993071,0.23299738868,-0.591867189745,0.105774432262,89.7217610015
do_nothing,2.32928087858,3.03288186838,2.27364221604,0.278751807173,-1.18319332471,-7.07657715786,-5.38378766656,-3.51954381867,-0.310674467895,0.733573825933,0.669811228892,1.11716889941,1.56937460188,97.5583139591
do_nothing,3.06819491295,4.41788892153,3.36711842285,0.319477912093,-0.50361534305,-6.04383379032,-4.15980517272,-2.34819662859,-0.0722106046828,1.6841926362,0.854760404408,2.17816771159,2.49698907681,80.7429016696
do_nothing,2.82683911496,4.47652465341,3.42697553047,0.39480911398,0.180277901642,-3.67298286268,-2.18649807665,-0.944069964072,0.160837576637,1.9800677705,0.850343069713,2.45820669651,2.84419648574,43.8108992409
do_nothing,1.84917155786,3.3784253338,2.57883788664,0.45485856889,0.854471641846,-0.323276363617,0.353182199932,0.628516399699,0.353432875694,1.77001439563,0.744365071186,2.05917248503,2.67399078501,-3.64353032799
do_nothing,0.541234425078,1.5628375177,1.16777233209,0.431877058684,1.50109087654,3.40093574486,3.12841266171,2.28029448858,0.482691352511,1.30084149593,0.599287399055,1.2440026985,2.09613542558,-49.5176653799
do_nothing,-0.672124716006,-0.415817782291,-0.363315959729,0.275501971837,2.06251055656,6.7612154862,5.67315306527,3.83736931713,0.538863740904,0.804920605477,0.4289740298,0.33315103233,1.22902336608,-82.3396842821
do_nothing,-1.46661360913,-2.04129452753,-1.59936308277,-0.0163452468618,2.42870156472,9.03067963597,7.45275964745,5.02255850831,0.523002734272,0.424026685121,0.210755398378,-0.392676377081,0.195043238174,-94.1767206787
do_nothing,-1.68366160962,-2.94854371818,-2.24957117897,-0.384926783535,2.45899967989,9.64647695743,7.97931404052,5.50032640238,0.443154454673,0.19067340309,-0.0772287323946,-0.757798100249,-0.861846365534,-82.5693610968
do_nothing,-1.33610641858,-2.97965814962,-2.19753185566,-0.723507382522,2.03409672091,8.34019916381,6.94976229528,4.97985600202,0.311056875405,0.060771357122,-0.416038372867,-0.71538653521,-1.76173889409,-51.0170664137
do_nothing,-0.570143642891,-2.18701293511,-1.50487359803,-0.912412392562,1.11939627188,5.22011192873,4.36655367943,3.34267613188,0.140628928079,-0.029384334232,-0.727562088246,-0.335313878366,-2.30212749931,-7.92288807153
do_nothing,0.391180785231,-0.799639191641,-0.379516531935,-0.863962655407,-0.187002295937,0.785135520531,0.598168512872,0.74453340318,-0.0516556914232,-0.115010556773,-0.891916929005,0.230171805051,-2.30805486097,35.6926041251
do_nothing,1.30112396222,0.830650240617,0.877127475054,-0.560185168077,-1.64590861507,-4.14014123855,-3.65115855037,-2.35662072638,-0.245557299972,-0.187211616087,-0.797273220668,0.78876268859,-1.70550834929,69.082943049
do_nothing,1.92923575499,2.29384511764,1.93262138614,-0.0679623764059,-2.91981384891,-8.54717897673,-7.46954821803,-5.27299564252,-0.416658328819,-0.213630517413,-0.401615170192,1.14941249558,-0.585818617064,84.5007482237
do_nothing,2.09106475345,3.19488303609,2.48897893799,0.475923517151,-3.65986609847,-11.4436752697,-9.94149503429,-7.25181382753,-0.53816129106,-0.178997602599,0.222973354274,1.159859452,0.776011137718,79.0441409741
do_nothing,1.67657316221,3.23468995538,2.34661046014,0.906370179743,-3.61233938519,-12.0771714531,-10.3802394546,-7.68970993855,-0.585346723244,-0.118202473464,0.888975667067,0.740539683104,1.97296714448,55.1640756014
do_nothing,0.682615570636,2.29190817839,1.45979448672,1.08451882339,-2.70971883633,-10.1338275941,-8.5268404982,-6.33079907068,-0.541839940908,-0.117850202506,1.34446024051,-0.0867843876125,2.58432132581,19.7461572964
do_nothing,-0.756137013647,0.486910791989,-0.0285373175811,0.946231293681,-1.11325828628,-5.85992710289,-4.6570356185,-3.38091894632,-0.405740751514,-0.278458423073,1.36362794729,-1.18243232814,2.32646969581,-17.9266802946
do_nothing,-2.35492461246,-1.7987717211,-1.7886314758,0.526871070083,0.812326037214,-0.0629986740383,0.442799075634,0.507692770536,-0.193263955368,-0.651056616423,0.844764307503,-2.29523661902,1.18135248279,-48.7239956083
do_nothing,-3.70644716739,-3.97255219822,-3.35563980691,-0.0472432755121,2.58969589906,6.02650144399,5.63603651875,4.38797845199,0.0619578223927,-1.17874778983,-0.124402633062,-3.10207843516,-0.553078353356,-66.0022066531
do_nothing,-4.3611129816,-5.35922066079,-4.2331027351,-0.598657161767,3.76065796145,11.0169496829,9.70034411961,7.26864954644,0.314475456053,-1.67726540951,-1.26597787218,-3.28245577875,-2.32330541476,-67.0881072831
do_nothing,-3.95309086105,-5.38906694799,-4.03179211954,-0.95664533093,4.0191466463,13.6873975585,11.6326791625,8.39233243234,0.516475853849,-1.8757212395,-2.18580862706,-2.61620470452,-3.48539646242,-53.5534213373
do_nothing,-2.34110559765,-3.79772736493,-2.60868608807,-1.01332409857,3.30335078712,13.3080747768,10.9151462308,7.45726270559,0.628661094764,-1.51374694649,-2.50351702396,-1.07818953582,-3.52690766147,-30.2980138351
do_nothing,0.284850562856,-0.771362909875,-0.159901880888,-0.758665985432,1.81659849999,9.86022655166,7.66757826783,4.712660579,0.629514431067,-0.464005360541,-1.99595239493,1.10422732508,-2.26967737134,-3.81562209257
do_nothing,3.3811013431,3.02594079991,2.7745410049,-0.282425952807,-0.0311820583971,4.0841704328,2.63942773498,0.895048297509,0.520294960507,1.16859836068,-0.701377699485,3.46133917539,0.0240440090509,19.7597176116
do_nothing,6.14286344452,6.57696485534,5.41497147108,0.257404309526,-1.7441414669,-2.67317384136,-2.96465410292,-2.97855348801,0.324362322203,3.01890218197,1.0589973764,5.37227185433,2.69199475485,36.2058942265
do_nothing,7.70589628631,8.77486300891,6.94219426925,0.688325509767,-2.88584055893,-8.78394365863,-7.78532467959,-5.89990613985,0.0811379974923,4.53143162538,2.75896661127,6.22433369791,4.8595935655,43.9252956727
do_nothing,7.40926007674,8.75995733483,6.74429555555,0.88040794892,-3.20368180949,-12.757478887,-10.6579621524,-7.15444281616,-0.16342372562,5.1198534482,3.82651689752,5.60074144641,5.72192278168,43.7001919744
do_nothing,5.03955128815,6.22759394604,4.63612121881,0.787116560068,-2.69377801412,-13.6370386166,-10.9169380233,-6.51585914819,-0.367075706933,4.37079234196,3.83493297331,3.43955539455,4.82830499358,37.7181917153
do_nothing,0.969708547858,1.59934114351,0.974996896543,0.456465527469,-1.58720002071,-11.2606073418,-8.56995381335,-4.29257885737,-0.499474776933,2.22303756352,2.66115903958,0.106971385251,2.26951072836,28.3407403299
do_nothing,-3.8709999605,-4.0179308471,-3.37953833012,0.00985619686739,-0.264295099376,-6.30612689864,-4.29165854192,-1.21459524128,-0.546471429635,-0.947194288566,0.553736575988,-3.65140802417,-1.30517896516,17.1461128804
do_nothing,-8.20948424476,-9.09749025681,-7.2685223312,-0.402663536204,0.872994012989,-0.102888954831,0.764253864877,1.80108439091,-0.510016823246,-4.37870665696,-1.91936776174,-6.88182242313,-4.85893498941,4.62937607652
do_nothing,-10.7766228801,-12.1203824631,-9.5519262709,-0.654094434587,1.52793152133,5.73942379417,5.2833845336,3.93100732369,-0.40458132318,-7.1149162223,-4.03272165257,-8.67629104367,-7.27987978655,-9.35761872268
do_nothing,-10.6918307467,-12.0419523198,-9.45234305952,-0.680857365591,1.5936151794,9.77650243237,8.14990448177,4.68374527507,-0.251859894853,-8.28163521253,-5.1265407149,-8.43828816917,-7.73729586,-24.6774326278
do_nothing,-7.76348321122,-8.64950782273,-6.81686579524,-0.498519237107,1.16949908619,11.1186539954,8.74431102697,4.02371996737,-0.0756789563564,-7.36883844657,-4.81931278975,-6.07889971563,-5.96413649359,-39.9770730316
do_nothing,-2.6012698562,-2.68721979516,-2.20768732379,-0.189065099118,0.507612464622,9.64928481849,7.09446573378,2.34632136134,0.101539993372,-4.42362003885,-3.13916622383,-2.07790399954,-2.36868327874,-52.2830011265
do_nothing,3.50978215472,4.30807864197,3.21911310736,0.133683271528,-0.0898549881276,6.01164019358,3.83778341006,0.318841004507,0.260360923896,-0.0843264310194,-0.528345390459,2.61757130117,2.06753106512,-57.4604283128
do_nothing,8.94946750814,10.4254886153,8.02142872894,0.366459583628,-0.384065412338,1.37534730674,0.00876415573638,-1.35555318594,0.384486767543,4.56616377435,2.28361445421,6.83489529072,6.07806689,-51.5240803414
do_nothing,12.2216768657,13.9335585908,10.8792322316,0.450850721536,-0.284025260179,-2.93748274773,-3.28147949101,-2.1706097431,0.460539490834,8.29213663952,4.4990147811,9.49181836741,8.49624369574,-32.3998070214
do_nothing,12.3946348863,13.7999156148,10.9806435418,0.387736283649,0.126733506055,-5.84534182785,-5.17484103296,-1.97030085309,0.478463510452,10.0573064154,5.4936846961,9.89492900065,8.61314092999,-1.4668670049
do_nothing,9.38457500085,10.0126757445,8.26628180913,0.228398682188,0.62902266911,-6.79704115155,-5.30454844815,-0.975386434637,0.432986936381,9.33073787614,5.00397103903,7.9324762656,6.39389577982,35.8200100178
do_nothing,3.99110883137,3.59808679729,3.453865987,0.0479223090583,0.956852302513,-5.87422558903,-3.87163958991,0.320113075642,0.325793205704,6.25124018164,3.20000505948,4.10436155687,2.48363264274,70.6832398049
do_nothing,-2.33048016504,-3.67608342002,-2.16703974801,-0.0871347976157,0.903281241284,-3.68783655451,-1.54105920551,1.34202455334,0.16742150856,1.59772802482,0.623903115528,-0.618852694011,-1.99665844528,93.1455393749
do_nothing,-7.89161774572,-9.82154604866,-7.10800416395,-0.143504044907,0.404693931429,-1.11830483036,0.80355385411,1.64910377968,-0.022278543867,-3.42700536095,-1.9842696582,-5.06470236791,-5.79588038898,95.0007623753
do_nothing,-11.25730794,-13.2128210745,-10.1076169563,-0.129130622891,-0.427040496372,1.00196126471,2.36280366331,1.09166386258,-0.215964365756,-7.53396171326,-3.91427561633,-8.17486301924,-7.9075391401,72.7195744273
do_nothing,-11.6475945673,-13.0512261371,-10.4798796572,-0.082502048099,-1.33642710151,2.1524154625,2.68170347762,-0.138056658645,-0.382957170873,-9.70518854925,-4.6933651985,-9.2764193574,-7.85469376458,29.2740841879
do_nothing,-9.13266872515,-9.56759523321,-8.28129784819,-0.0494788736797,-2.00948595189,2.24947402753,1.78279722955,-1.5790152969,-0.49493711051,-9.4645934189,-4.20950266682,-8.23342089499,-5.79969779744,-25.8839466321
do_nothing,-4.5684080172,-3.9075542382,-4.25253376865,-0.0587160932535,-2.18272310711,1.602484616,0.131851909713,-2.67015281134,-0.531745455164,-6.98545254855,-2.71621530883,-5.44311090145,-2.45343101171,-78.9089942272
do_nothing,0.697287518611,2.2540134081,0.437055114172,-0.106921577543,-1.73812365189,0.732632916747,-1.547446257,-2.95431013867,-0.485720127698,-3.00995512226,-0.725297062225,-1.68929409635,1.1754463888,-115.252450579
do_nothing,5.24561229404,7.23739857924,4.55271893478,-0.160560041565,-0.751125589691,0.134314260117,-2.54274225355,-2.24543494943,-0.363391435627,1.38606366643,1.17041639146,2.09358052496,4.10154232542,-123.919232352
do_nothing,7.99792159382,9.84995475151,7.14672732694,-0.173182330506,0.525378152138,0.0742730079429,-2.41179705156,-0.700906222263,-0.184151346391,5.10529455035,2.48213907846,5.0705071604,5.64769937793,-100.977866529
do_nothing,8.48994716328,9.69238583767,7.79195664533,-0.110486247363,1.73621563496,0.503331395176,-1.1414345163,1.22563082263,0.0236171602458,7.32203609483,2.95817480346,6.69852014684,5.60711330919,-51.1591515545
do_nothing,6.9342278896,7.19477409467,6.63452309048,0.0284999807015,2.53359335076,1.10777344124,0.847202599915,2.93393638059,0.2278210242,7.67301293414,2.6270874322,6.81540142901,4.24298597481,13.0767440185
do_nothing,4.06965142573,3.3912214537,4.26702463895,0.204445834135,2.68521019319,1.47136249428,2.84730726658,3.87723274698,0.398012808483,6.30042007299,1.74640421421,5.61500662584,2.14294824922,74.8449037672
do_nothing,0.866740549259,-0.472190260122,1.48286635773,0.349451306813,2.14571789441,1.27618817138,4.11599897612,3.7438815822,0.509737462348,3.75038881099,0.684406595534,3.53507734967,-0.00809702622865,117.587257366
do_nothing,-1.80064064923,-3.35240056086,-0.993794252744,0.393906470757,1.06900645269,0.457183927384,4.1374420955,2.55922897307,0.547333108562,0.773354223792,-0.217427242513,1.10575753647,-1.65232919533,129.852367841
do_nothing,-3.40509455001,-4.70668088664,-2.70917333169,0.297931285599,-0.24144939657,-0.754201578403,2.80814142421,0.674494603484,0.505224447443,-1.902780031,-0.751988852821,-1.18952383539,-2.50635008514,108.635003726
do_nothing,-3.86232116247,-4.58316988493,-3.5526868967,0.073972671201,-1.42681622511,-1.91565921502,0.480702862632,-1.35126428225,0.388103743984,-3.7563651711,-0.890467305316,-3.00333849533,-2.59231415528,60.2309777425
do_nothing,-3.46053822106,-3.49503771153,-3.69454859848,-0.210231702067,-2.18054097947,-2.55440653692,-2.14831782372,-2.93388295629,0.210409917057,-4.56517889922,-0.755203657047,-4.15074866804,-2.15902627659,-1.66902758225
do_nothing,-2.66957620957,-2.14641211198,-3.43191137206,-0.451757759489,-2.33514126943,-2.36858941028,-4.26715293023,-3.64852027972,-0.00475391803316,-4.39686093531,-0.540528261956,-4.58462765191,-1.53776757762,-60.0573708471
do_nothing,-1.91575908258,-1.12634368234,-3.0176256119,-0.549775350146,-1.90208190988,-1.36629685957,-5.2154061175,-3.35430439991,-0.227478582498,-3.51894158373,-0.41777911505,-4.34703876745,-0.99598287795,-99.5899948323
do_nothing,-1.4132220239,-0.68967756697,-2.54534726757,-0.446502495122,-1.05497183421,0.117464478089,-4.69804095148,-2.22035600609,-0.424085421791,-2.27302871886,-0.462953642283,-3.52584189795,-0.645108699839,-110.929931192
do_nothing,-1.11253469843,-0.702027911769,-1.93546221631,-0.15562611298,-0.0649528521351,1.53740858144,-2.87591722873,-0.649614742244,-0.56159040642,-0.961594870007,-0.633134487152,-2.23509831306,-0.431425397464,-93.1406089972
do_nothing,-0.776441574698,-0.757638475184,-1.02074722999,0.234422721482,0.788143548225,2.34610100995,-0.305471670865,0.86798648536,-0.613338879933,0.217686337362,-0.796646304595,-0.620686687143,-0.202904900886,-53.4612840379
do_nothing,-0.140624519515,-0.410537195778,0.31263937306,0.586080975037,1.29916014027,2.21330389098,2.24812915327,1.91883264541,-0.56487404369,1.17892859786,-0.800462228567,1.12306538672,0.185008770279,-4.64388239027
do_nothing,0.915439764899,0.583100114853,1.99718951957,0.759906116446,1.3897421561,1.16899768706,4.05815668044,2.28867737556,-0.418550494905,1.90939814626,-0.544827266282,2.74714190026,0.774718321877,39.2033772471
do_nothing,2.26424376843,2.11475070963,3.73273211326,0.667262776359,1.11557327172,-0.390273548402,4.65978992315,2.00629419102,-0.195282113782,2.41382775727,-0.034041480961,3.96932265646,1.46490679941,66.8859894583
