label,COUNTER,INTERPOLATED,AF3,F7,F3,FC5,T7,P7,O1,O2,P8,T8,FC6,F4,F8,AF4,RAW_CQ,GYROX,GYROY,MARKER,SYNC,TIME_STAMP_s,TIME_STAMP_ms,CQ_AF3,CQ_F7,CQ_F3,CQ_FC5,CQ_T7,CQ_P7,CQ_O1,CQ_O2,CQ_P8,CQ_T8,CQ_FC6,CQ_F4,CQ_F8,CQ_AF4,CQ_CMS,CQ_DRL
off_to_on,0.0593177048712,-0.931092406427,-0.413994542722,0.0100849059805,2.92624871867,9.69966634981,3.02363876729,-0.688288370506,0.495903603877,1.10045589114,2.60416138157,-0.257186119386,0.671087154004,-172.856058509
off_to_on,-1.80702190873,-1.62400483281,-0.648957132739,-0.636739202353,-0.694456188847,-5.57919062958,-3.64607670081,1.78715111478,-0.421821111622,-0.028791507247,0.800684576108,1.68720966555,-0.411212804499,-54.5783649412
off_to_on,-0.220202010108,1.01049856091,0.89750930909,1.17068323313,-2.14054428493,-6.42234143104,-2.19294081598,0.594211037019,0.500483815774,-1.36493899875,-2.16730847321,-0.321403494244,-0.948867334129,123.539158151
off_to_on,1.80991060479,1.53118787114,0.415127556896,-0.160327072282,0.307265277373,4.90610878434,2.64558083388,-2.82793938736,-0.515161546037,-0.278223734313,-1.38511997097,-1.63389978075,0.678859591502,125.235477365
off_to_on,1.41215991913,-0.258966560696,-0.102429157546,-0.482254845818,2.8452852612,4.67212693306,2.35556268619,0.951089861258,0.396455580683,2.30529162916,3.19060521953,1.65883706801,1.81672210939,-190.47094577
off_to_on,-3.72882148129,-3.13505127137,-2.01851368017,-0.649765315436,-1.699272853,-4.67993567482,-3.20905181283,1.58830314644,-0.353669175709,-0.933574635034,0.198871649486,-0.545976569923,-2.62950796503,-72.0575891357
off_to_on,0.0571899691608,2.28163914166,1.67832370606,1.37279706177,-1.45205675037,-1.64856353195,0.112444728385,0.127356958439,0.417776100823,-0.800179832079,-2.16436687429,0.0366408492055,0.162272035336,126.76984131
off_to_on,2.92591922228,1.49860103359,1.19966431312,-0.190150931344,1.05573787417,1.42720093474,0.538225473268,-2.80848547852,-0.391869856925,-0.785217516677,-1.06883795646,-0.259872969783,1.41981770236,150.783520472
off_to_on,0.671320382099,-1.61390299096,-1.31243935659,-0.630336545477,1.71418928675,2.23568954639,0.265934023898,1.03523915875,0.279206944065,2.13309016338,3.07545921239,0.63072286921,0.379231581161,-194.670013572
off_to_on,-3.67233931423,-1.42135789329,-1.6916195849,-0.454100422312,-1.75698708117,-0.623952824885,0.349767832837,2.07182296558,-0.262335205568,0.405763629316,0.208058426203,-0.510413820113,-1.61780520763,-96.5572550735
off_to_on,-0.430956463808,1.62394657696,1.88138093686,1.2060330484,-0.775663738796,-2.0264093694,0.0472870783218,-1.00416157562,0.31757754082,-2.63042895119,-2.72562759876,-0.53500995837,-0.524042681873,131.30260995
off_to_on,4.03466340845,0.863542448861,1.33868195269,-0.145915935839,1.48705858699,-0.219463097586,-1.45909074342,-1.49878705086,-0.286954283982,0.197407884666,-0.0187659092428,1.1562703981,1.88031951336,166.948623074
off_to_on,0.147812720081,-0.910370103491,-1.64631993892,-0.546799579593,0.436563609613,2.15834986133,0.20901222029,0.695794161298,0.198777512918,2.89028165572,2.8381876949,0.40250501664,0.810678724896,-186.398806727
off_to_on,-4.46141784891,-1.18568240886,-1.71408290375,-0.425409786763,-1.63501835583,0.191438615126,1.51148281615,0.761048020985,-0.164204496414,-1.46065629754,-0.921305753462,-2.10573084103,-2.79233460681,-123.347987885
off_to_on,0.837434192645,0.946232707274,2.18031702626,0.867291145261,0.558092090784,-1.23631166423,0.507966387818,0.489436186797,0.153704447186,-1.73567111143,-1.92189937452,0.54760437909,-0.151934065217,135.713622673
off_to_on,3.55439672886,0.860075144734,1.12911713112,0.294800368035,0.748901128246,-1.281666628,-2.25342985968,-1.31040586753,-0.124579922602,1.32948385574,0.948984872364,1.8578638738,2.77294209936,173.688218086
off_to_on,-0.343214612633,-0.0754051934445,-1.65557182061,-0.734933588752,-0.46566457937,1.58845630385,-0.353931631467,-0.364122516868,0.118387193547,1.59045081335,1.641293172,-0.134674159657,0.403627457525,-169.360810314
off_to_on,-3.81045092043,-1.82135375885,-1.40455654918,-0.479566361864,-0.613165223358,1.30030268158,1.86093417383,0.909515610898,-0.102287133932,-2.00514532947,-1.51945056608,-2.89968447671,-3.78076296045,-147.595706465
off_to_on,0.504921719368,0.372206266018,1.60145572297,0.873931905793,0.759219379245,-1.69642644267,0.921290216269,0.537072294482,0.0062487160451,-0.765346142265,-0.827530345362,0.605354958109,0.337108979518,138.064887861
off_to_on,3.96352039898,2.43024829567,1.5565242913,0.4166013469,0.234181965127,-0.790477628759,-1.27278540274,-0.284593776505,0.0787155817017,2.40172233339,1.77543696469,3.78528949552,4.3311937827,172.883970366
off_to_on,-1.0571804453,-1.27530150717,-1.64711057091,-0.799737486341,-0.888820573442,1.20104655736,-2.46673916335,-1.02632532948,-0.050416920737,-0.41116416897,-0.0820738073203,-1.67511178689,-1.52728978098,-147.619029843
off_to_on,-3.48688511621,-2.00158607213,-1.44695560091,-0.524294537857,0.2236031433,0.734576843101,2.1359425913,-0.0847322702639,0.0161814302002,-1.93561988981,-1.62919185605,-3.69756466577,-3.76580804964,-166.709368543
off_to_on,1.02774768709,1.30195918303,1.29404173652,0.794959324734,0.63319267593,-1.50203188865,2.49271986204,1.10918974468,-0.0701349057246,0.603607101876,0.563506992774,1.91145401393,1.65500935385,138.169321269
off_to_on,3.48075269663,2.10720240476,1.78037580364,0.797271927493,-0.201159895088,0.570757922744,-2.164875265,1.04981823977,0.114421905648,2.13009843939,1.77981509445,4.03807447716,3.65359232576,166.701998249
off_to_on,-1.36400590544,-1.58811227934,-1.22504204799,-1.27445587757,-0.706508338818,0.940678577209,-2.11138830212,-1.58044516544,-0.133943750002,-0.863442844306,-1.27779599135,-2.17327061654,-1.61265097548,-125.392394906
off_to_on,-3.41649923742,-2.21509956425,-2.15827639945,-0.360336877084,0.353614158117,-2.26442722093,0.977104462132,-2.25128993797,0.236062915928,-2.76381015574,-1.64353430223,-4.7255931008,-4.0456514633,-179.110524443
off_to_on,2.07335317079,2.05177816074,1.38160568881,1.00502757985,0.562286556539,0.985393851293,2.66521640981,2.76921295154,-0.298384689545,1.65247872651,1.62710825294,3.02075943235,2.11184975561,136.474842305
off_to_on,3.00994267781,2.39368840848,2.65021535691,0.642110823295,-0.0489117679475,3.02507287136,0.291139227958,3.08368585728,0.153179387892,3.31916777111,2.00881240176,5.15743174117,4.25397594805,157.267371628
off_to_on,-3.27588081424,-3.37699055675,-2.43678522335,-1.51477719262,-1.24437462068,-3.71879876248,-4.35449232309,-4.84174094098,-0.0779426358913,-3.2306035182,-2.82593547741,-4.71599326393,-3.28386527534,-106.045289687
off_to_on,-0.960592211857,-0.829880736153,-1.60504447201,-0.00429761840711,1.0055342642,-1.36581474395,0.325869409853,-1.75181401492,0.351081512304,-2.19203803256,-1.06275525761,-3.50895885446,-2.79576530735,-184.554548661
off_to_on,2.15415024674,2.60574847885,1.88727016416,1.00663639992,0.29691802387,3.85796007673,3.79276156576,4.48036102906,-0.564822550791,2.69121408123,2.50287281542,3.89341365977,2.30202356653,133.93002174
off_to_on,1.22261332108,1.11344386863,1.94220284416,0.42349317228,-0.205444679993,1.41454215265,1.33372553837,2.17884684246,0.311709859429,3.03539493311,1.50136865847,3.9444424145,3.3318821424,146.374047549
off_to_on,-2.96297601883,-3.34180343385,-2.73893331727,-1.65376649328,-0.930724077417,-5.17164098351,-5.35458054052,-5.31401739489,-0.0894873419689,-3.74753957523,-3.43689382989,-4.57193042977,-2.9841750865,-91.7114141898
off_to_on,-0.0199160049144,0.0641097196142,-0.618271031945,0.538070557644,0.637359224782,-0.1123013595,-1.16282970489,-1.35685987908,0.419226579926,-2.60084760843,-0.568855988903,-3.20050173688,-2.37910082552,-183.927279326
off_to_on,2.81358269179,2.60044202435,1.87603257735,0.659645305909,0.600241830136,5.16651780695,5.61522038657,4.83009277756,-0.744970859708,3.87308512551,2.89410310001,4.36715937097,2.36605446603,131.885217401
off_to_on,-0.590472779536,-0.0621305934408,0.711836737524,0.297112039496,-0.0592032322143,-0.428712908133,1.77918089521,1.48919462496,0.460523061033,2.76760354665,0.989579717327,3.00515949739,2.41912673257,133.321498866
off_to_on,-3.4799525515,-2.64272203995,-2.19484770939,-1.4773162636,-1.66090980518,-5.75372908121,-6.71868782386,-5.02260204689,-0.153788983874,-4.70595436974,-3.6075574367,-4.77294415729,-2.63386797728,-74.4856502028
off_to_on,2.96212644956,1.01430748349,0.636630829881,0.622315218873,1.33529976584,2.33183911798,-0.883901631007,-0.570168774289,0.479042831072,-1.5447690515,0.0861586317209,-1.52913096099,-1.15580929561,-200.537298656
off_to_on,1.37975120743,0.773408308655,0.392803134941,0.589362107035,0.630720859896,4.02201953894,5.61565097604,3.33403844235,-0.833512688481,3.33343849423,2.39228926043,2.99816126928,0.756965540519,161.435684339
off_to_on,-2.36556173166,1.02822566446,0.696148062559,0.180889331186,-0.546285253891,-1.62785500031,2.54971039212,2.29747887652,0.548563142436,3.07757155559,1.04926498481,2.92216566294,2.8602000974,109.867724093
off_to_on,-1.65697815664,-2.1875554805,-1.24404147818,-1.54565455664,-1.64565528785,-4.71269619073,-7.15811365854,-4.64352590573,-0.223017530747,-4.95135048647,-3.43933564319,-4.37353891335,-2.15048754391,-107.022285843
off_to_on,3.66985966848,-0.479111335433,0.110640353347,1.06064781888,2.00301337253,3.29394120096,-1.84784157246,-1.30218304427,0.501882367161,-1.80993819282,-0.0168175252914,-1.43439280267,-1.74675149447,-119.517056014
off_to_on,-0.166645328331,1.92958848099,0.360997332582,0.29476715489,0.157563812891,2.99961340644,7.08771849707,4.00304393759,-0.805155809479,4.47999130147,2.54577143332,3.64614748922,1.61297635071,115.344828274
off_to_on,-2.58950370149,1.28212267639,0.902231391596,-0.0623078652804,-1.01756493563,-2.87239116033,2.06943758369,1.63364775233,0.555664517423,1.84648235723,0.633147085625,1.25416080649,1.90404485526,77.1356096365
off_to_on,0.0704436764154,-3.32228855043,-1.59504813955,-1.27267796552,-0.661327679844,-2.7550003461,-8.06024657367,-4.7385541234,-0.319906305078,-5.1259386796,-3.18251809617,-3.97094144198,-2.25845445456,-62.6045463633
off_to_on,2.55483399485,-0.107967004793,0.248855205638,1.41568874185,1.60031557512,3.49408550486,-0.488523947622,-0.0918350277986,0.581540810037,-0.332934320909,0.487626217461,0.324649401944,-0.565766798859,-98.9007098892
off_to_on,-0.93973604776,2.70254345411,0.841047348709,-0.337993554002,-0.466851563511,1.40801358351,6.69080311006,3.19394278219,-0.779887909574,3.73396791983,1.69982055693,2.30058066831,0.962925408294,65.0436971394
off_to_on,-0.486526276673,0.959511563745,0.574967390235,-0.0972498402566,-0.0201304240378,-2.51655293096,1.30143227676,1.01533463027,0.533892436958,1.10132633056,0.803361164189,0.59062738977,1.6216763557,65.3420225459
off_to_on,-1.43157888151,-4.46583728582,-2.37883089893,-0.502984092296,-1.10976809306,-2.51226166881,-7.87845767788,-4.30080223603,-0.399335397028,-4.83214549212,-2.73814869403,-3.4178485836,-2.41632124318,9.81834422454
off_to_on,2.01780885256,1.21844910172,1.34860568642,0.945003762589,1.31604157043,5.00136472807,1.10369701101,0.996857966983,0.652997496645,0.966340136538,0.450932352016,1.52446564954,0.274175291665,-135.328041365
off_to_on,0.625380610075,2.76321401554,0.910993181324,-0.820048933051,-0.000520205955825,-0.397216843004,5.28036865725,2.31217721979,-0.746917855281,2.82987622267,1.18602417244,1.22102106001,0.806796478007,24.9418461596
off_to_on,-1.03577124947,-0.205717555386,-0.489665810421,0.660018622007,-0.238684628323,-4.07057509907,-0.183260135403,-0.211755950753,0.503832835099,-0.118510571653,0.929659062121,-0.375384455704,0.84957460018,115.826354654
off_to_on,-1.70687270519,-3.33155728343,-1.58096636472,-0.567928271783,-1.02357059303,1.37973356719,-4.5295883529,-2.38367482352,-0.456276568008,-3.05911602298,-2.19382739358,-1.47291528687,-1.79473452671,-11.636021642
off_to_on,1.53339185315,0.602100494653,1.2487503774,0.433131641678,1.24990085544,4.13617576988,-0.13851763485,0.882195312952,0.689159425204,0.757673507646,0.00763216257467,0.513163548781,-0.12544979309,-85.2744268892
off_to_on,1.26762750549,2.63541559803,0.522602147397,-0.534063839815,-0.212968186619,-4.08675447909,3.03400837501,0.933632369475,-0.694471463051,2.04549357043,1.13797235209,0.872766731367,1.51105975383,-78.7841645206
off_to_on,-0.047661881054,0.825694345967,0.275986691607,0.78887133639,0.241660890525,-0.962946643765,2.46161843723,0.53323913218,0.470247465521,0.26113211752,1.10026601916,0.929703688662,0.769534424195,179.397392452
off_to_on,-3.37772257472,-4.52048184037,-2.13781101368,-0.644888779992,-1.157858233,3.15171497403,-4.6333192864,-2.08840055148,-0.490456638828,-3.47734258654,-2.40489433074,-3.07516204834,-3.42503058499,39.601456618
off_to_on,1.53277739299,0.827971606396,0.849369903984,0.29132071345,0.836125464596,0.451220346987,-1.4360541531,0.985062631278,0.685281453488,1.93946907229,0.455746126209,1.24405491108,1.89716883646,-180.212569254
off_to_on,2.31010535757,3.27397148793,1.30487164383,-0.439006482277,-0.0452166691082,-4.24017276917,3.08917329594,0.046312041921,-0.624008201337,1.27928737413,0.904965233573,1.63927742512,1.41607467965,-45.2355871536
off_to_on,0.123468343845,0.306601368983,0.315632681777,0.814707716905,0.776480123168,2.81590984033,3.37391545833,0.698493759394,0.435807606626,-0.773876716755,0.531263161822,-0.439770178542,-1.08819613871,192.632558487
off_to_on,-4.09182821885,-4.35909430123,-2.65296246898,-0.66526273029,-1.47774442233,1.76375984215,-4.24583120011,-0.670709562078,-0.49933784763,-1.55777721637,-1.56498297967,-2.31218485749,-1.7234765306,62.7216592995
off_to_on,0.502304648231,0.560116739338,0.572955597016,0.364242773121,0.05108840459,-3.25611449038,-3.30708503039,-0.566952462308,0.638248688424,1.17873965148,0.349935255166,1.25694847489,1.73181958129,-258.060675619
off_to_on,4.43389663844,3.72661840753,2.15633562995,-0.577956775122,1.13359673866,-0.339755881729,4.45644422132,0.119078416247,-0.532840920488,0.599855547339,0.43216656095,1.39710174621,0.656872402624,33.681161401
off_to_on,-0.501130101985,-0.102889355964,0.105672625538,0.721688105217,0.491802953201,3.8453987618,3.41860367671,1.38998465808,0.394798800385,-0.233887310352,0.60565746934,-0.633777706032,-0.818696694253,166.095839682
off_to_on,-5.23783838587,-4.10172902594,-3.0787624376,-0.249374323357,-2.08256172642,-1.88476781503,-5.03555141127,-0.586450515446,-0.480485693113,-1.04584352075,-1.12449423689,-1.42564520223,-0.986834571719,25.7594268103
off_to_on,1.68425680531,0.783811501927,0.82287233829,0.0750995730096,0.55603182278,-2.58383821389,-2.1042510096,-0.887311903348,0.554514722621,0.663297667494,0.227268781471,0.812538678926,1.03033603526,-203.136308075
off_to_on,3.82611406158,2.71417997332,1.95266956182,-0.693844232772,1.08889892102,1.87894066001,3.09418962293,-0.904344328586,-0.425856661695,-0.217219253842,-0.133249082215,-0.241554171739,-0.0830850821206,27.432002664
off_to_on,-0.0548857389738,1.07528436902,0.706434959422,0.810523858255,0.532361848807,3.60476056589,3.79425129006,3.13345551145,0.342788363331,1.41406391372,1.25452871062,2.14737603167,1.08495303974,128.48054105
off_to_on,-5.23783590642,-4.37356859937,-3.44953364003,0.129301777929,-2.24035408322,-4.58754954997,-4.1384395019,-0.755775959508,-0.432016663956,-1.70290525921,-1.10635829276,-1.96079130175,-2.07876243242,27.4807255845
off_to_on,0.873648447789,-0.00136430332204,0.164859245304,-0.438620320407,0.329430997642,-1.48904247167,-2.72011425059,-2.68475777333,0.443121296405,-0.433803559955,-0.562055400628,-1.93658587,0.0728577879203,-148.952845159
off_to_on,4.86932211758,3.95656389985,3.20347878698,-0.697154652541,1.82013764754,4.73654999264,2.98447679443,0.831822839562,-0.310971568593,1.55342143101,0.824235291289,2.61918678253,2.02531800039,-1.91485965031
off_to_on,-0.647786230027,-0.154496740273,-0.0288125519525,1.34425974292,0.0357641545877,0.443484791199,2.7969405328,2.88102924926,0.278713923866,0.321796565405,0.866290690102,1.96269687015,-0.462563344805,101.083481709
off_to_on,-5.20173812801,-3.84290710805,-3.78158126044,-0.244464990632,-2.55806496239,-4.91837655854,-1.98009200569,-1.38415877778,-0.35510554052,-1.62566763614,-1.36880945456,-3.34741128527,-2.01517249736,32.8474454905
off_to_on,1.23774749098,0.899432814609,1.16628172689,-0.77691892479,0.87284685294,0.925813538308,-2.93597431377,-2.2728231359,0.313230228015,0.14128222945,-0.288443050365,-1.33663996158,1.29906502802,-96.354735564
off_to_on,4.64372036345,2.5310686893,2.73735341724,0.104419474018,2.06182287418,3.91384600178,0.410828706512,0.943179806275,-0.194575462848,0.811092143247,0.978905517545,3.04805910605,0.71552170428,-36.4682870792
off_to_on,-1.11298771338,-0.249383211604,-1.00135653093,0.848202233686,-0.813966758882,-0.847757775103,4.45010335812,2.63256619725,0.202739691802,0.764589109511,0.611742533707,1.70459779773,-0.469949347994,82.1399687039
off_to_on,-4.85095551552,-2.39098544442,-2.42476654805,-0.441696237583,-2.37964577401,-4.01148436313,-0.579049019044,-1.62616743098,-0.253880672265,-1.57406422778,-1.45927198419,-3.88159974237,-0.837733893943,33.3012195869
off_to_on,2.3201612547,0.623139084196,1.5192196595,-0.318106785522,1.7458363036,1.63131250457,-4.39866102289,-1.49900720735,0.174017636843,-0.206074679522,-0.00681436562954,-0.494158163154,0.691979234361,-47.1632191885
off_to_on,3.20680918284,1.10972289544,0.964085031997,0.0340835140595,1.50512388263,3.25422383713,-0.527152714692,0.675749085787,-0.0813563869909,1.23940096221,0.951108108507,3.02828278274,0.0237001725171,-67.5018610888
off_to_on,-1.93841403166,0.204026107456,-0.694197617323,0.506329687245,-1.68404153809,-1.66774398268,5.5303892463,1.66300778033,0.116135097476,0.354101689225,0.282980875217,0.409822609744,0.0646899713868,69.2760998619
off_to_on,-2.13879224377,-0.668069131046,-0.253481272105,-0.219374286749,-1.07765534062,-3.03636469387,0.712057441393,-0.384441794319,-0.134758726218,-1.36581407479,-1.03463314651,-2.55368651822,-0.0148765285692,29.4558534406
off_to_on,1.05686457355,-0.950850619483,-0.356738848657,-0.156396578105,1.59939266904,2.07242586779,-6.68172921359,-1.85904191613,0.0338661443023,-0.318396627049,-0.28720593243,-0.464045006953,-0.651608557959,-10.8724495952
off_to_on,2.1002163505,0.89290809663,0.271104796065,-0.177152176026,0.844743657936,2.80468953085,0.173133990273,0.607503667819,0.0259312841919,1.83506435676,1.07792180446,2.6577068103,0.708168239124,-81.1622657203
off_to_on,-1.01477725696,0.776561941312,1.01578563165,0.401693484632,-1.71669718744,-3.09868936319,6.85552420046,1.5933015052,0.0209382358792,-0.513620661095,0.212854014489,-0.430926801882,0.0991385232026,55.3221576663
off_to_on,-1.93421932666,-0.603499193657,-0.597615866162,0.121414380273,-0.44996680599,-1.66525867684,-1.35639267096,-0.948292396478,-0.00553083485693,-1.75536069795,-1.05873358932,-2.02303301609,-0.757447008869,20.4702988105
off_to_on,1.62455155239,-0.327593876379,-1.02194485235,-0.494735553052,1.83461840836,4.01146689905,-5.72904842235,-0.653991299566,-0.0999709866944,1.77692398699,-0.0431690996782,1.59467961479,0.934542720611,15.9473201066
off_to_on,0.788078997227,-0.597400365978,0.469500687985,0.105593337247,-0.200466402447,-0.822838844756,1.49056727809,0.57585265404,0.125629279484,0.336626168002,0.75835067003,0.0474975958877,-0.524367468016,-79.3529809853
off_to_on,-1.63269778451,0.781404061092,1.09352660677,0.226933637101,-1.66960693612,-3.00707502056,4.72917491559,0.0342808123526,-0.0781953157183,-1.72244344921,0.154420292049,-1.35107462173,-0.752568358458,38.6602444331
off_to_on,0.636510529917,1.71455179626,-0.0719693363435,0.065610493679,1.02514367982,2.7204574929,-1.10766279959,-0.0153625619536,0.118538081502,0.794974753342,-0.418295638849,1.71020332799,1.62873613956,9.5614082504
off_to_on,0.533582245828,-2.35173854881,-1.8121709047,-0.378046405763,0.636280158408,0.399664736814,-4.50211697025,-0.120136592707,-0.206126044681,0.650901018121,-0.840703442255,-0.182413387388,-0.558124968213,34.0954984025
off_to_on,-0.674457935437,-0.975500746396,0.762737053444,0.292566895363,-0.620449732058,-2.0531994275,1.79076529351,0.694778202285,0.200193099189,-0.183831497714,1.10071345927,-1.55837004986,-0.816116627249,-67.2702404383
off_to_on,-0.589747771554,2.20910932481,1.17238738357,-0.161986319984,-0.662053845764,0.530571194974,2.69039312401,-1.4887188965,-0.184560920633,-1.27206935664,0.392601654503,0.246751768627,0.0343615926892,21.8177813299
off_to_on,1.68874312712,1.44418724495,-0.102927456706,0.170539145544,1.01596216713,1.92964719382,-0.430566532104,0.491645013724,0.282119649527,0.904986293491,-0.833654402916,2.30189676822,1.22867632129,-0.995029709229
off_to_on,-0.51988969458,-3.15530614326,-1.76796182474,-0.213283031549,-0.223014879453,-2.16213400568,-2.80443717381,1.57418020548,-0.352558856253,0.844674238352,-0.684973205872,-1.16812079352,-0.248785764947,43.3114412182
off_to_on,-1.43890434977,-0.626860883295,0.552381391608,0.402239194393,-0.212860476023,-0.311159171942,0.107149230281,-0.969079996712,0.264503323911,-0.856601211271,1.28613978967,-2.10490190199,-0.986181610733,-49.1259643364
off_to_on,0.870076317778,2.97079969815,1.46574315847,-0.639359147895,-0.0276658572567,2.57780389365,3.04941165636,-1.66383133596,-0.212457717475,-0.845317573248,0.133485002322,1.52043784266,-0.275823368719,7.20780470336
off_to_on,1.24406969577,0.322136858058,-0.316309408822,0.462532668359,0.11908574978,-1.51775006395,-0.562103917891,1.50510787898,0.380036685827,1.10654320097,-0.782650516637,1.99367036383,1.44243233636,-9.85968686274
off_to_on,-1.27093113204,-2.95407597785,-1.89721805558,-0.0245987523702,-0.24521197065,-2.07504607276,-2.87757610662,0.946701231527,-0.550914011826,0.241409468254,-0.633027447532,-2.13520346263,0.202109848641,44.2982675577
off_to_on,-0.0999036704455,0.662078424781,1.1692540719,0.0567911268049,0.984026530129,3.77910585417,1.96595362732,-0.426124065839,0.448462337935,-0.171999488811,1.54251423493,-0.71711289639,-1.12204430251,-28.48028804
off_to_on,-0.426685080591,1.23108160843,0.823195732579,-0.488999333336,-1.33182458659,-1.20686745114,0.00679004898066,-2.32600570596,-0.247722535464,-1.40152438412,-0.463278555439,0.590827067918,-1.60046336147,-6.08413992237
off_to_on,1.79992285571,0.814909712996,-0.222686925177,0.557160790266,0.240907023166,-2.23989038382,0.270150628319,1.64554784408,0.328319132475,1.49542225225,-0.43729334686,2.2179423523,3.31404162175,-6.52197550153
off_to_on,-0.877066753872,-2.11613168651,-1.76376846134,-0.313777394523,0.782124118903,1.75079204125,-0.187595388598,1.38722419556,-0.624135434186,-0.0732795852335,-0.417442520547,-2.0576411298,-0.298092774419,18.2919517209
off_to_on,-0.863450000851,0.0758589587084,1.46128180653,0.403067790864,0.195106473696,2.03219686643,-0.748698535474,-0.65581857877,0.677666257061,-0.111609991669,1.36404265599,-0.86467847638,-2.30585614796,12.1090464299
off_to_on,0.276375235375,1.03343493806,0.542496434615,-0.627739039368,-1.78051108969,-3.73539886245,-0.867296534165,-2.48004766159,-0.397020802078,-0.687780432709,-0.752373212952,1.39394266455,0.0212176838487,-8.2812198142
off_to_on,1.0599797787,0.468389364673,-0.868033816602,0.44484812516,1.19872767589,0.662833531478,2.93369155643,1.37377880343,0.262979605219,0.0142321549697,-0.422552367968,0.497497324961,2.23115115314,-57.9040484976
off_to_on,-0.412814131025,-0.895210694791,-0.746271120458,-0.28230975613,0.813305479865,3.28952894017,-0.0999291657757,2.41953786705,-0.531781041198,1.0041060761,0.426449858208,-0.911488040083,-0.121936735881,77.8271698012
off_to_on,-0.359197448065,-0.108594321861,1.64480613987,0.660140092702,-0.943470446043,-2.50805238444,-3.66963721793,-1.38631736803,0.754398414956,0.529423460304,0.801972076848,0.307499320467,-1.34602680034,-9.03955519811
off_to_on,-0.876713492749,-0.706368588955,-0.83186558189,-0.906113236645,-1.15457434311,-2.47696426206,0.300385796734,-3.34844505599,-0.543688055851,-2.74549294843,-1.77845089194,-1.13645974304,-1.53718996935,-35.5278262804
off_to_on,1.67566931038,1.97802778543,-0.133283968129,0.4111919897,2.23762791951,4.82916166047,5.64787437057,3.50359603451,0.286899709896,1.60491116851,1.17960959136,1.52502700969,3.01711887436,-5.86302526768
off_to_on,-0.338826511695,-0.35892213697,-0.0571505433309,-0.0098711904892,-0.80056328019,-1.05704819665,-3.29351446767,1.04312401319,-0.45538156532,1.18540424782,0.335815072076,0.193328648661,0.308387505735,45.4533896591
off_to_on,-0.155092919597,-1.20717841605,0.930431177821,0.494741346423,-0.710475794303,-3.00048392171,-3.78976196103,-2.19657979942,0.733497039875,-0.710013520893,-0.501476942317,-0.599563549438,-1.86023783848,-12.1301182995
off_to_on,-1.43732430537,-1.05679894422,-1.19549072137,-1.05971892239,0.120397708794,1.03119373434,2.97238503402,-1.4274601972,-0.617302977314,-2.06500033724,-1.1329346604,-1.77025601693,-1.73662877316,-52.8973511302
off_to_on,1.58362525319,2.96211471677,0.454591565801,0.763418683733,1.23331330479,3.20268047544,3.99413265224,2.83238322007,0.362921818112,2.07810135765,1.89529744471,2.29150384259,3.34093241381,81.7295652109
off_to_on,0.628483184878,-0.102860242265,0.187583050374,-0.216456393454,-1.13596243815,-2.36420506242,-4.07537837797,0.0527424400482,-0.46550288198,0.496825459438,-0.321181340689,0.646614709146,0.537688332766,-47.1158569507
off_to_on,-1.21486700094,-2.62080224843,0.242902608335,0.384313516274,-0.0103357753209,-1.59416546947,-2.79220447674,-1.70759514958,0.703989566254,-1.19517829017,-0.98275180153,-1.85807866246,-2.67782740043,-15.7729163254
off_to_on,-0.813416883504,0.0602156179885,-0.92549021162,-0.910068203793,0.242560730442,1.42091937684,3.87997634255,-0.187544318751,-0.615125054776,-0.391460264994,-0.180047590058,-0.571673160276,-0.576407045377,17.5148590553
off_to_on,1.8546911295,3.18975948813,0.806289093484,0.877492427048,0.79679059843,2.23236290822,2.8518843552,1.95471144574,0.405676796807,1.30699084119,1.71483022591,2.09329380479,2.8643148996,50.683723492
off_to_on,-1.0485931191,-1.84721700885,-0.638608195258,-0.332131806383,-1.52378010385,-2.813999522,-5.65125490276,-1.58392381319,-0.493616223043,-1.42715277738,-1.23025833028,-1.27039937052,-1.05131680543,-49.4470142109
off_to_on,0.666074702227,-0.646835518538,1.08537135236,0.0878308923853,0.872669104526,-0.0684954031624,0.213296183551,0.629767059301,0.670623175107,1.71212640906,0.0705706122672,1.1282982017,-0.00976959420721,-63.3875495052
off_to_on,-0.402609804218,0.183167137807,-0.848006266558,-0.516471262617,0.165654288563,1.26607850725,3.81687409909,0.0840873145235,-0.570752755472,-0.676549680273,-0.130713431819,-1.01762193923,-1.02862061419,89.6431444314
off_to_on,-0.616881632895,0.812970822782,-0.374272836064,1.04961651408,0.0293020944428,0.338401909389,-0.321786609886,-0.339204515809,0.414304433712,-1.25181211262,0.637602375694,-1.03528937229,0.379915098219,50.927179089
off_to_on,0.0590195821577,-0.354065772319,0.262323141781,-0.864493322396,-1.21259013909,-1.77610811113,-3.95327462668,-0.77319494264,-0.512995078782,0.396553290481,-0.614903934708,1.37574302403,0.907452910141,-104.054052452
off_to_on,2.12572408297,0.550245602509,1.49858595436,0.106154043025,1.38957635476,1.71332927478,2.01493178405,1.92254290034,0.629238137018,2.32244149084,0.586727286302,1.99286861248,0.699934564001,-49.3538747692
off_to_on,-1.40715150546,-1.10072885854,-1.53444783295,0.0433541975883,0.0566518301468,-0.10988140321,2.38392352561,-0.430785627637,-0.504488181026,-1.39501270227,-0.535588400332,-2.71158857502,-2.08897388523,109.168291219
off_to_on,-1.94418054178,-0.296960490433,-0.760942337583,0.794292432422,-0.936867555782,-2.36942004132,-2.17828681842,-1.77831728999,0.39400452447,-1.98753464515,0.0200131911013,-1.64996528456,-0.276986128006,70.701850203
off_to_on,1.36595595605,1.18219579358,1.1152820549,-1.21448189121,-0.420726567693,1.90972891263,-1.73590889526,0.331844431017,-0.50593136199,0.798642702926,-0.0452187582799,2.52932027149,1.66375203949,-146.49656095
off_to_on,3.00372317606,1.33731087951,1.54809061185,0.290423060943,2.04093844196,3.23137840669,3.17835110793,2.88541622375,0.570863469705,3.4406567707,1.08561225343,2.9145284482,1.42672138407,-44.9209192489
off_to_on,-3.05229404491,-3.00699299842,-2.35018063756,0.493354391976,-1.21952667513,-5.86543644064,-0.844176553874,-2.22305675379,-0.427470810278,-2.25536005483,-1.21822634947,-4.24762697096,-2.98854218063,118.344422596
off_to_on,-1.48400830791,0.0719123318567,-0.297029536562,0.323385779727,-0.750285238041,0.110910162042,-0.846387902332,-1.04791493179,0.35278420446,-2.58165181139,-0.179373163158,-1.75056663264,-0.358607759426,96.030396293
off_to_on,1.7050156412,2.05890142192,1.28950013313,-1.36269471227,0.507597546858,5.50742533109,-0.159781001391,0.959681178616,-0.464772480169,1.27298682907,0.473832378583,3.16370305675,1.72637859144,-172.622283885
off_to_on,2.7415771812,1.04915572097,1.22735513555,0.760749838749,1.45810254726,-1.03602467628,1.03002387639,1.62821391391,0.486944843002,4.16392556691,1.0737756132,3.37430365541,1.84239368959,-55.9309368923
off_to_on,-2.43091599715,-3.1519014764,-2.02886095814,0.354000024593,-1.46016220805,-5.6309401727,-0.140917649832,-1.07566467317,-0.342027218331,-2.53986995608,-1.27467862057,-4.51904787546,-2.59300512767,124.417717925
off_to_on,-2.84391595268,-0.738842334216,-0.841409780358,0.0531950349782,-0.718659091334,2.22785825812,-0.3684442106,-1.53191757401,0.298194939091,-4.16522171295,-0.661325260455,-3.34377718379,-1.97199576454,125.301926027
off_to_on,2.92000523221,3.62067581333,1.94347211879,-1.08989897182,1.16646424678,4.34769881924,-0.432441194718,0.724470704728,-0.395057594077,3.32753551345,1.04240764278,5.46708285683,3.07155361126,-190.442602748
off_to_on,2.86696490663,0.476600660893,1.02813798884,0.709254992401,1.06491733561,-1.31717248813,0.526054513118,2.10264399146,0.380259605295,3.94989965088,1.08237887509,2.84272697064,1.99808318735,-72.6773139013
off_to_on,-4.09481730313,-4.54582030883,-2.71714484785,0.388423082682,-2.0031386309,-4.49333268069,0.236835492377,-1.50371789349,-0.249113094699,-4.49019417977,-1.76499543478,-6.57622351822,-4.09460410956,127.388852383
off_to_on,-0.955063287757,1.50351091953,0.294991853836,-0.243394746682,-0.0513921291509,0.668120558807,0.48636054342,-1.09821780582,0.232410963342,-1.85661262177,-0.139688535581,-0.347400360202,-0.0956868996561,150.701626428
off_to_on,2.87218350879,2.90359972254,1.64110625624,-0.635046240249,1.36478168069,4.68081764245,-1.96495342333,0.560745824543,-0.303730978569,2.85002119492,0.835326160472,4.54297636377,2.40183864656,-194.888036313
off_to_on,0.732653266482,-1.38548137658,-0.130541299536,0.521844962815,0.326882536607,0.852497384802,0.784672247837,1.67040114831,0.258793173176,2.02932545819,0.718710456296,0.270847307972,0.366822717593,-96.6707446681
off_to_on,-2.45188204131,-2.23381824301,-1.4155746029,0.192302441746,-1.74435300271,-7.1093262743,1.95456566893,-0.978209799942,-0.151310648105,-2.20882836246,-1.03271274451,-3.34353758816,-1.75188043891,131.806614095
off_to_on,0.217848257383,1.79640494446,0.587873246147,-0.11069707122,0.340599870781,0.470321610128,-1.35137944465,-1.07584371032,0.156090542976,-1.90768696869,-0.509010844094,-0.0801517447833,-0.115470511407,166.822946963
off_to_on,0.8956074115,0.588678679496,0.361500429159,-0.412513826372,1.18951141091,7.72247417444,-1.95160567019,0.573193506078,-0.197104414439,1.16311741714,0.6519463889,1.66954149534,0.353146739894,-186.935482738
off_to_on,-0.277304071068,-1.04252827398,-0.198135895949,0.350978257518,-0.366943194754,-2.13800865723,1.75433527227,0.641015992814,0.131219085013,2.25328412968,0.664712352645,0.554824767683,0.63071253252,-123.128662732
off_to_on,0.984138932703,0.799806858368,0.378738873174,-0.062219768958,-0.730323574286,-6.60724115387,2.21377788183,0.415910005399,-0.0519383695451,0.0220638028793,-0.392023751831,0.113286354664,1.08400781558,136.301385662
off_to_on,-1.05863102101,-0.701789408519,-0.49064590565,0.11881370859,0.172152589965,2.90626561003,-2.56107278817,-0.995501585093,0.0703509991771,-3.4556105638,-0.837181169523,-2.084845974,-2.08585000453,173.503616154
off_to_on,-1.85750750742,-1.11683450963,-0.875454232737,-0.0398796061179,0.258204503728,4.21564064384,-2.37551473545,-1.28893044055,-0.0811902350843,-0.570896735445,0.0667559603013,-1.09558389328,-1.83489792538,-170.222436276
off_to_on,3.10665579308,2.75199665108,1.68044959717,-0.28668810994,0.55937859697,-1.14974260987,4.10280255228,2.26391297924,0.00526911694417,5.25195185528,1.30197323541,4.36463971286,4.32230283339,-147.167492976
off_to_on,0.612354554378,-0.280301248506,0.268456725109,0.104100945906,-0.578660980234,-3.54729581634,1.20696149263,0.82759004743,0.0456019582746,-0.519161071591,-0.190255327389,-0.00187132527481,0.589909738198,138.84461947
off_to_on,-3.33688383792,-3.13323337219,-2.0162010616,0.391038686334,-0.778830923889,-0.732468978548,-4.64168855308,-2.73177830802,-0.0225197536636,-5.63285963493,-1.38689941327,-4.80949049069,-4.88722725524,172.644152314
off_to_on,0.449798398857,1.34924854923,0.345911249751,-0.160500489735,0.95070002417,4.13749753323,-0.123666753511,-0.307658443797,0.0382528360054,1.3879734948,0.163515920221,0.674856284169,0.395154897882,-148.77764407
off_to_on,2.38016874372,2.6242889768,1.70789180382,-0.458493282189,0.568478311885,1.67601806231,4.584280955,2.7178626664,-0.113286209591,5.23770676911,1.43098643389,4.5567810755,4.67706454556,-166.179982625
off_to_on,-0.203535691273,-1.3408405936,-0.3242120634,0.305333368487,-0.875334836949,-4.70644084648,-0.0892636540626,0.27362359053,0.138558353829,-1.22587747626,-0.00384077857178,-0.414656744781,-0.503688068528,139.186259294
off_to_on,-2.1028491894,-2.76597073833,-1.75025873988,0.168501167725,-0.739335283377,-2.55948720615,-5.79235292672,-3.34849478427,-0.118983124077,-5.86947199127,-1.75341963128,-5.20482953454,-5.23347082589,166.429457068
off_to_on,0.323512417352,1.78806376369,0.634921019363,0.149198989248,1.33994269485,6.26191629966,2.187685007,0.855974227096,0.155334656682,2.29418570814,0.386163945067,1.23849346999,1.62174489338,-126.80116214
off_to_on,1.11728831282,2.25361861856,1.16699640538,-0.592831486382,0.120168049359,1.60614659724,5.14587137935,2.75339243333,-0.220341053142,5.18433098517,1.37504111811,4.73484194117,4.61223759534,-178.559133586
off_to_on,0.688317673071,-1.44902250606,-0.0911899559969,0.163825712654,-1.0679934702,-6.60319352876,-3.8215546418,-1.43903352211,0.224888529347,-2.55410255236,-0.21608714736,-1.42305681573,-1.98975517337,137.707050517
off_to_on,-1.10166582874,-2.31144718715,-1.35907470761,0.155507290536,0.151290746692,-0.283862811219,-3.14981369052,-1.70693510276,-0.21470590873,-4.50518507027,-1.27802670476,-4.29371922944,-4.05282668292,157.011994229
off_to_on,-1.46154887055,1.34313944447,0.075064965027,0.532497078371,0.88992908903,5.72963871567,3.83182148659,1.29684060042,0.264215427856,2.52868756699,0.318049357151,1.49893726863,2.20592251982,-107.651358564
off_to_on,1.398049982,2.2013876896,1.1207389592,-0.862751905068,-0.801844344583,-0.542560388273,0.993353328656,0.553573095719,-0.312926708283,3.60850253122,0.539485690295,3.53533531048,3.19162939807,-184.038870474
off_to_on,2.34272450116,-0.668435081164,0.654441667863,-0.0459213105571,0.346565674422,-3.85365858504,-1.7258940416,0.186729783876,0.30284723738,-1.46051089313,0.730428992854,-0.567997277726,-1.38897756636,135.318122274
off_to_on,-3.13066848347,-3.41942451083,-2.22225267592,0.47736056131,-0.182631021368,-0.685555384266,-1.09880216427,-1.43234172573,-0.304983700764,-4.38311754085,-1.30081977717,-4.47468526954,-3.98489115993,146.196165012
off_to_on,-0.585007579731,2.03115778254,0.54315394513,0.535709923584,0.226488323132,4.25069574,0.662526760431,0.285636086422,0.359582712998,2.37217695844,-0.198876262638,1.80833545231,2.57926422255,-93.4651267773
off_to_on,2.12352454467,2.40688105119,1.31815455367,-1.10923405681,-0.56104562941,-0.207840848034,0.680596660561,0.688970812571,-0.388938533397,3.14746401724,0.572123397451,3.19580987923,2.72892394027,-183.483345657
off_to_on,0.702072161672,-1.53885169674,-0.190989413514,0.234278898237,0.905486515213,-2.58727590608,1.93608474997,0.801104803022,0.370665022931,-1.49472718889,1.06114938727,-1.17297332289,-1.90095337841,133.361103547
off_to_on,-2.1190781775,-2.71090405519,-1.47189070278,0.212713199064,-0.481481489432,-0.877839706699,-2.9569294052,-1.68562876465,-0.385116629349,-3.34066313831,-1.18472804119,-3.31891824678,-3.10832450469,133.260309132
off_to_on,-0.0924639765371,1.98066989161,0.77841429825,0.645036156423,-0.304776124022,2.44444186148,-2.24679309584,-0.20873533017,0.437080207971,1.68785125849,-0.659599840437,1.44951118868,2.56153376788,-76.3121211967
off_to_on,1.25213313353,2.30983592491,0.53299462827,-0.961838453921,0.0570971117668,1.1431489217,4.77678202433,1.56401958884,-0.446991212658,2.76554296861,0.629031661804,3.02414654798,2.62873486363,-200.256054131
off_to_on,0.550664613497,-1.7099246022,-0.108996374458,0.100915600985,0.989105551995,-1.71702637102,1.75724523701,0.160256880671,0.426421975266,-1.20674555306,1.46501944991,-1.4705800478,-2.76279059705,163.076814642
off_to_on,-1.72361839615,-3.13572285181,-1.04262251657,0.106825766701,-1.07616256065,-2.64604590653,-6.80344262542,-2.20102331096,-0.450769841646,-3.30223988957,-1.53963297689,-3.6563824445,-2.92716186085,109.804572596
off_to_on,0.770323122923,3.58748499164,1.22447760495,0.707376237761,0.106867470865,3.2629856624,1.55914657788,1.77952670036,0.493604024271,2.8485557999,-0.456520462867,3.81537233743,4.96109899315,-108.921871088
off_to_on,-0.0819913993003,1.1206247773,-0.592373914842,-0.768312127887,0.100842443298,1.32918158148,4.24920774455,-0.240232199345,-0.486351755801,0.721373275186,0.394811966935,0.783414565985,-0.0791077676939,-119.009990278
off_to_on,0.474093417242,-2.62110571346,-0.0657476466449,0.0372060153703,0.868436868654,-2.13342098446,-1.03597813199,-0.452221130302,0.468123272485,-1.17504360247,1.57396790468,-2.62438416163,-3.59719160703,116.46853066
off_to_on,-0.572924423144,-1.50370594958,0.114964604565,-0.232205076494,-1.2759427232,-2.37294004354,-3.2624411313,0.39203090007,-0.498307089896,-0.692441493718,-1.30150071508,-0.371352540613,0.543348333109,77.6081037372
off_to_on,0.279843640957,3.66323729313,0.755761266244,1.02948296268,0.312191774636,3.219850613,0.613964701025,0.196693186938,0.527414926929,0.998477640082,-0.827573190849,2.73930617179,3.5244720858,-64.6768671649
off_to_on,-0.175426462776,0.119094575496,-1.33577824423,-0.742393799258,0.556949342182,1.45079450344,1.75490010623,-1.23897077582,-0.506874407106,-0.308984736364,0.560374642321,-1.02938616863,-2.00316944962,-98.5218867212
off_to_on,-0.102761616339,-3.2646676468,0.236975829687,0.0103103731206,-0.0149940500773,-2.95639237428,1.52092154194,1.31509448072,0.493904096819,0.292608781622,1.63641664413,-1.51195483517,-1.86651921869,66.4095042093
off_to_on,0.152633860439,0.179655504705,0.886168162879,-0.436468698341,-1.18850670975,-1.3221077598,-2.29745343664,0.192768306276,-0.525080130108,-0.0988710165066,-1.48631044859,0.881486967076,1.47882079171,65.3705740993
off_to_on,0.989888372268,4.02063547505,0.410982301233,1.06625644567,1.47567345755,3.72456955995,-2.23893258988,-0.854142422132,0.538092533405,-0.067724734729,-0.549363776782,1.69229269463,1.93614739915,8.33183525417
off_to_on,-1.94062025863,-2.29981672171,-2.21886573869,-0.406969117602,-0.548289973985,-0.911758620833,1.80566482766,-0.971821081158,-0.508906772527,-1.15957900407,0.314475043788,-2.27770434655,-2.50507210411,-135.295141874
off_to_on,0.813351893882,-2.1916985981,1.12814584201,-0.254951035373,-0.31618249848,-1.39478994442,4.63300452859,2.47581248227,0.502262756028,1.98327753251,1.70565448291,0.434070805615,0.140038676684,26.4132590109
off_to_on,0.549119865144,1.57347495526,0.97193037029,-0.53505797944,-0.10245146934,0.0372834141605,-4.15981275372,-0.960311962075,-0.529627626219,-0.318893209341,-1.53393116527,0.521761600932,0.433673352884,115.512706435
off_to_on,0.388904079911,3.00530640241,-0.0724729074231,1.28813976537,1.24637457788,1.39509354827,-3.46176776158,-1.0189353917,0.526381910675,-0.892051572968,-0.34881513727,0.814100594383,1.25384296703,-12.6271583663
off_to_on,-1.53713368154,-3.26891568555,-1.96656003267,-0.582949499007,-1.35064190358,-0.96408187577,3.20451705109,0.130550620566,-0.493192064563,-0.969598381636,0.282453244224,-1.68043801172,-1.30609218781,-85.0147231894
off_to_on,0.110813520229,-1.58513295638,0.848665409589,-0.102762646804,0.0991195623366,0.607984520669,4.53783711224,1.50239884937,0.492267269976,1.93265092847,1.180828083,0.077148134983,-0.681420385386,-78.5721691631
off_to_on,1.30393586738,3.27717313762,1.40140540405,-0.47041711759,0.626710308501,-0.302909637357,-3.25952918075,-0.380489021068,-0.511754665575,0.991159015313,-0.793394582935,1.53759012106,1.05604833537,180.398907441
off_to_on,0.460729623959,1.04332063393,-0.165770422891,0.975279763372,0.303375417835,-1.04311216509,-5.31946082998,-1.41300212486,0.4939769845,-2.46034657206,-0.583238823816,-0.287460904181,0.892239302512,38.2116573558
off_to_on,-2.39109593047,-3.9817099304,-2.4470783549,-0.558899274994,-1.33185624438,0.899700085977,2.73002910243,-0.0645731571804,-0.460794638328,-1.55711318284,-0.153799952462,-2.21869301874,-1.94560210452,-180.180890456
off_to_on,0.744736020255,1.1090341709,1.47521024241,0.34476703245,0.878084629023,2.30914001477,8.05487723678,2.83565961486,0.463711347447,4.68921564939,1.87187413653,2.40602880971,0.944593215252,-44.995352055
off_to_on,1.3786659828,1.95597286141,1.21060568743,-0.575844538292,0.00906392062619,-3.74931212686,-5.8540034622,-2.10806438306,-0.472493680965,-1.01520351706,-1.23464058974,-0.188172869656,-0.037943288664,193.881172905
off_to_on,0.330113701719,-0.35436685977,-0.559013961626,0.264961522154,0.252750203235,-0.0163863949031,-6.54511787173,-1.01174291218,0.443281926334,-3.45124564757,-0.809502817277,-1.25841812348,0.20440096366,61.2982198974
off_to_on,-2.94385951211,-2.23193152909,-1.99252055001,0.0448437560923,-0.951758235507,3.08990157338,5.88466546551,1.31343960011,-0.413064553061,1.10777557036,0.64489980735,0.12472189354,-0.453164011225,-258.357131255
off_to_on,1.42865631683,1.52409263932,1.59972719923,0.720648043179,0.624380103713,0.120990571476,6.49874702516,1.34399264195,0.417210801645,3.66077951467,1.44163255811,1.84023393822,0.626229208224,34.3964652514
off_to_on,2.0548634639,0.492144577819,0.840181794658,-1.28360039461,0.251024027831,-3.80003484803,-6.91647770844,-2.05594761394,-0.413967431417,-2.5608738475,-1.77485582408,-1.63702959311,-0.849607521546,166.877159571
off_to_on,-1.86324258731,-0.799238290294,-0.978952291402,0.289489800266,-0.258157603957,0.762291778028,-4.97161065063,-0.324801807846,0.377183111798,-2.19294340484,-0.324407659981,-0.994468558733,0.0966148909131,24.643062069
off_to_on,-1.40289182149,-0.00689503773824,-0.901023392633,0.524416545268,-0.534477101043,3.57845094265,6.51846009803,1.52366226978,-0.351640599869,2.64816940026,1.42577495997,2.43345296079,1.21598000987,-203.426749624
off_to_on,2.38638594813,0.770502244321,1.35221492458,0.425974269663,0.910326759654,-0.845042808928,4.05208583458,0.399984605991,0.354237913859,1.26210010715,0.293112308927,0.12814248006,-0.516030722587,28.0363538635
off_to_on,-0.145801240844,-1.31561137737,-0.251902309394,-1.18638079527,-0.46211386906,-4.11185091934,-6.35988286702,-2.03804355495,-0.339185298418,-3.01924893329,-2.07270142045,-3.47871494519,-1.93893071729,129.104063493
off_to_on,-1.05230273926,0.774510074936,-0.0804040046807,0.15370213862,-0.00800581126086,2.1216391231,-2.21108164913,0.874834643931,0.298853878527,0.805970246968,1.05641472066,2.31606679857,2.19733491888,26.6589856779
off_to_on,-0.554078330889,0.524985814595,-0.513783447048,0.574344128817,-0.200604420039,2.67750216978,4.33566357068,0.760969240014,-0.278477113623,1.03738138108,1.01647214875,1.71393966786,0.308282390022,-149.247801878
off_to_on,1.75737972051,-0.0558351958125,0.69747786926,0.459852742891,0.64324306378,-1.03415530921,2.64702541834,-0.147073734902,0.277092143791,-0.0635280484548,-0.641489638605,-1.86034651515,-1.10964491174,-1.47848704804
off_to_on,-0.349647986414,-1.72262787287,-0.377341138876,-1.02970810931,-0.433529712538,-3.2704743878,-4.46330129774,-1.33574766654,-0.251804397132,-1.27076690146,-1.45965903144,-1.95812945806,-0.927896195927,101.58755814
off_to_on,-1.29618908325,0.725152340689,0.046258000161,-0.0651049271391,-0.156663844144,1.3498841837,-1.42651058918,0.828229302683,0.211603244544,0.525783204537,1.42076414682,2.47208064049,1.28658560916,32.3208237902
off_to_on,0.522359506238,2.3451975615,0.216765928411,0.460202958702,0.0408899148075,2.90269047543,3.80485090709,1.12984877889,-0.195873655355,1.04948809061,0.906966907856,1.62752290034,1.09261865524,-96.6479624436
off_to_on,1.15832311338,-1.53990712398,-0.0481523826279,0.720717175906,0.48507263955,-1.12456223033,-0.0292367701433,-1.38660873837,0.188808164095,-0.959611401628,-1.41577257798,-2.84588496887,-1.36757620659,-36.2237924075
off_to_on,-0.746292618532,-2.61908895812,-0.561573250528,-0.93264466071,-0.0848272752596,-2.51155284491,-2.35105736231,-0.639465443602,-0.15588191837,-0.58309594627,-0.872782214592,-1.08589436158,-1.33777026921,82.5643218479
off_to_on,-0.993258881784,2.43000991481,0.516521752984,-0.426881209188,-0.619937903811,0.657532384369,1.19829721756,1.85085234458,0.118768910536,1.22843651345,1.84946548566,2.85806954001,1.71100333508,33.018855082
off_to_on,0.649387296199,2.20506243452,0.26832772548,0.685982355947,-0.225791781436,1.78306301986,-0.284184255246,-0.59430990823,-0.106486956051,-0.371060693652,0.160068455772,0.309070791127,0.998213698944,-47.4299752918
off_to_on,1.68864456555,-2.37980474208,-0.154560285156,0.549197370385,1.49103800858,1.01402988717,0.016256831494,-0.703641971688,0.0930074690021,-0.277883726744,-1.37898392257,-1.74893886827,-1.15196955573,-67.4470560895
off_to_on,-1.91200161244,-2.60923580287,-0.801760961245,-0.651559713683,-0.376363460481,-2.51739973639,0.910275585503,0.167669863172,-0.0556389652492,0.0820924879382,-0.161268599283,-0.903396616257,-1.65530050006,69.6622029822
off_to_on,-0.90396573079,3.07809632821,0.402143513052,-0.496776430008,-1.64488018494,-1.67897554998,-0.7908374445,0.403902160773,0.0236467274203,-0.0559632098277,1.16574601696,1.50854238492,1.43510034891,29.3310810297
off_to_on,2.07606698863,2.17870314241,1.01936699211,0.427520143756,0.634817757683,2.81953769396,-1.03326759269,0.211577131715,-0.0133094376156,0.040493731642,0.137744217999,1.13242185157,1.72317398924,-11.0933035703
off_to_on,0.483957387598,-3.1637888969,-0.614496821734,0.592561887306,1.84357281538,2.41884131235,1.50557904469,-0.254873784245,-0.0062941202166,0.58959338482,-0.860304724489,-1.04047122046,-1.49184711514,-81.223340995
off_to_on,-1.80526866812,-1.54619147759,-0.999637329109,-0.284297542304,-0.762021155747,-2.87534097709,0.734012671053,-0.426093897719,0.0447498170293,-0.249506154512,-0.156800641854,-1.29731244439,-1.37208789941,55.6295046667
off_to_on,-1.05552690838,2.15400390002,0.336554494101,-0.643339096693,-2.34811001293,-3.85427631052,-2.59588316808,-0.44614777339,-0.0705557322081,-1.75534037226,0.227817826363,-0.303681702314,0.314252468154,20.46287271
off_to_on,2.5758358829,2.17076490729,1.59963146464,0.142488069974,1.38860176724,3.95767473227,1.25118049712,1.65577844077,0.0803939077832,1.81257538365,0.830910701002,2.98937612962,2.67027990099,15.7778241551
off_to_on,1.12228795817,-1.66434712619,-0.543992031324,0.554086787059,2.34664763258,4.51259034432,1.99407093941,0.30539823894,-0.104905797161,1.83440216664,-0.118043342556,0.62961427498,-0.269353013657,-79.4553205718
off_to_on,-3.66349412212,-3.25470860087,-2.1050794383,0.360489336162,-1.79827375687,-5.10247759363,-3.23223554993,-2.89436294617,0.141331974764,-3.58429316469,-1.46550125455,-5.19792966779,-4.08941708416,38.8411753333
off_to_on,-0.410967199031,2.02704342515,0.998222849954,-1.00851335767,-2.29884844026,-4.47333604326,0.376814355928,0.606070169879,-0.16075493719,-0.589262955988,0.265508013786,0.662699601033,1.32952727246,9.65438709091
off_to_on,4.33865984896,3.94869296538,2.47732096654,-0.283100089151,2.33180637616,5.84271710718,3.37537390774,3.41558804226,0.171190527008,4.30620324545,2.08189736852,6.35613157291,4.65465002146,33.9637745906
off_to_on,-0.764069436109,-2.80581161687,-1.89847366807,0.924590680409,1.64987645514,4.08660525466,-2.60417516602,-1.64453933113,-0.19868840065,-1.06917271013,-0.938467006263,-2.64447573452,-2.85421213067,-67.3483226694
off_to_on,-3.98654937735,-3.80372257759,-1.8543372379,0.826822255383,-1.96696628843,-5.96384151537,-1.78504163968,-2.83769106244,0.2305145422,-3.35392558654,-1.81083677786,-5.60531615956,-3.61155620848,21.842597617
off_to_on,0.901563466984,2.74671267457,1.68225485847,-1.71245960354,-1.93374815211,-4.39914605696,2.43928054974,1.06823944458,-0.244028271192,0.866741185821,0.637038897859,2.81687644923,2.66912173508,-0.814199728377
off_to_on,4.78472601522,4.72294606962,2.2519188477,-0.338721446912,2.67484181128,7.67809114915,2.11894808491,3.9357627189,0.255620398561,3.92258268226,2.64925515998,6.17833040163,3.84768993408,43.19312613
off_to_on,-2.78225752617,-4.42327411443,-2.59158440871,1.59624916927,0.831916195059,1.89594126696,-3.62039932826,-2.08386808113,-0.283769470404,-2.16885819938,-1.70984226209,-4.50123573989,-3.77942321067,-49.1275618041
off_to_on,-3.49352604542,-3.55067791143,-1.27971053799,0.591863794575,-1.9222284561,-6.76725761921,-1.17018584644,-3.60040525138,0.309163644495,-2.82070164648,-2.08999777944,-4.78581239551,-2.34496693479,7.06759452727
off_to_on,3.2363342912,4.60319367143,2.14130964151,-2.43145776119,-0.850728451409,-0.230116934243,3.28281307404,2.01442397504,-0.317660385972,2.11504942928,1.7561010024,4.5585910386,3.1296151978,-9.60325919633
off_to_on,2.47335729107,2.89391521885,1.35544048713,0.61215896287,1.91777275943,5.32762267314,1.69887136798,3.91013621154,0.330359187211,2.29841855877,2.24835591012,3.92613322774,1.8858521362,44.1656014358
off_to_on,-3.47176663872,-4.96135237966,-2.48769978738,1.54382438817,0.153700972545,-1.37637381881,-3.83794944257,-2.30561822023,-0.35673102998,-2.07663349327,-2.68573908794,-4.34015319578,-2.71681474374,-28.3753009554
off_to_on,-1.22077032798,-1.62558711176,-0.590018202375,-0.323076373113,-0.949939465863,-2.63116588951,-2.05886699891,-3.89825313024,0.374670774451,-1.70507465652,-1.1544263101,-3.25873441466,-1.34626655087,-6.35546104656
off_to_on,2.72592199614,4.16912438783,1.71444327031,-1.80853804137,-0.725979877795,1.2502912709,4.27527599895,2.00045026945,-0.379203131165,1.41846904417,2.27434754359,3.58418192206,1.60798705863,-6.27480944751
off_to_on,1.5822503977,1.86341038616,1.38488299994,1.20944475436,1.53222553181,1.18584038648,3.60738673165,5.2556795035,0.392389480601,2.53278200732,1.31868042289,4.13552494673,2.51488662302,18.2546738799
off_to_on,-4.20796528839,-5.37533339581,-3.04221363817,0.571921598598,-0.482541090131,-2.21655681425,-7.55596540465,-4.14055847426,-0.414759080486,-3.02027785536,-3.37354427521,-5.41402841025,-3.10391602259,12.2153432162
off_to_on,0.763923259785,0.548345821641,0.274624265013,-0.38995297139,-0.21341109372,2.29238975327,-1.40444182966,-3.6118934013,0.424992366861,-0.581114955619,0.647301499084,-1.8264179943,-0.723708503435,-8.75269172842
off_to_on,3.09744016884,3.76301623751,2.08243182601,-0.965097197597,-0.189822426377,-0.00737716993958,7.88581561266,3.78071245389,-0.426548726462,1.9886818284,1.99002498995,4.41746441139,1.98098117538,-57.2180286616
off_to_on,-1.27202883871,-0.883335323173,-0.219098178995,1.11360453551,0.640550541771,-2.74808352815,0.275713991916,3.50219267382,0.439164422435,0.520439379956,-0.543191001265,1.20277306347,0.735003440145,77.1987117668
off_to_on,-3.09907014307,-3.16315698399,-2.41766392955,-0.345405164348,-0.692749720692,0.79269279669,-8.15201867638,-4.49169217958,-0.455748957505,-2.04242392798,-1.87018057319,-4.12108565004,-1.86875040923,-8.51994410642
off_to_on,2.80727127734,1.88879362439,1.57346586963,0.154920836851,0.341780630759,3.3938925345,1.28423812482,-2.21577881103,0.458669955912,0.308653987041,1.40312335274,0.0401877483877,-0.0138611699312,-35.9765345828
off_to_on,1.69837942396,1.29066149586,0.925393799855,-0.431888607417,0.167473622692,-2.21746491476,6.94523499618,3.96313309816,-0.4580118393,1.04253739601,0.248831277673,2.59980168703,0.687592225682,-5.43484382067
off_to_on,-2.71305272542,-0.922531642066,-0.904321829893,0.466821342529,0.238884918725,-2.06441188545,-1.1300926273,2.11116394137,0.468749317228,0.483994840273,-0.0775561792911,0.468590786286,0.92548524588,45.0070312543
off_to_on,-1.92495728387,-1.46812158082,-1.31548810805,-0.426577606755,-1.47688209514,1.06807395558,-7.25531615156,-5.01676284194,-0.478365504878,-2.16829862659,-0.855845615374,-2.98947432993,-1.50952571118,-11.86908704
off_to_on,4.57227935581,1.83998436543,2.08793603136,0.503313779387,1.35034904766,3.02390188905,3.05111732512,0.5397641718,0.474837369792,1.19387988709,0.566294524406,1.13111034585,0.385861963086,-52.7408889851
off_to_on,-0.620259496104,-0.574228421061,-0.539100448311,-0.461445736926,0.373170530873,-2.04366410359,4.38111907353,2.87090144523,-0.472413135762,0.646451820933,-0.274482017888,0.776748252486,-0.216852537125,81.6018080367
off_to_on,-3.19522469946,0.0956256967964,-0.645855345302,0.415876141566,-0.589224865007,-1.61641157209,-1.56523899673,-0.470253236565,0.479929550266,-0.359082897742,1.12065423739,0.172278747439,1.10848486867,-47.9078092833
off_to_on,0.625189581677,-0.218062329417,0.0348669106539,-0.584074615481,-1.28857870543,0.561675428089,-3.8354054197,-2.26123567565,-0.48206088161,-1.12906028666,-1.07460767573,-0.982481479203,-0.564589419882,-14.045840172
off_to_on,3.05259118908,-0.0966842230292,0.802537717251,0.652647186883,1.58336817066,2.4120168507,1.23049389469,1.32131432203,0.473219493945,0.948838835383,-0.629362213557,-0.051340200105,-0.943318937159,16.0569582331
off_to_on,-1.25594317578,-0.0288199227023,-0.682360799426,-0.478229923703,0.482809929036,-0.886636067791,2.40128420078,0.273042361906,-0.469155041291,0.477644644485,0.815108027125,0.378627972871,0.416432057271,50.8866326788
off_to_on,-1.86488179782,1.03682231825,0.399478433098,0.456680379086,-0.886674471884,-1.94433684384,0.369506016055,-0.145964525141,0.472276908193,-0.445013815438,1.51855962353,0.864488518952,1.63490592316,-49.0372068738
off_to_on,0.235253868177,-1.17333938772,-0.412155282016,-0.558957840506,-1.22637559945,0.416662419969,-2.57295752682,-0.177943911397,-0.467055461966,-0.912579000354,-2.17026285735,-1.12609800608,-1.55797156568,-62.6091056785
off_to_on,2.5291034821,-0.0239265302084,0.226031076583,0.363824750415,1.77370589369,2.60267028078,-0.243025646064,0.261874587956,0.454124687459,1.19129474666,-0.482518153468,0.0156189009845,-0.547694448076,87.1666140486
off_to_on,-1.16490326508,0.140063882321,-0.242370262013,-0.175560388666,0.0209953493791,-2.29222191585,0.938181881545,-1.24499417495,-0.448280065635,-0.572924532718,1.5302757413,-0.29378429599,0.519007789741,52.4967846023
off_to_on,-0.862227086035,1.47132950427,1.01951038582,0.486839771297,-0.365893174171,0.088166028391,2.21234090101,1.94364061634,0.4461705538,0.995605301154,1.38746409701,2.01278634622,2.07217002182,-101.865707698
off_to_on,-0.67661405148,-1.75966313628,-1.28698326605,-0.735042548661,-1.08398914031,0.968480718795,-1.90959754824,-0.612971394775,-0.434288680537,-1.41078197039,-2.89675897294,-1.65194963616,-2.43149472883,-53.005694196
off_to_on,1.95627674069,-0.368627597416,0.0286422204928,0.340131373418,0.93418035744,-0.547116187673,-1.42718978052,-1.09644258367,0.418430547619,-0.340644981497,-0.236877918464,-1.19504942123,-0.851526940799,108.77514246
off_to_on,0.401712742064,1.38987328079,0.88205539626,-0.0553048824502,0.453554361543,-0.986892744844,0.947201590885,0.777484708146,-0.410503089146,2.00034365245,2.53007590978,2.07275360749,2.52190019708,74.4158053529
off_to_on,-1.89134457989,0.506612079057,0.266490058688,0.524472563383,-0.00346498723287,1.94901893657,1.22486013074,0.672090581539,0.402772993146,0.0226717286656,0.23173287929,0.805902063963,0.415629898357,-146.166658594
off_to_on,-0.586464205081,-1.78521486686,-1.49342222221,-0.877110691151,-1.18689290184,0.116425877813,0.188132850718,-1.18754681301,-0.385346961093,-3.0549515218,-3.0527037512,-2.79048127108,-3.06251879837,-50.1784472348
off_to_on,2.25355274601,0.102056811432,0.580062470546,0.421673091619,0.367335436978,-2.44416527085,-0.880804356873,0.738498774174,0.367560861897,1.55746755426,0.991159339994,0.415377752705,0.888401972055,119.515253124
off_to_on,-0.258907153474,1.11781440031,0.644469824668,-0.00170261201225,0.600835716199,-0.279325854829,-2.50471913307,-0.213696509116,-0.357211246025,2.44574711827,1.92028670281,2.20334047302,2.23490588031,101.555822358
off_to_on,-0.767465605753,0.853476272269,0.239527760817,0.235254445663,0.760202501002,4.56246078414,2.93911439699,0.0857900833888,0.343964944304,-1.66236062066,-0.512943711641,-0.0943481226222,-0.629872021839,-174.4900918
off_to_on,-1.27492758281,-2.54791868195,-1.51503690798,-0.407323792518,-1.81240911884,-2.1086148788,1.74556849241,-0.676999518477,-0.322375310845,-3.27279556655,-2.26775476049,-3.51053897578,-3.14650495403,-61.8977609223
off_to_on,1.62035636338,0.557369704321,0.643214136503,0.196543894732,0.0981153682967,-3.84955200731,-2.40891959113,1.2126372309,0.303450566252,3.69801078552,1.42928759376,2.17300834361,2.49918865084,126.649346378
off_to_on,1.02348202166,1.88563388413,0.814205918692,-0.298151981265,1.26306851086,2.59304886703,-2.41730383139,-0.222887461533,-0.290428088755,1.78065350178,1.12914406686,2.32557482164,1.75153029659,132.371639056
off_to_on,-1.42087672483,-0.623161693061,-0.286838956243,0.658207988615,0.276359542875,3.88817230862,2.68632873699,-1.18069039709,0.27224576119,-3.90772291817,-0.900533585275,-2.54911620968,-2.65191687898,-194.085030891
off_to_on,-1.29883894498,-1.78019709007,-0.935732417123,-0.421053853936,-1.55710471803,-3.68434660102,2.19586129148,0.335442709137,-0.247978074066,-0.929904280648,-1.08882476166,-1.54855869326,-0.902442432984,-79.2576632099
off_to_on,1.58960450597,0.859378737979,0.535585473017,-0.138936686497,0.141489091483,-2.84796247777,-2.20667024235,1.46249548869,0.228495452951,3.86696022517,1.02700414658,2.52627880429,2.50725410114,130.407575395
off_to_on,1.14833094868,1.38976247545,0.34857810357,0.00986616164374,0.985407284975,3.90525618139,-2.13065495058,-0.593930635884,-0.212742110675,0.266871796689,0.581662871323,0.910108973974,0.227309356415,159.007264333
off_to_on,-1.26725661098,-0.464946432954,0.157707205107,0.48037598029,0.294683594269,1.77740112263,1.68890127857,-1.41549808743,0.190607812355,-3.26292509775,-0.524938210381,-1.74531173589,-1.7667555319,-199.694383603
off_to_on,-1.60821536995,-1.88626327886,-0.813163979475,-0.334982342586,-1.21649052135,-3.85388844587,1.42529753685,0.178456262518,-0.165113037952,-0.916345126423,-0.979562414771,-1.70179801855,-0.778837763959,-103.873605832
off_to_on,1.94750058797,1.04982262957,0.153471483199,-0.0704574252793,0.078995397685,0.0384931547143,0.384144912654,2.44584478325,0.145484176825,4.33893064759,1.05757297071,2.48560379593,2.41343159155,135.217029986
off_to_on,0.451825609228,1.36582836302,0.341376350001,-0.0947967332274,0.5917791397,1.86424900209,-2.65347839251,-1.26043133838,-0.127202977578,-0.0720801211257,0.408136595343,1.22252048329,0.0360568401243,176.153246469
off_to_on,-0.658699783724,-0.578885906534,0.45105376005,0.296240742663,0.421064301981,0.199590216993,-0.85433410108,-1.86817192478,0.102393939735,-4.19389616165,-0.803567978983,-2.25260961284,-1.92426958744,-192.144870776
off_to_on,-0.888847062431,-1.85621758001,-0.717449568058,0.090221436192,-0.744127267068,-1.01789160153,3.11118791633,1.28981189291,-0.0769818484205,0.472012398339,-0.379009287815,-1.47492785751,-0.141773956828,-131.294248076
off_to_on,-0.0704547455532,0.804241509104,-0.467937763033,-0.223925375695,-0.467164220156,-0.35282628266,1.12596351023,1.40140196028,0.0575116010593,4.13621523692,0.836760619309,2.52579736606,1.81565094647,139.989014235
off_to_on,1.84771664615,2.36474796446,0.959918235876,-0.420519442818,0.941280947032,0.714366350317,-2.74476993329,-0.838338714746,-0.0371915845679,-0.740415330217,0.257166591601,1.63117084249,0.424762992406,183.623855484
off_to_on,-0.185489531883,-1.92349999984,0.207077548163,0.621415052244,0.109891585254,-0.157193031004,-2.27194207959,-1.38098047586,0.011146935296,-4.39342627225,-0.892591601753,-3.42072382843,-2.39539927912,-175.273675521
off_to_on,-2.14716428019,-1.59105948861,-0.852739176779,0.282828057242,-0.769822987882,0.00619119862256,2.94730347417,0.559248491114,0.0130812642413,1.61509345867,-0.030706315389,-0.558997085944,0.268786054711,-156.509975494
off_to_on,0.448158073284,2.30159056651,0.00824069662756,-0.830601124517,0.180435183776,0.629418296452,3.2990172196,1.37972182807,-0.0321255729423,4.00973463038,0.801135217343,3.3414539981,2.1720580443,142.785656055
off_to_on,1.98395097855,0.474529119697,0.392085874173,0.0593149676657,0.392627569184,-1.05697629212,-3.65767924437,-0.521882535371,0.0537279599345,-2.46950122343,-0.138680748586,-0.77748929612,-0.894018575717,183.271217494
off_to_on,-0.0905891030672,-1.62204090331,0.307945279532,0.630489864978,-0.150722441375,-0.423140147259,-3.24794128342,-0.793194461384,-0.0795409197644,-2.65263600267,-0.533881261869,-1.67667489405,-1.05354769352,-153.312425956
off_to_on,-2.48070120065,-0.234751809184,-0.301298255628,-0.0372346299662,-0.272995406237,1.29828560868,3.31211358704,-0.278503211091,0.101721006096,1.83847940315,-0.0334508921475,0.253852724551,0.156845477879,-176.675090851
off_to_on,0.201081476581,1.00418607513,-0.697897424706,-0.718103865331,0.099928739156,0.613587449358,3.60445873693,0.623664732269,-0.120047937193,2.23907239112,0.447983052214,0.783169807585,0.708894782192,143.306382799
off_to_on,3.17581628855,0.750150838113,0.8422910234,0.351436244134,0.595825526844,-1.10823664883,-2.61694624694,1.51842713104,0.141965248445,-0.852339605207,0.522782671309,1.20898036928,1.20302738556,177.305687764
off_to_on,-1.36368921207,-1.52961071137,0.0322005648755,0.387001541314,-0.827647385209,-1.96063202125,-4.9996634906,-1.80998687425,-0.166171550717,-3.36682695692,-1.23986789257,-1.96750409718,-2.18455732242,-130.635626425
off_to_on,-2.44720770384,-0.187199135784,-0.221781118287,-0.254388641808,-0.0110712352256,2.49172945726,3.68808110717,-1.00696178525,0.185671466047,1.80154629547,0.146066727792,-0.716974846464,-0.604356041472,-190.015268635
off_to_on,1.36368007961,1.21491786452,-0.378212182331,-0.439928859697,0.611839158325,1.52519162593,4.31804342769,1.58999713556,-0.202922488822,3.00510942709,1.02461199425,2.17592331835,2.47232614423,141.903316823
off_to_on,2.53492555957,0.377659996677,0.442885422679,0.664708287427,0.436742337152,-2.20349142484,-3.33097379037,1.20961820603,0.224060054046,-2.07783590011,-0.197679997436,0.438746997771,0.470297670087,167.922866851
off_to_on,-2.12591673161,-1.75629457623,-0.0566110464126,-0.314302357332,-1.43712523202,-2.2076828034,-3.9874305825,-1.63612170706,-0.245472846365,-2.71897036311,-1.21974407775,-2.62859612485,-3.20183054075,-110.748983592
off_to_on,-1.91761887678,0.263641011478,0.0930744050692,0.026365719943,0.0313408839586,2.36113786096,2.8397979599,-1.21772914424,0.261863911611,2.36272495365,0.850764258599,0.440950543041,0.438972199803,-196.16132755
off_to_on,2.56727845289,1.83044586004,-0.201602833039,-0.132852157508,1.64214375008,2.76909696653,3.6057337295,1.45355456855,-0.277595533751,2.10620370579,0.489641504486,2.52005981795,3.20188519196,139.475837771
off_to_on,1.29086258385,-0.781445700778,0.0475122093742,0.424381095966,0.0385028223925,-2.23747897392,-2.01344319227,1.53878075422,0.29682969059,-1.98179695918,-0.500250743642,-1.14314697158,-1.05877064421,156.987196116
off_to_on,-3.44668544639,-2.34182289997,-0.406905322972,-0.548224876377,-2.76992614439,-4.19915058777,-3.92439797676,-1.95036423425,-0.314514793285,-2.39029385616,-0.647775209765,-2.62252438903,-3.44346048276,-95.8978297222
off_to_on,1.0270980017,2.7750221222,1.08853533103,0.37308698906,1.48042247122,3.84295050735,2.65429603315,-0.526414413215,0.327529842394,2.82719836467,1.12046498766,2.97369090973,2.74978048659,-195.956654876
off_to_on,1.53352537117,0.364072588829,-0.688883565283,-0.141857741734,1.94320720464,3.25954133677,1.89975547056,0.492670604162,-0.341222369945,0.892610110965,-0.59620204951,0.288007081924,1.46832497708,137.404650355
off_to_on,-0.555891530041,-2.088240564,-0.331521468451,0.219649433592,-1.28709755268,-3.18782515958,-0.674793916942,1.78354524132,0.357499839339,-1.4085270219,0.111312947782,-1.70687272693,-1.73304623293,143.734078597
off_to_on,-1.42810689497,-0.40148215064,0.0393236763795,-0.563331291211,-2.37760669323,-3.92618174749,-1.90435208386,-1.18337926139,-0.370807588269,-1.60178260033,-0.0488145718795,-0.512718079757,-1.74783678371,-77.837950546
off_to_on,0.91721325488,2.52437114334,0.957352189624,0.68423438959,2.28415641008,3.69682653809,-0.376101492881,-1.49651531038,0.380296593667,1.53006051897,0.139964192564,1.76355271515,2.10633218823,-213.627934141
off_to_on,0.759523755047,-0.167319272025,-0.439095626935,-0.361976087825,1.33465499774,3.41516646372,1.88102774055,1.12700758632,-0.3913865706,1.5815860998,-0.370202910576,0.319894098482,1.26533888134,167.852602093
off_to_on,-0.423726448049,-2.352988991,-0.618735862479,0.0834681628077,-1.68868257015,-3.01008198654,1.44059809856,1.61009385698,0.403813098437,-1.32417431843,0.664296190557,-1.43735666616,-1.85613730445,120.026689384
off_to_on,-1.27633315995,-0.1652980342,-0.344748803186,-0.334237786203,-1.63431128532,-3.89854461895,-2.71381985076,-1.88669447144,-0.412380320952,-2.07210050306,-0.600897892571,-1.05732778382,-1.67419305559,-111.383845033
off_to_on,1.22492597935,3.41325152564,1.82527416246,0.716577519185,2.23606682663,3.24145307425,-0.873552624078,-0.174208722259,0.418272232335,2.20440340147,0.168545374129,2.625168163,2.99114508357,-131.182459583
off_to_on,0.445292975174,-1.03158789751,-0.684181088394,-0.512736328333,0.562859319315,3.12998110381,1.82383467333,0.625701226541,-0.426202165944,0.783290206075,-0.0418055418002,-0.127644103672,0.15838259619,121.852814822
off_to_on,-0.331472772016,-2.61523653185,-1.11424487148,0.0102571576833,-0.905934471261,-1.55777732681,2.05790823616,0.948559157367,0.434111355634,-0.705370980178,0.59607745462,-1.58210497271,-1.80064906522,86.4622264565
off_to_on,-2.05646103542,-0.0215293614947,-0.294271308222,-0.17009565238,-1.7717274536,-5.06036585386,-3.3807885754,-1.75267810013,-0.437839498131,-2.22105730887,-1.13619125437,-1.18990662819,-1.10605438836,-68.8412207618
off_to_on,2.56935523604,4.4250389269,2.59835441141,0.865517547519,1.95256952065,3.04344458797,-0.0285780678884,0.777608971679,0.440116150877,1.92458356129,0.694070175283,3.20772412388,2.9640979838,-106.157297687
off_to_on,0.682866323586,-1.57052793786,-1.03496540839,-0.91466033763,0.854027257179,4.3455295533,2.02860832706,0.638425624858,-0.444375790779,1.34452533368,0.394789460083,0.0208537419064,0.0197200776089,69.8409314839
off_to_on,-3.04440271156,-4.19853532359,-2.04159549233,0.227613331372,-1.3927829663,-3.38362636554,-0.423281736121,-0.932502164362,0.447110059501,-1.5579198886,-0.553443535882,-3.13782897516,-2.68543485775,71.7372684083
off_to_on,0.348502246193,2.20378948584,0.92439897025,-0.0961977461033,-1.08358645234,-3.63544772304,-1.09178398445,-0.429834560997,-0.444544585244,-1.3318647378,-0.686219969332,0.589452313726,0.370653833657,5.88951529209
off_to_on,3.56007279804,4.29489241193,2.52507650319,0.750414779478,2.00163210155,4.18747169634,1.18904191339,1.8746180348,0.438513632828,1.87265201484,1.53535179216,3.09656833626,2.77098567961,-140.719713501
off_to_on,-2.5231101195,-3.70472698207,-2.10913906644,-0.812214991819,-0.365008624312,1.02097323555,-0.971431742151,-1.13800847335,-0.432979515407,0.0378641719826,-0.652557944039,-1.9890310111,-1.71080410961,28.0966313994
off_to_on,-1.59900328293,-2.30183686676,-1.03941445926,-0.00940462273444,-0.426581220234,-2.35455310603,0.169285695477,-0.668645529063,0.436301068693,0.0535985611321,-0.42482174943,-0.797273938504,-0.762660193378,119.545414762
off_to_on,1.88054048416,2.4538838728,0.901976355212,0.192063367846,-0.43577842069,-0.62118503387,0.330896497816,0.151242520379,-0.458108507434,-1.59458202857,-0.167021684245,0.242798553024,0.209943571249,-12.3538317434
off_to_on,1.95254308064,2.75180630289,1.8128373706,0.667371002398,0.813727337332,2.28715438903,1.22312629114,1.99298408411,0.479457953718,0.849814473985,1.26949349017,1.43665730214,1.53433244557,-89.8034474941
off_to_on,-3.21683556527,-3.10374702419,-1.5726133762,-0.967614680777,-0.53648074836,-1.90816849131,-2.19298575574,-1.59699218538,-0.451924071391,0.679475240084,-0.856880802561,-0.767460010712,-1.12382909697,-77.9389922647
off_to_on,-0.168029933588,-1.42664068146,-0.936242979812,0.192177740219,0.746779784276,0.551574752373,-0.501587148694,-1.0067217007,0.379819948463,0.398847106506,-0.206691235077,-0.195563506202,-0.0320535319343,182.640999816
off_to_on,2.40270977188,1.92922201672,0.624692521948,0.0860980690022,-0.690243878225,1.82542053717,2.50384614337,1.16976091889,-0.358585632033,-1.65006595599,-0.0167845666886,-0.441506798373,-0.105496760649,40.3764979105
off_to_on,-0.0796966751684,1.63821263348,1.65060321238,0.678342484461,-0.324616304323,-2.03956560367,0.741508135087,1.1851327645,0.432366860732,-0.197194646611,0.787092926804,0.309284946495,0.0572363119106,-183.889462333
off_to_on,-2.31825389292,-1.73623180074,-1.16633434075,-0.977795415287,0.631443367948,-1.7066521718,-3.55759312062,-1.44751901369,-0.476734679646,1.7334192295,-0.407188677078,0.938693025718,0.728590374418,-46.0866132874
off_to_on,0.850868224555,-1.14510602302,-0.937732402458,0.284505512444,0.72042948737,3.37130079,0.0339222243772,-0.528443999624,0.380834098073,0.663802691808,-0.231922943424,-0.011502517084,0.148025778857,195.708075814
off_to_on,1.09228946126,0.5136350208,0.202616240678,0.0215105107857,-1.67641450952,0.496625976982,3.20204028379,0.354881575354,-0.267504289533,-2.97801035547,-0.442479818697,-2.38637076941,-2.24775993158,64.3832850444
off_to_on,0.444629372982,2.37293478919,1.89477518248,0.485775054852,0.621743072757,-2.48609750706,0.845952221524,1.82750522841,0.310192000368,0.927891546662,1.28983196419,1.72706648503,1.70838519909,-261.567032648
off_to_on,-2.5064777206,-1.57428148423,-1.0319326452,-0.590783052319,0.752458684665,-1.48007116025,-4.7942884219,-1.6308012528,-0.418932959879,1.59614394573,-0.623717512499,1.08480642111,1.07661625647,32.6755112494
off_to_on,0.882050065628,-1.16472623784,-1.03664707071,0.0966233810622,-0.285855387154,3.42865318235,0.648545656631,-0.677351061072,0.390122194826,-0.0117351629445,-0.398730029996,-0.752388882863,-1.20008354286,168.568259353
off_to_on,1.73498186974,0.423524575191,0.127242081198,-0.140312862821,-1.15263864704,0.371161002298,3.95854642496,0.817641809125,-0.276729783755,-2.19554218923,0.00597699315826,-1.9071981978,-1.5504922164,27.2833681065
off_to_on,-0.645460635707,1.63442883283,1.66824060649,0.676060438293,1.10523959174,-2.06867842139,-0.564174701023,0.897846125545,0.277878196718,0.49180802994,0.829203945948,1.25277777645,1.91530254247,-205.585889707
off_to_on,-1.83424322094,-0.143110608395,-0.224651501944,-0.560802127412,0.595070855217,-0.623196997901,-3.25531254592,-0.586693815863,-0.348208817024,2.05730991893,-0.443192507564,2.00307052648,0.999239077955,26.3318880847
off_to_on,0.662790613036,-2.00869492116,-1.88282002669,-0.0143184187562,-1.34008697027,0.588912235621,-0.378935784607,-1.01657385301,0.286924998115,-0.965253486696,-0.342596753405,-1.8992429405,-2.06562163545,130.162321226
off_to_on,1.92342882773,-0.0660460222603,0.134862371658,-0.0609010585881,-0.393190916524,1.31225176494,3.11523690983,0.139266706208,-0.146317661461,-1.59742511754,-0.0166475604737,-1.55476597456,-0.426657782955,28.6357740391
off_to_on,-0.304584510666,2.96787248149,2.73780506817,0.500820792141,2.24060923571,1.73787317989,2.13271502554,1.97723089585,0.16137731575,1.68718078628,0.868167213373,2.73565962485,2.23925221286,-150.121035113
off_to_on,-3.17797152181,-1.23260084259,-1.48731349232,-0.313019990826,-1.10436652781,-4.28092090598,-5.10754509791,-1.15191496636,-0.305753658939,-0.251422772526,-0.715619300492,-0.511992336441,-1.11083600803,-3.14381983371
off_to_on,1.7080351154,-2.02496122086,-1.78990442152,-0.0798657140588,-1.63880121093,-1.83337175457,-1.52667991143,-1.32925917471,0.3079910068,-0.316577902522,-0.122982824669,-1.16542706978,-0.375012299034,102.098861741
off_to_on,2.77388215602,0.952625711838,1.45798090317,-0.182332426366,1.61784907081,6.51236066416,5.53899804728,0.767357532069,-0.125877318717,0.287880297739,0.27558812032,0.670817670007,0.3781477792,33.5215286518
off_to_on,-2.0457258906,2.1423142989,1.56085998751,0.497028186943,1.44470159426,1.48435828316,1.77356301607,1.95383185907,0.0297239619517,0.0127389289659,0.360224489766,0.526114042369,0.0518750765875,-96.3748178398
off_to_on,-3.08445160379,-1.56769348816,-1.96214857426,-0.0987400384344,-2.68227147959,-8.93692968477,-7.02091808593,-1.69358910315,-0.142494199116,-1.00669192732,-0.627316444007,-1.42979694826,-0.238329433965,-37.749665747
off_to_on,3.231351549,-1.25921319042,-0.535764213858,-0.222172169223,-0.10669839065,0.628147778029,-0.560298411832,-1.53181938542,0.250422160418,1.00425807799,-0.0235271809754,1.0024433963,0.385702968877,82.6939736342
off_to_on,2.64992500558,1.40422039003,1.65038430334,-0.262686428547,2.58820097196,9.61455727064,7.78298737383,2.46215808981,-0.190957637077,1.23962616751,0.697761826779,1.43894227427,0.0656619307968,33.4173037709
off_to_on,-4.62933858956,0.329329709795,-0.261353517817,0.60205671123,-0.952928634754,-3.19658411593,-1.65190982775,0.267937954142,0.0872426162674,-2.30894813318,-0.31015521078,-2.86867203789,-0.989159107594,-46.2695255659
off_to_on,-0.935095082463,-0.381004932885,-0.898657692053,-0.0187810626126,-1.95203941443,-8.13587909079,-6.80574980576,-2.27924945026,-0.0433901618735,-0.582871847407,-0.700562035157,-0.0515868091858,0.662310237277,-68.7807532087
off_to_on,5.01277708603,-0.138756971601,0.667444577691,-0.510855532987,1.70951830624,4.84929794463,3.50882817783,1.10204720142,-0.0314580811506,3.15795050697,0.789857191909,3.72531581339,1.01220279672,69.6273238262
off_to_on,-1.49700758564,-1.0379458095,-0.26846818127,0.168030899326,0.601489696741,4.68998678364,4.07805827848,0.750044518707,0.116570214716,-0.862084014823,0.225920779144,-2.09676583109,-1.51825546639,29.0026454067
off_to_on,-3.18071404863,1.49558939956,0.0742588867781,0.236476817183,-1.1439805442,-3.24217435499,-2.99484827062,-0.926710755837,-0.0210722229064,-2.34958020549,-0.610891191931,-2.40673015477,0.0511033682107,-9.4130488
off_to_on,2.0704065455,0.839580033364,0.407563777727,-0.0545113190854,-0.142345574669,-3.18630748601,-2.44192084331,0.177425382569,-0.156449980578,0.949820948902,-0.299838237379,2.45195475179,0.991334958126,-82.3125680575
off_to_on,1.3581394325,-2.38359069792,-0.659158909852,-0.0736318175861,0.520068460015,1.43614776577,1.82066356882,0.256477265183,0.0333864984225,1.7981321201,0.629108605369,1.17934185903,-0.462049032932,55.6591922265
off_to_on,-1.14970104995,0.326081430607,0.136748748081,-0.0998248959329,0.371553807316,2.97367302927,2.28967360789,-0.192977212318,0.323314502967,-0.289866062786,0.609626413993,-1.49490229958,0.085323993947,19.4959364399
off_to_on,-1.0269255265,1.70034500363,0.335576956424,-0.110117759804,-0.672312107179,-0.772733195152,-1.8779783539,-0.351015553542,-0.327234728962,-2.46200422383,-1.2159418714,-1.52142311106,-0.45748610571,17.6369783128
off_to_on,0.822743893735,-0.395623976349,-0.0329545051086,0.538964059085,0.0715293948556,-2.07003387203,-1.43515827224,0.868028772586,-0.0943100329725,0.898672343646,-0.245836194515,1.67743803915,0.155591461706,-80.2534083063
off_to_on,0.576814994102,-1.36187986256,-0.4336723338,-0.239693857632,0.1543973308,-0.623211132172,1.33885520981,-0.40771986687,0.208239770771,2.04139104255,1.23334668413,1.12800001317,0.493907831712,39.0744928731
off_to_on,-0.00149684499544,0.664810792927,0.451612505034,-0.411508648948,0.204981704604,2.33746753285,1.40592907631,-0.483699974413,0.260420927729,-0.777216837887,0.316877769139,-1.32459934918,0.18344104308,8.1959217964
off_to_on,-1.16772486073,0.393262558728,-0.281890908097,0.158890134365,-0.303675103777,0.766022335746,-1.56634916462,0.297806841963,-0.530693054093,-1.98238375619,-1.6920650559,-1.15484602229,-1.04623451338,35.7324255943
off_to_on,0.14346017674,-0.0627021576377,0.0859885313424,0.689869054921,0.0328733718816,-2.01245616895,-1.31017226094,0.299105322782,0.145082533412,0.792389306451,0.156229315513,1.25264193747,-0.141950790481,-67.8562895474
off_to_on,1.57760130754,0.117853930491,0.249038233373,-0.753811014269,0.0755175929224,-0.614226430652,2.68381553951,0.347987010192,0.134840847857,1.89386940894,1.60264275579,1.17563757301,1.5698925728,22.3347764909
off_to_on,-0.888588105662,-0.730194726021,-0.23948208715,0.0781728519857,0.0860922481333,1.05325774366,0.0163044844155,-0.759551086738,0.271299099261,-0.76459790431,-0.197829252952,-1.50111987027,-0.0719937881407,-2.56120086984
off_to_on,-1.50817535117,-0.392437227904,-0.571337225007,0.204791052534,-0.377625049611,0.594865673469,-3.59547664837,-1.23718051895,-0.635700784657,-2.18703063547,-1.95828190544,-0.958047044425,-2.33065012118,44.6717277344
off_to_on,2.41620191907,2.18105785048,1.28960579666,0.0438314661248,0.731386086466,0.905441763546,2.89653117829,2.85632326728,0.294464143708,1.86025235418,1.01551797676,2.39869853954,1.45038582028,-49.384563968
off_to_on,-0.879757614976,-1.26413554994,-0.713607277127,-0.276283525009,-0.759723932138,-2.72944450052,1.72324082303,-0.336058541234,0.0700698340068,0.538219378239,1.05596076235,-1.30262254992,1.0882949712,7.80386456893
off_to_on,-1.05369780739,-1.02003013596,-0.485396651907,0.525105541018,0.171377935465,-0.371411618875,-3.48536339605,-2.82034029341,0.251566289544,-0.60751259463,-0.283879555363,-0.319980355486,-0.571406699959,-11.4121488307
off_to_on,1.18310468025,0.70531095017,0.527975200863,-0.738617398909,0.314429518004,3.1330763425,-0.939956167795,0.725773963225,-0.632850994953,-0.957396964016,-1.65213971714,0.977777988003,-1.73170737745,45.2282594942
off_to_on,0.343624383723,1.00796708309,0.532326678968,0.382212159512,0.149669646834,0.538521408567,4.73371114065,3.40348013767,0.363069269173,0.567259539966,0.771156819332,-0.749933998171,0.819590401408,-28.4418365816
off_to_on,-1.20163544032,-0.405520014275,-0.833720172184,0.173935763957,-0.896325883441,-3.98157802684,-0.956472519229,-1.84132096782,-0.0162477779908,1.09060918788,1.32890300955,-0.176787182164,2.0551244439,-5.45112926563
off_to_on,0.19736590768,-0.883794036961,0.0393568411244,0.13280887896,0.644004396738,0.201452627415,-4.90339741516,-3.05535869441,0.269415858527,-0.600126129264,-0.449347018889,1.27675296,-1.15891106767,-7.90072817496
off_to_on,0.483466391376,-0.608009212879,0.0151627211969,-0.870601747505,0.201574426255,3.59397150484,2.65331547926,2.09617255213,-0.597000182509,-1.62894054572,-2.05663400301,-1.41616129135,-2.65299368442,18.7880332241
off_to_on,0.98332158583,2.40425858046,1.04388402246,0.638595317725,-0.109698104134,0.216292813592,5.10792695289,3.66310628803,0.389416357745,2.01934461076,1.70055426466,0.391416387576,2.80745486414,12.3351420187
off_to_on,-1.97305374044,-0.704899389838,-1.07210201841,0.14178564111,-0.857932707561,-4.47184045006,-6.02135176714,-4.04239248761,-0.13668392692,-0.0946149216881,0.795557725198,0.442485306359,0.93178376856,-7.75875744251
off_to_on,-0.0300342714749,-1.53369261121,-0.350198877574,0.0746339099492,1.09628122241,1.32890922208,-1.62428654532,-1.62981701054,0.357358461451,-0.825249887726,-0.979770348438,0.0765837549311,-1.82811863291,-58.6973668675
off_to_on,1.57728209448,0.0402822202187,0.489331287947,-0.846417833605,-0.274754073445,2.58800323883,5.59037059942,3.08929640864,-0.578126817339,-0.578198078046,-1.20574639178,-1.26880635743,-1.46854045426,77.5827589361
off_to_on,0.94445267426,2.23074520518,1.32059250149,0.632554990061,-0.212001573863,-0.0193850488752,0.0456933954179,1.86368606067,0.376526728843,1.53105727876,1.74904150177,1.33961072311,2.64578888833,-8.54263502308
off_to_on,-3.27947078033,-0.838857700425,-1.66101154521,0.0258347746823,-0.193441213537,-2.80261272454,-5.36910482833,-3.60058239598,-0.219257708312,-0.251073560917,0.0932229295035,0.135825086796,0.378768074687,-35.1139001268
off_to_on,0.270871616392,-1.42334764996,-0.619676241277,0.333640754822,0.527663844578,-0.126752049614,1.8635082663,-0.979042201966,0.435522701762,-0.939235875988,-0.999450511364,-1.18779407755,-1.92138131894,-6.2463573489
off_to_on,3.48310521838,0.319820060486,1.51696398889,-1.00323882874,-0.371042106997,2.26403459259,3.75128986397,3.05255290677,-0.562695910853,-0.00244173741992,-0.34064215461,0.218261850819,-0.477212727005,45.0012206654
off_to_on,-1.03640586237,1.42415244133,0.826080836236,0.592104686151,0.32235057158,1.21933294094,-2.24688007808,0.974743633587,0.358202852478,1.15005269138,1.49269186845,1.15948922245,1.83813101027,-12.0443175643
off_to_on,-3.71278263784,-0.213504806228,-2.25195944032,0.0816457823718,-0.435816397447,-3.1124366559,-2.66851923693,-3.26779947857,-0.277428128207,-0.506468819085,-0.778081890119,-0.725373925423,0.171513476818,-52.228390433
off_to_on,2.7769554917,-0.661969031266,0.400321221708,0.237884541523,0.34516725749,-0.520714928344,2.79583688863,0.230656933936,0.484262958568,-0.0988054831437,-0.307035320148,-0.132635717755,-0.869929906413,81.9576458643
off_to_on,1.2866602915,-1.83342304837,0.790646046147,-0.709402854132,-0.458680146245,1.87821338084,0.0701696626763,1.40704610371,-0.536949350581,-1.17766193791,-0.0903075270258,-1.01619805351,-1.81027708343,-48.4827832397
off_to_on,-0.93147321269,3.04946860653,0.919982232752,0.386863634982,0.970531591606,2.12076716381,0.0251267910145,1.21518545093,0.341693618686,2.10370015103,1.28960596805,2.31324333033,2.83299274879,-15.1880792307
off_to_on,-1.96922340776,0.490530881782,-1.62552065935,-0.184328154626,-0.84945838982,-3.14538259337,-1.30852525712,-2.06501441078,-0.318526985279,-0.434744307262,-1.25993591506,-0.564990574282,0.289276591108,17.8910915307
off_to_on,1.03785264144,-2.96610289271,-0.425668693029,0.65425035568,-0.156993051425,-1.15444296333,-0.126976049826,-0.688860638654,0.499660105299,-1.42413416332,-0.152517797826,-1.98031730607,-2.35605352631,51.3503872336
off_to_on,1.55789293647,-0.32827794395,0.98143859778,-0.739930998693,0.442298075924,2.30553471066,1.26947540804,1.32877428513,-0.494767432771,0.538416051157,0.844679729902,0.90366767009,-0.00635725385632,-51.3522104556
off_to_on,-0.373715413601,3.34783481241,1.24919675585,0.236665870316,0.535732343969,1.18456903437,0.66480384481,1.04071037708,0.324143389004,1.18060535851,0.196617048112,1.93935657046,2.22376584459,-62.0414484915
off_to_on,-1.9193093598,-0.431078434629,-1.57869346295,-0.26757255117,-0.965063610059,-1.41813379189,-1.52875794265,-1.14336334133,-0.340523573297,-0.732069678809,-1.1737950429,-1.48455544135,-0.557686641432,89.0886678284
off_to_on,0.697611328684,-2.59185528157,-0.792325630026,0.668802503633,0.201360849077,-1.17476332894,-0.406343163348,-0.684224812602,0.479787646283,-0.330918512349,0.640483533469,-0.942313196467,-1.1927700511,51.7671163218
off_to_on,0.970357643813,-0.356924764805,0.711943459533,-0.355910364643,-0.0535893504767,-0.817277071685,0.0504707578363,-0.456249182385,-0.433442386247,-0.600201066953,0.0163666452546,0.339655175622,-0.466558467207,-104.933844563
off_to_on,0.523087802521,3.52956284022,2.0167724072,-0.0269140777321,0.860437673502,3.81951462223,2.65539692556,2.57323282205,0.301289593216,1.66737939463,0.482420829375,2.01547533105,2.09064728371,-48.845212253
off_to_on,-1.69075505818,-0.625556298423,-1.62833940588,-0.568566045304,-0.647834841054,0.258144100771,-1.08658091752,-0.554018105066,-0.343098632673,-0.315422827994,-0.775685102515,-1.30271332279,-0.491985155962,108.050270934
off_to_on,0.111037039708,-2.55122403942,-1.50902255727,0.950630781917,-0.402660343352,-4.48022930356,-3.02435088054,-2.16172865509,0.431574984774,-1.12712193267,-0.030117482534,-1.01928088549,-1.0445740594,72.3531767989
off_to_on,0.312346984709,-0.447506277023,0.91827523707,-0.033193409033,-0.120160839811,-1.04645054539,0.819670628296,-0.133966933527,-0.358252139456,-0.279895452871,0.181004701251,0.34308739134,-0.372610731666,-146.961344486
do_nothing,1.32897642501,3.56153648054,2.56760585955,-0.474259067591,1.48752900122,6.56413160059,4.62779313606,3.06074963233,0.270119860718,2.01265966764,0.94911641594,1.62916407733,1.56953260512,-45.1493016482
do_nothing,-0.377252237519,-0.00237583873511,-1.66415040566,-0.655975380864,-0.577278791421,0.19610747267,-1.90685562931,-0.320918672199,-0.324208896266,-0.531988972912,-1.02682529423,-0.545932066316,0.0523054411861,116.840777432
do_nothing,-2.39761395323,-3.85799953384,-2.53523467317,1.36071204817,-1.47582223676,-7.41678395847,-5.23050496062,-3.13237079182,0.361915625348,-1.90523188517,-0.536978347276,-1.62500908872,-1.44350790888,98.3960012493
do_nothing,0.734362845193,0.378634671206,1.79787653837,-0.203073051999,0.589519359884,0.289291712955,2.80096223634,0.393455041959,-0.276304393014,1.12636250406,0.887446093533,0.624680969868,0.158210407804,-172.787514964
do_nothing,3.74240706581,4.39201804975,3.08683646397,-0.735468824001,2.12575708502,8.33937226163,5.72299954355,3.55124791528,0.230103196593,1.66344769638,0.770944041818,1.78666684118,1.35152809716,-56.7352104127
do_nothing,-2.82776332364,-1.95421909841,-3.18295602648,-0.0321643633148,-1.72227890743,-1.6955452558,-4.45998120046,-1.4340866364,-0.283394710656,-2.31770768086,-1.44285145296,-1.73308858024,-1.17116301888,122.581373141
do_nothing,-2.44414729323,-2.80439278221,-1.6600469658,0.718269029923,-1.1607310724,-7.16724334893,-4.16407271638,-2.24223759635,0.276753986931,0.504784379193,0.15238661799,0.246413658575,0.751624568663,128.171560637
do_nothing,2.83390072683,1.35742310839,2.65217157694,-0.203374809382,1.24046929394,0.780893525033,3.72225493142,0.507680804434,-0.192893097589,0.955520752292,0.457367621748,0.19402017401,-0.427883080531,-190.250577943
do_nothing,1.97219404347,2.62542357942,1.32562991164,-0.00564208142417,1.3173269801,7.51233305381,4.23870887373,2.51982752727,0.181612116292,-0.842936737641,0.327587222337,-0.331542880392,-0.870488177867,-73.970023572
do_nothing,-3.07018314801,-1.35764436915,-2.48689848933,-0.494888515957,-1.40321060059,-0.542369095464,-3.71840522353,-0.501795475481,-0.222817794245,-0.0860394018537,-0.360140567059,0.645785529177,1.36495349162,125.309465178
do_nothing,-0.987304603826,-2.16928383982,-0.669731279793,0.205403241011,-0.929433312918,-7.51800269933,-4.09949480948,-2.51018105399,0.182181352321,0.887782172954,-0.347131162523,0.267589820609,0.760451727836,153.834597857
do_nothing,2.58580212964,1.05174195734,1.66692723342,0.511523747112,0.929254188324,0.169790344318,3.97185021689,0.619459417924,-0.111519021674,-0.55616993793,-0.0762618569844,-1.26081799932,-2.15940975855,-194.320942258
do_nothing,0.243387432129,2.01158924692,0.725125029562,0.100198476032,1.10000061808,7.25859695721,3.24947063901,2.28138945124,0.125304192285,-0.812939615356,0.780747021522,-0.0719509892326,-0.21038877251,-98.2644538899
do_nothing,-1.67545041606,-0.917831569159,-1.1615078576,-1.08971196502,-0.764159122358,0.774244753039,-3.70347321276,-0.715523455419,-0.146451608862,0.929572542511,0.00603425868537,1.45267295371,2.25757931867,129.49914111
do_nothing,0.102422990609,-1.69592516807,-0.87263715073,0.309415870724,-1.0632979531,-7.30148240322,-1.82882765556,-1.62386661638,0.0839580361168,1.1098677332,-0.669402415545,0.431451676793,0.141741110891,169.982076025
do_nothing,0.182926899596,0.298625274964,0.635016375692,1.01490618415,0.155079630483,-2.4088686391,1.5918579922,-0.261900552968,-0.0339706747013,-2.08589373429,-0.52215507751,-2.48361629008,-2.82202393346,-185.909252801
do_nothing,1.38416199129,2.46471365135,1.66899622139,-0.413349725828,1.86974198774,9.21158386255,2.61813405762,2.50680634736,0.0620340355569,-0.0631020413249,1.22590784206,0.582557159199,1.00615985169,-124.930703638
do_nothing,-0.908395216892,-1.17328608966,-1.26770370878,-0.927393733575,-0.546701249836,1.96299507658,-0.751480828072,-0.00454477611361,-0.0594813463937,1.82642139577,0.411980302287,1.86972687936,1.70100508802,133.813645663
do_nothing,-1.63854305658,-2.03038324192,-1.53247775325,0.513706732907,-2.03822456207,-10.3680988005,-3.57759951139,-3.17841423488,-0.0126172862961,-0.239027110333,-1.48654558975,-0.459639568197,-0.773555898148,176.510423333
do_nothing,1.9669084483,1.82517538082,1.83119204931,0.599037262721,0.994257166596,-0.552857357421,0.711164919805,0.919655314577,0.0389799801952,-1.43395305589,-0.175673674049,-1.34104370858,-0.838295009759,-168.694728188
do_nothing,0.700634257792,0.760750341238,0.671172950787,-0.216427827077,1.67674145081,10.2009166196,4.22064975026,3.19860999302,-0.00689302352454,-0.108699245348,1.45894396512,-0.51696294657,-0.258818796315,-149.137305125
do_nothing,-2.04949385998,-1.16361260614,-1.50336094144,-0.567823581524,-0.94107020564,-0.487200622784,-0.821149430633,-1.5702409705,0.0323688490111,1.91200751154,0.177514580977,2.15378411952,1.22769762929,136.27390108
do_nothing,-0.135035654464,-0.538909111507,-0.304382413597,-0.0653792434328,-1.59660575736,-9.90922105,-5.23922184655,-3.57115041154,-0.102964146942,-0.542872231089,-1.74746466289,0.172766636924,0.136207006418,175.36582736
do_nothing,2.18936489774,0.903744192388,1.20564242274,0.811964660472,1.14520107593,2.15689112581,2.18564662122,3.07124802777,0.106876002893,-1.58345835765,0.343616281787,-2.23534032594,-0.936490801528,-146.768031216
do_nothing,-0.46554300882,0.447953565498,0.0189549828222,-0.0822457340187,1.18948253276,8.34874946964,5.19253821993,3.11992182885,-0.0793549270297,1.10691494892,1.54806154486,0.391514007115,-0.0173526678274,-168.283742151
do_nothing,-2.36598107577,-0.986739640192,-0.756470493246,-0.635834845566,-1.15377583405,-3.37621533696,-3.95959378193,-4.75753997786,0.123348302205,0.529707157917,-0.750403631639,1.41346786432,0.0802669555745,136.638845858
do_nothing,1.33656948078,-0.0458389092771,-0.139046781181,-0.166331822461,-0.745121601108,-5.77598236811,-3.42854733521,-1.34243633177,-0.183505219009,-0.747975256086,-1.18107470333,-0.130688052007,0.615131022193,168.784543658
do_nothing,2.19579201975,1.00640075139,0.803722559008,0.980816678883,1.17562876506,3.39629156016,4.4030016766,5.18308913683,0.16923557219,0.233935225011,1.22937538518,-0.677629617937,0.462322279191,-124.373236139
do_nothing,-2.36004436521,-0.816594268033,-0.310053225424,-0.307408401158,-0.140646280826,2.88035128327,1.00900501196,-0.680398961791,-0.152359080259,-0.378912418157,0.0872469948097,-1.00408960805,-1.7612948486,-180.771559715
do_nothing,-0.894923351535,0.0427299711791,-0.0684036955897,-0.56057990907,-0.276445427739,-1.43962040278,-2.26811882427,-3.71512819941,0.208074346544,0.634100589354,-0.442066879727,1.56906228521,0.421312430726,135.282191626
do_nothing,1.4904627608,0.319678183162,-0.279252757617,0.162437227683,-0.106423354511,-2.21805633442,-1.43655194451,0.458990056735,-0.251738859979,-0.351611739498,-0.299682773786,0.300862626074,1.18150774604,158.970773958
do_nothing,1.52872733449,0.193367953765,0.507570035466,0.68632065302,0.47452921291,0.889028979088,1.60807249871,3.55562837503,0.225372545052,-0.0273199061813,0.655098106939,-0.962137905969,0.0701720491874,-104.899315716
do_nothing,-2.11598402143,-1.07719668746,-0.327312852328,-0.771548382723,-0.681055688241,0.612178213845,1.8617252662,-0.613631597126,-0.222268529319,0.0835204949947,-0.312315429827,-0.682770916597,-1.58879443723,-186.337610537
do_nothing,-1.1744395314,0.960526084114,0.18216940723,0.311560967895,0.344189693413,0.991054490781,-1.12561611343,-3.04069493637,0.281892575199,0.268991863167,0.100905445468,1.32514343544,0.42269412385,133.089880676
do_nothing,2.34018068808,0.650529186526,0.0397622653525,0.0086836685481,0.570063289378,-0.501761769198,-2.9534117716,-0.064902631449,-0.306176054947,-0.636287662958,-0.186955197289,0.24038744347,1.00581213737,147.776474718
do_nothing,0.618651670259,-1.75380955384,-0.300895004474,0.0569513405851,-0.519315401178,-2.27954421379,1.75213541029,3.48717968408,0.274335816792,-0.00138409675877,0.0682220746256,-1.4611741861,-0.358401286008,-90.4940606836
do_nothing,-2.35464165872,0.117047512217,-0.293296888953,-0.458949018956,-1.01353029516,0.847551035576,3.53958984348,0.0641411806091,-0.285190356642,1.10800783294,0.078596657428,0.570198262048,-0.473308820662,-185.850734132
do_nothing,0.652664664556,2.62474696386,1.4530663229,0.683963086674,1.60699893533,3.47792208071,-2.55315081518,-3.34248002447,0.341164322461,-0.0873947441714,0.390590745453,1.5764792119,0.528969756172,131.364878983
do_nothing,0.520229675182,-2.36196406609,-1.15056861434,-0.229628143478,-0.0189404839745,-2.75630402501,-4.49828105129,-1.126274575,-0.346183838068,-2.6845584578,-1.05517741414,-2.79042754701,-1.29722694637,134.548874844
do_nothing,0.313559615297,-0.898760654144,-0.637273184391,-0.226880560915,-0.979978456106,-1.93636875579,5.469349282,5.08341646243,0.314934714665,2.53577871328,0.743445202397,1.23470591602,1.65225430093,-73.3341822406
do_nothing,-0.619283280416,2.09023755802,0.844587680427,-0.242399073581,-0.486181701641,2.25091272311,1.9166048985,-0.315961179241,-0.337413858282,1.28650436003,0.283357214768,1.6621650651,0.348922038776,-202.408361248
do_nothing,0.392504374337,0.777177288857,1.24877896443,0.860027085174,1.7021564077,1.78773572076,-5.2457863256,-4.47651799084,0.38344610338,-2.61533936123,-0.375042319762,-1.66055338878,-1.7714044464,160.918134725
do_nothing,-0.978448087259,-2.69233112775,-1.80864305201,-0.44937457103,-0.372504325839,-2.58778060379,-0.417651768086,0.395517516313,-0.371778237455,-0.91063463698,-0.621662102283,-1.43281707908,-0.32795163627,111.091269563
do_nothing,0.486324066948,0.149970079892,-0.700069929244,-0.101407626802,-1.07690484163,-0.777519026141,4.25186551321,4.18639599007,0.345817306521,2.78555232627,0.882876954146,2.20363499419,2.108314918,-105.543668636
do_nothing,1.50102076307,2.21092975046,1.80548603337,-0.446533812162,0.0943400292945,2.02396455033,-0.296650420632,-0.575630813944,-0.375793547672,0.33673360196,0.0182814084643,0.768190407369,-0.0315945340661,-122.201731207
do_nothing,-0.804474472742,0.212750172025,1.05143726644,0.97046054587,1.42290533883,0.527260099948,-2.47001989954,-3.13979117059,0.407533305353,-2.02616439597,-0.175844906952,-1.58062588742,-1.51114094332,115.466732125
do_nothing,-2.70099288389,-3.16247815563,-3.02484580963,-0.222424998531,-0.949022209017,-2.21509425113,-1.32718027569,-0.857986957602,-0.383414013293,-1.34301638149,-0.889266282769,-1.6696281747,-1.09635723077,78.5215866437
do_nothing,2.64901589974,1.09957879159,0.336215144811,-0.354491719401,-0.224668156527,0.926922231337,3.36377064081,4.24003025437,0.365597406995,3.15239734208,1.026750448,2.59777121054,2.72301890701,-61.5371967766
do_nothing,1.43960879476,2.16665279178,2.29082252091,-0.528891704839,-0.0855584941113,0.460974434538,0.970217414637,0.0216706277911,-0.398028988187,0.421072897617,0.269677952144,0.814328400793,0.295944608496,-101.868871669
do_nothing,-1.69879550198,-0.266265662898,0.0676787665899,1.13805093889,1.01435426848,0.0530621915174,-2.86858379783,-3.22143780542,0.413371774417,-2.38599735755,-0.422880076515,-1.56696154876,-1.94789013693,65.8235747621
do_nothing,-2.69295030607,-3.51755450172,-3.26577349484,-0.16296183468,-0.789144572734,-1.09493845857,-2.41888938151,-1.14090095952,-0.381801658838,-1.52621707186,-1.2412269543,-2.3852146855,-1.70992578083,66.93136501
do_nothing,2.75551842998,1.88139253507,1.41337054142,-0.391771489296,-0.0399551735631,1.04404349403,5.18274873712,4.1544135667,0.373018029032,3.94162407219,1.59929136106,3.16209578272,3.68214115276,9.70116668722
do_nothing,2.54636007341,2.88033732356,2.41189880063,-0.791299405728,0.11423164559,-0.0673651898978,0.981093611724,0.423112909317,-0.402829466619,0.429233674485,0.507800672008,1.84070460056,0.919801247605,-137.552198218
do_nothing,-3.09794792326,-2.6476789599,-1.71124702278,1.431254567,0.335533201968,-0.705022427829,-6.2263387804,-3.86721310411,0.401873125803,-4.33080047846,-1.52228709758,-4.0463854802,-4.48922501156,26.2740486987
do_nothing,-2.75915181331,-2.10186665861,-2.0501816254,-0.110064428242,-0.520448497528,0.349501520919,1.20376129462,-0.0735072590044,-0.367775064649,0.836329721007,-0.573858614827,-0.698858683956,0.273988768942,116.654913539
do_nothing,4.22186794411,3.46986052964,2.62497564666,-0.732677700492,0.538604989758,0.883064811326,6.19919134675,3.70221405109,0.367130371388,4.34013552177,2.3199031964,4.56028565063,5.00099049756,-12.0748723185
do_nothing,1.2800582115,-0.0517767071182,0.15166746601,-0.498259997843,-0.587161194346,-1.56333274356,-4.14503671619,-1.1786133293,-0.389968296258,-3.16010376338,-0.874084117329,-1.84892782753,-2.90599175644,-86.7738914777
do_nothing,-3.07097661207,-1.70169244179,-1.26010617317,1.44697890799,0.452880495738,1.00331373797,-3.17102624116,-1.3447923365,0.374680646008,-1.43443899941,-0.984158452964,-2.03022585666,-2.29616811007,-77.0383214147
do_nothing,-2.02824047587,-0.508805332096,-0.370941028515,-0.413808068191,-0.296932490514,-0.226291760525,3.41795752069,-0.615448942281,-0.342222761477,1.96683767172,0.132075661388,1.25423292098,2.07485977176,178.996249872
do_nothing,3.95090819253,1.96383821082,1.35881960861,-0.544029203032,0.440693722664,-0.0103799438318,2.66478036132,1.87017699382,0.347464027901,1.12566388361,1.43548230807,1.59336661702,1.92493526079,39.3446781113
do_nothing,0.742154981571,-0.384362135093,-0.621773452693,-0.207638900287,-0.522358593889,0.202738187553,-3.66897704466,0.515287281017,-0.360241645222,-2.12330523959,-0.816620374876,-1.85851402463,-2.49760908403,-180.446653673
do_nothing,-2.9580604061,-0.929381612652,0.0495038616803,1.05705425654,0.196095488211,-0.273014507298,-1.86396247115,-1.53771980196,0.333930027242,0.042062637379,-0.554002740016,-0.140812425219,-0.45658395692,-44.5178365392
do_nothing,-0.632093746688,0.0977941750468,-0.0452308491643,-0.676601398072,0.0438685649972,-0.440021707676,3.5231724568,-0.860007442813,-0.306082062398,1.2278417201,0.185840110815,1.33146082247,1.52050935821,192.026609825
do_nothing,2.28505124263,0.749801205838,-0.233598903363,0.189543574321,0.137539914585,0.980586577391,1.65877126557,1.84930959496,0.314163413127,0.00487888857969,0.879624045771,-0.241699412917,0.282504109166,62.8139110746
do_nothing,0.550294854482,-0.309512737836,0.112706719678,-0.302848403414,-0.258779963518,-0.0573039199843,-4.10453044791,0.257120207647,-0.315350737254,-1.31236941325,-0.653030972812,-1.60901712127,-1.1930778886,-257.698449251
do_nothing,-1.30353559033,-0.209938906004,0.868776277183,0.167935066189,0.207458848959,-0.809746868226,-0.480430456304,-1.13508421465,0.282037572473,0.556579170055,-0.0937403188361,1.24985257619,0.0188835814363,33.457769738
do_nothing,-1.5647372301,-0.103091588456,-1.12058281165,0.151357451048,-0.513785448885,-0.400813227812,3.47686314618,-0.702651923504,-0.260383151347,0.772553140597,-0.107898973227,0.967176706248,0.451594476771,165.772523358
do_nothing,2.35563944821,1.05498954486,0.130329757457,0.296074939193,0.879442606414,1.866229974,0.692149694968,1.77012689592,0.268070050893,0.179144232929,0.686401371565,-0.41773838087,1.19673855107,26.0822625088
do_nothing,-0.0267361995285,-1.77243671332,0.213961987389,-0.875053659109,-0.377771204339,-0.81099009368,-4.78899275925,-0.724269502812,-0.257728578489,-2.46907418377,-0.632807968361,-3.19954418406,-2.34673117665,-202.83570531
do_nothing,-1.1989308476,0.585571032283,0.351145209656,0.319907493491,-0.515279636965,-0.992175599132,1.85813053831,-0.344878157324,0.22153404161,1.59568043959,0.203378557436,2.58379548373,0.341276753477,27.000681124
do_nothing,0.670914785431,2.12106788305,0.0353352165461,0.524122460638,0.327051167579,0.311970342122,3.45179544263,0.698332314221,-0.206321290652,2.64028497044,0.16113610847,3.73663328625,2.65387547749,128.339540498
do_nothing,-0.116156530198,-2.07761143489,-0.689960684507,-0.11524402849,0.718748133921,1.14699670803,-3.45804864087,-0.703016736744,0.21073846312,-3.4955530375,-0.334257210081,-4.99223717154,-1.86214014897,27.7526163349
do_nothing,-1.07335311719,-2.0881482414,-0.589092219117,-0.806682356082,-0.850755376469,-0.01212212216,-1.20637610697,-0.400155519765,-0.190333923197,-1.78305221264,-0.0634086480055,-3.00810350418,-2.2840193889,-148.672532985
do_nothing,1.85900606706,3.83663778925,1.8429534035,0.628944776128,-0.153884679152,-1.57687835806,4.0516819578,1.69801683375,0.15494970996,4.96108067991,0.743934436358,6.77642566087,3.28892984375,-2.33885843242
do_nothing,0.61507705808,0.938978918252,0.0853028532598,0.189314111086,0.563993125652,-0.288348543913,-1.54633563305,-0.462451723677,-0.145332035109,0.0595271671311,-0.492849357125,1.51667832897,1.0112277668,101.052405446
do_nothing,-3.00395611981,-4.43845475309,-2.17166878589,-0.242853330124,0.250741766917,2.86345120913,-2.87166491493,-1.77489357215,0.144382955783,-4.93250407569,-0.451092965492,-7.19577209516,-3.46563396013,32.9420851219
do_nothing,-0.420083399296,-0.423446712965,-0.0993145277178,-0.256196183511,-0.863695882197,-0.976454444282,2.5820954954,0.345170393405,-0.116434965044,0.517911567174,0.205627571139,-0.950325412797,-0.671657663723,-96.0443031502
do_nothing,4.82870048904,5.62689820945,3.13895121884,0.294568961022,0.403234541711,-2.59998308682,2.67768342277,2.98529654018,0.0847467111508,5.65354572906,1.03670870928,8.20441207419,4.42388518305,-36.7871176815
do_nothing,-1.32770787982,-1.3211764621,-0.960040675692,-0.0143305089449,0.192338572969,1.26299508402,-4.21527844463,-1.58515273232,-0.0791465446359,-2.01594281997,-0.741690756348,-0.578210725834,-0.758302217935,82.1460347297
do_nothing,-5.04677186314,-5.31754695151,-2.98002377783,0.0709602731114,-0.134170334683,2.7757064019,-1.8928075106,-3.0842191157,0.071762011524,-5.3415902698,-1.01857219258,-8.11068530529,-4.25182755446,33.1930995459
do_nothing,2.77113787464,2.47228536138,1.5866846274,-0.268244196515,-0.0344791032426,-1.6895479038,5.56510344624,2.64164314964,-0.0394029021457,3.19360512803,1.03816027389,1.95092887436,1.8448194926,-46.7805637261
do_nothing,4.02989271863,4.27870204019,2.36983479279,0.122960271321,-0.167596959086,-3.21864263335,0.584125934324,2.4211943568,0.0132884850541,4.26337768847,0.980345294648,6.93591169815,3.41629992678,-67.7204573534
do_nothing,-2.60325277898,-2.45418817228,-1.48489131763,0.18224835922,0.265490387181,3.0629628332,-5.82134784732,-2.79088879267,-0.00981018354614,-3.20126523996,-1.34496597015,-1.98544501492,-1.96471054296,69.2957319018
do_nothing,-3.84489706974,-3.86341486655,-2.10683650593,-0.225464755135,0.114014144091,2.36500392135,-0.0332215739032,-2.08624959351,-0.00398542363911,-3.9476739124,-0.791580643051,-6.4983824669,-3.17711272787,29.1727042047
do_nothing,2.36203083587,2.42212730931,1.25157091639,0.0333841356404,-0.519023010233,-3.82499722454,5.99414880237,2.72822231659,0.0374688751097,3.46094034002,1.52776470148,2.25899839639,2.2603857422,-10.402029958
do_nothing,4.17034485923,3.77121017178,2.20244968782,0.0723258137984,0.359457895076,-0.80917772158,0.0492746093557,2.08622359901,-0.0571671644996,3.75213544992,0.598483094411,6.07668355485,3.11601214227,-81.3525324816
do_nothing,-2.7040049473,-2.92992915225,-1.39605124296,0.0671005396409,0.345040691191,3.27433380566,-6.75761765608,-2.98150077892,0.0603443529134,-4.37789851085,-1.73684843096,-3.03857362527,-3.24005119111,55.4012335229
do_nothing,-4.05940045955,-3.02935396485,-2.04727556084,-0.258692747518,-0.841150257424,-0.0700484161838,0.590117777088,-1.69015680227,-0.0795327730171,-2.39536602872,-0.202855081574,-4.60957009942,-2.00243716653,20.0474091792
do_nothing,2.90537475067,3.08562681631,1.54477236863,0.186539185596,0.276508190414,-2.50649756093,6.75414878572,2.82911320411,0.111110048222,4.36351750889,1.73623802013,2.91070920788,3.50424649065,16.472783742
do_nothing,3.79376365595,2.00230814976,1.60268296871,0.0686880321631,0.826427807869,0.603475947864,-0.867400854857,1.35752882486,-0.124465690806,0.891885904061,-0.357787825368,3.0695181813,0.584922855105,-79.5581571502
do_nothing,-2.63280803588,-2.36294080283,-1.14429580375,-0.0593746915621,-0.547742621203,1.85893454226,-6.04161216737,-2.01056347073,0.128769923488,-3.05609049953,-0.969189753183,-1.50352597484,-2.42909560823,38.8403417676
do_nothing,-4.53377667964,-2.19133642382,-1.97139700664,-0.233632371015,-1.31921965383,-1.72661462812,-0.662665064547,-2.46739611883,-0.151567314816,-1.08371036652,-0.280247306107,-3.47061196224,-0.938067989651,9.0355775783
do_nothing,3.94076245349,2.94201170615,1.75766575648,0.302646245959,1.84654007081,0.473413318471,7.49250352881,2.89832273265,0.178779371928,3.04548950296,1.4027345518,1.79557221815,2.88298533806,34.6294244979
do_nothing,3.61893308799,1.20551996773,1.32451977171,-0.110231249196,0.426741840012,0.731144651361,0.684317745499,2.38701450537,-0.186556993266,0.563652886958,0.0133398848575,3.00071513405,0.25462727834,-67.5025365473
do_nothing,-4.26417534485,-2.65375717916,-1.54049112915,0.1901995724,-2.03697837589,-1.72411800652,-8.77787490112,-3.51267919506,0.19281725629,-2.57089142502,-1.18331962683,-1.92568667896,-2.65074587159,22.1094243999
do_nothing,-2.66778806371,-0.622865681233,-1.27218418798,-0.486693653314,0.0762216857282,0.795796649066,0.335504001127,-1.94333764772,-0.216981304142,-0.457085607154,-0.334512066087,-2.43784048086,-0.00699292400835,-1.57940537255
do_nothing,3.86555617067,2.29959650438,1.7444492543,0.37777376292,2.17772855609,1.94248349832,8.92796298501,3.79965087563,0.238133258503,2.28280925076,1.57045922833,1.94024359172,2.5437755386,43.8100017363
do_nothing,2.31064305394,0.170200568547,0.80921546497,-0.0090188956414,-0.854178124857,-2.36918228443,-1.48927831915,1.18399037217,-0.241509886159,0.350613868388,0.0037397922111,1.91635644234,-0.231197683975,-49.3786749641
do_nothing,-3.14984841027,-1.44483526005,-1.30086981167,0.0944736983761,-1.24604206705,-0.729969818415,-7.34179025921,-2.91162577006,0.249874835449,-1.55524400158,-1.15834652505,-1.61286901741,-2.03693403248,7.59100168222
do_nothing,-3.43687470682,-1.20261497513,-1.42840227444,-0.443252202004,-0.00542957235077,2.14193431967,0.337529577687,-2.17631825315,-0.273037347455,-1.69453942213,-0.730872033708,-2.48440709468,-0.757572051326,-10.4514575811
do_nothing,4.66047931252,2.72639562265,2.36063437831,0.350674124981,1.95986719323,0.887207093212,7.46227461588,3.82219768423,0.287262898725,3.07288225908,2.0561700197,3.14271545807,3.48044513983,44.7269156567
do_nothing,2.4120469583,0.0674421638855,0.384881657561,-0.110970486508,-0.494782899596,-3.17545502586,-0.255719593998,1.63876941354,-0.287545189937,0.756863482431,0.0223020051825,0.80706827603,-0.481570541799,-28.740086604
do_nothing,-4.7252033109,-2.19271170306,-1.96313344261,0.371409053562,-1.50255016785,0.737498079337,-6.34069673252,-3.37641410851,0.297521401957,-2.82312354778,-1.55970197602,-2.60570697808,-2.8876203094,-5.62851379568
do_nothing,-2.2246285046,-0.315293016415,-0.415428830018,-0.66253836144,-0.22435265521,2.12355973914,-1.63795729598,-2.53143364426,-0.317497523911,-0.985696456709,-0.566883315521,-0.519810131764,0.233213121281,-7.15062594182
do_nothing,5.68476817905,2.64319212353,2.43027049499,0.368156006222,2.42464993597,-0.875562258516,6.96449229963,4.37797211269,0.324708105819,3.24642410977,2.21671706014,2.62825360598,3.10023013346,18.7938338778
do_nothing,0.77712346038,-0.0640041756954,-0.508113188111,-0.108972080228,-0.439373267685,-1.52492523169,2.91097444819,2.47058800993,-0.32308795512,0.925804040748,-0.0240826431511,0.196432106894,-0.284411022382,11.7196921527
do_nothing,-5.52622342323,-2.70311965617,-1.77432852155,0.433707349321,-2.26170802965,1.01062270555,-8.30188710776,-5.29224552359,0.333675228365,-3.50786815474,-1.77492924248,-2.54907933448,-3.10848770966,-7.97433269013
do_nothing,0.136135067115,-0.0658177426855,0.243325442179,-0.59119566514,0.331967888269,0.439188642042,-3.48111661872,-2.26594951283,-0.348710964086,-1.46649081165,-0.454984895072,-0.629421763593,-0.280587153805,-57.8288138386
do_nothing,5.89308676966,3.90350127707,2.38966916239,0.173368495729,3.04123994443,0.286696369966,10.8288005069,7.24280097992,0.349456411649,5.38062650102,2.59871769383,4.20227536436,4.56279187345,77.4391127711
do_nothing,-2.59150335298,-1.7690352604,-1.5023970344,-0.0845052376308,-1.83603061013,-1.53987341516,0.672409568615,-0.756527820891,-0.346834804855,-0.557511740804,-0.742521981336,-1.42596842999,-1.41960765243,-9.03888627928
do_nothing,-3.59164481773,-2.77787609,-1.20859604569,0.55452990192,-1.6960806073,0.875478708759,-9.68695462897,-5.79503421243,0.356725459305,-4.55132492766,-1.52005641964,-3.35061670012,-3.5404893772,-34.9847720286
do_nothing,2.30070467685,1.61872459223,0.964584415441,-0.531339730717,1.3910880287,0.401442153995,0.176889804956,1.62201616309,-0.365659404637,0.54626652257,0.272419325428,1.62761011773,1.17119424223,-6.14182634735
do_nothing,3.05106040319,3.08563175377,1.51573490199,0.0303220348272,1.69501761724,-0.421361825473,8.92423827321,4.82606793904,0.360934715426,5.07506150708,1.66992060791,3.71436570356,3.77478830148,45.2323359444
do_nothing,-2.70327399,-2.68379178348,-1.56420726024,-0.287239332741,-1.90255785511,-0.0990656886606,-1.48138680683,-2.54520840745,-0.357828841353,-1.72687812111,-0.825625668079,-2.87532305767,-1.91485825728,-12.4446531105
do_nothing,-2.20660960669,-2.16177396891,-0.843424345298,0.995086239151,-0.694094322997,0.312223786193,-6.80326929303,-2.89264790263,0.365633570195,-4.39013313504,-0.678660663428,-3.0741366955,-2.95927814866,-51.5547341273
do_nothing,2.59344242256,2.69567255393,1.15544488106,-0.629500639,1.23229782579,-0.727250313545,1.23044235144,1.61757663628,-0.367964117904,2.02614475167,0.0491901716983,3.50634266818,1.70113962208,80.5602953402
do_nothing,2.29171649546,1.98265140362,1.32258103226,-0.323230031936,0.964912454398,1.04876403212,5.74769453109,2.70267783664,0.358998510984,4.18075997451,1.06078508192,2.69640175918,2.87207568809,-47.1339983414
do_nothing,-3.92896716317,-3.59411315761,-2.17093934321,0.0602804046962,-1.92941113615,-0.367231173176,-2.01021804597,-1.7806977363,-0.355532464504,-3.05912495175,-0.595492636846,-4.90604897657,-2.372318709,-15.4631626207
do_nothing,-0.380253495343,-0.129661629426,-0.0382757683904,0.926618287191,0.349213089014,-0.326417394365,-2.93771932592,-1.53763455327,0.359996856282,-2.27745216399,-0.0567904655978,-0.288513553443,-1.17047464181,18.1355658711
do_nothing,3.00981110992,2.03557395584,1.24248260149,-0.763343161089,0.844538257504,-0.461714788123,0.407223588836,0.209416543773,-0.355860281185,1.59029194999,-0.495109101736,3.41570835806,0.651980699922,49.7575620071
do_nothing,0.511236516876,0.773621489544,0.613910745676,-0.0751899608215,0.0866596966275,1.49599169074,2.47100900001,3.03378271155,0.343920999923,2.88253220245,0.918998082315,0.512351100538,2.05812172959,-49.6952142415
do_nothing,-3.7723241819,-2.31719250339,-1.9698992171,-0.128537724651,-1.30667789471,-0.752239852568,-0.756470513435,-1.43979783074,-0.339887983906,-2.01806873328,-0.206388146686,-3.68054867904,-1.02674132561,-62.049444713
do_nothing,0.817350705245,-0.313300049314,0.237447985766,0.787400618232,0.889967792797,-0.714281183418,-0.537300654507,-2.720356272,0.340070221299,-2.37588469861,-0.394394947099,0.273910670186,-1.70539726628,88.7801288915
do_nothing,3.3899673296,1.89353863526,1.60189065416,-0.44044197651,0.40582829889,0.704589224179,0.494358276549,2.39094374625,-0.330146227303,2.04344910537,-0.0079864823078,3.41575123386,0.911541020523,50.5246529159
do_nothing,-1.60346433415,0.505106236751,-0.344436214893,-0.0720574151215,-0.707873296218,0.172839337323,-1.88435871209,1.81498289368,0.316381794566,1.93698490446,0.55346968597,-0.795234515817,1.60861213422,-103.397125369
do_nothing,-3.14743808502,-2.30538764412,-1.9552796418,-0.463511697852,-0.299980194238,-0.370103258735,0.532948266612,-3.3248922986,-0.311356980854,-2.48324155378,-0.577745800254,-3.60938098632,-1.44381569661,-48.9189662461
do_nothing,2.93609049969,0.435308460043,1.61266811731,0.851482636367,1.21818553553,0.643297812178,4.85468334693,0.575061890854,0.306746796122,-0.271857002659,0.416462461854,2.49110781292,-0.211869601323,107.896033893
do_nothing,1.39707830517,1.34431901019,0.632803194827,-0.000498137744949,-0.916574534704,-1.50086616348,-4.06003195173,1.75794646886,-0.292115210204,1.09737239585,-0.227677112374,1.91548455251,0.279932034693,71.2171368406
do_nothing,-2.1219935713,0.130230716536,-1.09009245842,-0.562043454346,-0.071996804536,0.995824116092,-4.65825301677,-0.723555519887,0.277452866688,0.464674737619,0.00698804305598,-2.13427407557,0.533356375072,-145.788772004
do_nothing,-1.73172843319,-2.05016770917,-0.833105639069,-0.327533890492,0.394787007021,0.915970451732,5.55389758531,-1.54245289143,-0.270931685769,-1.33771470338,-0.186366768957,-2.03701242777,-0.798584038326,-45.149109937
do_nothing,2.99254450653,1.14918765137,1.83532371419,1.07445925282,0.237702648308,-0.789990232593,5.16630547835,1.81027775269,0.261501578684,0.858618075517,0.673020844169,3.44752471449,0.913882029702,116.954048578
do_nothing,0.820458499167,1.086678663,-0.178244015261,-0.417174179749,-0.705855418064,-1.45800844486,-7.70945519073,0.187651699897,-0.243476565362,0.167693964233,-0.490619143266,0.603401136392,-0.333109561767,97.3177476022
do_nothing,-3.20553045318,-1.56156946437,-1.45346718102,-0.317245318621,0.227447327006,1.08354029203,-4.46887921106,-1.73507051123,0.228578182906,-1.27790967205,-0.36566912258,-3.86776843289,-1.43381563962,-172.074554804
do_nothing,0.13062146081,0.0338285434642,0.392240982396,-0.0233342053425,0.370457926133,1.89703684528,9.11454534115,0.610366653843,-0.220114731017,0.993281841626,0.475960049969,1.14111042017,1.61314153348,-56.6013211289
do_nothing,3.08746214763,1.42736783303,1.49066910474,0.531826854314,0.00422644954935,-1.24593478631,3.28203910349,1.49824993809,0.206304993491,1.10915511282,0.463552390231,3.28034765419,1.27733934503,122.966287289
do_nothing,-1.2691328637,-1.26159453525,-1.00681745558,-0.378559834154,-0.769679529687,-2.82466076335,-9.83706880527,-1.18365553298,-0.186271767125,-1.97558416925,-0.867846530316,-2.61878983763,-2.86295639259,127.149810036
do_nothing,-1.81173980155,-0.038286528584,-0.713251752723,0.0387178836538,0.586857439734,2.20675683162,-1.28951441105,-0.749623139168,0.171543191202,0.126184324754,0.157868721565,-1.30424958165,0.211350863868,-189.969886866
do_nothing,0.658203723816,0.588689501723,0.368717385704,0.0952561549176,0.19084887421,2.85870819184,8.19763768378,0.249142315963,-0.160867020887,0.842855575986,0.188087189056,1.67945690827,1.87176575947,-73.7383040604
do_nothing,2.1223759666,0.267901773977,1.23618567753,-0.079801025824,-0.079236475094,-2.16492377725,1.67867802263,2.05431586029,0.143514850549,0.77447548375,0.36579361423,1.35895024602,0.346952493077,125.927655453
do_nothing,-1.1352101552,-0.839263506619,-0.718088203571,-0.208010984145,-0.661409823098,-4.22804153065,-7.84074136602,-1.08043443988,-0.12278923547,-1.03358137203,-0.366677324389,-1.73700505801,-2.0944583634,152.912156833
do_nothing,-1.66388355496,0.024366507719,-1.14426335462,0.480825071229,0.364160881311,3.71007262893,-1.61580338526,-2.55285154217,0.108430933953,-1.20810233715,-0.464563093982,-0.969526708258,-0.356996091837,-194.409562556
do_nothing,1.08354437828,0.665822384454,0.755389639697,-0.101910921297,0.717616025915,4.53804615005,7.29364249374,2.14610137518,-0.0955266622454,1.23997314235,0.413666555578,1.40031250188,2.09249358588,-97.9821379235
do_nothing,1.20327667647,-0.149862725582,1.08624092005,-0.407095674067,-0.58276255175,-5.63177437465,1.36647125022,2.34556515708,0.0757556460793,1.38466457574,0.66368901455,0.661192962276,0.324978664852,130.242370616
do_nothing,-0.373819283053,-0.204444028268,-0.637121069338,0.0062800003947,-0.668614105567,-3.28958614669,-5.9806902742,-2.83694060678,-0.0554801497711,-1.04800881075,-0.717584468676,-0.463581508499,-1.83012096725,169.271685799
do_nothing,-1.59305843325,-0.212533578888,-1.1768009006,0.609834083073,0.735253095304,6.44162489173,-1.91053186369,-1.81751283842,0.0415628845219,-1.9443166115,-0.447451426412,-1.22870668309,-0.52685162716,-186.32403866
do_nothing,0.0439075087323,-0.0217591111701,0.548107145695,-0.135810547716,0.563908344249,1.46202648978,4.6106815981,2.84698159608,-0.0267045441492,1.04161813187,0.621802105397,-0.164656816964,1.62852710473,-124.643610124
do_nothing,2.37550783742,0.808594699958,1.35929206896,-0.609610269092,-0.751263647466,-5.69601655715,3.53591635347,1.83798046093,0.00579364638766,2.67017370066,0.463395274615,2.43950922824,0.82820818269,134.579348529
do_nothing,-0.762003782486,-0.454663720189,-0.750243021018,0.21665859813,-0.681958363633,-0.483394721034,-4.59956574731,-3.24801370748,0.0131237540309,-1.67527656979,-0.677406510166,-0.522020847867,-1.84799258539,176.107858774
do_nothing,-1.88425282868,-0.406386358931,-1.00800173743,0.426195759615,1.12900786053,4.63314392745,-4.45154442229,-1.39984307958,-0.0265756222868,-2.41468411199,-0.205969575222,-2.29395277409,-0.204063052182,-169.394701765
do_nothing,0.676176895169,0.161346538381,0.493917596274,-0.0407806482114,0.435414948542,0.0064894594341,4.76852737834,3.24078691901,0.0428360072687,1.53370574075,0.377742637156,0.52891366197,1.05210691365,-148.870942213
do_nothing,1.17508826941,-0.09750520685,0.535496382381,-0.372491545602,-1.48771158673,-3.58975421689,4.89264670957,0.935780746186,-0.0635850130699,2.16274196354,0.0553613718485,1.72499908247,-0.249174101056,136.975944634
do_nothing,0.490328975765,1.20776684555,0.548298846416,-0.111566677863,0.306497340956,0.538087052178,-4.73849077906,-2.62471507302,0.0804902329263,-0.545424730435,0.325480195506,0.755859785048,0.938302926137,175.316961907
do_nothing,-1.68447478677,-0.866850829175,-1.04393327859,0.211762698649,1.13034942002,1.71720942712,-5.62608557257,-1.54942427688,-0.0934235664001,-3.26553222886,-0.745216415356,-2.65029855244,-1.35502482383,-147.698478467
do_nothing,-0.838563604342,-1.40471498015,-0.917552136314,0.593978214595,-0.562553557497,0.336544997057,5.8755544185,3.40017263207,0.11030715165,0.928338975066,-0.091273050996,-0.890373884379,-1.16995406412,-168.043441715
do_nothing,1.79186899319,1.25579274894,1.28012036807,-0.605829022303,-0.940966385551,-1.01254699996,4.64223634911,0.840220563898,-0.129687598583,3.57853187467,0.800029523849,3.0313919281,2.39569804038,137.209032469
do_nothing,1.36027132733,1.69626972159,1.43209577916,-0.390615378919,0.965752777796,-0.981122706101,-6.33532777631,-3.65159495408,0.14416454134,-1.50615075926,-0.0299794768558,0.956189274237,0.897275543875,169.084520095
do_nothing,-1.90639210641,-1.57183870652,-1.84672176846,0.285286569165,0.415131346696,1.03824985814,-2.28090353421,0.568102975814,-0.156442427704,-3.05866850198,-0.612005290845,-3.02354528375,-2.85123807926,-125.465028901
do_nothing,-2.09633553968,-2.02977175183,-1.3984738558,0.921606917667,-0.972073533136,0.572412386267,4.3752071415,2.60642620444,0.173023664923,1.51672043165,0.0128703857237,-1.38410367598,-0.574555226121,-180.551305692
do_nothing,2.36534320221,1.91352547572,1.87049448045,-0.789389210088,-0.203263707795,-0.510518929551,1.21750120766,-1.4124482669,-0.190015535381,2.30111242905,0.0953641830962,3.25539620128,2.87723684302,135.677918175
do_nothing,2.83638749261,2.47796882264,1.8536931583,-0.557024312814,1.42007130542,0.197769714471,-1.3638026181,-0.587477311759,0.201845295705,-0.638975252309,0.817361557279,1.83154298731,0.605699415562,159.569622478
