label,COUNTER,INTERPOLATED,AF3,F7,F3,FC5,T7,P7,O1,O2,P8,T8,FC6,F4,F8,AF4,RAW_CQ,GYROX,GYROY,MARKER,SYNC,TIME_STAMP_s,TIME_STAMP_ms,CQ_AF3,CQ_F7,CQ_F3,CQ_FC5,CQ_T7,CQ_P7,CQ_O1,CQ_O2,CQ_P8,CQ_T8,CQ_FC6,CQ_F4,CQ_F8,CQ_AF4,CQ_CMS,CQ_DRL
off_to_on,0.942945835213,0.348097940535,2.85877388595,-0.613238933367,-2.98801959629,-1.51456913145,6.19416069123,8.618449445,0.000993679122959,3.60017686628,-0.177110305665,2.23184709784,1.26321177177,-2.12014115277
off_to_on,3.14467555573,4.18771163403,3.27286927055,0.128390243428,-1.85403075346,-0.742918565028,2.51636628877,9.09455058522,0.00299688103319,6.19207006875,2.01640041672,5.32514505506,3.81769321909,-80.5953142866
off_to_on,3.05820341473,4.87003011274,0.896163797618,0.395798899028,0.537186233837,0.497134485451,-2.12516507968,-0.107194999708,0.00379558653829,2.96312524091,2.86309750732,4.11352897305,3.89797457397,-61.0339908757
off_to_on,1.22742242521,1.77958548263,-0.774158314846,0.0635765021552,2.19376189889,1.62443527477,-2.45319071688,-8.84627079126,0.00309869699081,-2.29185636582,1.41575416611,-1.08080127317,1.5736712618,-48.8909853898
off_to_on,-1.46431117558,-3.15917236921,-1.26678916952,0.128430131836,1.92147510743,1.08375026176,-0.917074216411,-9.10034683022,0.001201715068,-5.64794131988,-1.56379748694,-6.68742847241,-3.12556771433,-65.2801172376
off_to_on,-4.09607971753,-6.37077080367,-2.44306363212,0.822286814652,1.01420200818,-0.824972777622,-2.08646220167,-3.96349345068,-0.00114321833551,-5.9668653452,-3.816704048,-8.11343918904,-7.39523430108,-10.1001480311
off_to_on,-4.9383134458,-5.09345881972,-3.60661911532,0.89888167002,0.888032745086,-1.65806627827,-4.19995047787,-0.136406148482,-0.00301668305661,-3.26692749238,-3.20906005393,-3.53933883583,-6.23633801375,120.997513864
off_to_on,-2.62694910174,-0.286483184622,-1.95419700083,-0.422867204329,0.938432493321,-0.14439008146,-2.13277755133,1.85801656229,-0.00368541068365,1.53040330254,-0.0347346434635,3.52852183315,0.799008471831,161.608278654
off_to_on,1.78259928946,4.02085590592,2.23900701374,-1.88083719628,0.134003951366,2.00135612618,3.50210366254,5.08994352467,-0.00289637433107,5.47131540032,2.83042798024,7.20215219473,7.0475628773,18.1375930395
off_to_on,5.35868875036,5.1072498669,4.97634372019,-1.66089332151,-1.05088299298,2.42230909036,6.35856827638,8.21503341665,-0.000980514382968,5.67051121295,2.98969432141,5.52078884185,6.69253652318,-150.457266018
off_to_on,5.95316687397,3.87412492234,3.89225512473,0.140918146571,-1.86516485464,0.817806611148,3.5126564904,6.40806770155,0.00129097677548,2.84010882962,1.22530759999,1.93176624611,2.19292079423,-139.000763876
off_to_on,3.41397236119,2.03586391306,0.931375876584,1.68787877041,-2.67733613165,-1.49295781284,-0.763022502833,-0.653007399129,0.00302593980895,0.116026654206,0.0270697722377,-0.242356170398,-0.521881532726,10.8155395086
off_to_on,-1.14196079578,-0.693897978131,-1.34119103295,1.736410013,-3.24975764587,-3.22898648097,-1.93729913162,-7.10039029115,0.00355796577755,-1.46356419796,-0.0308110755213,-1.90979602562,-1.21264714971,88.1469962478
off_to_on,-5.57847814276,-4.51564311252,-2.87653277731,0.717413082789,-1.46363871727,-3.33542690511,-1.32313028485,-8.06316484221,0.0026924892661,-3.32746894843,-0.658977827192,-4.70251370057,-3.68948770093,31.7992467082
off_to_on,-6.82981317893,-6.63097702031,-3.98859143409,-0.387063961519,3.44531069585,-1.00503892791,-2.27424675314,-4.66399297871,0.000779084417715,-5.21692870405,-2.45280373466,-6.29979398594,-6.78217124304,-14.6978734752
off_to_on,-3.31460594852,-3.89926973964,-3.20184182435,-1.10889553997,7.59626852766,2.83343527725,-3.78251241512,-0.608776551454,-0.0014198814135,-4.35724782661,-3.23026441562,-3.24132870718,-4.62433366866,30.4668944774
off_to_on,2.19395839614,1.94787417402,0.105170035007,-1.26393421105,5.91999018437,4.99820379063,-2.20886393324,2.6362553396,-0.00303252864402,-0.0903529588072,-1.09782207391,2.79249084111,2.88451555225,58.7764906044
off_to_on,4.57922844494,5.24678727344,3.17148152645,-0.714830659374,-1.00091703768,3.03444791064,2.08145475109,5.05198238897,-0.00343248522669,3.93672933138,2.29904739619,5.92634656548,7.43908032167,-20.002031342
off_to_on,2.52034069009,3.4796576918,3.09464584896,0.17577894708,-6.76371279037,-1.39283657039,4.42597391572,5.39318723025,-0.00248421385706,4.41630117097,3.55744337099,3.78514490461,3.96197606329,-105.482172149
off_to_on,0.2981403829,0.409222696921,1.21259300936,0.643490456508,-6.64938802652,-3.85437635333,2.66185169164,2.69648395842,-0.00057886092437,2.72205119267,1.94510701904,0.364198919424,-1.4319774976,-66.1413984751
off_to_on,1.53735557751,0.377387850463,0.956987783413,0.543553324479,-2.47274791417,-2.29864476685,0.175694661054,-0.876440437154,0.00153058399073,2.01842002801,-0.0277368407218,-0.172402817291,-0.829399002188,43.955119719
off_to_on,3.49429014469,2.05685987313,2.08662361899,0.56040683128,1.20763928969,0.642885958901,0.325249779172,-2.12797718138,0.00301886608785,1.98094187232,-0.512188469995,0.924988625645,3.02210759011,74.1512221632
off_to_on,0.967356580306,0.82550905347,0.827467226513,0.907969441497,2.76463835296,1.2521262184,1.18263545384,-1.49710286335,0.00330585054302,-0.325191549559,-0.599175796032,-0.00960804319548,1.38104844278,13.5884578964
off_to_on,-5.2996556467,-3.89817417519,-3.721207625,0.656089745138,3.27696019568,-0.604265589537,-0.906210126531,-2.29993568381,0.00228923514802,-4.98608817875,-1.74256456832,-3.12019621188,-5.76276286838,-16.8043795495
off_to_on,-8.44306847898,-7.12652733041,-6.95266962678,-0.792468346647,3.11207488488,-1.71104450287,-4.63254212522,-4.74795314032,0.0003871285159,-7.87863268177,-2.82369262511,-5.13478841233,-8.61775653706,19.9673086607
off_to_on,-4.43947571201,-4.63989673143,-4.48635804476,-2.20735119431,1.7618812726,0.0523522357981,-4.93364249231,-4.39157483663,-0.00163882456444,-5.47189581888,-1.71197947007,-3.98299646306,-2.35272667614,28.8346691275
off_to_on,2.65647508688,1.69817845141,1.88696307301,-1.72824399193,-0.152874424613,2.91556090012,-0.688724677274,1.21602044107,-0.00299567824901,0.976582426938,1.16771075642,-0.498080316498,5.43212163937,-33.358306849
off_to_on,6.42397473265,6.32720800158,6.36689606491,0.555341526017,-1.54797429149,3.37472302139,3.23562421068,7.29806688397,-0.00316570917602,6.77559267124,3.00108820214,3.57970350288,6.03221261501,-74.4427300471
off_to_on,5.72013308627,6.15846811001,5.85639203775,2.3675332618,-2.78776506891,0.465742627299,3.15609966905,7.12997891068,-0.00209566067767,8.15682894355,2.34465125057,6.56249927782,1.74519711861,-24.8086120545
off_to_on,3.59183416899,2.82452027017,2.24605293752,1.8928544348,-4.25121829371,-2.94244338485,1.69621954856,1.21212128897,-0.000214355340713,4.9425007763,0.776503223619,6.37969763893,0.480926870907,43.7627837466
off_to_on,1.23214531804,-0.397396673395,-1.14249220754,-0.180701810126,-3.84631045828,-3.33456091454,2.57528706329,-3.26565771061,0.00173080683004,0.00269195130482,0.144340372705,2.17958559387,2.74953368762,39.7589964979
off_to_on,-2.52053586028,-2.16563360835,-2.93932493986,-1.68122678831,0.523773545709,-0.596877573416,3.63662042413,-2.43594854806,0.00297105144251,-3.48329471996,-0.108846647426,-3.42885296459,1.82938161401,-2.77482065203
off_to_on,-6.50488972842,-3.29206274604,-3.46280740628,-1.37869641314,6.0404205122,1.82705195869,0.145537813492,-0.51317281114,0.00302811194201,-4.72871534362,-1.48244815858,-6.329296697,-4.2892070909,0.509289289129
off_to_on,-6.86325978388,-4.44000560476,-3.11821932108,0.0702749157828,6.65447906042,1.10302047244,-6.32030462382,-2.24417894128,0.00189970692548,-5.12265664768,-3.35382258736,-5.51022911401,-8.83615172788,33.2988122608
off_to_on,-2.54867826193,-4.54639397464,-1.96448444493,1.12585370789,1.20654606606,-1.39428028052,-8.28254282118,-4.93254299878,4.47181573969e-05,-5.02542784718,-3.24838496473,-3.3502457534,-5.98294398,15.7881950178
off_to_on,2.49573426063,-1.91060285661,-0.033373709718,0.837149621068,-3.94947870124,-1.74523515572,-2.86883255263,-2.72561589041,-0.00180588510816,-2.36960023862,-0.22532127351,-1.14594664162,1.2588472317,-45.3532114653
off_to_on,4.55297291236,3.16039052285,2.37080380277,-0.389047665743,-3.23073912906,1.29187111425,3.57649294181,3.45324237278,-0.00292992646489,3.65162989144,3.44655254065,2.36062239983,6.05750760502,-61.0622663002
off_to_on,4.47738348627,7.40764619359,4.28186778896,-1.15161854398,0.449252239191,4.19066643433,4.50853646967,6.3366007272,-0.00289168217963,8.95875134988,4.63485895277,6.82506600896,6.38493538041,-7.84594794569
off_to_on,4.48067634997,7.2796288503,4.25064435638,-0.480621812837,0.346142236407,2.87361596675,2.21135661332,3.09869065809,-0.00171679944376,8.15818910646,2.61350703347,8.29168022007,4.76311226451,36.88105488
off_to_on,3.44902030262,2.67247945186,1.77583239188,0.900838072257,-3.65673612919,-1.86890867704,2.87494908576,-0.351595345975,0.000116832625772,1.79928949355,-0.589936056751,4.15166234882,2.4635395918,24.1996733538
off_to_on,-0.916799183365,-2.89177390247,-1.65840322291,1.25157620382,-4.54466713578,-4.93554559271,5.66682006609,1.06301853377,0.00187820819993,-3.73673235887,-2.60695210162,-2.45352275596,-1.3752202909,0.167749515787
off_to_on,-6.79404486346,-6.10218194026,-3.94373494042,0.0536683347648,1.36385931697,-3.07003071555,3.36345200048,2.85765845293,0.00288051389781,-4.76415337656,-2.81136194072,-6.4853781508,-5.89578552219,8.69366492999
off_to_on,-9.05433758151,-6.64560160295,-4.45896848773,-1.14402227792,8.29436158208,1.2053598872,-5.89846031859,-2.2737859667,0.00274510037586,-4.55175264858,-2.11275710715,-7.24183016819,-7.94768093578,17.4775674601
off_to_on,-5.44508689859,-5.4553004337,-3.6842051661,-0.784887622871,8.02910450355,2.91602706843,-13.5952224431,-11.3081130487,0.00153757873147,-6.3093724079,-1.30335107247,-6.82347366562,-5.76000525292,-6.32591665008
off_to_on,1.13450546603,-1.99663779235,-1.32499784782,0.502418620605,0.134381450513,0.812579439644,-10.5330979166,-11.964673463,-0.000260524848363,-6.16093130123,-0.101120047761,-4.14330703549,-0.566619796287,-23.9541676654
off_to_on,6.68771686531,4.25799959385,3.00844176796,0.861788360463,-7.87432938917,-1.51514261586,1.84906355612,0.968946088457,-0.00193675371239,1.29124948124,1.98370178475,3.68727655463,5.33145507519,1.06055286397
off_to_on,9.29888944624,10.219999673,7.07733653039,-0.0605805474807,-9.1179366615,-0.634151070174,12.9802563227,16.1294229945,-0.00283083360553,12.1852129555,4.07373204521,13.2957003732,9.52473022728,18.782689208
off_to_on,7.84936394098,10.2928585451,6.69954366052,-0.754634828931,-3.43105757954,2.35939386196,14.1093963387,17.386502535,-0.0026016469048,15.0309832633,4.00191736817,14.6996163423,8.9460946842,-28.4840059722
off_to_on,1.49975383579,2.69249938952,0.849636972774,-0.281646949417,4.15737523151,3.45537809146,5.45564092416,2.87559066173,-0.00135764794942,4.90784355184,0.693858641798,3.23444064413,2.09060471681,-81.9676582146
off_to_on,-7.28459907615,-7.19378896661,-5.7772470601,0.427455097892,8.17700976759,0.780023881101,-5.7732031884,-12.8050956708,0.000399764496906,-9.17831937515,-3.80577005962,-11.9463414448,-7.16779373523,-27.5721387077
off_to_on,-12.1451418561,-11.7190569886,-7.45859735964,0.317689800964,6.09433663476,-3.28672305138,-11.7265676579,-15.4066558865,0.0019799485757,-14.4615200858,-5.72956301828,-16.6220832083,-11.3520355917,115.73347221
off_to_on,-8.60131779092,-8.37800577048,-3.67123926006,-0.0962133703289,-0.301942967408,-4.94145247126,-9.16628127226,-5.56231285044,0.00276807305331,-8.44190221184,-3.39674246789,-7.57396427188,-7.12919185509,173.35448446
off_to_on,0.615180858235,-0.889705547297,1.30369612467,0.127294488191,-5.92122085599,-2.85701759505,-1.2063434104,5.08674557496,0.00246124568862,0.922506537175,1.04451223097,4.76833284331,0.901936592444,33.5428698535
off_to_on,8.31155831887,5.72868423519,3.89082033847,0.53154134316,-6.4396907489,1.01491318077,5.58636646373,8.23918437886,0.00119035024138,6.21458417713,4.04193572718,9.53602269212,5.97174455851,-178.712413678
off_to_on,9.93580641084,8.74624225109,3.85536451248,0.0303839199662,-2.29733357323,3.70978478033,6.92727619223,5.40345026989,-0.000531454077986,6.81008883495,4.04785111409,6.40167771949,6.31801568848,-224.486105683
off_to_on,6.03907732984,7.25242386796,2.19930733658,-1.01203573431,2.24679399809,3.73074006533,3.81037772905,1.82094662497,-0.00202040278095,5.1021595344,1.99373768029,1.95496440352,4.37563245337,-34.9817124237
off_to_on,-0.502463845762,1.73952756986,-0.323750086197,-1.06238500185,4.08873084306,1.74379138506,-0.155552857852,-0.766276614863,-0.00269837714596,1.96786899621,-0.598000176945,-0.163525281008,1.55005345369,193.278663203
off_to_on,-6.40456105653,-4.62762738856,-2.17902201058,0.195135337346,3.71655496201,-0.435499910721,-2.70375728181,-3.35277862421,-0.00231362454725,-2.095162375,-2.65686920099,-1.54182654415,-2.2382586606,215.487392177
off_to_on,-8.10882809585,-7.16743192566,-1.67509318225,1.23725115701,2.50819055767,-1.47072080118,-3.22578814653,-5.19262894796,-0.00102841678277,-4.91627345594,-3.21807691356,-3.66401294043,-5.16936232845,17.4464975424
off_to_on,-4.15371264182,-4.42314093366,0.12614554258,0.897795418553,0.132571770176,-1.51308818187,-1.49134254322,-3.92633430188,0.000646603035667,-4.613977085,-1.76239365103,-4.87421757402,-4.3878041779,-171.136090877
off_to_on,1.90661074051,-0.178057511818,-0.0469457241853,-0.099226257003,-3.60592984274,-1.67279990555,1.36073390975,0.392857452919,0.00204942294995,-2.08732269341,0.671634841657,-3.21922034324,-0.719697007786,-148.988768071
off_to_on,4.40944908556,1.41348757665,-2.46401302435,-0.514242368336,-6.18008328389,-2.3066467302,2.16605921095,4.45497842605,0.00262949766453,0.482048925767,2.01579769979,0.563973237773,1.58187113819,23.7330157552
off_to_on,2.50326469805,1.20003350971,-2.67402121413,-0.388457487812,-4.37470479544,-2.08523175594,-0.582802235988,5.45606932255,0.00216966899467,2.40759782379,1.52212725136,4.07028654672,1.0590061323,120.272082144
off_to_on,0.855210078902,2.6769084027,2.04658938047,-0.440846835991,1.2744654846,0.506405111858,-3.22435037428,3.55461138809,0.000867105782388,3.89954744677,0.595579671651,5.52056845785,1.07947381425,45.8787807158
off_to_on,2.08311131619,5.28251929772,6.97594485238,-0.502037599114,6.21401713667,4.48732663842,-1.01062111031,0.0580133750549,-0.000756499330058,3.87009988145,0.54407450901,4.12962219012,3.51396731031,-58.4353385324
off_to_on,2.49220599109,4.15785479839,5.06424910542,0.11990176365,6.48908006589,6.09651031651,4.22092812279,-4.25837879343,-0.00206480184983,0.906390775998,0.58011032928,-0.0813637155404,4.370224676,-40.3228079748
off_to_on,-1.55936712364,-2.32258622061,-2.98620983723,1.04748606662,2.34467776086,2.47798545713,5.0235398507,-7.55125846989,-0.00255060387007,-3.60948352633,-0.695965417115,-5.2298762983,-0.305582458266,45.8248755867
off_to_on,-6.53126524069,-8.44842419624,-8.48708194121,1.00190080013,-2.80457279989,-4.19808059365,-1.22613758757,-6.27964777459,-0.00203024563274,-5.70369849762,-2.57590326719,-7.42298694433,-6.82781957076,46.0173666899
off_to_on,-5.78657235975,-7.44192296399,-5.59247573788,-0.242338652874,-5.52205255871,-7.67101517233,-7.22775047324,0.679672419813,-0.000717866170818,-3.11168875727,-2.68787428507,-3.91223002681,-7.32704761554,-41.6453877898
off_to_on,0.732944298387,0.0975846066499,1.8026502661,-1.24590413345,-4.36335077776,-3.99342588203,-4.81773002012,8.40559314203,0.000859494115038,1.93301165288,-0.211386570182,3.19907954894,-0.372461364966,-70.8672702372
off_to_on,6.03842382532,6.94284614707,6.02499986014,-0.796154077408,-0.535549838471,3.41690376505,3.73552418396,9.89046308795,0.00207768780734,5.10130928181,2.76092927966,7.92548233559,6.64879633552,8.72993420809
off_to_on,5.36919615922,7.50107192442,4.79683267363,0.445899627063,2.72169319429,6.80992646408,8.29270029879,3.92672636458,0.00246615810649,4.27474999094,3.5479937794,6.11940471059,6.81997796909,70.4306161015
off_to_on,1.20977903799,2.64464744345,1.34543962098,0.919643527766,2.80661451529,2.74939963218,3.83343749593,-3.72279472562,0.0018861121388,0.749310802573,1.62488663694,-0.313718144871,1.38784634136,21.4710712494
off_to_on,-1.94478445121,-3.06470777441,-1.63749451706,0.246372254504,0.594397709042,-3.78861332818,-3.90210629577,-7.41330664075,0.000575141618855,-2.8430307124,-1.32086691794,-5.59231743994,-3.59917079249,-48.5145670751
off_to_on,-3.17137965536,-5.87427196924,-3.75420384111,-0.484841895124,-0.597147586429,-5.32818890243,-6.66280241507,-6.78341989004,-0.000947417882597,-4.56769327309,-3.15385662601,-5.9193806747,-4.80688171386,-24.801426872
off_to_on,-3.26330584723,-4.3677228108,-4.05336690199,-0.336645397526,0.563758863938,-0.74950355879,-3.40900408025,-3.94846703202,-0.00208132624027,-3.63287487363,-2.68615831673,-2.35556446907,-3.05825114301,41.7173281648
off_to_on,-1.55251006874,0.277852690206,-1.2802435996,0.324602045553,1.72633075378,4.03099031506,0.70010140292,0.520265825483,-0.00238350235371,-0.402865089932,-0.293019939448,1.58689354794,-0.013892086518,30.1786431061
off_to_on,1.83908539908,4.2258916003,2.62442412707,0.476607509302,0.60233299075,3.98467954284,2.18532962734,5.82631856301,-0.00174609834168,3.37034270409,2.13298542505,3.62255795155,2.98573320991,-40.8725358848
off_to_on,3.62344675813,3.71538246109,3.48936350131,-0.196945502494,-1.59775784856,0.624020745878,2.40647693753,8.20174267668,-0.000434052614584,5.1305618732,2.55243480013,3.52000358276,4.00936553302,-49.3450907583
off_to_on,1.40252846434,-0.397845781418,0.760120671609,-0.893430831304,-2.37734984711,-1.61241125253,3.34730964545,4.52279864063,0.00102971398936,3.37431274909,0.849053374599,1.80368833312,1.93091182846,19.1726065106
off_to_on,-1.80407229766,-2.89776890627,-1.21470156709,-0.606705179295,-1.82447815488,-1.83767396915,3.6515418774,-2.21384904744,0.00207310526348,-0.781609906025,-0.987033667333,-0.741517324804,-1.34584371487,50.7805997701
off_to_on,-1.41212087524,-0.831576013603,0.308422855593,0.612743335037,-1.52135228029,-2.38256266571,0.695921971974,-5.40759283117,0.00229353962007,-4.1990160816,-1.27644540677,-2.64091110154,-2.6618244612,0.679169482129
off_to_on,1.531921893,2.31090013596,2.08838848313,1.45514913067,-0.824871963738,-3.3093014768,-4.61978133642,-3.19694695884,0.00161172656265,-4.30544255364,-0.488661150374,-2.47288094295,-1.60176226572,-36.9059726652
off_to_on,1.7685386766,1.61507888114,0.0545890403956,0.730625283508,2.1160376526,-1.54094037109,-7.44073442257,-0.345589626961,0.000304343879731,-1.36860234455,0.0151691706856,-0.619336233852,-0.430767693259,1.20760602933
off_to_on,-1.7217464147,-2.02175502225,-3.86094345431,-1.00595159796,5.68842626403,3.48568888273,-4.28299926131,-0.779058392188,-0.00110584527651,1.79478532045,0.0631401535067,0.782665460431,-0.219786002322,40.6173142414
off_to_on,-3.80199294991,-3.34593809983,-4.16841888552,-1.76644982582,5.21882186608,6.98995185086,2.29399066672,-2.22625998518,-0.00206280507835,2.58608748543,0.279561286584,0.420746631173,0.263426789412,6.24197897183
off_to_on,-1.09531381542,-0.585744945293,0.0697461015669,-0.497955469353,-0.40918127387,4.4687736616,6.13174860312,-0.620645997354,-0.002199374187,1.15299036148,0.445233852213,-0.429231731803,1.49771555975,-45.4240029465
off_to_on,2.89021285844,2.36406698896,3.87891582051,1.36994887005,-5.96835798192,-1.95024700678,4.598058745,3.37314230377,-0.00147474443329,-0.124807009919,-0.0832950226052,0.256104636825,1.91687425025,-27.761808667
off_to_on,3.26472765074,2.14410391011,3.41028222569,1.55549150767,-6.2035695853,-5.94666077553,1.11886599962,5.48232979591,-0.000181850523929,0.265795365977,-0.708593794968,2.11043837001,0.696173392163,26.1784541552
off_to_on,0.61461408784,0.289910386596,0.502270845859,-0.1245016274,-2.26360046037,-4.7729295732,-0.36805658723,3.63293425514,0.00116846807435,1.06455568977,-0.200495238795,2.4930130395,-0.701977224875,26.6594148249
off_to_on,-1.16549962125,-0.353746116332,-1.08156525288,-1.48972904827,1.13264523281,-1.33375091812,-0.795316435102,-0.396214627819,0.00204527051092,0.152203273109,1.00281191315,0.069790851419,-1.07973967957,-15.9203356949
off_to_on,-1.10522292663,-0.0996814833047,-0.758667039446,-0.902045246792,2.57322127031,1.11931234781,-2.95206983928,-3.88863401957,0.00210784454437,-2.10059108428,1.04322170653,-2.95664326556,-1.21665120612,-16.7988570324
off_to_on,-1.10825216028,-0.593030059912,-0.383201184861,0.653206756982,3.93101897065,2.59079962984,-5.17257313105,-4.98601872438,0.00134222982546,-2.82277689749,-0.373177109974,-3.25540929782,-1.5035440716,27.9759838364
off_to_on,-1.3385384391,-1.15129495887,-0.697131064049,1.12925073232,4.81952175616,3.65890212218,-2.90786180036,-2.77454444332,6.17123523862e-05,-0.492441226659,-1.24090680376,-0.47758581261,-0.451790535136,34.4414536731
off_to_on,-0.0924153874472,-0.265103092179,-0.975569834608,0.220623291301,2.20392821592,2.89346326395,3.17659948734,1.32005235258,-0.00122542847575,2.48553514694,-0.409358296592,2.25418230245,2.15505156523,-18.7453032462
off_to_on,2.04322220211,0.880390951842,-0.921011177535,-0.564667380645,-3.57147075726,-0.422789653877,6.00383617321,3.14152057008,-0.00201766209267,2.45271460968,0.522256478219,2.08468954046,3.0965574558,-49.253199851
off_to_on,2.07295519188,-0.00306895103125,-0.700356429626,-0.308628833208,-6.97102214654,-3.44555877104,1.7236367545,0.373606551014,-0.00201135879297,-0.691562803864,-0.0447524498152,-0.354516136409,0.0285160783279,-10.3286488609
off_to_on,-0.552013173554,-1.8567395021,0.142368839736,0.174572355387,-4.08760194592,-2.89484174844,-3.77495429289,-2.92466670129,-0.00121613376339,-2.96613197991,-0.875993961526,-1.97633073682,-3.72337758798,32.5193036793
off_to_on,-2.40968700615,-1.10689952181,1.86620880312,-0.0890491243342,1.80700972215,0.148270580404,-2.52598809493,-0.584032869075,4.78438234371e-05,-1.10443154746,0.0120403079613,-0.816319687355,-2.77515763029,15.3881682979
off_to_on,-0.939807755132,2.59401281634,3.12416101564,-0.635222057504,4.52652934568,1.6805441032,3.91161879566,6.21073386591,0.00127702257193,3.21846574809,1.71739126299,2.01431326742,2.3276075933,-20.9334927342
off_to_on,1.81886969056,4.77386855849,2.17467456804,-0.352218618087,2.68491271272,0.457225290613,6.05629873194,8.40996137238,0.00198849531558,4.93584552385,1.57398835889,3.50742844636,4.99945540498,-10.2497665711
off_to_on,2.16201732352,1.84572100715,-0.664039295702,0.71232470417,-0.0294839534052,-0.910960938462,-0.502449069154,0.696017498078,0.00191193640451,1.18701160999,-0.567021502127,1.4799205257,1.45478482205,25.2367477014
off_to_on,-0.340009665524,-3.79214206745,-3.17078323693,1.27431330224,-0.875216402229,-0.541030994986,-8.83607869579,-10.1109558796,0.0010891387937,-5.1550753955,-1.95351713843,-3.14191194562,-4.09788795843,21.6571388121
off_to_on,-2.6157653013,-6.2505876564,-3.61517382268,0.512367505728,-0.719099220275,0.376731634664,-9.18457655052,-12.3188592469,-0.000149862054827,-7.76089402941,-1.09609124842,-6.16127009629,-5.11912361892,-13.0808278981
off_to_on,-1.9386263109,-2.81927811034,-1.90705501136,-0.843284164309,-0.868609207912,0.638743307454,-0.367800089802,-3.32074541015,-0.00131671196435,-3.05363514579,0.32627354795,-3.50110967437,-0.825374863579,-20.2706895758
off_to_on,1.15171621031,3.13314423519,0.947202906002,-1.3706239455,-0.736898623051,1.10944011239,9.39422507973,7.68874641091,-0.00195392163965,5.388874227,0.562286037576,3.62364489746,3.81336551848,1.92381128478
off_to_on,3.308156076,5.64596161545,3.13382387185,-0.572024753219,0.247314248542,1.971320925,11.1072239807,10.6160035695,-0.00181585676249,9.32208686023,0.29399651272,8.02848228552,4.36273210812,2.14869859309
off_to_on,1.61486286982,2.24261050281,2.70286604725,0.632430277171,0.941910270624,0.96740221336,3.16224132567,4.67656994975,-0.000966840778845,4.22570446637,0.606659611969,3.96323372606,0.923706614545,-20.8968519345
off_to_on,-2.69605141442,-3.13895305699,-0.0675443605333,0.970643156044,0.28658017717,-2.71958696349,-7.30302366353,-2.83158178649,0.000249067110007,-4.88235888423,0.681904636401,-4.76439540525,-2.97672063346,-11.4103732449
off_to_on,-4.38230576565,-3.94898167066,-1.78409379017,0.23349454978,-0.777605802368,-5.14007318989,-10.4110252764,-5.15958616066,0.00135096737026,-8.17016962568,-0.403012248492,-7.77717004442,-3.60891208122,34.3292353695
off_to_on,-0.259415444989,1.12938153832,0.0373957590353,-0.524077292451,-0.687698240368,-2.04199090534,-3.13130445058,-2.08346841046,0.00191100833525,-2.39139851561,-1.27374148873,-1.05361224458,-0.191405758946,42.8948016757
off_to_on,5.3349195908,5.46875907677,2.63991492337,-0.310589431772,0.409199805553,4.17808766125,6.4425594572,1.36313516684,0.00171682504002,4.91870154375,-0.213432286238,6.86344565891,3.66334276152,-14.9557521016
off_to_on,4.82454483395,2.34676917268,1.11791680741,0.483701772451,1.01058378072,6.18740637915,7.28347519486,0.881146000774,0.000851442546978,4.86088974354,1.49941783923,5.51055382415,3.06642564656,-59.4718244064
off_to_on,-2.07837472396,-5.38848882815,-3.91644651178,0.584600374639,0.395066285101,1.18644102422,-1.10524673656,-2.36206995911,-0.000338571497473,-1.47112791753,1.04229827298,-3.30050994709,-1.93997176475,-18.1521649173
off_to_on,-6.71452477135,-7.88473877854,-5.89561581454,-0.322123910965,-0.638279268915,-4.95411426156,-7.39282565115,-3.3481853408,-0.00138069015545,-5.01327462404,-1.40007874725,-7.79430850317,-5.23887601447,56.508769878
off_to_on,-3.07492381391,-1.36681003386,-1.33994087682,-0.993489770706,-0.912271123856,-5.04363653633,-3.10939713137,0.144236015377,-0.00186711436272,-1.33103258428,-2.42475941445,-2.40373759441,-2.19801525969,60.0648278789
off_to_on,3.5083261729,6.38189240723,4.64758993817,-0.386686918706,-0.0960812932243,0.540338644795,5.78680154025,4.16150973637,-0.0016160046656,3.8999104196,-0.354959525501,5.11115509941,3.61649501171,-13.952841718
off_to_on,4.17711148768,6.62402283037,5.28244756316,0.683342748105,1.01600565926,5.01053208454,7.12829415713,3.71290276552,-0.000736497148081,3.69379812388,2.22618106083,5.35231816351,4.96909582214,-75.5503119606
off_to_on,-0.490376694013,1.09080740081,1.32316075722,0.654415268346,1.16941469684,3.78298289137,-0.61536001532,-0.233969361825,0.000420524849564,-0.687996916804,2.20471475259,-0.039912169737,0.893175730429,-66.1352670459
off_to_on,-2.28914127436,-2.26823913372,-1.17905633899,-0.359952127176,-0.0314699704688,-0.969752103535,-6.76852006061,-2.17491289392,0.00140010885715,-2.90757973791,0.0837152254054,-2.77931416477,-2.62510521326,-7.4650822578
off_to_on,1.20195989926,-1.4581802943,-0.374447561453,-0.630294007579,-1.41137795617,-4.12929506506,-3.78052508884,-0.0778150327414,0.00181944736535,-1.14447374724,-1.38505182116,-0.776685330284,-1.88802771754,61.2310884908
off_to_on,3.19983497057,-1.34632869345,-0.226407032718,0.462315326728,-1.48461714337,-3.37543716502,3.0526309695,1.98358067978,0.00151908996604,0.696628144895,-1.16292051481,0.678336508447,-0.0365699443703,109.817009948
off_to_on,-0.594508157555,-3.54306915493,-2.6809437578,1.23007774363,-0.379309714282,-0.332539149668,4.340273579,0.278070779307,0.000626356558573,0.268177108879,-0.414566882691,-0.886880450168,-0.540663540975,86.5843795926
off_to_on,-4.71465132358,-3.3116998885,-4.04599544207,0.176806539906,0.517024337477,2.18628205231,-0.438794095455,-3.25064584768,-0.000499433524597,-0.263524063842,0.0325406263258,-1.61439775005,-1.37353767769,-37.2956703645
off_to_on,-2.85772792093,1.49104822315,-1.32346489623,-1.48314557462,0.787850774821,2.69139670516,-3.90168952142,-4.37664554777,-0.00141451632387,0.606987453281,0.463284105806,0.598083266584,0.491124467766,-170.452910934
off_to_on,2.06458891728,5.44664952917,2.59358034335,-1.38433253115,1.28142414476,1.50289444234,-1.87658156039,-2.28929298096,-0.00176508105453,0.707503683267,0.751258605619,1.74229743963,2.80959592644,-155.251398532
off_to_on,3.0915583958,3.64278229142,3.44692639902,0.459163386237,1.84192129032,-0.0548121886288,2.04342047585,0.961878738484,-0.00142089613062,-1.18700292534,0.198468457768,-0.833379944792,1.51752316923,23.6135021818
off_to_on,0.283778605002,-0.713760487912,1.86341551229,1.5546012548,0.846304151139,-0.838637232384,2.91104618517,4.15482767124,-0.000523340145331,-1.95976751118,-0.773298445171,-2.59411731371,-1.85552028428,178.042892999
off_to_on,-0.626581698624,-1.85873080663,1.10411087068,0.549741370951,-1.80221426882,-0.760872519315,0.826367824325,6.47336229898,0.000569581184201,0.883543034811,-0.63632873332,0.962877934095,-2.02520700711,145.129807561
off_to_on,1.44408996449,-0.446210400906,1.06553879679,-0.897225658096,-3.32090553205,-0.623845881673,-0.724231459718,5.39066704538,0.00142523451737,3.92657679203,0.810328889438,5.54300902444,1.35625518726,-3.79916306628
off_to_on,1.66625394045,-0.923248574809,-0.820232705751,-0.75386336714,-1.71484777164,-1.00351359229,-0.206665512141,-0.511777041173,0.00171032700727,2.19422306192,1.60755028737,3.51457927113,2.72106326557,-85.71862702
off_to_on,-1.54618834379,-2.82558863393,-3.83765912761,0.450057971105,0.941138477507,-1.40634070176,0.550174891743,-7.17802217373,0.0013219209123,-2.78294153501,0.3224748569,-3.83633371232,-0.545846612126,-65.5555648738
off_to_on,-3.48772175071,-1.7025164917,-4.0527143287,0.803255770399,1.49803764019,-0.753937801785,-0.473385462938,-8.16208660511,0.000421801988191,-4.41054332229,-1.65764415574,-7.08662141601,-3.71933464303,-50.6768744514
off_to_on,-1.29735783828,2.19920807113,-0.589853035635,0.0568728392591,0.584990959329,1.17421984809,-2.56952351164,-2.88346632037,-0.000632411167123,-0.661402787848,-1.90197486113,-2.25661680657,-2.0492955313,-64.4989018183
off_to_on,1.28398794708,3.35523873165,2.48395620072,-0.399991965183,1.09091758278,2.91872627562,-3.11876379339,2.27330269827,-0.00142720879226,2.80777068782,-0.25628491288,3.57652270947,1.93655674976,-7.36067936493
off_to_on,0.64161943593,0.097319256936,2.08284183569,-0.160144830244,2.59008642935,2.49250078363,-0.910977224521,2.62968751407,-0.00165323652848,1.09433165676,1.15057491219,3.0730151523,2.5912718385,125.046632867
off_to_on,-0.636229316141,-2.25571194337,0.350787054742,-0.296173153694,1.5151022921,-0.184807216968,2.26433777287,1.12983996087,-0.00122727029686,-2.635845651,1.00129658295,-1.01697587036,-0.184904163292,165.146958206
off_to_on,1.16642807425,0.066949092383,0.741877737483,-0.976128026995,-2.52901439917,-2.52499179311,3.96645524003,2.9254197264,-0.000325058799664,-1.83682061267,0.324896829111,-1.12859884055,-1.27634576151,18.6595174462
off_to_on,3.90790793355,3.29138516514,2.58378245147,-0.6714919413,-4.95506226125,-2.04824216657,4.00180511761,7.00545620635,0.000692154948838,3.74366628254,0.488772399242,3.37931326319,1.42809200516,-153.579543861
off_to_on,2.82972010453,2.25123943121,2.36204443357,1.19666581427,-2.63748926273,0.244010636505,3.20456004306,6.91906765516,0.00142472876237,7.12213537661,0.928799581928,5.53285536907,3.66726150838,-143.432308223
off_to_on,-1.83390411238,-2.00789960085,-1.06904160941,2.53882679491,1.56461764318,0.935864436628,0.329086206724,-0.923864309779,0.00159096180116,2.761449391,0.019926856032,0.710454050619,0.841872600114,8.04339393212
off_to_on,-5.43263358231,-4.83946376689,-5.05677411948,1.22396415202,3.35877299912,-0.895727168948,-6.04349115195,-12.0953999531,0.00113270302247,-6.47683636913,-2.16778349664,-7.31550334921,-5.38188222493,87.9271813079
off_to_on,-5.31883393772,-4.45213334802,-6.15846806582,-1.60385312605,2.6960467811,-1.98446075143,-11.7496671186,-17.1204203931,0.000235445367739,-11.7705271262,-3.19023867301,-10.6281536961,-8.25959695403,33.2342604464
off_to_on,-2.1726055844,-1.54577073367,-2.8725749515,-2.77568432252,1.60245898052,0.29922203591,-8.35988226807,-9.16700548728,-0.000744111411804,-6.79520208418,-0.970183572958,-4.81106383407,-3.07457407299,-12.3499722381
off_to_on,3.10158634346,3.71645399434,3.44327928013,-1.28050034818,-0.308444552083,3.464605426,5.47501898368,8.82728737358,-0.00141938913808,5.76991866789,3.14403320768,7.02615792454,7.22865515578,33.3789772315
off_to_on,8.47024699305,9.09279484228,8.48738313939,0.748497004109,-3.52566272802,3.14351337287,17.6466695583,23.247729255,-0.00152887419655,15.2027733503,5.00916632226,15.3478364948,13.2275911936,61.0718285134
off_to_on,8.47054740511,8.130613641,7.33434855111,1.33612042943,-4.51191830315,-0.364637682753,14.2382951176,19.7751013321,-0.00103820855982,11.6915576799,2.0485756296,11.0313952746,7.35264524922,-20.0251229682
off_to_on,-0.235201183808,-2.11708804608,-0.307859274761,0.962703644667,0.0147395458668,-2.53480889192,-2.88396393812,-1.30284751305,-0.00014804560754,-3.2273165624,-3.3445704326,-4.64918547043,-7.03333111643,-108.014839863
off_to_on,-10.8136196131,-12.8645811537,-7.84951049868,0.817438298855,5.73479931965,-1.55372254653,-16.5467507501,-21.6854022099,0.000789172721218,-15.9674474833,-5.78752411694,-17.6830889379,-16.4011410903,-69.29364711
off_to_on,-11.3115037468,-11.426319204,-7.95121094359,0.589407943217,4.61924013885,-0.536953694005,-13.9219977901,-22.3183809693,0.00140679493048,-13.8181028662,-2.68356000242,-14.3184929452,-10.4318192902,42.1214646752
off_to_on,-0.282357391186,1.70857244335,-1.0652117136,-0.508929406216,-2.90416220213,-1.46789795897,-0.171854429011,-4.0709014983,0.00146568991927,0.999591272504,2.79838126131,2.5812710805,5.52239569322,73.9068355854
off_to_on,9.5930428325,11.700745819,5.03999688638,-1.7010779077,-6.83988903373,-1.43331287151,10.063238562,13.6743113207,0.000948318174346,13.2137791006,5.24368869386,15.3514212723,15.236098219,14.3280051899
off_to_on,7.74733472998,8.31759042738,4.7477570106,-1.46032331901,-1.72627080769,1.85852445325,9.44334135272,15.4608127754,6.53224640538e-05,11.4754898053,2.82670990977,11.8932403612,9.81837710892,-15.1935351172
off_to_on,-0.768862231519,-1.52703795583,0.445679150359,0.0600883956802,4.9820116442,4.63119340505,2.11325426163,5.00784143626,-0.000831260030928,0.227977759497,-1.41148833518,-0.972504028829,-2.91731176676,22.3525848416
off_to_on,-4.16701202545,-5.31060845431,-2.24010646702,1.10815839474,4.00002449368,2.11567429216,-4.37122606704,-3.94263101862,-0.00139038595919,-7.52845002635,-3.60015292619,-8.23577766716,-9.36582726844,30.8263592142
off_to_on,-0.922272118338,-2.06113204455,-1.66778530921,0.858577453426,-1.97474950299,-3.11383540817,-5.643110497,-5.32236526037,-0.00139868972154,-6.00700195264,-2.77744873329,-5.56289045803,-6.05532377608,-33.2340322673
off_to_on,0.771098986047,-0.0399007150743,-0.0879190796042,0.303772668734,-3.1859133141,-3.8626585229,-1.53671575039,-3.49738360218,-0.000859587411043,-0.813498340205,-0.473380086461,-0.875238780712,-0.325814534155,-76.1900492098
off_to_on,-2.11493145162,-1.81553749875,0.990723464623,0.307212751106,1.71197225703,0.834000769104,3.83455810732,-2.62106782322,1.04471962874e-05,1.16191573335,1.63600989735,-0.160621263671,1.76962035634,-26.9770601736
off_to_on,-3.26669347588,-1.71765974671,1.68989124477,0.281786621066,4.16007155164,3.79454715824,4.14089853911,-1.34049015993,0.00086654473865,0.312856460623,2.56137673789,-0.413380587073,1.73874162013,42.3074682945
off_to_on,0.949516326847,2.36970917986,1.30026869397,-0.426750286681,-0.317990142705,0.44710214245,-1.97718053756,1.69724133095,0.00137191299244,0.834611366079,1.76266066409,2.16076152837,2.68053676269,39.0617846898
off_to_on,4.65099485306,4.52407329038,-1.13587601641,-1.10858430139,-5.41009817628,-4.25457017945,-6.87123161914,3.82923177345,0.00133240791107,3.00422885278,-0.302553732164,4.73766060945,3.28448773422,-2.75122999633
off_to_on,2.1828379575,1.01384984744,-3.7169321849,-0.778240479399,-4.24073631213,-3.45195628593,-2.63920046128,2.63929713517,0.000771626690603,3.14934331186,-1.85160838998,3.04145606547,0.995199019515,1.66743030799
off_to_on,-2.45272257771,-2.99859201742,-2.81389509727,0.151230851836,0.873331233438,1.56081306903,6.71832614401,0.0240487984895,-8.35201432301e-05,-0.0659987688844,-1.45552901419,-1.17884341653,-2.63401450771,35.4262843116
off_to_on,-2.26019724339,-1.89843255652,1.5549211861,0.536097546008,3.57720682954,4.08006214954,8.77837059458,-1.01754629202,-0.000895494772142,-3.3588887446,0.0507167764834,-3.11566337303,-3.75283846912,17.5515423393
off_to_on,1.48849591669,1.33595755208,4.56124219935,0.32809640675,2.98212075897,2.08379029396,-0.348831153453,-0.847286832977,-0.00134758013807,-3.4573301255,0.61203901634,-2.35517079022,-1.73903998463,-45.1656949241
off_to_on,1.9834226006,0.727295790471,2.6705679095,0.404916448432,2.31107838991,-0.248943865096,-9.65722175851,-1.47493234953,-0.00126607656917,-1.1223844547,-0.141529471267,-1.99895691145,0.531172732594,-62.185528998
off_to_on,-1.63755952847,-2.33231625274,-1.50159585229,0.79095064825,1.72864017969,-0.263858307145,-7.60883697151,-2.38513500474,-0.000688418357582,0.856937080676,-0.50237815876,-2.03426384734,1.23951406349,-9.16553702407
off_to_on,-3.25139519195,-1.6433459574,-2.88197316837,0.475531308101,-1.07672717645,-0.229065745211,2.92460145523,-1.30739938118,0.000152130389672,1.56476579074,0.499948946766,0.551191685426,1.31389290113,35.8611462555
off_to_on,-0.153308405849,2.76970347169,-0.771643942538,-0.755932311979,-4.76533937705,-1.9792095224,9.40532855783,1.63098068666,0.000921701997923,1.83691021297,1.48318267592,4.89269158432,1.53105117912,23.330203031
off_to_on,2.77159362706,3.96232539305,1.01946849963,-1.60852703821,-4.96071418195,-3.20113387803,5.53865695971,3.44183574327,0.00132011146728,1.61265939726,0.846659433488,5.36373046965,0.931057303834,-0.315845986193
off_to_on,1.42297316271,-0.728044543752,0.196695329082,-1.00950362617,-1.09042500971,-1.46421220434,-3.16474865975,2.24064427445,0.00119713794918,0.0694773408225,-0.739159979613,-0.0564330418871,-0.827759709616,9.21639260189
off_to_on,-1.11077251967,-4.79711968107,-1.13411952816,0.419155406217,2.52324728803,1.66136125136,-7.70818551005,-0.377872378538,0.000607186538221,-1.79249977317,-1.34031719665,-5.23965012031,-1.88084243999,18.9386453024
off_to_on,-0.364061266697,-2.17630117379,-0.370337337664,1.32052865519,3.13057510864,3.16280600765,-4.54085817265,-1.63125071554,-0.000214110019306,-1.5174933012,-0.544119290626,-3.73368937158,-0.718182052861,-4.9006807287
off_to_on,1.88600772979,3.53205824342,1.492604759,1.23514113531,2.52390778376,2.59582286954,2.75601408322,-0.967308695949,-0.000942081244677,0.825200212719,0.233968336527,1.86399569026,1.06510033537,-23.3683506402
off_to_on,0.898917551096,4.30188437716,1.59021576607,0.532067458438,2.41539319259,1.13324800394,6.85989766962,-0.305939536599,-0.00129132326696,1.59695421809,0.0400707744843,3.34455272647,0.70198325006,0.849886345163
off_to_on,-2.7104302158,-0.748029432884,-0.398285090503,-0.490447970896,1.34786675965,-0.883140227082,3.06902484337,-1.20190953479,-0.00112938696043,-1.25206786815,-0.382997731841,-1.26380144209,-1.48152974811,18.1330666606
off_to_on,-3.51559111921,-4.49224245827,-1.79499152487,-1.434135996,-1.68849281729,-2.83280936087,-4.58710973702,-2.45933129389,-0.000527267911295,-3.97592601508,0.0532092386615,-4.71617601833,-1.97254045248,-29.4200570922
off_to_on,0.20734237764,-2.11864045435,-0.772508333974,-1.37872634608,-4.31949086134,-2.68000842628,-6.19749293365,-1.30268070609,0.000273124629756,-1.52308538534,1.14446173354,-1.06297031406,0.954905958301,-82.9635081506
off_to_on,3.58589528216,2.59537005671,1.16653772572,0.0726970021228,-4.05763058225,-0.0434502346939,1.19467067296,2.66309071179,0.000956779255784,4.40495864629,1.59490316684,5.42013334478,3.97646261027,-28.1609884956
off_to_on,2.26304806144,3.17115270267,1.37965424955,1.59948226924,-1.65947073191,1.74250475743,7.54916726846,5.66394804473,0.00125795753076,6.21187145341,0.483662510959,5.87172804433,2.50627419617,115.76630035
off_to_on,-1.4704492481,-0.667291047517,-0.291786725224,1.39655601461,1.02538662107,0.215862349059,3.02023435766,3.71350904469,0.00106244849857,0.757665112371,-1.59953533034,-0.773439218632,-2.71271543342,173.788720719
off_to_on,-2.33606651414,-3.16542288072,-1.41993382199,-0.318206061996,3.60762682858,-1.54662354383,-6.56143265166,-1.85779820713,0.000452130049253,-5.39923466829,-2.70586221517,-6.11569841594,-5.43256306274,34.2871631831
off_to_on,0.470944674754,-0.697607594477,-0.461567896482,-1.38621707202,5.16872179795,0.630425829036,-7.03880765286,-5.2932654376,-0.000327970644743,-4.59331911281,-1.25376796596,-3.66339198437,-1.64817668326,-177.50663768
off_to_on,2.67613287836,3.38952913417,1.02464529074,-0.644735449552,3.14962514322,4.32850121453,2.58507545165,-3.57424123527,-0.000969052335027,1.26170117123,1.81809941228,2.64029607604,4.52851212611,-223.245327732
off_to_on,1.14442833163,3.36986891393,0.645749848388,0.594686015506,-2.23927146518,3.10607520735,8.01458421157,0.0121914303019,-0.00122213905955,3.70134775352,3.28363243228,4.29007082963,5.4992989238,-34.8560022293
off_to_on,-2.18604174157,-1.21521451862,-1.12117512689,0.696434921327,-5.576298024,-3.01316474009,1.65962797744,1.13987317919,-0.000993946027447,0.102942360211,1.20184112171,-0.22569805134,-0.0277087292972,191.839830816
off_to_on,-3.34431041133,-4.92804291969,-1.32840270696,-0.0144362345753,-2.79197559185,-6.11536305025,-5.83399489746,0.393232299659,-0.000379554550685,-3.11821732548,-2.19680659108,-4.21299874818,-5.29933697065,213.699823657
off_to_on,-1.34948019593,-3.47458041235,0.976183387816,-0.268716512236,2.09991590903,-1.91271644781,-3.23199852595,0.898065160976,0.000376622449835,-0.910575151863,-2.88331299003,-2.57881711112,-4.41918397468,16.7994805909
off_to_on,1.30916982175,1.07640943971,2.70271518921,-0.0483717503853,2.20628781263,3.45762092398,3.42808382519,2.35394820872,0.000976443244254,2.88053758338,-0.263525358016,1.85555696085,0.45287165873,-170.78530674
off_to_on,2.34375603784,3.65020405392,0.864783567968,-0.189696419829,-1.75978153537,2.73501778039,2.13342175352,1.84354401295,0.00118568090575,2.25018986464,2.06327648192,3.58252364811,3.24869943567,-148.814562281
off_to_on,2.03308009425,2.83170092855,-2.5944932731,-0.460700486092,-2.58760360937,-1.42883394467,-4.12140795982,-0.359529348832,0.000927026286644,-1.28212515206,1.42666596417,2.07259559666,2.47624926159,23.7120607352
off_to_on,1.60463595536,1.33905294806,-2.89086795699,0.110264070852,1.78313687437,-1.31669983902,-2.53144859041,-0.80627954566,0.000308689422342,-1.54195136018,-0.411099346309,0.70558153882,1.48675104067,121.266031782
off_to_on,0.791240519001,0.647185235686,0.753053368226,1.09592080593,4.82809429239,3.03800385243,6.63540509613,0.751382987217,-0.000422219072625,1.90957157786,-0.55369564433,0.351121443242,1.60071566365,47.9484379295
off_to_on,-1.46464176465,-1.01083186441,3.45744163766,0.810315742645,1.93908594502,3.88467022101,8.53304857039,0.107174131307,-0.00097886048746,2.81436148618,0.404150027681,-1.38900057988,0.085683617319,-57.2642620547
off_to_on,-4.23531131422,-4.14484701089,1.33668983213,-0.900016186964,-2.4131745787,-1.50867404232,-2.57838725391,-4.11764613144,-0.00114580310591,-1.76647669132,-0.0996937160623,-4.63995216283,-3.92663093356,-41.5970295451
off_to_on,-4.44986270841,-5.2095858826,-2.84357877607,-1.81832386849,-2.41959331974,-6.08835872191,-12.8439142611,-6.55866120794,-0.000861606426052,-6.32112709384,-1.70914271346,-5.38216666466,-6.1281394922,43.2442124717
off_to_on,-0.617590881613,-1.34398421607,-3.40924862474,-0.420113694347,-0.151088680481,-3.68861231629,-8.70396135492,-2.21082362743,-0.000242526918944,-4.5059454669,-1.41168069113,-1.02347353797,-2.71316221987,44.5306486906
off_to_on,4.36517377612,4.36377325651,0.348050113711,1.65721132173,-0.858360997595,2.07695921092,4.22237543159,5.74790949572,0.000464004745069,2.18787233204,1.20251705312,5.10964426744,3.55145266822,-41.3469219793
off_to_on,5.8064949205,6.09546276433,3.50512179707,1.74555988887,-3.08666437954,4.08623298847,10.9950489974,9.51228594205,0.000979228162703,6.89305335729,2.629426219,7.37158476854,6.5309817608,-70.0033280899
off_to_on,2.52649344879,2.86253456398,2.58562310768,-0.159398524432,-1.09209215004,1.96508032,7.52762298332,6.13583928676,0.0011041319029,5.94510647738,0.814634445579,4.24390556054,4.37311101889,9.34751682707
off_to_on,-1.90843430267,-0.909264822899,-0.265647099497,-1.58734165169,4.45312008609,0.428535973331,0.996134119775,-0.570720745296,0.000795500781387,1.48393234136,-1.43089287812,-0.998143032712,0.427118467191,71.2753896145
off_to_on,-3.58220799152,-2.17445252442,-1.44569946498,-1.11276451267,6.12617221434,0.563847922401,-3.67373544902,-6.03878386844,0.000179310568682,-2.86593565846,-0.857299168105,-4.66725788513,-2.39635352155,22.689035144
off_to_on,-2.37602120463,-2.498518071,-1.05848660563,0.128554606693,1.07207927314,-0.705830195709,-6.7846695023,-8.31908723341,-0.00050011571437,-5.20823749822,0.97353102895,-5.32614398124,-4.12410978001,-48.0104176845
off_to_on,-0.845178861459,-3.46422303832,-1.33408259424,0.634247318223,-4.44584204104,-3.44454333918,-6.82795135089,-6.41082418162,-0.000975614639343,-4.83287001876,0.327206738382,-3.16667131155,-4.60255340237,-25.8006898583
off_to_on,-0.324881032739,-3.09874581887,-2.02109697147,0.523631469147,-4.43725671608,-3.5011902203,-1.5553944627,-0.481086229636,-0.00106242634607,-1.96833967821,-2.30379100058,0.384816172014,-2.29520553155,40.0971441248
off_to_on,0.118062448679,0.347371745571,-0.833393508917,0.556152905115,-1.06369424987,0.35311987341,4.71918352281,5.61234008858,-0.000731292179721,1.40101948908,-2.57585790603,2.65957437481,2.13099007612,29.3628048266
off_to_on,1.31043586539,4.21481895627,2.08751231162,0.523941031677,0.647893615957,3.56625014216,4.90061814828,6.82455103967,-0.000118067762152,2.98640815943,0.854334652357,2.06866811311,4.63956496651,-40.7229987804
off_to_on,2.41776150407,4.67547480361,3.59145857476,-0.165866176373,0.770522144607,2.54003102263,0.559420408001,3.42058097009,0.000533224785218,2.94366600096,3.86282963811,0.643289409327,2.91077993096,-49.0357279974
off_to_on,2.24958305915,2.24215841566,2.066063703,-1.06790939019,2.05939576043,-0.130359872463,0.0254042775477,0.709862131823,0.000967756356914,3.05151224111,2.74568128838,1.59119931619,-0.0143693664033,19.4288753929
off_to_on,0.848640271742,0.251304475694,-0.315920590497,-1.11911508818,3.3409099079,-0.365537910747,3.9907136568,0.790555812477,0.00101832746427,3.07619716588,-0.672712737909,3.93744181625,-0.195477728155,51.4589103906
off_to_on,-0.922324993961,-0.855420069425,-1.22673692291,-0.221344372066,1.35116273896,0.898522428258,3.48994279404,-0.446865511993,0.000669108767868,0.747989089071,-2.21794893669,2.87288523534,1.15719947925,1.65815408878
off_to_on,-2.45724377479,-3.30667233479,-1.50715398511,0.647441487236,-2.63125550131,-0.0242085807633,-4.45007453544,-5.26855153178,6.13577721273e-05,-3.87795399021,-1.28687154747,-3.07323954297,-0.176867414007,-36.5382222219
off_to_on,-3.2812109142,-6.23587630856,-2.71747116888,0.850403140993,-3.87921178472,-2.9160144721,-9.81624003405,-8.35168276477,-0.000562927109244,-6.95885827521,-0.560222294064,-8.45201897278,-4.24271074653,0.584574808041
off_to_on,-2.59708985829,-5.07098386655,-3.37634016954,0.689227120641,-1.5297053259,-3.71928664221,-4.66557155451,-4.16307819868,-0.000958255668725,-5.41870874982,-1.08719603705,-7.24983222429,-6.02347212088,39.7357315579
off_to_on,-0.0473164215856,1.51120388268,-0.782369004879,0.496187644535,0.586116148602,-0.778544559871,4.02377196968,3.78152007201,-0.000973049613399,-0.654535391175,-0.981544308758,-0.48187849595,-2.30749927787,5.83351690164
off_to_on,3.19892610884,7.98068933383,3.99824314247,0.0396353622215,0.7127641795,2.8696780236,5.33562218517,7.30361294179,-0.000606957965771,3.98393478399,0.932752575376,5.76635902755,3.97621258854,-45.5268106999
off_to_on,4.92022710912,8.17681187619,6.17797491689,-0.784452202477,1.35195025773,3.9383434439,1.09327610762,4.94268034295,-7.80451971329e-06,6.89987862798,2.97501534246,7.93497634663,7.51111993323,-27.9419371525
off_to_on,3.63134051544,2.54580250767,3.11451178275,-1.35509591744,3.34992428503,2.48967846591,0.861935746746,2.14898880098,0.000587529817132,7.24029574798,2.96061893804,6.68504158861,6.00923130171,26.1809073424
off_to_on,-0.175509211212,-3.56234613025,-2.20153010199,-0.984124363704,3.17687435501,0.261112485941,4.83231789041,1.16758779877,0.000945616779159,3.20412142031,0.804085887665,2.58114826347,0.783190362194,27.2385178108
off_to_on,-4.21042159948,-6.49456828078,-4.84017054069,0.148703628501,-1.03796509566,-1.83345468642,3.88684963215,-1.46231631775,0.000928261777288,-4.60978661158,-2.00004835727,-4.34843396257,-5.18384093024,-15.1208765741
off_to_on,-5.67473451256,-6.06802660887,-3.45766424904,1.15506401537,-5.17163638809,-3.21284452793,-4.07094033285,-6.19766323968,0.000546935711473,-10.0993194391,-3.88217354357,-10.2815961116,-8.06263279059,-16.5088770871
off_to_on,-3.2670685684,-2.85999868513,-0.64497417321,1.36256653464,-4.57738180934,-2.88400825048,-9.68564776075,-7.30077903855,-4.36314083614e-05,-7.21456367643,-3.51468211131,-8.89527848487,-5.05330661713,27.6761771036
off_to_on,1.28574436544,2.1077528847,0.996758176991,0.790486986803,-0.64874113823,-0.84183647799,-6.42244763923,-2.05092641949,-0.000609295175108,1.35006811591,-0.442388640425,-0.0392465725207,1.8567891225,34.0833891104
off_to_on,4.33561674284,5.74525575717,1.27753895899,-0.104981755436,2.07064578686,1.25960341068,0.777122534909,3.6586272605,-0.00092945634303,6.28748075909,3.44387758985,7.65953001948,6.2503722259,-18.9376982348
off_to_on,3.91820041337,5.12702640373,1.32633049087,-0.836520492199,2.68571478054,2.15406387529,4.93593407284,4.11557333342,-0.000881972685762,3.81255870682,4.66085160718,7.1117885758,4.39654913291,-49.5464124488
off_to_on,1.68193347822,1.63309366234,1.71166246672,-1.10866600526,3.30964787252,2.3295793861,6.1626850358,2.3917230571,-0.000489316339034,0.238913699463,1.93787033283,1.9000278096,0.0966457282864,-10.7432430689
off_to_on,0.166881009607,-0.714133947326,1.93507975787,-0.888688927967,3.50883060519,2.24606901858,6.26469889664,3.63124875806,9.07803872755e-05,1.52438655359,-1.82916950291,-0.0781673753573,-0.933958224287,32.4299340828
off_to_on,-0.829250422431,-1.26372490484,1.01665071557,-0.313484684476,0.721626488455,0.93601264044,2.66952577334,4.72074705104,0.000628088035816,3.80881266378,-2.98631554652,1.15662141863,0.541313290476,15.8250870847
off_to_on,-3.02650337651,-2.9559958481,-1.38360294948,0.451971107297,-4.02607497401,-1.91167432606,-5.085341294,-0.604223170773,0.000912070525634,0.0949774548195,-1.4975657132,-0.972070735155,-0.647981150868,-20.387035591
off_to_on,-5.30895393431,-5.73519606106,-3.89584571042,1.1342818394,-5.93470478247,-4.02705330108,-9.52474408599,-8.96929236958,0.000835059033067,-7.34410306989,-0.132568649541,-7.00770006475,-4.61375106612,-10.0194807292
off_to_on,-3.86077027563,-4.8094501525,-4.03776441481,1.24039374672,-3.05307170891,-3.00728388028,-4.58160159746,-9.76932777941,0.000432297134697,-8.91849060001,-0.140409701213,-8.71132431944,-5.21735633701,25.2369333991
off_to_on,2.07123569329,1.72201469282,-0.886745276815,0.458089015029,1.09116844845,0.175720694683,3.76785478845,-0.978828259919,-0.000134707195193,-1.57992971679,-0.0841689537879,-1.44959877164,0.255496100986,21.6456901421
off_to_on,7.42849348554,8.02004503826,3.22978083031,-0.711442763935,2.89002922903,2.36656886441,5.30298725428,7.12245414688,-0.000642387539172,6.73881944119,1.08864898283,7.91147575816,6.12922753593,-13.2208591566
off_to_on,6.87856692472,7.59397820121,4.87409065204,-1.20514123507,2.82825379418,2.35086298643,0.795927382567,6.92139394434,-0.000892321317757,8.31450358155,2.19509656238,10.1698766102,6.29978145205,-20.688429446
off_to_on,1.26998714819,1.91900572133,3.09449691445,-0.618813583273,2.52285282463,1.47994190793,-0.580289470252,2.93055813416,-0.000789075581047,4.50579792812,1.75626883715,5.26272126662,2.18690190404,1.49710247284
off_to_on,-4.1714356035,-2.92809242347,-0.231426901283,0.221699431805,1.48478160711,0.631823942715,2.53447028276,1.28291327837,-0.000377556949035,0.128356994027,-0.0193359010996,-0.951195432915,-1.54322911891,2.10755049447
off_to_on,-6.46769273307,-5.31165963006,-3.08647932182,0.343493902697,-0.584314497143,-0.658597858305,1.73026123705,-1.00620767223,0.000176476095098,-4.39850764055,-1.99326140083,-6.27278206131,-4.5050222277,-20.5927697482
off_to_on,-6.16821329806,-7.32968887822,-4.52544927453,-0.086052197598,-1.7296551987,-1.8657579247,-5.12911905749,-7.62002018322,0.000654096315584,-9.32659427238,-3.23640094662,-10.8829489592,-7.72153107061,-11.1193749346
off_to_on,-3.21904208018,-6.9433848979,-3.52857738896,-0.148927274131,-1.1466051734,-1.32497454204,-7.79120161163,-11.0698940889,0.000869746468632,-9.23014307583,-2.67644015624,-10.1085957307,-6.97648460516,34.4660116637
off_to_on,3.26760883865,0.58742782486,0.549225962968,0.392993223909,-1.51913461252,0.551747313877,0.443411049451,-1.69054243386,0.000742349778474,0.768797685034,0.436686306279,1.1264070908,2.26470730525,42.9980876864
off_to_on,10.0646511208,11.8576142327,5.3536507182,0.798758427724,-4.1411612434,0.85098698711,10.2915549334,13.9393122369,0.000325465332966,13.8109177441,4.36016307732,15.9979696202,13.8125595462,-14.8759375566
off_to_on,10.0026149739,14.6184378009,6.090455403,0.484085753272,-4.63854593987,-1.24804343905,8.79420126521,16.9847638936,-0.00021426419658,15.5759850961,5.08748734671,18.418297131,14.1015257957,-59.5336696825
off_to_on,0.836932502213,3.25717216857,1.07690005751,-0.247709613088,1.24181716278,-2.20978492394,-2.29749191711,1.5288992056,-0.000663281399867,2.23624714685,0.952993202893,2.99536217376,-0.0308957025632,-18.3004470085
off_to_on,-9.51188597724,-11.3288537133,-4.98142052604,-0.77573382482,9.24181042588,0.740117405591,-10.0466700387,-15.7018519121,-0.000846354963609,-13.0774880212,-4.23746538208,-15.3699011364,-14.6156178189,56.4284264204
off_to_on,-11.199062539,-14.2996513902,-6.00739226341,-0.844007394115,10.0981392138,4.39544199675,-8.33886560259,-16.6442828795,-0.000695483970121,-15.8144673158,-5.19171476026,-18.5860982352,-15.0538784538,59.9436636587
off_to_on,-4.10712343934,-5.20333974995,-1.85591906685,-0.458503221094,1.7929579913,3.30617578049,-2.3531945441,-3.66820527782,-0.000274402459089,-6.2962150821,-1.59792114568,-6.5817653491,-3.5038883526,-14.352140715
off_to_on,3.33802636904,3.9427631637,2.29043306272,0.269207116578,-7.35815061228,-2.06923120061,2.98698470129,7.78114695046,0.000248883129436,4.41218407611,2.02360726755,6.07683023296,6.70001615823,-76.0091645226
off_to_on,5.71041087018,6.15316246975,3.16696461381,0.855665924458,-9.40708263571,-5.17696053365,8.06468379409,10.5790337164,0.00066858940577,9.58581637032,2.63858238561,10.2963715133,9.06690503648,-65.9509046666
off_to_on,5.28356637448,5.64045171012,2.4378191298,0.66402620297,-5.3314640738,-2.1634754328,11.0312242736,9.23672921983,0.000821299376503,10.4768485156,1.73398921838,9.36711010917,7.72140981522,-6.31153020131
off_to_on,4.87028255714,6.25297014403,2.06567810816,-0.138748955281,-0.486649397537,2.90402500959,6.12538174384,6.3300314819,0.000649904010478,8.00590294039,1.41452061516,7.2594881682,5.71571679716,62.5639138513
off_to_on,2.46256299679,3.99961620533,0.8044583574,-0.464418494826,3.19605083338,3.75280443932,-5.81273265137,-1.34685637853,0.00022569277081,0.232696487078,0.838188380715,1.48826202903,0.180209926497,109.874878699
off_to_on,-3.55438498137,-4.08675829637,-2.40219553462,0.199613225652,6.18135570026,0.0549947351476,-13.7754756412,-11.9611247289,-0.000281389868421,-10.3813234212,-1.33919276716,-8.46578289982,-8.71115301119,84.7379374554
off_to_on,-8.73922580923,-11.4154166216,-4.81017299787,0.760991110105,6.61991398535,-3.12410629297,-9.93217408739,-15.5440117644,-0.000671609428075,-15.0593020905,-3.46908530021,-14.674576259,-13.0990766919,-39.6755973646
off_to_on,-7.39427825106,-9.55582656054,-3.23157576564,-0.042640973387,2.46905603801,-2.49269529759,-0.230449255076,-6.97618441042,-0.000794070119332,-8.58708847787,-2.84494539004,-9.86008920465,-7.30321728937,-170.747039159
off_to_on,-0.705446316089,-0.335130555069,0.783370054816,-1.52276989986,-3.37621673045,0.20583651084,4.98345000567,5.68993251346,-0.000604211717017,3.36899159587,0.0591522298315,1.84984154488,3.37808210315,-152.414390816
off_to_on,4.86383040939,6.94684983214,2.88911276629,-1.60678266093,-5.4723644084,1.96661156153,5.26003796522,11.6419735991,-0.000179761664341,10.9718814137,2.17469429252,9.97490725456,9.45083983949,26.9395132138
off_to_on,6.1145863439,8.00755897868,2.24626757419,0.294067696558,-3.06063713525,2.38370042993,6.70221930145,10.0647250389,0.000310266839799,10.9160366454,2.21794234751,10.4854236447,8.77225619835,177.694720932
off_to_on,5.14676381663,6.1356100646,1.89536314882,2.18202456647,-0.404592185019,2.40303183178,8.58369020675,6.44952060873,0.000672555154739,6.50525416474,1.70922685717,7.17666244161,5.58891603967,140.735896075
off_to_on,3.37016562288,3.49541570801,2.72431857928,1.90782445919,0.0197188757413,1.43490458891,3.86293189779,1.76569292931,0.000766410180532,0.512210819513,1.52370281304,2.65656298427,1.57321298378,-7.14762058351
off_to_on,-0.779357402282,-1.93304216646,1.4808225334,-0.149185468119,0.0914919818364,-1.80614481574,-7.24008737653,-6.23470890505,0.000558788795525,-6.32104840633,0.313940856765,-4.21100791588,-4.79379563256,-83.3368717717
off_to_on,-6.55765280889,-9.08061970312,-3.30256833904,-1.72920734411,1.29315178724,-5.88050325782,-14.2657009776,-13.7159134132,0.000135162668532,-11.095791533,-2.50377447874,-11.4867867057,-10.9737481433,-59.9232419174
off_to_on,-8.61880746704,-10.9951980259,-7.15777884383,-1.49897165443,2.11189838022,-6.36480155334,-10.1014625291,-12.3185243601,-0.000336121122756,-9.36724696648,-4.51695299019,-12.3915356301,-10.297473763,-49.0833619272
off_to_on,-3.67216158422,-3.82062062947,-4.92352435659,-0.213368204793,1.67375097734,-0.668583000899,0.132112176727,-1.2779608391,-0.000670232166498,-1.37002288047,-2.98643685993,-3.9247866674,-1.29749984149,-69.3180038915
off_to_on,3.84573904195,6.25084119657,1.84818463385,0.731772373374,1.56877792165,7.40816227379,7.44594266043,9.49936778668,-0.000737705379869,6.64471233252,1.34554460665,7.42862218825,8.43172889871,-12.3169301364
off_to_on,6.75910477163,9.92629007219,6.40496446524,0.857871215953,1.90462805262,9.9937666748,9.47880506482,11.3199332752,-0.000514925003052,9.118998998,4.73092925686,12.3714269837,10.6960585522,126.468364858
off_to_on,3.92524313287,5.78273100013,5.10911549277,0.493898355613,-0.15906756379,3.48671091643,8.16979072559,6.07939092534,-9.29217020873e-05,6.28574173996,4.30186033803,8.44839926376,5.37388800579,170.663308992
off_to_on,0.235477858888,-0.124634742971,0.92026512032,-0.0172374205551,-4.85752938355,-6.30305298486,3.4479986375,0.782342517013,0.000359978375707,1.53531012107,0.611245238401,0.453117020787,-1.64929330763,20.6834635202
off_to_on,-0.862271790356,-3.16124015425,-1.62841817362,-0.450830382596,-6.85054597019,-9.57337587576,-4.1566877449,-2.04333219367,0.000665957541801,-2.77113474715,-3.1313411998,-5.80649760035,-5.57893490484,-157.063694866
off_to_on,-0.69758292814,-3.68426648576,-1.77632962664,-0.524126415369,-2.19065079326,-3.50485496495,-9.11895682393,-4.12874358862,0.000707422845194,-5.16109792711,-3.74390448269,-7.21303391388,-5.14184527624,-146.716099712
off_to_on,-1.37690647283,-3.09895822002,-1.59515857939,-0.159300204149,4.71623428489,4.41059143453,-6.68169397066,-5.63881093842,0.000471456809312,-4.36610932904,-0.876664000578,-3.72597279524,-1.46809808313,9.2498248925
off_to_on,-2.44726619147,-1.60549741509,-2.09684375136,0.265804784474,6.28667461448,5.46521626485,-0.71317330418,-4.90332564303,5.34901812414e-05,-1.52790327158,2.20562772838,1.18020159165,2.04765069987,90.5714804965
off_to_on,-2.61140523944,-0.0984176095581,-2.28604979188,0.334591237285,2.14494208059,0.0761948980511,1.37595369204,-2.21497038467,-0.000380587138474,-0.178706940155,1.8004161449,2.42216934097,1.52943485077,32.78936601
off_to_on,-1.71745073406,0.118745996112,-1.08088890993,0.121777635703,-1.23274244673,-3.76614093265,0.0468757939324,0.606445643357,-0.000660046408359,-1.09067469465,-1.48685224275,-0.735889370012,-2.24394229622,-14.5265334878
off_to_on,0.2056595052,0.230785640602,1.35006499111,-0.0233786779418,-0.626380378729,-1.30842896075,2.04424554511,3.38549368133,-0.000677061909977,-0.149872729027,-2.85039996231,-2.5042112453,-3.102006248,33.7917620132
off_to_on,3.24369637816,2.541097645,3.73003070044,-0.0541360649264,0.256271169274,3.52815679426,7.52036575161,6.37018483863,-0.000428590688264,4.85209757172,0.359654715103,1.67320615832,2.18776564035,63.7507077221
off_to_on,5.61248145425,5.42052234109,4.31945664585,-0.18040664151,-1.6820218743,4.36459688159,7.83832164477,7.01502118339,-1.55839159576e-05,8.39026002999,4.31086452704,7.21993996912,7.59042419369,-19.4933804707
off_to_on,4.1413839966,4.04234839908,2.12622128902,-0.338416561547,-3.62311459837,0.513086830498,-0.700703457648,2.60472852693,0.000398390334237,3.87386221868,3.4830985421,5.79374089461,5.16198384387,-110.693724975
off_to_on,-1.23124712524,-2.08379621849,-1.6766569292,-0.185519583952,-2.09808201088,-3.53854641291,-9.21988983213,-4.19466807631,0.000651452299471,-5.42502139503,-1.47058448906,-2.2988605563,-3.0723071127,-71.1709474388
off_to_on,-5.76852099256,-6.74023248548,-4.25263049532,0.286985797934,1.05246207151,-4.47468909004,-8.17209671123,-7.22739969455,0.000646193181483,-9.04336161457,-4.42097102294,-7.69260713765,-7.2569767445,43.5381350251
off_to_on,-5.2415866791,-5.11737674708,-3.89266111508,0.565490617031,2.03633263473,-2.77664693679,-0.702532954493,-4.94659428056,0.000387478816502,-3.62954438746,-2.33966765013,-5.11859393769,-3.65843160533,75.8749648342
off_to_on,-1.1868819629,-0.395753736668,-1.6465948513,0.276683180976,1.24187686609,-0.0345649793908,3.17047483452,-1.89305935556,-2.00202996682e-05,2.52688447708,0.98310584038,-0.0611727814482,0.895639007546,13.8468329399
off_to_on,1.74219232503,1.67414409201,0.525387523295,-0.261203423402,1.57989572457,2.89282460847,1.48941688963,-0.848660476314,-0.000414364864917,2.11423495401,1.29809466981,1.00552453266,0.621136656877,-16.5556674439
off_to_on,2.05919716687,1.29698065398,2.09181751042,-0.447971231576,2.69247504633,4.6638153258,0.847272630825,1.11774921141,-0.00064125737826,-0.962714000421,-0.0530048503125,0.310123526941,-0.754238768962,23.0013374691
off_to_on,1.86258214478,2.46691549639,3.22876136992,-0.177825254561,1.47932048244,3.44003783499,3.63510696387,5.7950736352,-0.000614278539914,0.572668722067,0.430009242903,2.80350167617,1.96104902292,32.4934196092
off_to_on,2.0906714848,4.61210729622,3.05144729133,0.118634852417,-2.22147084765,-0.42159459301,4.20697944132,8.27310351484,-0.000347157209013,4.87356612294,2.03709729929,5.79409402311,5.3546557592,-33.6014932634
off_to_on,1.33384086149,3.0469341964,0.736077397731,0.126996385209,-4.7336381078,-3.61271356889,-0.456022979654,3.61351354677,5.28670149271e-05,4.3088214252,1.35200221542,2.94136110911,2.96082633507,-78.3222886349
off_to_on,-0.506017803467,-2.2835431904,-2.12167811663,-0.00464666957015,-3.67156952168,-3.46086005982,-4.6383600847,-4.2621065571,0.000427488953949,-1.41988934859,-1.36558661319,-3.76806139562,-2.97306280893,-27.709287226
off_to_on,-1.35185122953,-5.26066356231,-2.75930555178,-0.0245439300876,-0.525443191615,-1.04919756118,-2.95703805012,-6.86642180764,0.000629841932605,-4.52586669221,-2.20773786178,-5.40684488184,-4.17271145709,43.7546820628
off_to_on,-0.867824868357,-2.85663708613,-1.12235874824,0.0380270067686,2.3501809486,0.679104980544,0.790652877274,-3.1202089934,0.000582596367238,-1.89390525433,-0.183965332557,-0.236276121781,0.167739919724,40.0801366255
off_to_on,-1.46656372565,0.139839486153,-0.0615828238092,0.0363706983315,4.06418541067,0.792067366702,0.0217922785263,-0.211992215071,0.000307695234514,0.258124232491,0.983230374656,2.77051613295,1.79758171554,-3.50770349595
off_to_on,-3.44018092978,-0.666465727678,-0.860402549327,0.0261385312655,3.83760566032,0.636850512325,-3.47351497716,-1.78805442507,-8.4090071762e-05,-2.34273256103,-0.810367183505,-1.74598275732,-2.77578079652,1.09424297694
off_to_on,-2.82393735875,-1.75644301041,-1.11149098764,0.135939125118,0.814085596824,1.04025525624,-2.12108870474,-2.38898770738,-0.0004380746924,-4.11307075813,-2.21426162701,-6.06501309882,-5.72433902879,36.4765200264
off_to_on,2.49282385728,1.97474209929,1.21383658048,0.222429049685,-3.26621335119,1.26974968982,4.86416303163,2.83571655255,-0.000616294938225,0.976672416225,0.142978821181,-1.1311997555,-0.18521638631,18.4790875547
off_to_on,7.46415847525,7.2011260144,3.81835463918,-0.00227608051634,-4.33856479297,0.724599679062,8.83796733345,8.82257805363,-0.000550861514092,8.02875623525,3.69678746441,8.28679477937,7.94137388228,-46.168499316
off_to_on,5.44273023855,5.8377623052,2.97199844305,-0.446695252435,-1.15015812831,-0.129671221777,3.59515027285,7.07202466509,-0.000270110362478,7.38044941321,3.41952139985,9.45481298657,7.94405902191,-63.7316358136
off_to_on,-2.15172051401,-2.29189324334,-0.839829065046,-0.582844906448,2.3489676146,-0.847093094072,-5.68272121075,-1.6751009942,0.000113118425291,-0.764648644749,-0.610061017304,0.255622268875,-0.101967801737,-8.99744231444
off_to_on,-6.81686292635,-7.96375947476,-3.31057449422,-0.127253981733,2.1394668959,-1.51868474837,-9.05281357385,-7.97382269229,0.000447038178062,-6.4979473233,-3.43416225811,-7.8719429898,-6.06313057044,37.1171403895
off_to_on,-4.11111481297,-5.28049228436,-2.24361175499,0.48209766226,-0.502356741394,-1.7683472538,-4.09380213113,-6.38562293148,0.000601496685077,-4.72107399394,-2.47459687008,-6.5238542139,-4.64310251803,23.4486929025
off_to_on,1.07387129566,0.73944514237,-0.0222321939555,0.616380275767,-1.52971565525,-0.728946474386,2.61065467822,-1.31147376863,0.000518543873199,-0.970029884591,-0.303217634882,-0.695118890151,-1.03232946785,-1.28388741275
off_to_on,2.33864054263,2.66943761219,0.582937263116,0.286821664942,-0.179428700417,1.23931564441,4.80359602859,1.25054837675,0.000233607371601,-0.636792738736,0.417220112323,1.29691377397,-0.52258768685,9.20375310163
off_to_on,0.376234379901,1.09011541369,0.149713367796,0.00856103655391,0.888097092927,2.20880731976,3.03540500421,1.78201436429,-0.000139508286338,-0.629675678472,0.6459795185,0.301776144664,-0.652375772392,20.204930261
off_to_on,0.0191990415614,1.23843687159,0.462183643768,-0.0863949930356,0.481575449383,1.14407603439,1.25502462352,3.41822277516,-0.000453553933214,3.14297688309,1.7831262136,1.96409887242,2.24266154668,-4.32357122928
off_to_on,1.86731007103,3.2169467,1.05901666021,-0.386157784342,0.186988152583,-0.472148561646,0.624964823649,4.67938649466,-0.00058586390834,6.57917069856,2.2685262506,5.1863962542,5.11353498189,-24.3596859421
off_to_on,1.99658586229,2.33711599711,0.4686206495,-0.865208981789,0.738903654359,-0.767609469775,-0.663293232026,1.75748586595,-0.000486723332139,3.25173689665,0.320394213471,3.65663390745,2.98991731894,-0.143194866218
off_to_on,-0.836964093812,-1.98852747023,-0.596395248297,-0.718950351339,0.614263434093,-0.166181065649,-3.03057731358,-3.77628664793,-0.000198150403563,-4.115220116,-2.2261456282,-2.70848395863,-2.11912263749,18.3686882902
off_to_on,-2.85004713687,-4.47574139393,-0.213375911489,0.449950406667,-0.820475609272,-0.256831209982,-4.09061302611,-5.59062293875,0.000164255364828,-6.41879561742,-2.21090728289,-6.32344759044,-3.82686262052,-28.9140771261
off_to_on,-1.30853969666,-2.25426129152,1.11285658288,1.57206230176,-1.75930317982,-0.824071302525,-2.0847327418,-1.61364967555,0.000457830561304,-1.68186490333,-0.0864302713754,-3.2352434501,-1.27465947445,-83.2529898254
off_to_on,1.19586432709,0.828551162862,0.79001826643,1.18502796784,-0.964514100144,-0.287403229752,1.43972556512,2.71032065559,0.000568607903621,2.41028716656,0.857821907826,1.3680735059,0.226299930206,-28.4642992876
off_to_on,1.04222702383,0.824937968434,-1.50908724578,-0.498480970845,0.176729521814,1.06187873184,3.69601714265,2.38305628566,0.000455225428664,0.997729208046,-0.168283339991,1.9896618707,-1.37654027826,116.430065311
off_to_on,-0.794538903554,-0.164471476753,-2.69508319794,-1.59851879904,0.240178316534,0.915313779225,3.92894965775,-0.269207386714,0.000164628224807,-0.889099994085,-0.425527091501,0.8810650795,-1.48452497827,174.572963614
off_to_on,-0.728210211548,1.5517631218,-0.751304047209,-0.959187554287,0.176795674305,-1.12594934693,2.91145704838,-0.290432517281,-0.000186956609504,2.01608617576,1.4045718931,2.37874081066,2.68342571649,33.9235836699
off_to_on,1.39596171356,4.0670187075,2.00839654293,0.394203900583,1.17303186917,-2.03709589756,0.460182710361,1.63689153447,-0.000460715643818,5.26321818077,2.60572547033,4.07069451463,6.00258009177,-178.399706813
off_to_on,1.9506978553,2.31740244807,2.17981533583,0.824518975783,2.03179592377,0.32231706257,-3.7491208863,0.787817815499,-0.000550436335871,1.464539284,0.6081173826,0.492779204472,2.49417201014,-223.172514285
off_to_on,-0.673832679411,-3.46862642199,0.0802673029336,0.296430036175,1.04856891964,3.3258237723,-7.12331296704,-2.98586105307,-0.000423537543326,-6.73000554276,-2.71154463002,-6.4295931604,-4.99685464751,-34.0584015276
off_to_on,-3.17495449086,-6.83021668025,-1.15106914396,0.00332757608816,-0.927723030778,2.70595246556,-5.44585998725,-4.06462230514,-0.000132387652036,-8.73243615541,-3.43036901539,-8.03315748475,-7.65420570055,191.771493798
off_to_on,-1.79462306424,-3.45375704864,-0.352427904965,0.281063601146,-1.81328507946,-1.34921507968,1.22745914071,0.225545550833,0.0002071905418,-0.930123842965,-0.888211530391,-1.01072613863,-2.2408172678,212.580850749
off_to_on,2.29947786491,3.27147642646,0.531510373334,0.229330914791,-1.57828058056,-4.1673657046,6.95317433992,4.82777968859,0.000461549801094,7.91849718756,1.93111010337,7.26415863565,5.05446514686,16.2635431119
off_to_on,4.22367480913,6.72854865484,0.141518794629,-0.516551478812,-1.52875894882,-2.73057833198,6.73219999812,4.0488181731,0.000531780110787,8.45094143877,2.66358815831,8.25413336734,6.85735220644,-169.867452856
off_to_on,1.47625317906,4.47552114942,-0.262873038662,-0.959812877949,-1.15716782462,0.921074560237,2.56044945142,-0.368642835283,0.000392562863162,1.95408775694,1.74265378774,2.50430768303,2.73103269083,-147.611756691
off_to_on,-2.97368147278,-0.607943506535,0.441946651544,-0.301738914113,1.06483346024,3.13172065339,-0.541253161659,-2.59330991517,0.000101314085153,-3.76938440141,0.377654762694,-3.17257516463,-2.38276215071,23.8598315417
off_to_on,-4.26859605152,-4.52259568719,0.765752628118,0.685470704965,3.86774183394,2.82216559408,-2.17294211303,-1.62835933278,-0.000225826890422,-5.14866420701,-1.18808919758,-5.13808979065,-4.6505995534,120.584453128
off_to_on,-1.34390208362,-5.30563952918,-1.05128541193,0.764575913337,3.67693883271,0.911688731555,-5.27773232096,-1.49344881411,-0.000460460472642,-4.42340148665,-2.60666146424,-4.87478288983,-3.9103793609,47.3797772179
off_to_on,2.12234544692,-3.0785480565,-3.43490208308,0.0612134848081,-0.131529501197,-1.82700445364,-8.25532790945,-3.12314374449,-0.000511959697264,-3.13171941156,-2.55665306577,-3.47762335371,-1.60893528837,-57.4831644092
off_to_on,2.48039338638,0.801813376005,-2.66941423893,-0.275066139632,-3.6018798108,-4.03732821554,-5.01030706025,-2.0968472217,-0.000362210123955,0.123873996587,-0.366455309367,0.296881373079,1.15123006002,-41.6767078547
off_to_on,0.519665739608,4.33646992198,2.0720074444,0.074685822949,-3.36848938977,-3.06711097301,4.89324302732,3.48079883501,-7.21757659932e-05,5.12341033488,2.43460716236,5.71774198119,3.57403446499,43.4105304396
off_to_on,-0.25710926971,5.61634801037,6.62515482105,0.223134571145,-0.715085812912,1.70482102376,12.0907669122,7.84762718673,0.000242597957123,7.78892362823,3.3920801851,8.12368622424,4.61854981507,44.9955539271
off_to_on,0.912267406846,3.57121929611,5.83617367031,-0.350005261014,1.32317415796,5.90097717157,8.3587829325,4.60227943704,0.000458222453898,4.60766170079,1.64596227362,3.91713816089,3.10518262116,-41.0615712348
off_to_on,0.948701386536,-1.2838855533,-0.691848595868,-0.887892005633,2.066431061,4.27581340581,-1.96046554425,-3.71551277151,0.000491535946918,-2.60801739642,-1.33823989401,-4.13135015199,-1.13398605787,-70.2233522659
off_to_on,-1.69894472002,-6.0104289092,-7.45963121106,-0.490915986427,1.91459454022,-2.02698074151,-7.33009513663,-7.81237221847,0.000331990754496,-7.83780740508,-3.08779030104,-8.68734797814,-5.57439405372,9.06544971337
off_to_on,-3.5006675909,-6.25081074277,-8.06388516649,0.551075121932,-0.0874567955019,-6.03554620832,-4.11837715486,-3.24447138852,4.44385283977e-05,-6.33942148041,-2.02196458726,-5.10595691956,-5.71212360486,71.3861872229
off_to_on,-0.837097059283,-0.733357883876,-1.72175930335,1.15688511707,-3.58402820959,-3.82764576954,0.0424267374051,3.96716929017,-0.000257111311796,0.651587035589,0.994608710424,3.35626660024,-0.117460564771,22.8528803094
off_to_on,3.29980050644,5.24032374984,5.39601261414,0.789093803206,-4.13010960826,0.803997729069,-1.48244119555,4.72252689374,-0.000454315494488,6.04041029375,2.74729375402,7.74041130791,5.57139356502,-48.2430895539
off_to_on,2.49675416737,4.52641239283,6.39723898921,-0.125306119802,1.58631862346,2.59124579966,-4.97386020363,-2.16964256123,-0.000470937032186,3.40654813152,0.790521340853,2.30306957784,3.87985928004,-26.0683988221
off_to_on,-2.90812385426,-2.06633928712,1.42564508006,-0.852526571212,8.3956986683,1.9826872588,-2.63193223728,-8.13619029886,-0.000302652005034,-4.5956927314,-2.84025187613,-7.59918470353,-3.72602211361,40.3398173967
off_to_on,-4.54555887913,-4.96000003753,-2.53543993537,-0.968139911846,6.76698460605,2.38469793028,5.78122602457,-4.13045649684,-1.79308870509e-05,-6.87186045359,-2.99318211345,-9.11893914512,-6.24954087758,29.771655976
off_to_on,1.94590477523,1.41834285632,-0.710491069556,-0.478050788916,-3.90918124656,3.04950725984,12.0288028997,8.32986062155,0.00027012248071,2.66220733208,1.82158717725,2.8441738493,2.22638401575,-40.8578489237
off_to_on,8.6424759753,8.9283337341,2.91860048041,0.252495730145,-12.0135546597,0.189950285344,9.00179741865,16.3516581044,0.000448803983614,14.012558502,5.98226206476,15.9457949542,11.6195343741,-49.5214944795
off_to_on,5.12976544173,5.43380348249,1.22345337473,0.725387849863,-7.77601722389,-5.29549481722,-1.83304666556,8.4745807808,0.000449579893945,10.768863561,3.23753763918,12.5984342236,7.32110215299,19.3942596899
off_to_on,-6.02868739219,-7.25360503597,-5.20862964086,0.720474099342,3.77372636321,-6.95844341904,-12.1481783381,-10.7025878532,0.000274163586719,-7.55394459569,-4.25673665241,-6.90463476554,-8.5362043852,51.8973453418
off_to_on,-11.2669828807,-13.6214258203,-7.71374070208,0.410334006537,9.56299750727,-1.63683853902,-13.8783208139,-22.2716615977,-6.68988219131e-06,-20.9856663753,-7.5319302295,-21.1996554393,-16.889013731,1.80176737783
off_to_on,-4.17289226708,-5.0257794627,-1.45684281355,-0.0303507198525,5.4344478266,5.28602159245,-5.48244790685,-13.218885096,-0.000281471160951,-12.9152244487,-2.38296426414,-13.2358256281,-6.38146246985,-36.862463258
off_to_on,5.89257875673,8.04948348838,6.99378068408,-0.597133116112,-0.56888753883,6.60001670919,6.49947827667,7.49963234536,-0.00044238837513,7.78250139409,4.77442486217,7.4270467561,10.485488376,0.493666063967
off_to_on,7.1454315549,10.2745000334,7.9114906568,-1.01361571085,-1.4899481839,2.15848057979,12.3876435005,18.6237436445,-0.000427901233277,17.6255503721,5.44077435421,16.6715098896,13.5724298033,40.1307664098
off_to_on,1.05612244801,1.96819257192,1.23019731777,-0.648316889919,-0.363097694832,-2.41550856305,8.08335185813,11.5294225021,-0.000246065267815,8.55988268954,0.191818424599,6.96319606083,1.71955357053,6.00575217702
off_to_on,-1.91224353197,-3.50313591971,-4.14500501385,0.532972105042,-2.69506722608,-3.56464988487,-0.858273465962,-1.54666729945,2.98585928056e-05,-4.10508596824,-3.12939947552,-5.13641734127,-7.50459993044,-45.9918026409
off_to_on,1.43661807268,-0.141924479119,-2.89623505716,1.36158972456,-6.2724918207,-2.31792274992,-5.40495869057,-5.87369715048,0.000290797674702,-5.16038582659,-0.873991255177,-4.18520123965,-3.30330614804,-28.3821628308
off_to_on,3.44630998514,3.33530663384,0.663288649271,0.71972089767,-4.51868316566,-0.398276091137,-3.07482932063,-2.53247204895,0.00043466373815,0.8971143127,2.14955405488,3.64681501633,4.87863570357,26.3962049501
off_to_on,-1.40844097,-1.32094445078,0.52793641041,-0.73709640344,2.7328626317,1.65266363567,0.308997782349,-2.10786500756,0.0004063140773,0.751158648602,0.856061731092,3.0715399219,3.48083089973,27.6638420588
off_to_on,-7.72571204076,-8.68878169893,-2.32821284998,-1.17227111249,8.08962472366,2.50778411713,-0.92809009626,-6.40197883147,0.000218967889527,-6.15195393888,-2.62982046626,-6.29204737452,-5.39502063117,-15.1663673745
off_to_on,-7.08502445079,-7.92308959747,-2.87438687609,-0.0827305752489,6.3042215588,0.574083744374,-4.84677265731,-6.68343758024,-5.17857342924e-05,-8.23493174939,-2.93631381014,-10.5476472132,-8.82616578157,-16.7552352413
off_to_on,0.344089704951,1.38475820158,-0.0936974711382,0.90778815227,0.233618539458,-2.46055777206,-4.81652564268,0.910173587783,-0.000298754598872,-0.811360157403,0.309410788315,-3.20348819698,-2.35154603852,27.8744611704
off_to_on,6.92582585179,9.14049877178,2.52649633932,0.389838246113,-4.0991280266,-2.43373296972,1.51560306319,8.48101130884,-0.000425646034591,7.20736657467,2.5585018901,6.3053600244,5.45522379585,34.4974303954
off_to_on,7.5389029987,8.45985899661,2.97503739654,-0.744965601726,-4.47029077653,1.23886120432,8.69295299604,8.13910949905,-0.000384319866247,7.3668101142,1.50493784839,7.91545070471,6.75416924131,-19.0529422542
off_to_on,3.71633483505,2.53450772792,2.53885572795,-0.672840477829,-2.5826948392,3.80094774485,9.36661115298,2.72892337184,-0.000192884408931,2.78531403703,-0.190103535627,4.10048754775,3.68885198749,-50.1155318597
off_to_on,-0.862337801413,-2.2844614178,1.85381160983,0.573271337422,-0.39683971263,1.75173580794,2.41228558957,-0.55003531789,7.19146707376e-05,0.561825191533,0.114945411851,2.18617831453,1.54747737725,-10.9542482595
off_to_on,-4.30804451497,-4.15630860404,-0.424541170712,1.14087146509,1.05754599463,-2.01826695317,-5.88858565226,-1.33887771221,0.00030526527911,0.391481250199,1.06535985403,1.67651825683,0.0829204511157,32.7556471813
off_to_on,-5.66941918872,-4.56647836763,-3.90229438993,0.134288597272,1.1900385963,-2.78248845127,-8.57296214811,-3.97248866547,0.000415961926782,-2.46958496049,0.158252258293,-2.5381170848,-3.47409395422,15.9973927627
off_to_on,-4.12234240398,-4.06616647605,-5.19816162756,-1.09013024399,0.655536089441,-0.874064756838,-4.95548900264,-7.59078963323,0.000362250983793,-7.13561238093,-2.02488620116,-8.79826446376,-7.29059030779,-20.6432559655
off_to_on,-0.543665373261,-2.21935787067,-2.49333358118,-0.938663367718,1.29260647973,0.0249614921898,-0.137134044061,-6.33226654454,0.000167385494602,-7.49158700002,-2.83097701029,-9.45582070531,-6.54727614892,-10.0792684924
off_to_on,2.51791116579,0.626352857059,1.45739176305,0.239881236907,3.11191739645,-0.458183316916,1.81453209662,0.796484447062,-9.0597548961e-05,-1.68330983671,-1.36282101179,-2.34665541072,-0.655021861245,25.7181785452
off_to_on,3.68054554156,3.72662478444,3.15845537336,0.886073754918,2.91139862552,0.580206280229,2.15920585505,7.15681177017,-0.000310004218494,5.0272060517,0.931148604136,5.8882762258,5.62810310119,22.0159782639
off_to_on,3.71315964,6.31801967967,2.90202442211,0.441565415444,-1.36686599058,3.068735449,3.87542676005,7.37276252263,-0.000405301012237,7.52615894739,2.63333170051,8.91545091847,7.94418714841,-13.5436371331
off_to_on,3.02115707868,6.37873417002,2.82369032295,-0.213796941384,-6.17905352597,3.01461411334,5.84361849696,3.62677650917,-0.00034049659305,6.04468377694,3.2035119474,7.10928431874,5.88202559119,-21.2238935946
off_to_on,0.578260473471,1.72105225111,2.44689253078,-0.280445807195,-5.84684106624,-0.85077997617,3.85930176564,0.55889064041,-0.000142963724948,2.94591758005,2.0308568481,3.33327509576,1.20966794853,1.47034191996
off_to_on,-3.27964872991,-5.68179236195,-0.290801545877,-0.000570099959151,-0.25660638013,-4.09391728458,-2.613290077,-1.47060384991,0.000108069378571,-1.12604234969,-0.987676733135,-1.75530002231,-3.95575731845,2.37662703629
off_to_on,-5.40065593379,-9.32865638197,-4.37306340505,0.0391344987408,4.64918012914,-2.81998638438,-8.14795688768,-4.31788557568,0.000313531668006,-5.55102315993,-3.83486099768,-7.07939086335,-6.9015468966,-20.6561092238
off_to_on,-3.46778607095,-5.37859670289,-5.8107984598,-0.18216850616,4.7495542976,0.726368659192,-7.54744530266,-6.61461863637,0.000393642569641,-7.64258498699,-3.66862806947,-8.71945446385,-5.56917445944,-11.3555322582
off_to_on,0.426397625214,1.76165720708,-2.96211179413,-0.268203089878,2.25140832945,2.01325045769,-1.93202726215,-5.04226107006,0.000318631563757,-5.34863752692,-0.520159855193,-4.56807910343,-1.31433391708,34.6700976714
off_to_on,2.36493398703,4.73161623673,1.28224832852,-0.0502743241352,0.657064417548,0.850744469888,3.52537615896,0.140728598746,0.000119661366789,-0.305216973979,2.21913830639,1.53726814581,1.97576762351,43.4544053058
off_to_on,1.8285605584,2.75956157218,3.629816953,0.261061033193,-0.694556575934,0.331421458344,5.91441905164,4.81823562826,-0.000123863537949,4.12309701161,2.09843281064,4.51566730191,2.6965500676,-14.93873474
off_to_on,1.60326693229,1.46898021379,3.98198502737,0.384740472757,-3.56531843607,1.01358813457,5.76073231068,6.14730981897,-0.000315834613945,6.39298533076,0.646855268449,4.60998463325,3.12790732637,-60.0229554775
off_to_on,2.73740279666,3.36853619044,3.4637597587,0.217709664104,-5.44720826071,0.537240373802,3.47346070391,4.81002286615,-0.00038154162223,6.40307782884,0.564157522609,4.9572652893,4.76613289322,-18.250953939
off_to_on,2.63562913233,3.81313969613,1.56149709844,-0.114056609542,-2.39830367815,-1.43912833131,-1.24146870821,2.09397524555,-0.000296901295079,3.45661179912,1.42061263421,4.67913812618,4.69444706175,57.1256192254
off_to_on,-0.716204952657,-1.27019234921,-2.18884937479,-0.339231015908,3.70898584353,-2.16881134369,-6.15435109767,-1.89251179953,-9.70812702366e-05,-2.3428726124,0.551873061506,0.133609457846,-0.367416134782,60.0647623171
off_to_on,-4.93261020374,-7.86478374975,-5.34589105244,-0.274035440939,6.08685092802,-0.437918157588,-6.75853714039,-5.94173354569,0.000138263601628,-7.49964321618,-2.30202251331,-7.08038582805,-7.66633027742,-15.3968902505
off_to_on,-5.63641598263,-8.26798540255,-4.57299179528,-0.0248974235833,2.16572141288,1.31269937374,-1.84446692748,-6.69343506086,0.000316621555956,-7.36233599376,-3.9130551142,-9.50025608262,-9.80991479132,-76.8884159618
off_to_on,-1.80453623399,-1.27819884378,-0.307477821762,0.141262041794,-2.73346559704,0.932191089438,3.78079668628,-2.41980109436,0.00036876434315,-1.75154446683,-1.88380534561,-3.63593076008,-3.5275457101,-65.2867769613
off_to_on,2.99987279372,6.09506391387,3.21803996202,0.128845308698,-2.97786845753,-0.269524252078,4.63414837759,3.46224787424,0.000275665327085,3.99315215662,1.90755597865,4.24537293021,5.5130839807,-4.99905415932
off_to_on,4.67363113888,7.15873648499,3.13110730383,0.077274528686,0.0273710313648,-0.146957430478,1.0844797151,5.33138788094,7.56144029582e-05,4.84112097949,3.59919718262,5.94604605487,8.64630442601,62.5605476676
off_to_on,2.69652645669,2.61485172372,0.997703450619,0.0977271226265,1.24208586005,0.800881121834,-1.79068939035,1.97640236779,-0.00015151748212,1.52301968582,2.01860170316,1.86451388902,3.91428178059,108.739184322
off_to_on,-0.0800081576419,-1.80959559874,-0.08851224389,0.110082437408,-0.269100496425,0.751263240282,-0.860179248321,-1.74677942403,-0.000316370311965,-1.04435408154,-0.443842824587,-0.773466278377,-2.24368901878,84.7700247061
off_to_on,-1.04204733553,-2.44921251068,0.36130978722,-0.0227507353211,-1.19179328655,-0.304918200205,1.9134977699,-0.947885662404,-0.000355262720724,0.0916511461403,-1.25243641402,1.31096457021,-3.12148995727,-37.9028596209
off_to_on,-0.504047435197,-0.715362498052,0.47108034221,-0.295962832676,-0.0707917923846,-1.00864480347,2.64869384862,2.8868753213,-0.000254561942625,2.65039583098,-0.558682980286,3.44648607556,0.413226547528,-170.082815752
off_to_on,-0.599743948405,-0.0359906161329,-0.752970866184,-0.482905846512,0.886088653358,-1.08984346287,-0.103141354435,3.53127229389,-5.53215961347e-05,2.13122047127,-0.230675025118,0.597406094688,1.87273180514,-155.114431337
do_nothing,-1.95605297128,-1.43771893056,-2.13539639528,-0.229692933177,0.217818794176,-1.13718238328,-4.16349657777,-1.69088283997,0.000163238064428,-2.4590771268,-1.00717454047,-5.12367019626,-1.81350169554,23.5420414962
do_nothing,-2.57157638129,-2.60943412234,-2.12684188542,0.545378781627,-0.463183959134,-0.660039895939,-5.52156454234,-7.41446472957,0.000315114866552,-6.60342817121,-1.55096627792,-7.16291229433,-5.87828810846,178.57067004
do_nothing,-0.667676029481,-1.05352811602,-0.636357502699,1.19588121401,0.302461004544,1.24358163487,-1.82183887284,-6.24402422055,0.000341523458537,-4.94077506609,-0.394263535089,-2.85276798527,-3.91705877179,146.022058101
do_nothing,2.32533373853,2.35129030496,1.15256138818,0.710891549254,1.28945745615,3.41008847878,4.41716374986,1.52601624163,0.000233764591014,1.91654493166,1.80115846384,3.61213068992,3.19374524672,-3.58814363855
do_nothing,3.20878284774,3.86979381727,2.03209513485,-0.93345169106,0.860681149552,3.09071793264,6.98064340611,7.41247130976,3.58381847678e-05,6.9195721312,2.67617862976,6.24391970844,7.68939157637,-86.2947930731
do_nothing,1.22704947966,1.52315355686,1.59915610729,-2.11460023276,-0.479205339236,-0.432487229009,2.6826840391,5.17433394944,-0.000173652150049,4.57440937769,1.05332740274,3.50346181776,4.57499057209,-66.0239324045
do_nothing,-0.976549018619,-1.91210670746,0.381426573286,-1.17504582367,-1.37272624642,-4.27608926265,-3.75956057296,-1.25964333858,-0.000312596349282,-1.89908689693,-1.34955016834,-0.918549657516,-2.13181655595,-50.7727671861
do_nothing,-1.07015043331,-2.11135797076,-0.573238274589,1.23772963968,-1.59532071946,-4.8504550725,-4.73539963806,-3.35037544871,-0.000327373970317,-4.25962687217,-1.91442418104,-2.55561664067,-4.80999814007,-64.8549957847
do_nothing,0.088754976117,1.01217894226,-0.562622423902,2.49480079056,-1.26785566899,-1.53677238854,0.309204959012,0.428005679607,-0.000213599852054,0.0537988346144,-0.447129419195,-0.717858583888,-1.77077564333,-7.95598176886
do_nothing,0.330282724717,2.85522072971,0.0312913616698,1.17581230814,0.0932012867345,2.89968229593,3.82329394014,3.06407157399,-1.7468693657e-05,4.46477636614,0.726769970925,1.32228788516,1.67500439895,125.249958494
do_nothing,-0.643280584011,0.124472550246,0.0477915659162,-1.03904480587,2.06357679824,4.89834921548,0.544787371325,-0.485264873101,0.000183011387548,2.16359242558,0.104298710913,0.395977677821,0.973262555098,166.424769414
do_nothing,-1.48645903504,-4.55279065553,-1.0987219439,-1.60878215149,2.60730143071,3.05880069743,-5.03322764399,-5.9205664976,0.000309219332194,-4.609114243,-1.01105483376,-2.75056124644,-2.21615978688,19.6576872818
do_nothing,-1.46815808068,-5.55711494908,-2.3732739345,-0.471995057549,0.856640972996,-0.696232893976,-4.93051774729,-5.6522377677,0.000312746442595,-7.48855188796,-0.67646674629,-4.2476686746,-3.21732464626,-154.026124008
do_nothing,-0.750159015884,-0.954127673696,-1.8406379646,0.273092295657,-1.02432891813,-2.9119533267,1.37341558671,0.757655270651,0.000193760460918,-2.77939591564,0.811374240594,-1.66820228809,-0.431193714461,-144.596126613
do_nothing,0.733412653167,5.25792151085,1.08894165146,-0.28745593393,-0.988357387771,-2.20156273115,6.69228764194,6.29461350131,2.84392240165e-07,4.41068636775,1.60016978352,3.00241196794,3.47899231309,7.6064017741
do_nothing,2.72678210082,7.42652386067,4.23986777887,-0.644174314229,-0.442423476518,-0.578947518757,5.77768032141,5.7552930972,-0.00019099803192,7.10605324491,1.05868655119,5.50311637873,5.04882437069,88.2707357768
do_nothing,3.56022370927,3.7807049253,4.3484942982,0.491980132317,-1.54363887228,-0.290595283748,0.758022663736,1.37050170374,-0.000305051090747,4.27312051922,0.198548165388,3.8874948949,3.06043167784,33.3414885409
do_nothing,1.77469233365,-2.26526071038,0.737396421758,1.89960764003,-2.6656359259,-0.464610667418,-3.364832502,-1.60859750185,-0.000298063412646,0.131894992101,-0.376862177888,0.175190218927,-1.00674040121,-12.6384949764
do_nothing,-1.36344780416,-5.63695932732,-3.37958774078,1.50383126496,-0.539663719092,0.954793749361,-4.56425034883,-1.76015546426,-0.0001743609438,-2.05523007997,-1.12218687795,-2.44431635749,-4.22682982444,33.5562780503
do_nothing,-3.17138718711,-4.37887715314,-4.30256263492,-0.565129184183,3.56565450736,2.8170697944,-3.67491232773,-1.7710093254,1.60472981125e-05,-2.92849536616,-1.91006113464,-3.05586307424,-4.46684008552,61.8768244833
do_nothing,-3.23236553451,-1.13841745667,-2.10159340217,-2.07792834301,4.4349788476,1.77632886563,-1.7005770009,-3.37483649468,0.000197791967825,-4.15914836238,-1.54511884642,-3.0201391128,-2.3070527751,-19.6082525442
do_nothing,-3.12310185394,0.365705869908,0.0102219463962,-1.62633294263,0.656036661029,-1.82907897428,0.587573774988,-4.46053709515,0.000299863271421,-4.85826523971,0.26259947882,-3.07361442175,-0.127209307136,-108.56167757
do_nothing,-2.38107368274,0.0567515320917,0.414343494093,-0.0760069786418,-2.77435637591,-3.07773938763,2.35968603819,-1.77122612213,0.000283200581052,-2.29477917454,1.91757939162,-1.78343526181,1.16409607758,-70.0184938231
do_nothing,1.5241374358,1.18732900333,0.974633542872,1.00910096992,-1.8794938358,0.36198645884,3.66494932601,4.3810868626,0.000155693456659,3.87037753866,2.03456932112,2.16966470729,2.94308294959,42.0681732945
do_nothing,7.54714788889,4.77559917532,3.17571625939,1.14567057072,0.447755561067,3.72438923754,4.8534732684,9.00782423149,-3.12946315019e-05,9.20609704126,1.26887265228,6.740771454,5.33656961575,74.1922013373
do_nothing,9.2671654858,6.60968399323,4.65248021186,0.706239210795,-0.357494101921,1.53128213838,4.1040768712,6.88465902233,-0.000203641472905,7.99262676741,0.738139789149,7.29781556289,5.07965784084,14.2570473619
do_nothing,2.49064460359,2.29889607352,2.11382151928,0.00627441829343,-2.85138475612,-3.95037710889,-1.32885189327,-1.46995091436,-0.000293995659922,-0.17744307385,-0.156153070383,1.73128656927,-0.283349031404,-15.3975839185
do_nothing,-7.59777306186,-5.77839527164,-3.29635083032,-0.634453232012,-1.9992741994,-5.36111298179,-9.14393691567,-9.09515614364,-0.000268076273706,-8.54120815919,-2.35110456222,-6.04756753028,-7.21668812113,22.6621209123
do_nothing,-11.3236060673,-9.90035603848,-6.51912676665,-0.6718282688,2.45281691543,-0.515895852975,-10.930981832,-9.16823854785,-0.000137497276067,-9.63252944172,-4.25236593196,-9.2748263161,-8.85049723854,31.4439951614
do_nothing,-5.88495454271,-5.92863509284,-4.67205878807,-0.025499098291,5.28037838528,4.87235722205,-1.87061202031,-2.09653764824,4.53818851337e-05,-3.19953046476,-2.8180875791,-5.1863969179,-3.26378130285,-33.1232225736
do_nothing,2.31905235506,1.99471747323,-0.0662292084075,0.478362855381,3.36124178624,5.29240902604,10.3593137682,5.21633353815,0.000208288602783,4.06878343826,1.92900412569,2.30359520298,4.02381847273,-76.6931982658
do_nothing,6.57779415071,6.87524023,3.49154017961,0.140956004627,-0.770690608594,1.69089704095,12.432835058,6.95605620255,0.000287537671877,6.37476824201,5.67997419075,6.89537306573,6.88309101578,-27.3782246653
do_nothing,6.42606248841,6.39063029958,4.77711027118,-0.506919710028,-3.62841628176,-1.91386109883,1.90314857553,3.55859748537,0.00025305356251,4.01029191514,4.57771558317,5.78083102427,4.9505636621,42.3557170571
do_nothing,4.27340789621,3.09107829272,4.21389494122,-0.469339759984,-4.55082552185,-3.79601823207,-8.80853850874,-0.688298043604,0.00011983925758,0.573241977547,-0.145023545615,1.06514412705,1.60152089042,39.1336654365
do_nothing,0.585118429936,-0.460107310503,1.58489506726,0.157732674255,-3.47857925704,-3.90380974022,-7.8105249894,-2.77207796669,-5.86104366921e-05,-1.83779263695,-3.82688015976,-3.13770009944,-1.3469086142,-2.91537243081
do_nothing,-4.2289229662,-3.51559552379,-2.67520780971,0.401849059335,0.440748823478,-1.58873980021,1.58475266058,-2.53140883974,-0.000211874528648,-2.91599584544,-3.83797825933,-4.05412703395,-3.93250108773,1.66297963115
do_nothing,-6.80282294858,-5.14537520196,-5.58972478646,0.0859515887955,5.44136987162,2.42430254279,6.38009874238,-1.17347885161,-0.000280288937393,-2.30195444759,-1.64664844158,-1.82894908399,-5.08737618836,35.8339053009
do_nothing,-4.23612669897,-3.90823859325,-4.24421860315,0.104388844809,6.36682361568,4.40180405171,1.31470595635,-0.0881127657608,-0.000238045629601,-0.246045345152,0.232470860666,0.95337391352,-3.09892290482,17.916768678
do_nothing,1.0887474195,-0.182420003803,0.104845145667,0.730795360771,1.05033136239,1.913898383,-5.40358853392,0.0114416851892,-0.000102977093297,1.35721351699,1.30322579957,1.77877369422,1.23732536511,-45.2853014
do_nothing,4.06574560593,3.35923593224,3.22284953869,0.831669319473,-5.27351017185,-1.88782301115,-4.26682844264,0.110900303584,7.08091430214e-05,1.18304388315,2.28423914682,0.846854657795,4.66675834868,-62.5037302209
do_nothing,3.27188787666,4.30290642704,3.10454088233,-0.425477845119,-5.87063276828,-2.24135520765,3.03875343824,1.62891650453,0.000214638771358,0.48549861854,2.72017017897,0.274252108707,4.77636393777,-9.21057469451
do_nothing,1.24648318067,2.28150838406,1.43720866457,-1.92354939063,-0.957115158438,0.290343803191,6.69105995749,3.05187947891,0.000272532177245,0.467192362403,1.17435276713,0.345369781279,1.55526637727,35.9430219966
do_nothing,-0.447250034402,-1.3913138591,0.00644316894118,-1.77560391235,3.55641000262,1.2093332346,1.81276058243,0.660072149202,0.000222961630511,-0.416457463483,-2.11834264436,-1.06316201608,-3.29814442803,23.1290525298
do_nothing,-2.04417990758,-4.01447436549,-1.17892142522,0.154563471549,4.10432871368,-0.410486110408,-5.48333657832,-4.8137922846,8.66897271828e-05,-2.92691843903,-4.1953515532,-3.66806866349,-6.30470259131,-0.642021742174
do_nothing,-2.12944293786,-2.36418135661,-1.65828219132,1.96484985985,1.96382300081,-0.964311077609,-5.81478293775,-5.81831138691,-8.19020627632e-05,-2.96632494703,-2.24807327586,-2.63133904532,-3.293922851,9.28746040956
do_nothing,1.14132892674,3.38825746341,-0.101040289406,2.00281148148,-1.04183740452,0.709211937634,1.85151215691,2.23193887013,-0.000216374339886,3.07527213093,2.48790840468,4.40211763903,5.13214060044,19.4036816364
do_nothing,4.59363637483,6.90233194706,2.21143700879,0.582996049332,-4.16303927534,0.974309109099,8.4316571254,10.9900241356,-0.000264370057506,9.46998962607,5.03629205214,10.2085762039,10.2612933341,-4.59384584964
do_nothing,1.93101404586,1.62342870474,1.21199667959,-0.805171535945,-5.03228059225,-1.80105523289,5.18055604642,7.18998279804,-0.000208110200677,5.54504245415,2.03084136782,4.8466612288,3.60874354328,-23.4592643582
do_nothing,-6.08237922797,-8.87340794295,-3.62444100911,-1.25599197196,-0.91071857449,-3.26151799151,-5.38539819098,-8.00464468727,-7.10059780667e-05,-8.1850235557,-3.7474190795,-9.18467477732,-10.0441389173,0.70054217921
do_nothing,-9.32101637258,-11.8983398403,-6.09271803214,-0.960654947364,5.6741211242,0.251015534963,-11.4706350956,-16.6071554471,9.216063498e-05,-16.1707821819,-5.85238013208,-16.0689520899,-14.7737053271,18.1515369308
do_nothing,-1.40567514989,-1.29988400186,-0.950688866709,-0.460093128564,7.51885137762,4.96865831349,-5.72326396502,-6.41338326718,0.000217190479376,-6.77431211017,-1.64044619201,-5.89547356016,-3.03428956693,-29.4836444009
do_nothing,9.55943274005,12.2995828397,7.24929287428,0.0142763326219,1.85949396401,4.56277618472,5.6748718716,11.3143856699,0.000255627412312,10.6127175378,4.36476030409,10.9037105228,12.7503039175,-83.2758445581
do_nothing,10.5034571509,13.4398258211,8.6609762525,0.499579339467,-5.13928887931,-0.642363710029,10.5147366193,15.7946073086,0.000193433087268,16.4160120874,5.80878727027,15.7178160739,14.8718869616,-28.4004870746
do_nothing,1.06828604435,1.62514413871,1.28964062217,0.931477874584,-6.3470814034,-4.46174776894,5.39984696254,3.98716987734,5.61501425844e-05,6.02844381218,1.87379641354,5.15018522275,2.65554571752,115.91369635
do_nothing,-6.52855991243,-8.67169475561,-6.19936623655,0.958807317136,-2.50239506197,-3.68356499881,-1.54361401236,-7.427968606,-0.000101463521974,-6.1811617746,-2.63773129457,-6.57124917848,-8.44218474802,174.117744628
do_nothing,-5.0929520323,-7.7924896462,-6.33915952801,0.254559567109,0.895311521889,-0.974784186382,-2.97140438218,-6.76881667268,-0.000217314020941,-8.14160104146,-3.77544167524,-7.99339679289,-8.3779765145,34.4301923986
do_nothing,-0.830080765309,-1.81332666878,-1.83871881255,-0.84284857357,2.12507809767,0.798446753264,-1.57937567772,-1.30822304286,-0.000246536970162,-4.05411680186,-2.30861898655,-3.2503344401,-2.98741180239,-177.512827287
do_nothing,-1.19186475497,-0.329912029004,0.620200198895,-1.26693801291,3.27703571103,1.89835277862,-3.540492186,-1.81992223137,-0.00017883398224,-2.78486035272,-0.801950607578,-1.24306936148,-0.938378057178,-223.152665015
do_nothing,-3.08461419885,-1.89867675849,0.456073124217,-0.357242675508,3.91163888135,2.48411379614,-7.27299479267,-4.85955027526,-4.19348807747e-05,-2.88144522655,0.293825413331,-1.56880865417,-0.654317673325,-34.7438972531
do_nothing,0.165319435918,0.833286260031,1.60508359407,0.989159202081,1.2118650917,1.14957691956,-5.24448973209,-0.670192561168,0.000109737453226,1.7978439904,1.80362559194,1.20226564775,3.11920380759,191.666570906
do_nothing,6.20597256193,6.94207898219,4.0710906017,1.07712881204,-3.50225121695,-1.31775018803,3.9707605905,8.39274917042,0.000216580864447,8.32128267948,3.02400953139,5.58696917243,7.42508557151,213.270965481
do_nothing,6.81834565326,7.92645275275,3.72827160431,-0.363710817713,-4.71523564229,-1.33455215767,11.9263998042,10.189918744,0.000237207650102,7.86879644185,2.33361703424,5.27677995638,5.31873271188,16.5287753202
do_nothing,1.08794037606,1.41195037188,-0.0385251995181,-1.5175810379,-0.936796877083,1.54779084417,10.6215094596,1.86250155359,0.000164572246209,0.417733712102,-8.82774421873e-06,0.634801919888,-1.64845363762,-170.641847803
do_nothing,-3.46342706625,-5.03658977508,-2.80420815166,-0.749880027434,2.45709282872,2.42603638452,1.92583208255,-5.7705878507,2.83592220771e-05,-4.64564737393,-1.87508889958,-1.63366126526,-4.96085757618,-148.447082384
do_nothing,-2.97658794698,-5.52599983799,-2.36030333874,1.0917940026,1.30500868054,-1.53849404691,-6.25208702404,-5.12199264492,-0.000117225410629,-3.3068823948,-2.21011012727,-0.404459417553,-2.5193991419,23.9665030824
do_nothing,-2.02861371411,-3.31924195623,-1.86398654906,1.70295747969,-1.31190323308,-5.45771293402,-9.55920181712,-2.05455349179,-0.000215073952675,-2.06801343289,-1.83797865338,-2.06196781886,-1.12479518455,121.274340879
do_nothing,-3.97498390249,-3.08373085014,-3.32915614701,0.404354014574,-0.80749982555,-3.43432669144,-8.99674291956,-3.7149102464,-0.000227486697676,-5.09275285271,-1.37267501737,-7.78387772928,-3.90913696981,47.7978931327
do_nothing,-4.32407594477,-2.51177944794,-3.1135945671,-1.04242531259,1.48884657462,2.17931632516,-5.61023887247,-5.57011355021,-0.00015061094573,-5.86580181158,-0.164018137205,-8.32376184018,-4.33821364371,-57.3996757521
do_nothing,1.27403396731,2.49293457778,2.00524863809,-0.961328930473,1.57126467983,4.3741142936,1.25879061397,0.445137129107,-1.56158940986e-05,1.7565072971,1.88498494476,2.165804426,2.58817921704,-41.5801630085
do_nothing,8.14145572217,8.77059611383,7.9313529817,0.0799525917456,0.109022084094,2.3773968393,9.82658723032,10.5517733359,0.000123846416906,11.3272290788,3.18636333694,14.1383839075,10.3901685718,43.365815849
do_nothing,8.17233682263,8.91197496171,7.5816677896,0.413860317731,0.539061636531,1.5886671347,14.1442785477,12.4717261966,0.000213004691503,11.3183259843,2.36853877782,13.2901765592,9.204055772,44.5257437815
do_nothing,1.31328803253,1.7096503812,0.56023168505,-0.265597909256,1.66908157831,2.8348261242,9.27848741978,2.89679494955,0.000217563261308,1.27367028794,0.173991306024,-0.122080002672,-0.402071206174,-41.5817536862
do_nothing,-4.87910396853,-6.24464253956,-6.24960103484,-0.706944725958,-0.896012207967,0.301059421501,-2.7014350013,-7.85891498849,0.000136851210879,-8.01261492072,-1.67251375008,-11.5046473985,-8.62600314482,-70.2173279129
do_nothing,-5.79868865751,-9.03460052088,-7.39430413764,-0.085245737514,-5.77977614765,-6.91756281021,-13.3352992114,-10.097181336,3.54618654754e-06,-9.15554869799,-2.50465908258,-10.8500031712,-9.17068018253,9.44414134176
do_nothing,-3.81967688677,-6.54036827349,-3.93286790454,0.914999056406,-5.52734027383,-9.68971527082,-14.6132203589,-5.58746165492,-0.000129531690562,-5.04804794127,-2.46768627611,-2.98175019895,-4.28100316463,71.5624607456
do_nothing,-1.89893816077,-1.2846373927,0.350251916755,1.18021085627,2.04050967531,-1.75098101207,-5.80090284661,-1.14155562861,-0.000210244639012,-0.880804128344,-1.3008771525,2.59375465095,1.58684843624,22.8113350076
do_nothing,0.628989726106,4.52819867943,3.49819387828,0.509303800554,8.51489969287,8.60492238089,5.65455567978,1.54207700679,-0.000207547150613,2.68053198817,0.969239387449,3.90856302912,6.16822336935,-48.0812038914
do_nothing,4.00980556936,7.81722595811,4.80477469443,-0.47870742024,5.78417693951,8.65557184964,10.6645368259,4.43044534907,-0.000123508282779,5.80301039415,2.7571413,4.28300931885,7.19916488578,-25.7704906148
do_nothing,5.11040929342,5.58495393828,3.46145304653,-1.16576366268,-2.33698963614,-0.296135354873,7.18759145994,6.53508349203,7.87366052252e-06,5.8542670244,2.28692024734,4.16220734105,2.79289206373,40.2616706333
do_nothing,1.981204515,-0.488047779498,0.212555050063,-1.21865474778,-5.53401495546,-4.84576047056,1.57565497217,5.05527386674,0.000134497389768,1.87482930465,0.227432643114,1.62008600042,-3.74130582978,29.3126658102
do_nothing,-2.02657663525,-4.2842023557,-2.07252955657,-0.512807123609,-1.4922935256,0.246135853883,-0.110184751909,0.892443084043,0.00020685507913,-2.02977360378,-0.876260484682,-2.05329599982,-5.31664746779,-41.1039557473
do_nothing,-2.46386171165,-2.76089328213,-1.81371801467,0.657099343881,2.06599171685,4.63841059467,0.017718257651,-2.48449692694,0.000197305311303,-2.330941837,-0.176999083897,-3.39906284822,-0.542572906908,-49.3379698335
do_nothing,-0.102892809417,0.0593321515006,-0.930981559059,1.47375258631,-0.19724676346,-0.668605136927,-3.74377230176,-4.46556246707,0.000110560744338,-1.51325087351,0.295516697499,-2.40516426119,3.23557306497,19.5432475703
do_nothing,0.563909657122,-0.547589980556,-1.5777683283,1.21891012753,-3.80732722001,-8.74566084516,-9.63989570906,-6.47472961243,-1.84801297887e-05,-3.17933962307,-1.07805164014,-1.96646624522,0.322981029126,51.748904145
do_nothing,-1.83807111094,-2.91054740292,-2.45113079385,0.0486021789049,-2.29314658977,-7.23597074356,-8.58814688104,-6.6015442605,-0.000138694697512,-4.86137987232,-2.71523677107,-2.13142145877,-4.55202781504,1.74553146781
do_nothing,-3.70177846538,-2.12885261645,-0.896648322164,-1.11059106515,2.97717298193,2.80364885534,2.25983154466,-1.09480154695,-0.00020303024811,-1.54277262046,-1.92425248686,0.0400316391195,-3.30171346092,-36.5553898833
do_nothing,-1.65720033309,1.98406573662,2.52643214555,-1.41750773143,5.46225000571,8.78873038994,12.3840606407,7.77066178922,-0.000186989122643,5.16848105339,1.155159643,4.22900172764,3.09861791534,0.761775292597
do_nothing,2.93765642389,4.72796720675,4.36257785602,-0.711439357629,2.94955236929,5.13955449232,10.2041377634,11.2605343047,-9.79094288278e-05,7.70235142839,3.49031995428,5.48822068571,6.07998008246,39.9666044766
do_nothing,5.6421106094,3.47111373192,2.78780102079,0.531069067388,-0.684262072709,-0.496556942212,-1.18574126884,4.90555988254,2.84076220256e-05,3.0111809271,2.87324520748,1.36981081588,2.22622424519,5.70956063095
do_nothing,3.77111244807,0.460201153059,-0.489459267515,1.47409313898,-2.1956298415,-0.927698814912,-7.93396346335,-4.5843503144,0.000142060329388,-3.07946488623,0.244650882222,-3.53581477041,-2.50239250593,-45.9668017652
do_nothing,-0.976377379145,-1.47784819478,-2.76046613922,1.31820435807,-2.57540063965,0.356434130762,-3.98713357883,-7.35234592668,0.000198670961736,-4.04535544701,-1.87609601118,-3.46824767289,-2.44820484465,-28.2096175661
do_nothing,-4.19083673128,-2.19872715254,-2.81524575116,-0.0282331351699,-3.22517667492,-2.50389487085,2.23832597088,-2.67413952721,0.000176705300539,-0.864392737142,-2.1137986496,0.599993868452,0.143378938773,26.2842472849
do_nothing,-3.20573722928,-2.41634932106,-1.0869448348,-1.54526119317,-2.73409666086,-6.62061122425,1.52566155803,1.44542496898,8.57305040808e-05,0.862613290173,-1.0044196351,2.53081927002,0.246194228695,27.3938844517
do_nothing,-0.123198597992,-1.93361814803,0.817736841073,-1.82758561031,0.287955247081,-4.8946092809,-3.40859331957,-0.182513697934,-3.76967817352e-05,-1.01746652641,0.0849470356915,-0.554912035309,-2.00869762622,-15.1255846418
do_nothing,0.70532440844,-0.871205500556,0.958324044581,-0.51563759252,3.85357736709,2.21306929754,-3.8467069682,-3.67165715426,-0.000144785354474,-3.31789266082,0.295854912489,-4.71428326036,-2.65390569776,-16.4352962763
do_nothing,-1.29073850261,0.0109697134768,-0.669417311988,1.23513452353,4.75447798589,6.99379378722,1.50896391474,-2.40784112565,-0.000193820696259,-2.30261787935,-0.0329464340014,-4.30097467111,-0.300175463319,27.9944062615
do_nothing,-1.66827096387,1.12702176407,-1.19312364037,1.93114547287,2.68732613515,5.42712064177,5.72680909082,3.87393317802,-0.000166337941535,2.13531607364,0.160534873603,1.47885864521,2.74052113358,34.3259112224
do_nothing,2.30753048894,3.42154423662,1.41548324388,1.17199471366,-0.120238713615,1.17005869158,4.1451470701,8.67437795859,-7.40134785696e-05,6.42049264489,1.14380096793,7.64867836577,4.16448700549,-19.1079762851
do_nothing,6.26835608129,5.09659282148,4.25236170662,-0.250019139215,-2.36490244797,-1.5884512504,-0.544993821239,6.1906728311,4.62106247921e-05,6.12653241434,1.62977474001,8.09626670373,3.22764990017,-49.9282067205
do_nothing,4.0170492886,2.53295392623,2.56180837857,-1.32344345088,-4.13606108374,-3.02813365648,-3.57382020994,-2.23538173861,0.000146846051695,0.182407999445,0.411109429983,1.37967508402,-0.0709459333749,-10.9160758822
do_nothing,-3.06024204691,-3.68836425718,-2.83373107897,-1.52811109671,-4.45654255766,-3.87787629912,-3.33346406943,-8.99375769959,0.000188655562868,-6.62843744812,-1.47540764175,-7.12925579324,-4.17446016483,32.4707335752
do_nothing,-6.91119389559,-7.34018439946,-5.391414847,-0.865288197387,-1.59102557111,-2.47528803471,-0.736636035301,-7.60525814436,0.000156005912023,-7.45701962151,-1.67702838126,-9.67239231768,-5.48446677477,15.7914005135
do_nothing,-3.71579037125,-4.22221826076,-1.88121250222,0.242573708001,3.28034208424,1.17633182502,2.26705162107,0.231353122597,6.26606689533e-05,-1.43483053431,0.0545784348739,-4.0562662859,-2.09840036822,-20.4776739845
do_nothing,1.33636029944,1.70964412626,2.65334084247,1.06592591118,5.61817505562,3.0088252085,2.66064157109,5.93743306373,-5.40628849287e-05,4.42330984567,1.09914256965,3.67950926237,2.64493681352,-9.86370575098
do_nothing,2.37866466365,3.77745742001,2.2801898083,1.07179695131,2.92475866933,0.684218008307,-0.944803842622,3.80252933818,-0.000148185067489,3.89992348506,-0.251482264006,6.19372146714,3.78616979002,25.63105376
do_nothing,0.938210866434,1.76871459655,-1.10057849697,0.486502515835,-1.3891100943,-1.67511144965,-4.50398818526,-1.97784686581,-0.000183100065686,-0.379605409961,-1.86780110672,3.20029802498,1.43527872217,21.8661728069
do_nothing,1.52937001902,0.818349142952,-1.30606007107,0.0309285605398,-2.33665959367,0.583587411266,-2.0817402222,-2.91086592993,-0.000145809981082,-1.47149686037,-0.686223669049,0.228877744766,0.00769974057558,-13.3793055471
do_nothing,3.18746882881,2.38839671349,2.09766686545,-0.0261486894401,-0.313283260931,4.43901688685,4.87823810033,2.09838607105,-5.18139896902e-05,1.37257352902,2.39716519176,0.108053819314,0.876302343527,-20.9440717661
do_nothing,1.37282613993,2.21935740637,3.33720962328,-0.173244973508,-0.0790923715324,2.87496168869,7.09547715463,5.30667976637,6.13061503258e-05,2.34255692743,3.24956436592,-0.00792732595327,0.530740031646,1.41152476844
do_nothing,-3.39199131018,-1.84042189203,-0.0871251438698,-0.790403318377,-2.78820728874,-3.83675760305,0.107380290704,1.48334326165,0.000148970137134,-0.918374767071,0.348904965689,-2.34049036148,-2.57501710053,2.05786850871
do_nothing,-5.19300509649,-5.4633726921,-3.49512638151,-1.35784408906,-3.48072434919,-7.05939019016,-7.58961697351,-4.45696292283,0.000177183055847,-3.34591467911,-2.81157873228,-3.96002535463,-4.29070490635,-20.7711170698
do_nothing,-1.59899113793,-4.08197617955,-2.53597433596,-0.976257865045,1.1191396075,-1.98813246235,-5.34825969304,-4.8959267924,0.000135649083728,-0.975842301347,-2.52891962244,-1.68562199796,-1.17053703048,-11.2200594118
do_nothing,2.7293523726,0.538730322653,0.527204077389,0.430140235892,6.13910805975,4.84549156581,3.86968248108,-0.562003474677,4.14703408736e-05,2.25857513404,0.11932144116,2.00551464493,3.32240115169,34.6820569871
do_nothing,3.1701492175,3.42226945865,1.32404551797,1.81419146771,4.51487918515,4.58340413473,6.83433913366,1.57375775272,-6.78271395334e-05,0.90767518331,1.33607659817,2.44232503313,3.5647519273,43.3190430274
do_nothing,1.10997830915,3.18788983495,0.166775732073,1.97658995202,-2.37188206328,-1.39984868642,-0.854363706165,-0.450898339232,-0.000149196650004,-2.83699978667,0.23639672949,0.197660808534,0.211444022357,-14.8231999724
do_nothing,0.0402992610005,1.99456207107,0.138448341901,0.683842876811,-5.72318598169,-3.90054461491,-7.90183087768,-1.18390923713,-0.000171062218499,-2.42094420077,-0.499588521424,-0.0370249778551,-1.32878672114,-59.6633725233
do_nothing,-0.194851186384,0.741581029955,1.13763063583,-1.11599740573,-1.65460440462,0.480558115535,-3.52438738911,2.55459667117,-0.000125614287289,2.4516996206,0.612278711069,2.37552498745,0.264428140246,-18.2299180188
do_nothing,-1.47270347195,-1.44170334002,0.59684111211,-2.03112923118,3.28567123674,4.65307636839,6.77038543246,5.91256999675,-3.15348780881e-05,4.96380159425,1.51541628876,2.46127706924,0.639490767642,56.6376119283
do_nothing,-2.68833538046,-3.65686536033,-1.17433651754,-1.34440305733,2.05229130185,1.86320262662,8.90977637976,3.28249653471,7.37219740758e-05,1.45092404803,0.205546216777,-2.1097132717,-2.2281107586,59.7847719622
do_nothing,-1.35561573904,-3.27506720579,-1.16602347619,0.286598423213,-2.43303810835,-4.22487254951,0.0158307764637,-3.14817287834,0.000148813174122,-3.3485871843,-1.76042794433,-6.13420211302,-3.9995453545,-14.9242301086
do_nothing,1.6330588413,-0.0303269869911,0.874945508221,1.31559529906,-2.34324846185,-4.88846097004,-8.16536277344,-6.51443935162,0.000164680944196,-3.5716295445,-1.50894062788,-3.7713221354,-0.727755245902,-76.275352705
do_nothing,2.97429809287,3.04646480088,1.62350507351,0.842668293513,2.46010222397,0.951036485425,-5.89389301931,-4.29967433996,0.000115798510777,-0.0763912221655,0.730720307031,2.92511974356,4.49525354749,-65.4909448548
do_nothing,1.93942087114,3.53703563962,-0.294626788113,-0.35018937589,4.17108069403,5.17348075363,2.28959851396,0.10071202559,2.21198297945e-05,2.27058701298,1.92796688822,6.59042922807,5.53683704929,-5.85619780699
do_nothing,0.585268078448,1.94540809425,-1.96163506592,-0.690990881976,-0.478130911593,2.06747384817,5.52881820567,3.15797114536,-7.90510901081e-05,1.66416532765,0.662714638141,3.97778758693,1.45311417301,62.1576934331
do_nothing,-0.527056618232,-0.419466606559,-1.01949484427,0.22388668395,-4.85554154772,-3.74733817671,1.36460033783,4.04609313947,-0.000147965885552,-0.131461777972,-1.14549261938,-1.32765468714,-3.18533976061,109.26430997
do_nothing,-2.66745313372,-3.03798239739,0.650550738926,1.10172859979,-2.680216001,-4.18168496565,-3.16110428689,2.50896939173,-0.00015805611284,-1.88114429799,-1.41456450636,-4.78761337603,-4.81823402861,85.4901595491
do_nothing,-4.70810297568,-4.6119205582,0.476249284632,0.661527301907,2.50647727289,0.962394038067,-2.60603954624,-1.24546441985,-0.00010611345945,-3.17392549794,-0.643993224783,-5.14082095147,-3.80086971541,-37.7689390143
do_nothing,-3.00293469644,-2.81837737671,-0.451281052983,-0.667033645272,3.42395301475,4.38304196443,0.781228097832,-4.00842018033,-1.32268088854e-05,-2.05001386351,-0.219516955174,-2.56430795331,-1.28264473385,-170.392034439
do_nothing,2.76498176371,2.25293428658,0.398701508018,-1.35526075541,0.271497493505,2.12006935366,2.48515455523,-1.71174159328,8.37220484338e-05,2.84840258988,0.250202830841,2.6711336332,2.57823823837,-155.336420616
do_nothing,7.24281037014,6.36298739856,2.3171198132,-0.792169669768,-0.943323243832,-1.42792950967,1.99305554325,3.96712805875,0.000146664250425,7.68010338899,1.77939007568,7.64933022428,6.17239782506,23.46334641
do_nothing,5.50069829619,5.22710707035,2.20298123791,0.106621301301,0.867604759687,-1.15070042398,1.07392838348,5.40008012068,0.000151327189402,5.81162023432,3.06426270081,6.91045694456,5.82955332166,178.419325889
do_nothing,-0.853700535103,-0.423402561184,-0.639727337291,0.37905488218,0.55973622941,0.857127473806,-0.469519108086,-1.2061400584,9.66266308955e-05,-3.19776570945,1.39800895381,-1.04651746016,0.285903000329,145.913909359
do_nothing,-5.9084532925,-5.52741181734,-3.4073346517,0.290307469413,-3.30681870852,-0.598529756658,-3.30661042483,-8.884671034,4.76484442669e-06,-10.7127118436,-2.89682578121,-9.32073600486,-6.04723186561,-3.41383863664
do_nothing,-5.93821740644,-5.87397245968,-3.45458286611,0.612769654688,-4.81191349991,-4.4590845552,-4.71934799267,-7.38480741507,-8.78159155574e-05,-8.31851881537,-5.33749218353,-8.9373318131,-7.06295036761,-86.0251564802
do_nothing,-1.81120798066,-1.63731772952,-0.941658580104,1.1729686337,-0.126322062927,-4.05938160045,-1.13620846169,3.32549079664,-0.000144862469122,1.87330326315,-2.46889977122,0.242786561505,-1.99295677166,-66.0216870115
do_nothing,2.9903002183,3.24706228751,2.08077622531,0.933321274816,5.59577334706,2.49952907299,5.07347992913,11.6465921748,-0.00014445237676,9.36592708393,3.07376988194,8.41231691105,3.53451667552,-50.9237386333
do_nothing,4.66877173706,4.36877493935,3.45058349869,-0.472257662769,5.56682948045,8.12275840347,6.24261206889,7.82760192968,-8.74219462483e-05,7.17920555513,5.12063362216,7.03257756338,4.00047215403,-64.7532637435
do_nothing,1.62069734086,0.907961084746,2.07530732805,-1.94370214901,0.979942652249,5.76227150913,-0.341935728296,-4.24156554472,3.1792707986e-06,-1.01152499465,1.59269374017,-1.25512229714,0.26842240146,-7.67891857514
do_nothing,-2.89089939646,-2.70343848108,-0.825711468817,-2.00754499606,-2.31867633335,-2.07036611487,-6.72606919687,-11.3005144594,9.13976193093e-05,-5.96036678487,-2.80277466588,-6.21187648707,-1.82352072052,125.177409363
do_nothing,-2.84754267611,-1.23202494926,-2.07974315328,-0.45510535326,-3.16873302428,-6.80553545418,-3.80094948277,-5.79456602195,0.000142686910035,-3.1355801483,-2.67601076323,-2.44283277825,1.03852445171,165.924227882
do_nothing,2.71600573049,3.98072309616,-0.191773202438,1.38882778466,-4.33923832832,-4.73775514707,5.34458066666,5.73133457928,0.000137438798375,3.09801864711,1.13042467964,4.48523810866,4.98544114371,19.3390084508
do_nothing,6.48610605535,5.13171615086,1.92337718003,1.98069705621,-4.61235987836,-0.105950693606,8.07825336554,10.1986593848,7.84220729042e-05,4.89524411978,3.01050083582,5.30952477218,3.3867853587,-153.762348909
do_nothing,1.78621271705,-1.68534470518,0.440928763245,1.02346629354,0.206819437369,2.07876697394,-0.588862212047,2.81521412095,-1.06011771084e-05,-0.263580806519,0.273165107822,-1.411231274,-4.20278970476,-144.156021157
do_nothing,-7.1390421638,-9.31924604202,-3.42361212202,-0.350181194922,7.81267346623,1.78375921433,-10.0627785279,-7.66233474648,-9.43927681538e-05,-6.64189203083,-3.45182707202,-7.58711653978,-9.9426596488,7.67517679482
do_nothing,-9.47685413743,-7.74876216033,-4.30071127423,-0.827314047713,9.15114904213,1.46507355775,-7.97225711559,-9.38307283351,-0.000140156945616,-6.63440644198,-3.3802562117,-5.70331066618,-6.53407075032,88.0856280488
do_nothing,-2.24119698979,2.14153474491,-0.181046246036,-0.330127000404,1.07073485983,1.56485274104,2.99189274252,-1.26263720379,-0.000130408301661,0.303116577392,0.18164618196,1.94560378671,3.35445878366,33.3474665296
do_nothing,5.98675389895,9.16926542691,4.46087563056,0.0108036743423,-7.53770298423,0.90538160001,9.1876474647,6.67525472771,-6.96747150402e-05,6.85928464823,2.89651376917,6.58600965576,9.66471677622,-12.4755670343
do_nothing,7.23377756887,6.68144977582,4.78615522969,-0.547082273067,-7.31688966728,-0.522024309401,4.9273799791,6.54285722253,1.75872017657e-05,6.6861969904,2.47155595878,4.27473974744,6.88925500877,33.4746262289
do_nothing,3.60072207812,0.19235050254,1.64151494506,-1.16677956681,-0.854404995074,-1.56123380172,-1.34338961486,1.61105164347,9.68695097313e-05,1.73248903313,0.894378897304,0.00771607167084,-0.100430909444,61.5453547978
do_nothing,1.00604456765,-2.37292554623,-1.04979756606,-0.483830223664,2.6983198561,-1.72910160727,-1.4331863921,-0.572169249953,0.000137231941627,-1.52333098117,0.444808394135,-0.483936242478,-3.52060867522,-19.7433404216
do_nothing,-0.475953052967,-1.61849644403,-2.12735761241,1.24597314454,1.32930696055,-1.33864337379,0.670221966235,0.212299509573,0.000123330495758,-1.30016120684,0.260321729613,1.02324185185,-2.40991805039,-108.334265231
do_nothing,-3.92089191629,-2.64856423838,-2.93694544945,2.03721098412,0.700400803075,-0.50702478428,-2.67658623089,-1.85701302219,6.12542551632e-05,-1.84434185275,-1.44929612126,-1.01899106269,-1.6063389213,-69.7920672703
do_nothing,-7.22911417838,-4.94015716773,-3.19918877932,0.735388747706,2.84066093299,0.640502151657,-8.36212996876,-7.16833512658,-2.4072078833e-05,-5.31777172901,-3.59026330002,-6.18920065564,-3.24033819474,42.0220283353
do_nothing,-5.12306939768,-3.47823093731,-1.32274965804,-1.17893709909,3.00264577874,1.48785194117,-5.96100240739,-7.99443870582,-9.88945591315e-05,-7.0148175071,-3.15048098127,-7.45413292313,-3.88444703007,74.091748402
do_nothing,1.61363996642,1.89572895037,1.76735575093,-1.39775395908,-0.990080552031,1.69124352616,5.50680072471,0.0441021872694,-0.000134020179126,-1.8207557753,0.338991723004,-1.08326266924,-0.500257507531,14.3525897489
do_nothing,6.0646969781,5.51752464185,3.11356956766,0.0624733770453,-4.15415593723,1.53501579738,13.4921359802,9.77543622957,-0.000116204604959,7.25183765524,3.62500882627,7.34233123389,4.6353172,-15.2770854522
do_nothing,5.03106454521,4.55858039258,2.25147686818,0.905939952859,-2.52813646744,0.740612235137,7.92309910124,10.8435576743,-5.30927586363e-05,11.2922722602,3.69668209094,9.55571936283,6.78689538595,22.5439253987
do_nothing,2.47181606224,2.19871521787,1.57505486138,-0.114693184405,0.467351904871,-1.46993235538,-5.22314540618,2.9425464017,3.0050099247e-05,6.09152885321,1.26278683155,4.37800666804,4.30058222523,31.2172332841
do_nothing,1.48459792685,0.809601026913,1.62599322217,-1.39420998288,0.448105164277,-3.87037842165,-11.6329379936,-4.84917915321,0.00010040891012,-2.97670324415,-0.806047848152,-2.26643734788,-0.476999915658,-33.1467108452
do_nothing,-0.524161620553,-1.69388366177,-0.0433714061634,-0.854021140456,-0.476439940998,-3.06173746333,-6.19236452819,-6.31923201306,0.000130547525271,-7.68067711769,-1.27665150152,-5.25239497149,-4.27826170212,-76.5319378589
do_nothing,-5.17396718645,-5.82460800018,-3.81984018151,1.01505240638,1.54539822369,1.64547161701,2.96573244064,-3.88048170792,0.000109135760064,-5.85519236557,-1.2821367309,-4.63306447763,-5.25900567515,-27.3080641756
