label,COUNTER,INTERPOLATED,AF3,F7,F3,FC5,T7,P7,O1,O2,P8,T8,FC6,F4,F8,AF4,RAW_CQ,GYROX,GYROY,MARKER,SYNC,TIME_STAMP_s,TIME_STAMP_ms,CQ_AF3,CQ_F7,CQ_F3,CQ_FC5,CQ_T7,CQ_P7,CQ_O1,CQ_O2,CQ_P8,CQ_T8,CQ_FC6,CQ_F4,CQ_F8,CQ_AF4,CQ_CMS,CQ_DRL
off_to_on,7.20246776062,5.98313734195,4.67247308473,-1.3869562668,1.18468850239,3.24093725647,9.13532859862,8.21481267354,-0.538166649698,9.83840586128,3.10154205025,11.0801704508,9.84422849704,-46.3732554155
off_to_on,3.78026616592,3.1262930342,2.81874059324,-1.42497387496,0.626636111512,2.20821298041,6.13088715922,5.97803574227,-0.852092023836,5.44102986878,0.908202959814,5.83391480514,4.83313763313,-10.9723652098
off_to_on,-0.689508320208,-0.492170974373,0.251833924256,-1.12949664344,0.287968116062,0.838780570454,2.03243313449,2.4915269725,-1.05754228218,-0.160892577687,-1.51882039384,-0.676463515184,-1.46657906399,26.530514711
off_to_on,-5.01278186405,-3.97995443479,-2.27684447324,-0.588567664555,0.175801955923,-0.54538833977,-2.00614325929,-1.32855813751,-1.09605994136,-5.5648212564,-3.5770948492,-6.80412568709,-7.44818799241,57.4081143648
off_to_on,-8.01776653094,-6.47436168961,-4.04605267847,0.047664482565,0.168943638573,-1.64921043891,-4.98890870369,-4.55490209252,-0.934757580134,-9.46522083525,-4.76329068754,-11.0627127796,-11.5741496702,74.570888196
off_to_on,-8.90502732643,-7.38403005057,-4.58872680853,0.611656692376,0.0800071524943,-2.29817026315,-6.35822093621,-6.50312461193,-0.580785892766,-11.0006563152,-4.80976907199,-12.521201747,-12.8126508552,74.252996087
off_to_on,-7.48534843395,-6.54975953441,-3.82879205656,0.966881687988,-0.253565714241,-2.48267934185,-6.10507061464,-6.88874700903,-0.0868051418836,-9.95921048564,-3.75147831093,-11.0222544521,-10.9246729965,56.897005216
off_to_on,-4.22934166311,-4.27576404168,-2.08784666222,1.04502436387,-0.884604511357,-2.33540639385,-4.68749943741,-5.8495623375,0.455818353862,-6.79064360945,-1.90504461828,-7.17082151947,-6.51533778779,27.0023919824
off_to_on,-0.113794758058,-1.22443169821,0.036389325515,0.860949880396,-1.71123842278,-2.05165927252,-2.80340247778,-3.84324663795,0.935680150016,-2.43480997676,0.230806913465,-2.1117662407,-0.837633932061,-8.03893675269
off_to_on,3.68437164756,1.78893719986,1.87499452741,0.501772566809,-2.49191803094,-1.78722882804,-1.11145690785,-1.46903883203,1.24755981888,1.97005487202,2.12082290754,2.82328861282,4.58626344338,-39.8294781665
off_to_on,6.14704933062,4.03444599338,2.9049135075,0.094668273029,-2.91891854443,-1.57872012345,-0.00477315117215,0.719558761405,1.31911883317,5.40502662729,3.33965730751,6.48729169773,8.40599683415,-61.0829338092
off_to_on,6.7119983768,5.06422645839,2.905767173,-0.23538413269,-2.72704621137,-1.32338697284,0.485614932991,2.35085006986,1.13036775035,7.22082251463,3.67621210914,8.19916821118,9.81085067878,-67.4062182693
off_to_on,5.41588473047,4.80948803541,2.00751810372,-0.404056223255,-1.80016385817,-0.831414185956,0.633911611245,3.2859657196,0.720015187953,7.25667552164,3.16834418581,7.86408572159,8.71684958574,-58.2691865909
off_to_on,2.84359139993,3.55512583185,0.619269046699,-0.390348004431,-0.236941685639,0.0673234639953,0.844581957467,3.58538131387,0.176555641166,5.80957061629,2.06348211207,5.91628109763,5.72657208248,-36.9141207343
off_to_on,-0.0917978151644,1.80979010079,-0.729845699708,-0.237216082761,1.65035473498,1.4053711638,1.43655135513,3.42058951596,-0.383559459835,3.48220539114,0.723650376669,3.12235073479,1.88833174949,-9.26460112451
off_to_on,-2.45977446925,0.121938762824,-1.5786014407,-0.0313344966116,3.40829119729,3.00113964832,2.4749107325,2.97464477628,-0.844536550764,0.970558673775,-0.491097864596,0.319729485111,-1.65728478931,17.8145829103
off_to_on,-3.60891264118,-1.09370391284,-1.68493651832,0.13013875469,4.56615817325,4.46429849988,3.71602812063,2.37121816745,-1.11863537889,-1.13817913892,-1.32325069885,-1.8249332145,-4.02539751293,38.3717568231
off_to_on,-3.35330693042,-1.66340432646,-1.09137568267,0.174148276267,4.77374645745,5.2942698664,4.68607910044,1.65358498866,-1.16494657978,-2.49974989735,-1.67345413873,-2.96964533347,-4.82062664295,48.7890941873
off_to_on,-1.9938013486,-1.66638321986,-0.0878465986314,0.076273541876,3.90986518715,5.04639550895,4.86165850431,0.811432166574,-0.994983515594,-3.05069167588,-1.59936613628,-3.13062448716,-4.19201276236,48.3844271191
off_to_on,-0.176246500213,-1.35744659317,0.908588444473,-0.132268932094,2.12708574635,3.51048273498,3.88334074612,-0.165764590496,-0.664597009653,-2.95547607634,-1.26535898331,-2.60354440795,-2.70686678786,39.0924666801
off_to_on,1.35675162604,-1.03679447322,1.5101259919,-0.376509923503,-0.181928671326,0.835285087152,1.72189233284,-1.23798676982,-0.255695496716,-2.49569391434,-0.865837996909,-1.81324717186,-1.10083542369,24.4310212397
off_to_on,2.03116930789,-0.919284656732,1.49422071741,-0.563686085446,-2.48669365322,-2.45443478274,-1.26493949581,-2.29089615536,0.146127145432,-1.94689236836,-0.551194302182,-1.14866275654,0.00155448988798,8.18138735541
off_to_on,1.63314344458,-1.05172137298,0.873270085984,-0.614253180603,-4.25900282093,-5.56759504756,-4.4074636898,-3.14938497293,0.471425926396,-1.48509908011,-0.381418465764,-0.836296958462,0.298248621224,-6.72630853332
off_to_on,0.365256112969,-1.30592633178,-0.122062949004,-0.487907672152,-5.10933184879,-7.65889956226,-6.90726414178,-3.62239297841,0.679136849321,-1.14867057363,-0.320354302877,-0.886634418211,-0.115063006669,-18.7522458285
off_to_on,-1.24515911563,-1.44570922346,-1.13471981187,-0.196804007251,-4.8806006006,-8.08104587782,-8.06890810391,-3.56093238754,0.759110385439,-0.859031892329,-0.26818403113,-1.12105905214,-0.822699661968,-27.5944337114
off_to_on,-2.54737541008,-1.23839467488,-1.81177776665,0.197345006364,-3.67487969837,-6.59639603001,-7.50615581489,-2.90779381062,0.726115791429,-0.484006672666,-0.116483635397,-1.26143609506,-1.28256038365,-33.5185497716
off_to_on,-3.00425248121,-0.566016843445,-1.92606585365,0.600472206094,-1.80989417352,-3.47620439465,-5.25950114748,-1.72256568535,0.60893984825,0.0843003580041,0.19659163119,-1.0475622557,-1.05953436481,-36.5558188241
off_to_on,-2.38183175963,0.50726560458,-1.44747710987,0.91178117752,0.276967837,0.550680280786,-1.7923149751,-0.175962696956,0.439114363518,0.866312668292,0.651916299864,-0.342902366164,-0.0119120531529,-36.0028139003
off_to_on,-0.82823374643,1.73773791992,-0.542716631682,1.05004595227,2.14557403264,4.48970626783,2.12868011372,1.48197990219,0.24304529946,1.76767070982,1.14803538872,0.803966798016,1.6364246636,-30.5186268861
off_to_on,1.18107032701,2.77460249333,0.491659300926,0.973484518373,3.45633184356,7.35709269365,5.62949246536,2.96872603167,0.0393514411985,2.59552453563,1.53268047928,2.15947458976,3.36299788412,-18.8407569012
off_to_on,3.00813652411,3.27667261983,1.33545591941,0.688714079599,4.03318313101,8.45648632469,7.94399416743,4.01902951529,-0.159099529852,3.11203207948,1.65537244563,3.36544180396,4.5281940343,-0.839268139677
off_to_on,4.06774621117,3.03178287113,1.75136644993,0.247772521072,3.87493528824,7.57054587372,8.59094725484,4.42908381564,-0.340755111245,3.10792174241,1.42234028541,4.04165775979,4.6065411252,21.5756255762
off_to_on,4.01869025512,2.03668550901,1.65568701265,-0.26465781639,3.12055052324,5.00932587721,7.47206766255,4.09105097816,-0.491486456225,2.47395680668,0.834707578352,3.90143757725,3.3863000211,44.190823742
off_to_on,2.86829784842,0.509355674533,1.13214474777,-0.749728246657,1.98702096833,1.50332127478,4.87516073106,3.01669417238,-0.59357175819,1.24928584179,-0.00300176224787,2.84759051955,1.06719717779,61.170176156
off_to_on,0.95941495313,-1.17076931293,0.388879275998,-1.11403957945,0.703648970151,-2.02162714298,1.39121562787,1.34826188167,-0.628374527161,-0.368062029035,-0.906917100733,1.02100163519,-1.77887268979,66.6213407991
off_to_on,-1.15019075469,-2.57456064028,-0.322005506173,-1.2865923068,-0.536870226753,-4.71417180396,-2.22755237501,-0.647922283336,-0.581800624273,-2.05373882198,-1.66280123629,-1.21429406666,-4.3729790416,56.6153502285
off_to_on,-2.87080787084,-3.34995880281,-0.791827259524,-1.23065141584,-1.59996877989,-6.02737040135,-5.23334884323,-2.61149606869,-0.450355731985,-3.427215525,-2.08476964841,-3.34959463983,-5.9669317581,30.9686141674
off_to_on,-3.76291178849,-3.32281315278,-0.919502594307,-0.94947611576,-2.40469552759,-5.84070694601,-7.03736047793,-4.14578326288,-0.245296652216,-4.14426528843,-2.06614236083,-4.85663725245,-6.07671473283,-5.9227026062
off_to_on,-3.6594561587,-2.54081675411,-0.733008081094,-0.485822366008,-2.90410312673,-4.44443077963,-7.32497711852,-4.8996544113,0.00695998775237,-3.98967711782,-1.60791063535,-5.32849952659,-4.6364175602,-45.6572626582
off_to_on,-2.69305489187,-1.24927384786,-0.36493981472,0.0843742015359,-3.06538075322,-2.40244106242,-6.112634437,-4.6587943524,0.268662696222,-2.94576533039,-0.817520810225,-4.5984922914,-2.02374664251,-77.8230971587
off_to_on,-1.22670911421,0.190196003253,0.00515745958636,0.663446328476,-2.86197151058,-0.347998926246,-3.7371738502,-3.42149254688,0.497809480963,-1.21567435747,0.120481726213,-2.80187820802,1.05028748427,-92.9191691665
off_to_on,0.281317063865,1.40951967762,0.219022341575,1.1474997454,-2.28239244277,1.21581026242,-0.778938775188,-1.4305437348,0.65648576608,0.810134209044,0.992685658934,-0.358061489648,3.75191889192,-85.3329754433
off_to_on,1.42859459673,2.13712117024,0.1944757958,1.44422745334,-1.3513862635,2.04660024082,2.06906169038,0.860057452117,0.718190614397,2.6417854752,1.61016984694,2.12838797521,5.36916320361,-55.3977610682
off_to_on,1.98474845546,2.26345833238,-0.0503362787523,1.49042509074,-0.152115377826,2.18879283479,4.16197485963,2.8871492337,0.67241003759,3.81417225373,1.85288732254,4.02592176363,5.51511992424,-9.77830243785
off_to_on,1.93820328279,1.85296679295,-0.408558263477,1.26590903042,1.16390652548,1.89872397909,5.05988363126,4.12891891738,0.525714650146,4.01627993742,1.69442072368,4.85176812711,4.22960944117,40.0660799388
off_to_on,1.46543455589,1.10437813163,-0.725179723832,0.800481655381,2.38879193745,1.5067744475,4.6416804159,4.26229337375,0.299727533066,3.18870397811,1.20230867291,4.41445010105,1.95173551445,80.9755683665
off_to_on,0.841638485542,0.277041572915,-0.851105515755,0.171488149674,3.29387855266,1.27309390151,3.14158096145,3.27567491576,0.0270229215763,1.55699899763,0.515607067313,2.87785328346,-0.623826885163,101.847120981
off_to_on,0.329737845731,-0.390787920835,-0.692810638481,-0.508642658652,3.68143631776,1.29046050196,1.08955052947,1.49303045153,-0.253823952744,-0.416104815178,-0.193261847126,0.721974220641,-2.75940180709,96.9065039952
off_to_on,0.0882833853713,-0.746586605241,-0.243066352923,-1.11308922225,3.437898896,1.46577521842,-0.837818233811,-0.509655462741,-0.503145341462,-2.15356815573,-0.762149723179,-1.39430034243,-3.88970015481,67.462489708
off_to_on,0.128123703046,-0.754608253362,0.414487249078,-1.52553242613,2.57178618245,1.57989447051,-2.02087235433,-2.0789573435,-0.684700317259,-3.13167724785,-1.07757081301,-2.83170728597,-3.77624532696,21.569621467
off_to_on,0.327740826772,-0.489284785644,1.12595750103,-1.66386722392,1.22300336518,1.39621893914,-2.09729295016,-2.69876969455,-0.769872205712,-3.04447726778,-1.09901673197,-3.17145966639,-2.5583817205,-28.3175953007
off_to_on,0.495729900808,-0.0986227895271,1.70561534417,-1.49736364539,-0.361586331795,0.772290060548,-1.09457764445,-2.17449349506,-0.741658362518,-1.91279797573,-0.864066979999,-2.35446616047,-0.691249993642,-68.97827496
off_to_on,0.45366135774,0.247480587151,1.98153066504,-1.05337146408,-1.88121466719,-0.269275985667,0.556329223729,-0.719380818582,-0.598223860996,-0.0980200040473,-0.473750068775,-0.710420072331,1.20510575555,-90.2190265528
off_to_on,0.10820430653,0.407716613775,1.83789405412,-0.412151705196,-3.04897167578,-1.53584553976,2.14374394202,1.09605504522,-0.355265271118,1.79242360232,-0.0621676495781,1.13914796873,2.53674769669,-87.661262645
off_to_on,-0.511717522703,0.306065742911,1.24570970326,0.308805442232,-3.65584133776,-2.7245164669,2.90747254721,2.52559634879,-0.0460619424994,3.08681366996,0.241931770055,2.47950393002,2.90947453982,-63.6949395378
off_to_on,-1.2624876779,-0.0515310857938,0.276539846157,0.977350094124,-3.61379889853,-3.5209895138,2.31281605141,2.90673418998,0.281811287068,3.26666222265,0.351877574172,2.74358873906,2.23609149358,-26.3743240322
off_to_on,-1.93172471112,-0.580671944484,-0.903221776237,1.47131861707,-2.9672793402,-3.69919612252,0.27609922263,1.9125071294,0.573453760974,2.15203111695,0.24840950268,1.71785706586,0.750325487008,13.3077313868
off_to_on,-2.30433004739,-1.13836119308,-2.05766789371,1.7005090897,-1.87195014489,-3.18614181506,-2.74224959812,-0.294246151305,0.776515825013,-0.00876264802568,-0.0136936465028,-0.357637651814,-1.07154900364,44.8327063719
off_to_on,-2.22629710775,-1.55408426621,-2.92396215292,1.62230355855,-0.549279879608,-2.07267725515,-5.82473185592,-3.06719645488,0.852035649408,-2.58255593847,-0.320575273433,-2.83520302914,-2.65464803222,61.1492512474
off_to_on,-1.64784424754,-1.66718125081,-3.26684409244,1.24881200032,0.768192254797,-0.573213627571,-7.85465537164,-5.45496374579,0.783540870538,-4.7248663935,-0.533088007992,-4.84612959099,-3.49195664792,60.3378385938
off_to_on,-0.636656405262,-1.36589447023,-2.93611058858,0.644943515069,1.88467761432,1.0436359705,-7.87579894038,-6.50395573444,0.581771008473,-5.63774573947,-0.53108255703,-5.57589873878,-3.28700048772,45.5291728925
off_to_on,0.637719180253,-0.622654264293,-1.91483173238,-0.0820010513282,2.66985820747,2.52341093882,-5.44274399168,-5.59105254949,0.283332843919,-4.83509756989,-0.255967734327,-4.54357185152,-2.03564948954,23.2607219072
off_to_on,1.93986848161,0.481652994218,-0.344656459941,-0.799790977515,3.06405318066,3.66849098854,-0.842668028174,-2.67442861737,-0.0567708954103,-2.33037812545,0.261554523939,-1.7944192354,-0.0281621472658,0.959608036098
off_to_on,3.01386958762,1.75313384995,1.48329254088,-1.37367936074,3.06399909789,4.34617637256,4.89890211791,1.62896362393,-0.377008761939,1.31949622176,0.898772138859,2.06243577458,2.22597083845,-15.5230087447
off_to_on,3.62877910143,2.90780253649,3.17693605384,-1.69090607823,2.69981032101,4.47165715672,10.2519149341,6.17803750532,-0.622509902143,5.1386294345,1.46709734312,5.99362549171,4.12879432068,-23.4990288829
off_to_on,3.61882486397,3.62486346047,4.32607550075,-1.68354877671,2.01558728249,3.9878443602,13.6017118758,9.62442524529,-0.756089865238,7.9975407278,1.76252528291,8.8253432655,5.14637871416,-23.7050199776
off_to_on,2.91589378655,3.62461805461,4.60326179199,-1.34526002849,1.06290965822,2.86455701291,13.7364656815,10.8195454432,-0.764317064131,8.9457344304,1.62784949527,9.59104115822,4.94566759027,-19.3025097025
off_to_on,1.57231078581,2.75498511731,3.85775133631,-0.737394911157,-0.090643751418,1.12750649122,10.2529372788,9.1856800793,-0.657396492471,7.51243717965,1.00891077839,7.83895173724,3.48347331269,-14.1324573861
off_to_on,-0.230124852567,1.06252359456,2.17507710707,0.0187746938069,-1.34399912917,-1.09188815217,3.7473828119,4.93096751179,-0.463564659311,3.88127899087,-0.0131259428642,3.80338640485,1.02722522979,-10.9703568124
off_to_on,-2.19130106168,-1.17802240685,-0.119518815351,0.764420722736,-2.54814563001,-3.51255189615,-4.28163054184,-0.966173567735,-0.220287760088,-1.12075641478,-1.22620016504,-1.61808888189,-1.89742252645,-10.4662007446
off_to_on,-3.93057608786,-3.49468602375,-2.52201584382,1.33701292617,-3.50788928527,-5.69934797165,-11.8053840903,-7.00666866016,0.0347128084167,-6.22532315231,-2.33142119799,-7.0824778035,-4.6210515604,-11.1365018842
off_to_on,-5.05306210591,-5.31334374825,-4.46504658068,1.60870774944,-4.00822805666,-7.12299841436,-16.8130960655,-11.5843451344,0.269943381566,-10.0629765546,-3.01796158298,-11.1565320715,-6.48246133899,-10.3352300172
off_to_on,-5.23731426951,-6.10031052628,-5.46062926324,1.51965220078,-3.86444859117,-7.28580339958,-17.8789918182,-13.4410445052,0.462738328334,-11.5457264824,-3.0497717524,-12.7096244633,-6.98502239758,-5.73961960446
off_to_on,-4.32660013212,-5.51730040217,-5.23214805736,1.09639829276,-2.98424953188,-5.88494138837,-14.5807690143,-12.0269973803,0.598257772412,-10.1808958082,-2.33977630472,-11.2321064712,-5.92215020343,3.30653689634
off_to_on,-2.39793300297,-3.54348010476,-3.79736561562,0.448548007225,-1.42199373369,-2.96096805748,-7.64285634844,-7.65904481097,0.666576439435,-6.22365806612,-0.988817372549,-6.98769230289,-3.44176255289,15.1766673724
off_to_on,0.217657168077,-0.522666847414,-1.47583520964,-0.257608079592,0.596840978419,1.02829481005,1.24166645535,-1.43141538275,0.660168041844,-0.622035435396,0.72479546515,-0.956061679931,-0.0314684796199,26.3526410041
off_to_on,2.98107217106,2.88863608369,1.18533141195,-0.842797677674,2.69708730382,5.25314388788,9.86149448151,5.09105408578,0.573671111881,5.23144342448,2.40582390352,5.41809401542,3.57689943081,32.6909923531
off_to_on,5.25699073616,5.86875877413,3.54969405864,-1.16417816648,4.42449133992,8.68607787811,16.0805997795,10.3031446017,0.406555424762,9.87113043074,3.63891548258,10.5989364027,6.56610092262,31.0726561065
off_to_on,6.46965781395,7.64026697111,5.05657073182,-1.15592613911,5.35270457741,10.3693716332,18.4047704213,12.9853982372,0.167713568042,12.1474847815,4.09664506972,13.3526549453,8.22193895793,20.7790523024
off_to_on,6.26249283737,7.6851149676,5.36686830359,-0.848062428604,5.19970072942,9.7024926857,16.3618418659,12.6053363417,-0.120258890285,11.525366935,3.6293098603,13.0538100254,8.10780245982,4.02910082097
off_to_on,4.61390806861,5.90269378867,4.44830316879,-0.356580944945,3.91956185867,6.65845717176,10.5940894973,9.4158142287,-0.419711617973,8.21082403403,2.31099205808,9.82615895454,6.18180429275,-14.5742707814
off_to_on,1.86925761411,2.66047463137,2.57604085563,0.153225727135,1.73885831791,1.85082972949,2.64729393782,4.33644306703,-0.68141459316,3.07653658303,0.427895282193,4.48749846343,2.8241136492,-29.5234880164
off_to_on,-1.32923088792,-1.28384804002,0.24959955405,0.519486137379,-0.879436239175,-3.58587033095,-5.47175194001,-1.33223138668,-0.85314453067,-2.58633720015,-1.58924727235,-1.67779154943,-1.23746968909,-36.2877548636
off_to_on,-4.20225910163,-4.97228683606,-1.94855934788,0.635899433137,-3.34088613834,-8.28188334146,-11.8353648937,-6.26815885495,-0.891717617498,-7.41497905158,-3.27136148573,-7.25040156365,-5.09039086065,-32.907886607
off_to_on,-6.04136107983,-7.4978543167,-3.5106645584,0.486095768271,-5.06832406816,-11.0078747723,-15.079078679,-9.45505195532,-0.775234395132,-10.3219293288,-4.22774222929,-11.0209527056,-7.85172629484,-20.7093021145
off_to_on,-6.40511436708,-8.24652152,-4.13181043542,0.148213003941,-5.65400801769,-11.0299966145,-14.702207729,-10.3922984363,-0.511724058078,-10.7495830528,-4.24237273618,-12.2604285632,-8.88179645592,-3.85618614893
off_to_on,-5.24394820621,-7.06029544108,-3.77342333959,-0.232695400389,-4.97115735723,-8.33380212363,-11.1184269059,-9.14600567203,-0.141064874584,-8.77098297275,-3.32477516576,-10.8549748947,-7.94254345348,12.1050693721
off_to_on,-2.91338130085,-4.27434276188,-2.64765705444,-0.49589668186,-3.21073131903,-3.64279996593,-5.46521231933,-6.25036030321,0.271148668116,-5.02219062723,-1.7030165792,-7.28395789244,-5.25866758398,22.1913317537
off_to_on,-0.0690983689194,-0.618175283844,-1.13283864396,-0.522860231607,-0.830437894343,1.78039324085,0.753022924229,-2.50955218,0.646777708168,-0.498371372338,0.237709017028,-2.46163566814,-1.46391881558,23.7122675196
off_to_on,2.52567536196,2.98891069806,0.349703535692,-0.28183593131,1.5709168172,6.49406287,6.07521423047,1.22966099712,0.912198189505,3.72051476613,2.05317756399,2.50565986928,2.55503457161,17.1553227353
off_to_on,4.22176958417,5.68728105412,1.4574167174,0.156941698363,3.41768900558,9.29044106037,9.43273494852,4.26929895965,1.01486161157,6.73632691105,3.34828126155,6.58045903563,5.87735396418,5.90546141087
off_to_on,4.6661370358,6.8988017515,2.01036079344,0.641840606089,4.31195702208,9.53574271723,10.3537135992,6.17373041866,0.935040546075,8.02424026824,3.86736637629,9.01091672657,7.77265841881,-5.0943560146
off_to_on,3.88836289006,6.45929214451,2.01540071977,0.990340735452,4.13275857318,7.33370371615,8.98969481532,6.79570032017,0.689785267808,7.50968072565,3.54523128077,9.45995193044,7.87330390173,-11.2472250264
off_to_on,2.26650975909,4.62896864166,1.62982239195,1.05289505274,3.05150057405,3.46513439463,5.98459341732,6.2329931915,0.328296140516,5.52650806804,2.50888525881,8.02975134949,6.25060705622,-10.0678067518
off_to_on,0.386429710265,1.9860773557,1.08299980246,0.768281441005,1.46128439518,-0.872874561032,2.24502716051,4.7491306161,-0.0797613878101,2.68384139764,1.03351457273,5.19071814583,3.37775257409,-2.1545006495
off_to_on,-1.15691077742,-0.756839705244,0.586701492048,0.190766534615,-0.155172694439,-4.44167561639,-1.31281050441,2.69128758753,-0.459711996204,-0.31160494708,-0.532616242605,1.6433784533,-0.007084621308,8.99911233073
off_to_on,-1.94956105819,-2.95455553535,0.265481794256,-0.521456452671,-1.37552218394,-6.32947730685,-3.97236972322,0.426506889075,-0.747098973231,-2.82710482774,-1.85323427295,-1.84873769432,-3.097530965,18.2986949124
off_to_on,-1.87811426182,-4.18884878853,0.12879408621,-1.15398498166,-1.95769224599,-6.19908751201,-5.33963946138,-1.6991586783,-0.89915536972,-4.42936141146,-2.6777458226,-4.61764679707,-5.22133643262,20.9901342068
off_to_on,-1.14183427526,-4.34472417801,0.0900293280054,-1.50491723611,-1.89303740194,-4.34348206022,-5.36858837059,-3.38672008125,-0.900377132693,-4.94294265275,-2.88740045583,-6.21121646956,-5.99492979749,14.5467026969
off_to_on,-0.157804636766,-3.59122850586,0.0207025369541,-1.45174603725,-1.37927148191,-1.54239967305,-4.30498899731,-4.40764714493,-0.761853891671,-4.44161921221,-2.50641788157,-6.45746575594,-5.39270775304,-0.189328018434
off_to_on,0.604183240698,-2.28545130502,-0.183601103202,-0.993718739668,-0.726950190826,1.22242999352,-2.58016922384,-4.63143710489,-0.51562780009,-3.18866382063,-1.6799012383,-5.46777021783,-3.71893256587,-19.0471375062
off_to_on,0.797362939163,-0.839717568055,-0.551441129156,-0.254900896214,-0.235210095166,3.09317183491,-0.689067301925,-4.05378957695,-0.20632580639,-1.55023618225,-0.627911727432,-3.58506318404,-1.49736044809,-35.7750206871
off_to_on,0.322815055967,0.401891845888,-1.01694925006,0.553638817929,-0.0816761701088,3.59515879867,0.919953191789,-2.81257606384,0.117544542602,0.0942082499799,0.410772146694,-1.29171766557,0.685017404162,-44.0974081704
off_to_on,-0.638777023419,1.24122010361,-1.44024859168,1.20022285506,-0.264900318149,2.75050484132,1.92714871541,-1.17632252601,0.410822167005,1.42652014442,1.23138483407,0.902571605255,2.33414201101,-39.8957743742
off_to_on,-1.69711531696,1.64195684497,-1.65805537567,1.50548183864,-0.617866879542,1.02041980583,2.18887167136,0.503501996038,0.636593554206,2.2396475338,1.70148209355,2.57008386641,3.16297577846,-22.774016696
off_to_on,-2.39706355956,1.69097436101,-1.54501460346,1.39753157043,-0.885115572245,-0.890682934687,1.75001845849,1.8716148323,0.768861041578,2.45994609306,1.77874484531,3.44965563257,3.13695574938,3.5348615066
off_to_on,-2.38590591124,1.52963874581,-1.06319791789,0.931284879743,-0.833140567081,-2.29250089019,0.823226500974,2.65996913024,0.7936585916,2.14387492498,1.50746618218,3.48937067575,2.44580211557,32.0863431608
off_to_on,-1.54426309014,1.28583744446,-0.282273281269,0.266117173525,-0.352040723793,-2.73625678635,-0.262451097627,2.76203988521,0.709385107267,1.45301757668,0.997404201664,2.83860380189,1.41767595312,54.7013071918
off_to_on,-0.0358856233185,1.03158420089,0.636132973267,-0.389668927168,0.489988705607,-2.1387076659,-1.13818848415,2.26294020086,0.526792695923,0.612299828431,0.391672304132,1.79183588892,0.406191562368,64.3964585437
off_to_on,1.73936419422,0.776802525015,1.48367924611,-0.848003071712,1.46021048154,-0.771059351161,-1.48684973266,1.41052293885,0.268548960322,-0.142489731105,-0.16840925192,0.698433503201,-0.31473101081,57.5199887267
off_to_on,3.27150332992,0.49369189016,2.06419875177,-1.00007888557,2.23878126272,0.869453861383,-1.13186826872,0.53258646476,-0.0321243203892,-0.619632411467,-0.57392757153,-0.138042247201,-0.619059272655,34.9401093485
off_to_on,4.10138878495,0.154466775258,2.24670686538,-0.845660588451,2.53239404975,2.24857291873,-0.100954602769,-0.0745884604307,-0.334330153426,-0.71824762093,-0.768516479538,-0.543517453962,-0.544317195981,1.9300903346
off_to_on,3.96260548179,-0.237696646083,1.99642898907,-0.483960726954,2.18298600417,2.97249367425,1.35752439855,-0.248760931916,-0.594194922841,-0.455301643176,-0.754611188359,-0.516108526303,-0.255776428008,-33.2106436521
off_to_on,2.85906273417,-0.638734004764,1.37642675725,-0.0710532508154,1.23181413305,2.8937098444,2.8191873327,-0.0184122001102,-0.77110808912,0.0366011371968,-0.585430279159,-0.21473213168,0.0250886005381,-61.3899360834
off_to_on,1.05675587956,-0.977587150019,0.522783392013,0.23966751823,-0.0849729218126,2.11785193931,3.78715702145,0.40888236732,-0.834576082504,0.5440917541,-0.34535165912,0.103805918365,0.103295324285,-75.1677199814
off_to_on,-1.00235457241,-1.18520119045,-0.395481147752,0.352107276076,-1.40865982658,0.923757487256,3.83320451029,0.725295847721,-0.770299189489,0.835036185074,-0.123904544732,0.180609526269,-0.121502021963,-70.7325668173
off_to_on,-2.83165355448,-1.22333427166,-1.21731810686,0.257888842849,-2.37329869972,-0.360089838986,2.73930086097,0.643259818068,-0.583989290163,0.732715837372,0.00990662340462,-0.146572188876,-0.620942159671,-48.8880848045
off_to_on,-4.03193797491,-1.09886084233,-1.81926676933,0.032711581506,-2.72384570218,-1.46861716059,0.595983449018,0.0157029929541,-0.301790342057,0.180844491012,0.0262575407516,-0.874121939939,-1.2463916276,-14.8197543789
off_to_on,-4.3841313154,-0.856930971345,-2.12808518654,-0.198502513283,-2.39603068246,-2.26023518275,-2.17892653132,-1.08793404437,0.0331388165532,-0.722314291809,-0.0588299579103,-1.81746308245,-1.77572541236,23.2527481621
off_to_on,-3.8800206362,-0.556972311317,-2.11822115362,-0.31354066732,-1.53072701806,-2.70936798968,-4.91754230184,-2.38021119786,0.367458715824,-1.73558510943,-0.190634069287,-2.65838624122,-1.98367125569,56.15083429
off_to_on,-2.69158715359,-0.244095756048,-1.80139844282,-0.24196067571,-0.419044845256,-2.84846569462,-6.86330203025,-3.43405911253,0.646688592725,-2.534229293,-0.294677981969,-3.04305496864,-1.71489993451,75.9928655357
off_to_on,-1.0994979522,0.0690220343943,-1.21689057,0.00701384114999,0.601085294718,-2.69823356569,-7.37732856433,-3.81854445818,0.824721060254,-2.80367892994,-0.301989534059,-2.7016082377,-0.938831105578,78.0731305015
off_to_on,0.588825107721,0.399530628015,-0.428014981718,0.347725354354,1.2593015884,-2.2276870691,-6.13280658874,-3.2486279577,0.871958388791,-2.34163597529,-0.173159910732,-1.5514795453,0.229553190292,61.9314883669
off_to_on,2.10392329455,0.770941993346,0.475282266159,0.650604538996,1.43760462885,-1.36889378286,-3.23893880724,-1.69884979275,0.780500576916,-1.1370233305,0.086179787022,0.25036709615,1.54933022347,31.396379276
off_to_on,3.24695146845,1.17957885772,1.3733280057,0.791307526007,1.19661040657,-0.0824935616743,0.74751218244,0.558968543448,0.565424262745,0.60144149969,0.423454896397,2.32657894365,2.70936147187,-6.36997844066
off_to_on,3.89184091122,1.56832256442,2.12117920476,0.697891189168,0.736172373914,1.55788699045,4.93475673107,3.01017615908,0.261977452884,2.48077599245,0.751800727118,4.16855348349,3.40619293885,-42.5746472838
off_to_on,3.97135397825,1.82398833198,2.56679323882,0.378551976131,0.307274335427,3.30868363899,8.30869194564,5.03060396446,-0.0806943913993,4.01809776035,0.973841033207,5.27211721281,3.42414113689,-68.8425969172
off_to_on,3.46538143471,1.80573697388,2.58324665969,-0.080006428557,0.109454483838,4.76696697512,9.99176253089,6.06000705453,-0.40803959938,4.76990028591,1.00972529007,5.28090743097,2.6965612127,-79.146211394
off_to_on,2.40393194654,1.39843331012,2.10791281216,-0.542475688024,0.212516472661,5.46288473918,9.47847115535,5.7638138321,-0.66919493362,4.46004800564,0.821216210133,4.09501318184,1.33165640231,-71.1855887906
off_to_on,0.884874285401,0.572304814881,1.17570435275,-0.871657739249,0.531477347398,5.01291495304,6.78221911185,4.13469054215,-0.825039948699,3.06867610407,0.424803402303,1.91193132073,-0.405048065414,-46.9109496136
off_to_on,-0.906138321109,-0.575812785831,-0.0678606725403,-0.97468351804,0.863411444378,3.2821824732,2.45108660969,1.50382012813,-0.853863336451,0.85415639938,-0.109868154078,-0.813386821314,-2.14839488882,-12.0642117318
off_to_on,-2.69264850181,-1.82069299693,-1.38366010053,-0.83214163867,0.971673998256,0.491514636989,-2.55462261247,-1.54095677264,-0.753841792269,-1.70089233632,-0.675622703102,-3.47886000223,-3.51774959466,25.1665389309
off_to_on,-4.13708350231,-2.85461462639,-2.48685619192,-0.500359819394,0.685467294248,-2.78267966639,-7.09278471257,-4.30567983212,-0.542204352432,-4.00656681765,-1.1528353938,-5.48506006782,-4.20673169955,56.080389115
off_to_on,-4.90653178544,-3.37150981477,-3.11566604574,-0.0873138247609,-0.0228236460861,-5.7329874899,-10.1183907014,-6.16606517487,-0.251593330426,-5.51418840204,-1.43701766252,-6.38279780378,-4.0558422351,73.5366386566
off_to_on,-4.7612778486,-3.16411411223,-3.1023591072,0.287669184702,-1.01181225275,-7.54224928313,-10.938825388,-6.71986222897,0.0754146530575,-5.85571681917,-1.46182503981,-5.97878496397,-3.08958337274,73.667624696
off_to_on,-3.63890782226,-2.20122490437,-2.4247937995,0.534726310237,-2.00723256572,-7.63492076852,-9.38012596568,-5.87623367391,0.392499389268,-4.93619719168,-1.21233920337,-4.37317270149,-1.50898443366,56.7997730612
off_to_on,-1.70227037322,-0.656265391415,-1.22099823552,0.619719982526,-2.68802705103,-5.87472023049,-5.82297879301,-3.86247411015,0.655510933235,-2.95512239414,-0.726621492255,-1.92319112025,0.357719393941,27.3350276815
off_to_on,0.672569113387,1.12661208457,0.240212528868,0.567193611597,-2.79265688068,-2.63699947154,-1.10167961905,-1.15223300815,0.827479733428,-0.352943739239,-0.0867239291678,0.852206107995,2.13252378803,-7.39383774916
off_to_on,2.9738498734,2.72169305573,1.62607109383,0.440706249495,-2.20903661511,1.27674791219,3.70539821318,1.66003971536,0.882520335652,2.30037603822,0.597452205143,3.39716848577,3.47253032496,-39.0070408011
off_to_on,4.67991376602,3.73956712485,2.62559206658,0.310043028636,-1.0177022883,4.8620455541,7.53844255257,4.00202226916,0.808728925706,4.44303761149,1.20735271632,5.2390912137,4.14068930555,-60.2055638495
off_to_on,5.39755209947,3.93649631073,3.02926765901,0.219571266778,0.525551218254,7.20405490866,9.60489297889,5.44692588246,0.610222088252,5.64861602963,1.63456508606,6.07567257654,4.04614030656,-66.5708745904
off_to_on,4.97011715932,3.2803333004,2.7793847458,0.170964001273,2.06058257223,7.74571491038,9.5530626533,5.789928626,0.308234104704,5.71181710831,1.79707537087,5.81362605017,3.24755179599,-57.5506966796
off_to_on,3.5203611579,1.95256525862,1.97681385566,0.127165001116,3.22303533528,6.44389161977,7.53088610535,5.06561881555,-0.0591980484994,4.67562399731,1.65201737993,4.55920922934,1.92368992474,-36.3765673455
off_to_on,1.41338324699,0.287708787187,0.843868984289,0.0354196140389,3.74132016501,3.76306864537,4.12061136982,3.51072685044,-0.439749348632,2.79983111133,1.20436417992,2.57317020725,0.32390802216,-8.97066039
off_to_on,-0.848820303159,-1.32779571623,-0.34349282712,-0.140912677369,3.50157577824,0.51105585672,0.171995680104,1.48904505292,-0.772297660146,0.486036190098,0.510622490258,0.208602766538,-1.28526986674,17.8042001414
off_to_on,-2.76720293488,-2.56244074601,-1.33188507747,-0.395956889399,2.564663327,-2.42532552508,-3.41873773677,-0.598360552412,-0.995662628156,-1.81703767433,-0.324116712935,-2.15120895494,-2.66356843737,38.0112885032
off_to_on,-3.97518337198,-3.21768797098,-1.95154333952,-0.672636108209,1.1362117584,-4.35365083304,-5.92535609203,-2.39521432907,-1.05988666083,-3.70323689723,-1.1576416214,-4.14454020935,-3.62316240116,48.0695749433
off_to_on,-4.31806647044,-3.2551894334,-2.14521674273,-0.877006867517,-0.494725267149,-4.96673400356,-6.94878124913,-3.64798414917,-0.938152347532,-4.87525443859,-1.83151363977,-5.4702878948,-4.0385882037,47.3562383847
off_to_on,-3.86138998222,-2.7711042205,-1.95985885173,-0.911535857519,-2.02571130652,-4.39084188222,-6.47853026123,-4.23213427662,-0.636438198547,-5.17913186357,-2.1999975431,-5.91780939637,-3.84750029114,37.8787826355
off_to_on,-2.8328035023,-1.93485930506,-1.50903408158,-0.715154327186,-3.19897114843,-3.08348473744,-4.84924441582,-4.14788107222,-0.19770214358,-4.60862228234,-2.16250130817,-5.39202126388,-3.05113249791,23.2240047661
off_to_on,-1.52493215129,-0.921187090218,-0.92326961308,-0.294386364998,-3.83584005228,-1.62678031714,-2.61184486822,-3.4933215639,0.301917774441,-3.28768558616,-1.69218861598,-3.93461609446,-1.71995921058,7.21729918703
off_to_on,-0.198333848957,0.136447340775,-0.308036045142,0.2676313627,-3.8475628708,-0.498119039687,-0.361217026597,-2.4262390859,0.765656552188,-1.44115553215,-0.852275740833,-1.73636363125,-0.00321530026075,-7.21121739412
off_to_on,0.980005738228,1.15517375525,0.275999476082,0.829647175082,-3.23115127578,0.0952952667456,1.42778104991,-1.12597889524,1.09577690288,0.638884552761,0.206994878439,0.86911423008,1.86609167577,-18.5774726687
off_to_on,1.94439674516,2.07741161996,0.80617309224,1.2335442234,-2.06145578993,0.258820242466,2.50943301787,0.235851571751,1.21624813552,2.62802915309,1.2734797015,3.43977475605,3.58261537664,-26.6905109041
off_to_on,2.68984709396,2.83034412444,1.27176445981,1.35482718112,-0.486339448639,0.319413198353,2.89359726524,1.51144140531,1.09276356727,4.20659894151,2.11708134005,5.49170430183,4.80613625074,-31.9674949995
off_to_on,3.20923934655,3.29744646473,1.6441638742,1.14484777316,1.27634322491,0.643038531745,2.78830895194,2.58003279755,0.744300189476,5.10055646746,2.54315396923,6.59135520754,5.22624588282,-34.6030050783
off_to_on,3.44356395692,3.32459784663,1.86033309627,0.649645914821,2.9486630983,1.43750000785,2.48387976752,3.34300543514,0.242089709592,5.12549308477,2.44195187751,6.45566145636,4.64354125661,-34.0305879832
off_to_on,3.27434341846,2.7674846771,1.83087972176,-0.00176512943313,4.22033713896,2.62318905711,2.22189696182,3.71789033147,-0.304971109595,4.22805938831,1.82031753556,5.034373496,3.04570650032,-28.9795285909
off_to_on,2.56814109538,1.56640205664,1.47313797856,-0.636182169999,4.80010277802,3.82773075185,2.09634955143,3.63840834052,-0.775612424083,2.5145468769,0.805619345847,2.54844232711,0.651748967236,-18.1583658911
off_to_on,1.25832877501,-0.182132542342,0.75778622328,-1.08909856351,4.48566694049,4.51205967377,2.02220074704,3.06491876944,-1.06597005138,0.254535887109,-0.380872731222,-0.533391288105,-2.09838376122,-1.29561798166
off_to_on,-0.57078489609,-2.19268980175,-0.25048835713,-1.25388433243,3.23483387886,4.18337393888,1.78265584705,2.00478662791,-1.11586542349,-2.14959579394,-1.47547226294,-3.58209714067,-4.61831950319,19.9384591511
off_to_on,-2.63907380522,-4.02309374717,-1.37843586669,-1.11097359482,1.21252341843,2.61446437398,1.13789263408,0.536504391511,-0.924120041882,-4.22889834497,-2.23546733008,-5.94384949478,-6.30414045168,41.6243844773
off_to_on,-4.49612070391,-5.17506374401,-2.36842188817,-0.728041039203,-1.21040155314,-0.017065778239,-0.045285469873,-1.17308100222,-0.548260142835,-5.54093831349,-2.49777432458,-7.09196335737,-6.68852106976,58.2034870214
off_to_on,-5.6235285339,-5.23987028753,-2.94046006646,-0.232439106277,-3.51890938414,-3.129470198,-1.693238022,-2.87034557192,-0.0883586251666,-5.77083816284,-2.217317885,-6.75642582843,-5.57840003486,63.9647100997
off_to_on,-5.58996014527,-4.04397582958,-2.87641356712,0.233307404998,-5.16936006488,-5.88726492986,-3.49730934978,-4.24389439697,0.340572701053,-4.81533734282,-1.47522165632,-4.99588421173,-3.13375506304,54.9956943678
off_to_on,-4.21023459879,-1.74260042197,-2.10002587978,0.556819636757,-5.73169320408,-7.45622611879,-4.97665797793,-4.98189551122,0.639746137148,-2.82560477557,-0.455320520486,-2.19108130313,0.142110630814,30.9312935567
off_to_on,-1.6510393174,1.17918109719,-0.724252440135,0.686525779421,-5.01735923859,-7.27797137124,-5.61899942721,-4.84833119657,0.752273447832,-0.192579809622,0.603838778916,1.04063617806,3.50679685693,-4.19297897123
off_to_on,1.56239443457,4.01043219382,0.954826129397,0.638385180818,-3.15108075563,-5.26914284129,-5.05646549846,-3.75916041783,0.675934068284,2.52756774234,1.46803925458,3.98897955204,6.15594601951,-42.4395049953
off_to_on,4.65460392816,6.00098336172,2.52236344832,0.478619673401,-0.558098781848,-1.8740542627,-3.21712529282,-1.83428369874,0.459564986665,4.73427219602,1.96181474308,6.0163514934,7.42850025855,-73.8432325454
off_to_on,6.80092547211,6.57795734087,3.55322416076,0.291111276019,2.13664758736,2.0510065138,-0.395879464108,0.596508227859,0.184655979647,5.92246692188,2.00489809527,6.70389037562,6.98415208785,-89.1993337384
off_to_on,7.3652708403,5.52508277987,3.73457480593,0.143105494959,4.27272923055,5.48632301795,2.78832807234,3.04501235183,-0.0617128998769,5.80713115566,1.62314382797,5.9423597572,4.90215046889,-82.9325408608
off_to_on,6.1016359047,3.06528586598,2.96548163857,0.0624068563374,5.33510198148,7.54964654179,5.54553341353,4.96853917352,-0.213875159481,4.3998419843,0.933664961572,3.94754930693,1.67110833919,-55.1097385508
off_to_on,3.25282786114,-0.184819302736,1.40096115308,0.0337982902039,5.09712189983,7.75195155004,7.13666728806,5.90364584632,-0.246041987799,2.01539447561,0.11045848372,1.19963963656,-1.93036657779,-11.8681062215
off_to_on,-0.491060927283,-3.37995919132,-0.576715624357,0.0142882675755,3.6810629373,6.12710777018,7.09681278534,5.59405684311,-0.176714215421,-0.796304159482,-0.659182157463,-1.67533637428,-5.03141957585,35.9939373356
off_to_on,-4.16910470628,-5.68351391143,-2.4549804619,-0.0407345977026,1.51648999368,3.19818719083,5.38750251844,4.07405679598,-0.0582431389267,-3.37867556021,-1.21640552159,-4.0510923804,-6.89180123496,75.9265863456
off_to_on,-6.81277834085,-6.50562221798,-3.73041533031,-0.152353389089,-0.791028449288,-0.20194704082,2.42526305882,1.67786744046,0.0443701449442,-5.12671290013,-1.46177050914,-5.43887407313,-7.08934769815,97.1967592351
off_to_on,-7.71910462458,-5.66917519054,-4.05085010107,-0.304910768457,-2.6397960452,-3.19127383366,-1.02808274341,-1.03450684935,0.0779073478312,-5.63579004372,-1.37040527431,-5.58723815912,-5.62180117812,94.0251047459
off_to_on,-6.65190087107,-3.45304113538,-3.31810995956,-0.450261686928,-3.60404034474,-5.0930435218,-4.08300983165,-3.41928846741,0.0202052775603,-4.80305991931,-0.99050967444,-4.5247452007,-2.89709654608,67.3076242682
off_to_on,-3.91011188042,-0.500559813333,-1.72014708357,-0.527504358596,-3.54492694342,-5.60436341273,-5.98112838563,-4.92065586348,-0.11215905886,-2.8546275789,-0.427707148607,-2.54048475847,0.382510299912,24.3687094484
off_to_on,-0.242305845886,2.37629951081,0.318169300712,-0.489667642965,-2.62801969224,-4.83347941283,-6.31353947454,-5.22214204723,-0.270111744869,-0.29010133345,0.180265740724,-0.110653567452,3.40825159161,-23.1886723478
off_to_on,3.36695227892,4.43469091834,2.25221653201,-0.325919641525,-1.24580602657,-3.20745351253,-5.12895859666,-4.33116649214,-0.389806927367,2.24279768265,0.693326102421,2.21061514231,5.47214767468,-62.86749872
off_to_on,5.9747394337,5.20681693817,3.56906858331,-0.0697117232966,0.12515073295,-1.29481446307,-2.8975082765,-2.56908740372,-0.415532546088,4.11254609161,0.998127946493,3.91257128807,6.1384847907,-84.8425647284
off_to_on,6.93913671938,4.61297628301,3.92936514432,0.210914949219,1.08259843021,0.388344460939,-0.343731756129,-0.468160226705,-0.31986556179,4.86525352267,1.03170175593,4.63691880358,5.33666507714,-84.6140025043
off_to_on,6.08537783051,2.95254423768,3.2587228994,0.437257506268,1.41975268831,1.52239323172,1.79411021184,1.39330944268,-0.114244994915,4.34124099329,0.795428213605,4.2533721821,3.35606586467,-63.9696989182
off_to_on,3.73380092661,0.783593137387,1.76301032439,0.548597119561,1.17141476389,2.03702958101,2.99708504279,2.56558786407,0.153478624167,2.7155668162,0.356047411676,2.88666009572,0.750650298746,-30.0381118252
off_to_on,0.587191992677,-1.26367875823,-0.135523296757,0.524019049732,0.574454932094,2.06890671211,3.11313418911,2.85577534916,0.413492407531,0.450613583287,-0.167875406287,0.888528980899,-1.81591182853,7.17309359813
off_to_on,-2.48331407255,-2.67666017633,-1.92110078894,0.388571304976,-0.0382292906443,1.85464475787,2.37169438383,2.36822082858,0.595454756331,-1.828091466,-0.632861134465,-1.24148387038,-3.74085532568,37.8957033967
off_to_on,-4.68676136389,-3.19390924871,-3.12941050595,0.201288499843,-0.369325380867,1.60949380397,1.26484388218,1.44470355368,0.649733370649,-3.50081595285,-0.906152179476,-2.97200785093,-4.62450354811,55.3602048135
off_to_on,-5.52205071695,-2.84628030429,-3.47258043646,0.0300464973887,-0.266634235608,1.44060646288,0.341369992216,0.52603080579,0.561601193343,-4.12237806599,-0.902094820914,-3.86857748164,-4.35091828062,57.3625463364
off_to_on,-4.89151619792,-1.90250944519,-2.90929023618,-0.0763135257315,0.226957126306,1.32408497506,-0.00945138971474,-0.015983532268,0.354168646731,-3.54458320723,-0.609426985353,-3.70545198528,-3.09231568522,46.2549699031
off_to_on,-3.09321437811,-0.747803547788,-1.64252384728,-0.10692379576,0.897723494456,1.14601696384,0.295328427236,-0.0163542606565,0.0797530348953,-1.95762938063,-0.100411158588,-2.53122952123,-1.24276997874,27.5269278444
off_to_on,-0.704011845573,0.256648722201,-0.0492700200167,-0.0908173833746,1.44734589436,0.781712511216,1.00877455809,0.425268053644,-0.196797911764,0.162742355023,0.483336434182,-0.667064434927,0.696515959506,7.59741698086
off_to_on,1.60366014042,0.883954680011,1.4339764738,-0.0808053898166,1.60759891205,0.174295089574,1.66210309729,0.988758427236,-0.416909080122,2.1895255338,0.967056109783,1.36837589551,2.24847256953,-8.35112415369
off_to_on,3.25304112193,1.08803154964,2.43453441648,-0.125923537605,1.24142509224,-0.622217286692,1.76370278831,1.26508013685,-0.543053828607,3.52384041693,1.19266493854,2.99348225345,3.07497824871,-17.763238492
off_to_on,3.90715926475,0.978805486906,2.73986306231,-0.244207746932,0.39506337351,-1.45219264479,1.01394281108,0.928304334394,-0.565238420273,3.76904064154,1.06824092027,3.72536549867,3.04891869261,-20.9390647016
off_to_on,3.53001600095,0.744801002122,2.34129167505,-0.4079766948,-0.715275006177,-2.1133045483,-0.546850200567,-0.115374369252,-0.49815209002,2.8489990332,0.601583253115,3.32440216253,2.26922454477,-20.1742802326
off_to_on,2.35701433944,0.558923611993,1.41673166767,-0.549147151628,-1.77503415196,-2.43138342192,-2.51689561143,-1.65924242472,-0.371267469283,1.03461524026,-0.0943488877718,1.87756868468,1.01888184586,-18.2810635466
off_to_on,0.794158399177,0.505707283754,0.262508260939,-0.584082590509,-2.47423230241,-2.32270080236,-4.25202322835,-3.23895134217,-0.21641115225,-1.13165206606,-0.828407885753,-0.209694686898,-0.320774066654,-17.1511235079
off_to_on,-0.715962759556,0.556351111593,-0.801335034704,-0.449201178868,-2.60538959354,-1.8186531283,-5.08736825985,-4.27811867597,-0.0577263033964,-2.99356349346,-1.38472005776,-2.31828897119,-1.37644643112,-16.9481980073
off_to_on,-1.81842328072,0.596981927414,-1.52207805037,-0.133391278078,-2.12413426443,-1.04549381634,-4.58416644,-4.29016585647,0.0925141632388,-3.97629832681,-1.58751791763,-3.79253514874,-1.88260685721,-16.2206719598
off_to_on,-2.32599157608,0.494170248001,-1.77530789836,0.30655825199,-1.15506751928,-0.171499272435,-2.71170124995,-3.06692458628,0.231457326269,-3.76144526469,-1.35731983954,-4.14017051151,-1.74917925522,-12.8294329831
off_to_on,-2.23836018817,0.167887139449,-1.58098606493,0.75559995837,0.0547082271193,0.652911781822,0.105527557183,-0.785311177026,0.35860099209,-2.38837517983,-0.73990455009,-3.19435215994,-1.07972501989,-5.24907656378
off_to_on,-1.70459692804,-0.359392590737,-1.07490740358,1.07395147667,1.21465091376,1.33550394954,3.09926582833,2.01139597038,0.467979562641,-0.249266389614,0.102645485096,-1.18386620554,-0.135123107178,6.34807636217
off_to_on,-0.94950541263,-0.957971010678,-0.449635598668,1.14392020912,2.0737819765,1.84736601806,5.39526001004,4.55937771888,0.543702337346,2.02344221393,0.937639361275,1.3169958905,0.747921576594,19.7222071384
off_to_on,-0.192623099673,-1.43281782775,0.112866784871,0.91358805576,2.48095293378,2.19495953705,6.29865501787,6.10468212813,0.561485879127,3.74536758917,1.53087134793,3.55074851282,1.26141436063,31.1129662778
off_to_on,0.413455560182,-1.59576326308,0.494380674693,0.421004640358,2.4067951621,2.37743647405,5.52885568231,6.14447327389,0.496278419103,4.38815404741,1.71756954335,4.80621011454,1.22385061142,36.5283446275
off_to_on,0.809002508089,-1.33996900818,0.663838971092,-0.211200176226,1.92703732992,2.35492163282,3.32060936136,4.59850502372,0.333433623083,3.74335550826,1.45240642764,4.64545422027,0.641615204279,33.2895656389
off_to_on,1.01514885361,-0.687924277817,0.667033421877,-0.810561838155,1.18023664213,2.04838088153,0.352971080498,1.8508959079,0.0791674946434,1.99056707805,0.822185233656,3.05503987417,-0.286716966979,21.223614924
off_to_on,1.09499318309,0.205655606232,0.590566315046,-1.20802494629,0.319639870931,1.3762923879,-2.47263765302,-1.35580780949,-0.23411161138,-0.353181112848,0.0169225906427,0.468835059532,-1.22790372034,3.00999504063
off_to_on,1.10689311184,1.09782944993,0.516261185369,-1.29181394672,-0.522900982092,0.314388993113,-4.33074740661,-4.14307950798,-0.550497972676,-2.58904112525,-0.731172786572,-2.35115183836,-1.81913287692,-16.5018541388
off_to_on,1.06970297944,1.73308169024,0.484281897909,-1.04336096356,-1.25158222705,-1.04916124871,-4.74400327228,-5.76445225541,-0.801564650975,-4.04994719445,-1.22060400081,-4.54378014003,-1.79015309243,-31.8006696204
off_to_on,0.953473691512,1.92434977168,0.478656485154,-0.542725128547,-1.80156220736,-2.49294212934,-3.73438355996,-5.8318900507,-0.923029835583,-4.30603055971,-1.34125348368,-5.41805467334,-1.06384174196,-38.5255684206
off_to_on,0.698501257847,1.61188402424,0.439664049618,0.0584504133264,-2.12451914767,-3.69429914962,-1.80009159385,-4.426296459,-0.872455570597,-3.2972218466,-1.10305316455,-4.6769740017,0.199661716893,-34.9341332725
off_to_on,0.254388116495,0.880879320174,0.29705835327,0.58700547483,-2.1780418415,-4.31179053252,0.274303860992,-2.05639024857,-0.642733929178,-1.35064108932,-0.624045464482,-2.52182373397,1.63459559467,-22.4917177659
off_to_on,-0.3772424463,-0.0664854772819,0.0101304347098,0.903892455321,-1.92818631821,-4.0937256671,1.70770324839,0.518951079991,-0.267190514147,0.923431046146,-0.0832768815374,0.400609058068,2.77294796193,-5.36039849124
off_to_on,-1.11491449885,-0.973606182271,-0.402053351168,0.946180930292,-1.36616190296,-2.9746030586,2.0091334884,2.54385226093,0.185502265741,2.8244895403,0.344023467761,3.19507317166,3.191357491,11.0367716172
off_to_on,-1.79846463282,-1.60500751965,-0.853373480138,0.741429390998,-0.531258193007,-1.12187891444,1.15785410159,3.50796472496,0.625535013438,3.78241933936,0.545800807159,4.99860003279,2.65645996973,21.865914913
off_to_on,-2.22363943105,-1.81074351858,-1.21104335949,0.390563272069,0.473067893447,1.08882433793,-0.389802055784,3.29669939502,0.961735580596,3.53533781657,0.506442830079,5.25542083735,1.22036171919,24.4878540777
off_to_on,-2.20264934316,-1.56118430267,-1.33802959763,0.0267481441522,1.48207597449,3.16677593326,-1.87238220866,2.20015360608,1.12195485483,2.20775526636,0.303194900178,3.89650026617,-0.769398264993,19.2514509066
off_to_on,-1.63289064769,-0.944897464156,-1.14331188207,-0.233881735208,2.29684717747,4.63909571224,-2.51516372318,0.781244421888,1.06913446245,0.264265010091,0.0685138650526,1.36384661987,-2.7554284012,9.20454917297
off_to_on,-0.550844031752,-0.134562534857,-0.622065548793,-0.331422352195,2.73084643858,5.18015143399,-1.83817417733,-0.347264818202,0.809433489959,-1.64568246597,-0.0665310465493,-1.5300980905,-4.1307682153,-1.15411572018
off_to_on,0.849823237026,0.665144929191,0.129612739862,-0.277530024599,2.66223047409,4.6949031957,0.132231169463,-0.75554846267,0.390891247493,-2.90099177085,-0.026084080212,-3.86352985647,-4.42695319443,-7.61292843552
off_to_on,2.24770218039,1.27060719904,0.932754711936,-0.142508281135,2.07415144944,3.33052528162,2.82981865471,-0.355121554116,-0.106648593044,-3.11044252344,0.179731460243,-4.90227930565,-3.47075955607,-7.83363334854
off_to_on,3.26826087797,1.55900700086,1.57273434696,-0.0205738658608,1.06806395899,1.41677016798,5.31361483187,0.574387376126,-0.58780846265,-2.23693793873,0.458503015616,-4.33580438195,-1.45721929589,-2.20578907266
off_to_on,3.58630727805,1.48730988106,1.86192215599,0.0121965916962,-0.156263580673,-0.639287264559,6.58232206712,1.49993572032,-0.960560736481,-0.604519408383,0.672058658741,-2.37496493253,1.0891094055,6.3392138039
off_to_on,3.0279019065,1.09063069081,1.69823245025,-0.0696162102377,-1.34897040987,-2.46413572872,5.93374610864,1.84985819136,-1.15396279664,1.21316408976,0.691919395101,0.320203612895,3.45778142031,13.4823226343
off_to_on,1.64010916425,0.465626141983,1.10055489739,-0.230482034621,-2.27182139072,-3.79624072834,3.2448941464,1.25045794659,-1.13150936331,2.58536737098,0.45269459106,2.85847053377,4.96001962046,15.2148258747
off_to_on,-0.29654835807,-0.253540127567,0.208918454268,-0.389553249586,-2.7543882032,-4.51073401845,-0.929059853723,-0.303261911554,-0.897853314897,3.03392858482,-0.0168120614905,4.40901237542,5.13711758256,9.45857757429
off_to_on,-2.32297391694,-0.920501672848,-0.751760856631,-0.455628491704,-2.72828818679,-4.59348684863,-5.48037587769,-2.40855729875,-0.497847363466,2.39126876713,-0.596797080081,4.47075844053,3.90437842144,-2.98680994131
off_to_on,-3.91399882072,-1.40009740103,-1.53393400738,-0.36724371386,-2.23143858413,-4.08898300396,-9.06741718093,-4.36769450348,-0.00811023732617,0.855504296448,-1.11335599606,3.03178683944,1.58418456249,-18.5270104694
off_to_on,-4.62019362568,-1.58922104531,-1.93694410949,-0.121675605636,-1.38497538263,-3.05545030408,-10.5286758791,-5.41873953808,0.477474639034,-1.07430921141,-1.3961746192,0.568182784607,-1.18389523588,-31.8803372582
off_to_on,-4.19927590906,-1.4350281928,-1.86276696798,0.219023747538,-0.354290224703,-1.55356789567,-9.25960817056,-5.00744553408,0.865847370239,-2.760496704,-1.33659441652,-2.11493270286,-3.62935905661,-37.8441100083
off_to_on,-2.6974207023,-0.9489771192,-1.34133486462,0.547866995178,0.690745774477,0.325077333368,-5.42854082921,-3.00606540275,1.08315787327,-3.63301400326,-0.925621430061,-4.14600539311,-5.07634476103,-33.1238307033
off_to_on,-0.4531268014,-0.212948372378,-0.518495668865,0.751421335713,1.60393943126,2.40765383917,0.0420473994674,0.199944889307,1.08981422616,-3.37275279168,-0.258812474725,-4.8664794833,-5.13929568684,-17.6036426333
off_to_on,1.98203851358,0.627458778233,0.388621548299,0.752356539027,2.27420993782,4.40240416461,5.72763239992,3.79358838499,0.888880680534,-2.01377466393,0.493120279851,-4.03691533556,-3.82949375083,5.37875939802
off_to_on,3.98674473357,1.38590317843,1.15417508076,0.539706656076,2.62373471895,5.90885326937,10.110851165,6.75649281532,0.525625139964,0.0663748036247,1.13714277564,-1.90587527767,-1.54196794351,29.8619825689
off_to_on,5.03800892852,1.87366819817,1.60458761913,0.175045973409,2.60209810777,6.49388059698,12.0211774778,8.17724265622,0.0778326255495,2.26278766233,1.51560319416,0.876158072315,1.06988851182,48.9469605068
off_to_on,4.85590284473,1.94657768237,1.66000066361,-0.228114364158,2.18628380427,5.82234615112,10.969299599,7.53986280047,-0.3613186832,3.92698763055,1.54946256899,3.46537946294,3.29023069825,56.820673621
off_to_on,3.48223598223,1.54843245842,1.34555429209,-0.544224369028,1.39138505292,3.8015182544,7.27515975682,4.89902669377,-0.704032204238,4.56002071337,1.25388372165,5.08579460948,4.54547014367,50.5007814674
off_to_on,1.26950659325,0.737050324699,0.772120784723,-0.680051157385,0.288762152367,0.682109940629,1.9552510276,0.883991020762,-0.887347639947,3.95616066831,0.723552307899,5.25973370303,4.55644415968,30.7811283773
off_to_on,-1.21696721635,-0.318063603623,0.0957862586609,-0.606944391403,-0.979018980541,-2.93575151019,-3.5890596141,-3.47224238535,-0.886392547547,2.25658243631,0.0958862881353,3.93875164349,3.39640724215,2.10949513027
off_to_on,-3.35480088109,-1.36988973432,-0.528834603527,-0.369044645276,-2.19994604357,-6.21520050867,-7.97981112256,-7.02652627817,-0.718028165157,-0.098152418752,-0.492731923728,1.50113635794,1.44475350538,-28.551325674
off_to_on,-4.63212601994,-2.1535039727,-0.98620745463,-0.0645898229203,-3.12068976091,-8.29554905173,-10.2392802213,-8.85158884821,-0.434037478747,-2.497149131,-0.941807079048,-1.37437842967,-0.741209372744,-53.5408665718
off_to_on,-4.77824878836,-2.45582987203,-1.2183092755,0.192349085223,-3.50113645664,-8.54640299385,-10.0237630736,-8.49521358245,-0.105914286326,-4.32779530659,-1.20213118707,-3.91224873146,-2.59143079842,-66.4858068958
off_to_on,-3.82116612327,-2.17565744087,-1.22197762112,0.315021807014,-3.18337245546,-6.78082028236,-7.65421934586,-6.0960918154,0.194308544843,-5.13431201989,-1.27017347517,-5.45566869729,-3.67384365789,-63.9228410113
off_to_on,-2.05925844396,-1.35574232899,-1.03125379703,0.275629949737,-2.15376320151,-3.35046723188,-3.9517339465,-2.32615657427,0.411683378945,-4.72448722118,-1.16865845904,-5.63184132542,-3.78970674414,-46.1559502046
off_to_on,0.0388597926666,-0.176533488797,-0.695508627251,0.113551130349,-0.574353085605,0.920281687638,0.0530396290408,1.81661628539,0.519539954978,-3.2019605896,-0.925462748512,-4.42675885814,-2.99466033439,-17.1648088475
off_to_on,1.97138014024,1.08756032194,-0.263925226943,-0.0826917100506,1.233589258,4.95187548316,3.43297161356,5.2965581923,0.521508899103,-0.924402969938,-0.562156599826,-2.16058418195,-1.55150591871,16.3729206674
off_to_on,3.3337139503,2.13723284562,0.217873498749,-0.212483180105,2.85682904087,7.71646495272,5.59916380867,7.32057351956,0.444621631182,1.59286250642,-0.0975168639562,0.616048111549,0.160241618897,46.6760305767
off_to_on,3.90488850952,2.72320303159,0.700405285914,-0.204685468181,3.89385876597,8.53796241807,6.39265655619,7.52922515913,0.326553627003,3.79799773112,0.437097597746,3.26646672557,1.74542799175,66.678197373
off_to_on,3.67047062231,2.70643039,1.11976562059,-0.0475238539162,4.0664116921,7.28753964578,6.0238944826,6.05039721366,0.201786789739,5.21871821503,0.980661244318,5.21180375573,2.87698641947,71.6531142242
off_to_on,2.78538868284,2.08831301286,1.39413488649,0.204902926809,3.30453290985,4.40952063981,4.90455581,3.41275362579,0.0914877505545,5.55120261262,1.436197326,6.04280328193,3.34719369829,60.2939073712
off_to_on,1.49936491844,1.00508637725,1.43502745102,0.452196303676,1.77666002565,0.769017210733,3.44963888753,0.358812407244,0.000249887941115,4.71063673047,1.68411413427,5.58446374335,3.08584290995,35.0236374617
off_to_on,0.0768001356304,-0.308994951744,1.17408269268,0.586006688821,-0.147967330218,-2.62690599445,1.92970462079,-2.37627867029,-0.0798592686566,2.84166665492,1.61547477536,3.91350556005,2.15467563909,1.47687523326
off_to_on,-1.26073856834,-1.57735285552,0.597719720371,0.532613262443,-1.99617344899,-4.93991820239,0.425018411445,-4.251341081,-0.160273098424,0.292522535505,1.17559084671,1.33722459943,0.729528699587,-32.7394220072
off_to_on,-2.35540091403,-2.54034016231,-0.224436439348,0.283484075177,-3.31934907619,-5.73876741177,-1.11281739749,-5.02156692931,-0.246068590202,-2.44177796785,0.40126015296,-1.65684438704,-0.923259543752,-59.7496408019
off_to_on,-3.1014723666,-3.00473388991,-1.1326308296,-0.0979752188433,-3.81521316534,-5.08845935766,-2.73189056792,-4.74014114726,-0.329622634238,-4.80160836541,-0.565849296829,-4.47482612175,-2.47731958077,-73.2171459546
off_to_on,-3.41997466681,-2.87546832372,-1.90146350804,-0.496356169077,-3.4061121502,-3.46789271909,-4.35145031374,-3.67674087688,-0.390647471787,-6.26326226281,-1.50065764239,-6.51153823479,-3.58970816269,-69.8546367475
off_to_on,-3.24279443509,-2.16762041511,-2.29502501761,-0.783743679509,-2.25083512386,-1.55515794651,-5.70072146935,-2.19438466438,-0.402873433839,-6.44633945347,-2.14997234416,-7.26235559864,-3.96176658406,-50.2757832907
off_to_on,-2.52270801964,-1.00096512071,-2.13952822659,-0.864354329016,-0.68812931655,0.0342384054564,-6.36319891676,-0.632546844256,-0.344919992714,-5.20993064341,-2.30737995104,-6.4395115019,-3.41305337854,-18.9514662627
off_to_on,-1.27010974726,0.419116444053,-1.39086043168,-0.708025392487,0.868352099003,0.957360429003,-5.91928001766,0.766663086738,-0.211083576497,-2.71412879091,-1.88406729113,-4.06932643325,-1.95191368898,16.7703184558
off_to_on,0.39997949871,1.83145051098,-0.172144808728,-0.360474362009,2.0493174696,1.22678846868,-4.13604243171,1.87504763771,-0.0175813153252,0.576598116314,-0.950341131129,-0.539055630164,0.182945437797,48.3920530522
off_to_on,2.23798082493,2.95810383442,1.2369756837,0.0730959141948,2.62608031126,1.14281384565,-1.12761771398,2.64781346868,0.198673678174,3.96306857764,0.269786754706,3.4358325718,2.53565634753,68.3451510092
off_to_on,3.8731814642,3.55114470567,2.46334482109,0.464666198699,2.55605178425,1.11076350082,2.58644600131,3.07309712747,0.388977553937,6.65179114708,1.45386896254,6.93763037514,4.51509296851,71.898760671
off_to_on,4.88276143697,3.44318031178,3.14198596582,0.70669326594,1.96800541698,1.42400567542,6.1645054098,3.13223451864,0.506748102832,7.94188900023,2.27208020909,9.0524907016,5.53760655629,58.386663926
off_to_on,4.90623917799,2.59338365807,3.02790347784,0.746316356552,1.09801769177,2.10565900123,8.65685248078,2.7917235108,0.521795868833,7.41466868148,2.48671764334,9.11325133687,5.19799764608,31.3951763928
off_to_on,3.77289422989,1.11668489963,2.08270142186,0.598591571026,0.202354804321,2.8773980233,9.2893687497,2.02978140954,0.42999857711,5.07240951567,2.02818773421,6.91308865903,3.41809254942,-2.17308766516
off_to_on,1.59703709765,-0.717094603002,0.505449605658,0.335012512738,-0.521178808122,3.27150218968,7.7247819943,0.8821130765,0.25492763755,1.37912537818,1.02166988927,2.81990939661,0.519549076911,-33.927962397
off_to_on,-1.2006301927,-2.52301433132,-1.30722420708,0.0528754189873,-0.978084344061,2.8427953919,4.20994507682,-0.519290399215,0.0407597238299,-2.8212699272,-0.246111212796,-2.25920484794,-2.8160674831,-56.2147461044
off_to_on,-3.96713618766,-3.87875931302,-2.86491946628,-0.162039857519,-1.17757212845,1.39385920376,-0.449419344187,-1.9393981647,-0.161141770937,-6.49988841244,-1.41117506674,-7.07400957711,-5.70436858791,-64.1046223553
off_to_on,-5.97719481565,-4.42662155716,-3.72294729149,-0.265039847147,-1.19529251304,-0.882583259811,-5.08990472445,-3.07801622489,-0.307389872528,-8.70583515643,-2.14180506122,-10.3481813723,-7.29781821084,-56.5845615353
off_to_on,-6.63765908114,-3.97454511917,-3.61594780795,-0.263519193836,-1.11866098878,-3.41125646439,-8.51221613597,-3.64610380222,-0.374353921472,-8.82686573435,-2.2387372925,-11.1346292483,-7.04125911246,-36.6157772281
off_to_on,-5.67471154187,-2.56585438098,-2.54357196382,-0.206241425679,-0.99978554079,-5.40191122047,-9.82622976733,-3.45688338388,-0.362737957455,-6.771814633,-1.69411633137,-9.10500194089,-4.86352286472,-10.0749326034
off_to_on,-3.24136655553,-0.4916775883,-0.779414931343,-0.156412227764,-0.835626145183,-6.12317778908,-8.7114531448,-2.49907976818,-0.293807053856,-3.01672943787,-0.690588036696,-4.68013401182,-1.2381356208,16.0645131738
off_to_on,0.0961336766481,1.7657037883,1.20235708867,-0.160337684266,-0.582064663896,-5.18339707093,-5.51015010513,-0.962927006113,-0.199140643974,1.50598983709,0.458644894954,1.04965258467,2.91725002513,35.7260010851
off_to_on,3.49759454815,3.64981663471,2.8622961475,-0.224941094113,-0.193424666689,-2.71016159727,-1.12311465753,0.795612214182,-0.108057994128,5.65000881765,1.40889496261,6.60340310476,6.48319565734,45.27977056
off_to_on,6.07755400881,4.67807858123,3.75233798786,-0.31358004262,0.332239451484,0.647181702287,3.25911053044,2.34586787526,-0.0375314960363,8.36301859913,1.88997002026,10.5138068909,8.45601514119,44.2018567779
off_to_on,7.1562428813,4.57873544485,3.64577685183,-0.362020891661,0.924601967788,3.90472406716,6.50479914764,3.30241329192,0.0117489810545,8.97246121902,1.78534217407,11.7404864065,8.24582651824,34.7129542154
off_to_on,6.45584229089,3.37409313464,2.60035586975,-0.308105265948,1.44512758409,6.06283822397,7.86064717307,3.43643711858,0.052012090916,7.36595348314,1.1603974616,9.96842446854,5.86187257206,20.6196725163
off_to_on,4.1803922329,1.38136039294,0.935232670171,-0.122873398157,1.72605962753,6.44687049608,7.1452959928,2.74257598158,0.0994973393723,4.01377634151,0.232903869065,5.69942467447,1.92384172856,5.8409666042
off_to_on,0.953732661949,-0.873084954255,-0.8701259425,0.170017314719,1.63162540409,4.94722190148,4.76239264943,1.43916195073,0.163939852968,-0.172191579516,-0.702266507551,0.106521314727,-2.5089534983,-6.82156296981
off_to_on,-2.36518004918,-2.80270293408,-2.32238079704,0.495418880225,1.11822711522,2.06877405252,1.53787425226,-0.0986350736161,0.241005795514,-4.0998285456,-1.36793910587,-5.30586910719,-6.24133683934,-16.244493002
off_to_on,-4.931393596,-3.92852526443,-3.05942262177,0.749272456524,0.268722851348,-1.2336834514,-1.55835793023,-1.45154899195,0.311063759249,-6.79983089718,-1.58781377365,-9.13305640398,-8.28707367628,-22.7397608358
off_to_on,-6.14970193186,-4.01370406639,-2.94888097139,0.835054774484,-0.71591770659,-3.88024698864,-3.71247607985,-2.27905571983,0.345158899047,-7.68125172818,-1.33242966436,-10.4616650773,-8.14918494698,-27.2073942838
off_to_on,-5.82531799017,-3.12264649985,-2.11094398249,0.700738130507,-1.56907444809,-5.03787515323,-4.49289299261,-2.41393290919,0.316157303615,-6.66735565491,-0.715993442208,-9.10478070837,-5.95051201027,-30.1297642191
off_to_on,-4.18731133979,-1.58657203296,-0.861764702835,0.362142362834,-2.03985749947,-4.40732881513,-3.93655059757,-1.90017457773,0.210862728556,-4.17844869692,0.0511152133194,-5.61465765102,-2.37701503848,-30.9140126863
off_to_on,-1.78517401531,0.112049397897,0.400309326499,-0.0968342788157,-1.97634666845,-2.32155895114,-2.47891545637,-0.964837964207,0.0383178754642,-0.976012742577,0.73533721441,-1.07807944919,1.54422343229,-27.9360936247
off_to_on,0.700331197298,1.49694363428,1.32562659729,-0.548296390175,-1.38123846519,0.381133037665,-0.763399950931,0.0642656487132,-0.169263257864,2.07645871324,1.15286079972,3.23280711778,4.75873717566,-19.3292533637
off_to_on,2.66567527507,2.24454374885,1.71735001235,-0.860982028149,-0.418768178643,2.66478367618,0.596936420846,0.86649688845,-0.363866356592,4.2588854688,1.21920710904,6.23912969426,6.48983620998,-4.21345735915
off_to_on,3.74449000002,2.27126783524,1.57602701013,-0.94343559694,0.631892694366,3.67410689394,1.22204049671,1.22670248852,-0.495245749282,5.17303777927,0.962069969749,7.34485013005,6.4413120058,16.1781001339
off_to_on,3.8725991707,1.73448597476,1.07371019768,-0.774527228349,1.46291614698,3.04688757431,1.06665062196,1.09363697618,-0.526252997498,4.80737115342,0.497483359099,6.55389327897,4.84057338251,38.0469865369
off_to_on,3.24798304627,0.95065695067,0.471524103745,-0.410463930962,1.83562991296,1.04683177537,0.394981313851,0.582580150106,-0.444729441405,3.48113289606,-0.0184489092395,4.39227976375,2.31911478021,55.6108096167
off_to_on,2.21268008714,0.263209840612,0.0135920983119,0.0342626048255,1.65698896784,-1.53231901221,-0.352562406398,-0.0751430791876,-0.267872163667,1.69923441628,-0.443262571341,1.67768125852,-0.320097093033,62.6896032453
off_to_on,1.10847541502,-0.0900212721077,-0.163027157815,0.425315086983,1.00853928093,-3.65794369484,-0.745622607421,-0.616405432034,-0.0375505219109,-0.0255201756502,-0.688765839232,-0.774134284524,-2.36500181064,54.8481682672
off_to_on,0.162397005625,-0.0608577812719,-0.070343347496,0.652852665918,0.117657372249,-4.44050635924,-0.533350135439,-0.835496613119,0.191853546799,-1.32202927801,-0.736939751058,-2.40257337189,-3.39910861508,31.3542580095
off_to_on,-0.558873685927,0.203936562423,0.149803714845,0.666356594283,-0.719454008796,-3.4683251488,0.262398399415,-0.64977892443,0.369002182916,-2.03793554511,-0.629616441202,-3.03416245979,-3.38648612666,-3.82248446787
off_to_on,-1.11712662858,0.436650318618,0.29629157196,0.48810766615,-1.23695867399,-0.973307009127,1.35944350195,-0.122417111487,0.459447560067,-2.22960062388,-0.439936461414,-2.86114232161,-2.62021133806,-42.4877883954
off_to_on,-1.61663214422,0.37242702117,0.201707272163,0.201231816704,-1.28706748079,2.23404659013,2.32401541423,0.562604604787,0.453442125328,-2.08239100746,-0.239028281047,-2.29175532276,-1.56555820547,-74.2133851833
off_to_on,-2.10822421456,-0.125749541053,-0.189027025724,-0.0827101810022,-0.886484512056,5.03956602764,2.73343180523,1.16293591456,0.365648338457,-1.80125470028,-0.0711723583374,-1.74167470474,-0.663485596383,-89.3367534973
off_to_on,-2.52964646863,-0.990636311375,-0.785412601842,-0.264516899765,-0.206131478757,6.41428658227,2.33357178674,1.45671550743,0.227558102673,-1.51761330137,0.054432737634,-1.45239276922,-0.1690315392,-82.0568077707
off_to_on,-2.71121378009,-1.95506656077,-1.37724730913,-0.29182271064,0.491791838567,5.78032650963,1.1364271584,1.31307877599,0.075861444615,-1.2472059933,0.154833046581,-1.40604530528,-0.0810628170403,-52.5943254849
off_to_on,-2.44677468394,-2.63920154346,-1.71096237057,-0.175231954732,0.947277971353,3.22461735863,-0.57417690353,0.733527879842,-0.0588719337088,-0.910158875606,0.253905525072,-1.36450617396,-0.182267459381,-7.62126418802
off_to_on,-1.60078039388,-2.69127283116,-1.58851376532,0.0190186809631,0.994017566271,-0.515162788319,-2.32827105198,-0.146869542336,-0.159361145504,-0.39868778865,0.362497042254,-1.01008857029,-0.165771710452,41.3092344073
off_to_on,-0.204795687856,-1.93090555999,-0.951844240529,0.196462721507,0.617333543996,-4.28820568187,-3.61605843857,-1.09728778867,-0.22269074629,0.340686075354,0.467418742902,-0.125090602428,0.206982032003,80.948952045
off_to_on,1.50175114527,-0.44088717554,0.0796013036473,0.271383018888,-0.0412993306187,-6.90970869148,-4.04568224399,-1.8558457364,-0.255834388422,1.24812037625,0.534014806507,1.26735757709,0.982197100305,100.21865505
off_to_on,3.11158041425,1.43010592345,1.23436192497,0.199739466568,-0.734475922301,-7.55121492509,-3.46208040628,-2.20232629466,-0.268258921766,2.14190175237,0.520813426004,2.86297754909,1.97350389054,93.5488881779
off_to_on,4.16397057252,3.16040210548,2.17093070938,-0.00377689277935,-1.19629304848,-6.009570803,-1.99167960593,-2.01887902284,-0.265165391269,2.76669877184,0.39955139187,4.15851406091,2.82190144552,62.6257450505
off_to_on,4.29675649586,4.21615437399,2.58911320235,-0.270426631033,-1.2367345755,-2.76562408792,-0.00288609873206,-1.32289171875,-0.244370793524,2.88184304513,0.171693544819,4.62963353969,3.13301894338,15.959414155
off_to_on,3.38156018609,4.22705738375,2.33250765945,-0.501836282424,-0.810456118678,1.18274871512,2.00132691815,-0.264211930977,-0.198085923347,2.35641232951,-0.125846448612,3.93877646187,2.63884105662,-33.614500908
off_to_on,1.59049901511,3.11680708345,1.44614387681,-0.605203997735,-0.036246729458,4.65176832709,3.52340025231,0.911676100805,-0.118639392904,1.23420560447,-0.428567396635,2.09275103982,1.32121576433,-72.7260390418
off_to_on,-0.63494924502,1.14209974725,0.168366384086,-0.526764345219,0.839704837731,6.6519221476,4.20186766874,1.92446960527,-0.00543592461512,-0.258000817651,-0.663121239392,-0.514307202977,-0.551782243115,-91.3655954571
off_to_on,-2.70785520066,-1.17562972002,-1.14141599643,-0.271871167794,1.5245345817,6.6896318934,3.89743748963,2.52826035927,0.13017576257,-1.76521958697,-0.769999153168,-3.19641741403,-2.49355825805,-85.6702599843
off_to_on,-4.07366680013,-3.20519080194,-2.11538024506,0.0950465416531,1.77638209102,4.89443661448,2.71526555603,2.57196252808,0.264674686554,-2.90559234287,-0.72186652297,-5.18292622479,-3.94939944399,-58.7637297675
off_to_on,-4.38250332592,-4.39720930319,-2.49267107645,0.470354055353,1.48635201864,1.9386447227,0.96373274292,2.03630072406,0.367479018213,-3.38496203033,-0.531148956885,-5.86859851574,-4.47768589934,-19.4544128002
off_to_on,-3.5969166625,-4.4496533575,-2.19894874857,0.743921387921,0.717432191543,-1.21234284823,-0.933204598263,1.03860098969,0.409912562391,-3.08632357996,-0.244718179875,-5.01990566472,-3.89837049514,20.7113337261
off_to_on,-1.99782519094,-3.39360257839,-1.36393939605,0.833637009507,-0.312555453994,-3.62623287927,-2.54337224116,-0.195511589822,0.374889950804,-2.10430197792,0.0716618841623,-2.86380108166,-2.35646628686,51.0349163339
off_to_on,-0.086634881087,-1.57270925932,-0.272138525651,0.710505015993,-1.29835557525,-4.69378358931,-3.52559541965,-1.38638574891,0.263723604126,-0.713612530992,0.35298832864,-0.024954362831,-0.278217908954,64.7248611286
off_to_on,1.5822143556,0.474351553218,0.735421574469,0.406647722793,-1.94295048766,-4.28936903518,-3.69895384076,-2.26715141637,0.0973787001379,0.717211195201,0.55173393193,2.67015962174,1.76471350857,60.4975620827
off_to_on,2.57998888526,2.18709493859,1.37412027168,0.00440145612755,-2.05043441514,-2.75923238831,-3.07033875652,-2.64656027217,-0.088535660408,1.83752026629,0.646422047788,4.45732355091,3.23590534259,42.3197421832
off_to_on,2.73219723015,3.15348844795,1.5048958672,-0.389204772172,-1.58634124716,-0.755971792174,-1.81930353589,-2.4523849565,-0.25349572924,2.41479269551,0.640492358379,4.8775965568,3.79778126117,17.531778547
off_to_on,2.15415561215,3.22181495932,1.17010477532,-0.673976499464,-0.686661864551,1.01148089382,-0.247979493622,-1.74489072693,-0.363276434058,2.39166372244,0.553733537861,3.91693672529,3.40355857676,-5.88726225219
off_to_on,1.18457797609,2.5206778217,0.565628168021,-0.784203964242,0.386359954145,2.02005296302,1.29057366036,-0.697664261593,-0.398916293211,1.88368992984,0.411071238093,1.99563886928,2.28919965993,-21.9217342563
off_to_on,0.244670032408,1.38635496159,-0.038976281688,-0.704489110043,1.32647873619,2.08518577595,2.46984728143,0.448377222181,-0.360574993804,1.12231550324,0.2337899166,-0.187366011523,0.872591910862,-28.1238506716
off_to_on,-0.32379038349,0.228357648283,-0.402746125191,-0.470045525762,1.8768212535,1.38034824818,3.05776938239,1.44501979613,-0.265317560678,0.365676638004,0.0364200121466,-1.90034100303,-0.400794713133,-25.7753125176
off_to_on,-0.381660982779,-0.616336556663,-0.401338523149,-0.152752559933,1.90471812119,0.329919338906,2.96200404253,2.09469729801,-0.140039682188,-0.190411474481,-0.170503046707,-2.62902970823,-1.20930618948,-18.7092990303
off_to_on,-0.03272531645,-0.988794335935,-0.0698800772569,0.161663625189,1.4352255321,-0.574499145822,2.24393537642,2.29147713722,-0.012391042453,-0.470675691938,-0.374424777401,-2.24495462036,-1.45042099106,-11.3695074367
off_to_on,0.431779564464,-0.938921790188,0.413872067799,0.397918247688,0.634570478592,-0.962105186755,1.09852647216,2.0357315916,0.0969442406899,-0.529357127246,-0.555540771932,-1.03451632478,-1.24900541653,-6.91436211779
off_to_on,0.661649003079,-0.675720346527,0.799354127941,0.509926270007,-0.248918964034,-0.708261041815,-0.195667836763,1.4211831533,0.178038437192,-0.509522939065,-0.68587779329,0.419415193097,-0.880126632964,-6.09215679649
off_to_on,0.399631066693,-0.460708329549,0.860696803435,0.489439232063,-0.965567854788,0.0413717484611,-1.34496318274,0.60102360787,0.230736428004,-0.569889885897,-0.734100430007,1.46024587378,-0.639153778808,-7.26338686361
off_to_on,-0.401210723263,-0.488018606101,0.486990459037,0.363390148795,-1.3399682147,0.947051041079,-2.11084322248,-0.254784843558,0.260009159285,-0.807476551285,-0.674730594869,1.60536446934,-0.710365040011,-7.47352376357
off_to_on,-1.53982563208,-0.797942167827,-0.26702751499,0.182064154099,-1.31760488192,1.61521930843,-2.36398323196,-0.997793970711,0.270166328005,-1.20548630377,-0.498336198407,0.730937492368,-1.08474177958,-4.06717603433
off_to_on,-2.6250729551,-1.25671211769,-1.18850566071,0.00244552744925,-0.969293147233,1.74733096912,-2.10748292564,-1.52504473178,0.26076695921,-1.62669639458,-0.218604358016,-0.872100764502,-1.55858426857,3.86218345905
off_to_on,-3.21013455085,-1.60964051707,-1.97086896639,-0.128185159521,-0.45476117395,1.24408218378,-1.4631839205,-1.78521970184,0.226188286485,-1.856531667,0.126718418047,-2.59202459167,-1.81413975903,14.8055912892
off_to_on,-2.95638586915,-1.58693245002,-2.31426053267,-0.184059502064,0.0398187504161,0.232706951864,-0.626024608044,-1.77037051781,0.159117814231,-1.68239767084,0.481777626077,-3.70939504901,-1.5526609997,25.2441585349
off_to_on,-1.76852528081,-1.02173409884,-2.02888406949,-0.165530561501,0.367582457648,-0.985038031776,0.198376504958,-1.50138922332,0.0564231412518,-0.982589248128,0.783751184246,-3.65686611708,-0.630256236715,30.9769801706
off_to_on,0.147761164712,0.0647631751352,-1.10686940284,-0.0960158594148,0.467268399634,-2.03914074166,0.852085335815,-1.0162263095,-0.075324363777,0.206462640982,0.975824340789,-2.23643002286,0.855318722592,28.8455579401
off_to_on,2.32783277804,1.44457493747,0.261604908054,-0.0127695100919,0.375072534637,-2.61130806298,1.2598279961,-0.366559855529,-0.217448694715,1.67015785884,1.01839519071,0.281878118366,2.56236269702,18.1613422471
off_to_on,4.17806897071,2.74013946384,1.73427381344,0.0456365840904,0.199724121795,-2.52853531072,1.42989657145,0.377284079891,-0.341549812639,3.05424190162,0.896002388671,3.21685438649,3.99357940292,1.24762902889
off_to_on,5.15243408112,3.53991484433,2.9114244064,0.0516342529949,0.0715311487127,-1.8041932743,1.42335734548,1.11919057374,-0.416458956992,3.95480817361,0.619266461029,5.67415346845,4.64927168851,-17.1572302299
off_to_on,4.9191011274,3.53386847073,3.45061348557,-0.0025097005092,0.0851710793522,-0.621227622185,1.30657673394,1.73691864547,-0.417676123728,4.03579962247,0.222747703145,6.82417506933,4.19599562203,-31.4507916585
off_to_on,3.46455575408,2.62298769553,3.16693080356,-0.101736286029,0.257911208652,0.728988887501,1.1091961139,2.09606339324,-0.336038135364,3.13978998003,-0.239662296959,6.17161588611,2.59420148246,-37.115369809
off_to_on,1.10367086597,0.965419778125,2.08914482658,-0.212045235235,0.519143484278,1.92777217501,0.807920915375,2.07995163829,-0.182408345368,1.35756713254,-0.700570895283,3.7301708974,0.140249202402,-32.3447258878
off_to_on,-1.60531218319,-1.05704338078,0.455812254057,-0.290354424722,0.735670293867,2.70531426018,0.345821888701,1.62904771325,0.0135607403403,-0.967862499811,-1.0859384283,0.0452930055731,-2.59493852216,-18.7360081403
off_to_on,-4.01264056552,-2.94217722657,-1.34656060506,-0.297896338387,0.764078001045,2.8946808614,-0.31904400399,0.776549159598,0.210514751285,-3.30941082706,-1.32368172378,-3.9446701101,-4.91532699852,-0.773814495003
off_to_on,-5.54879151036,-4.20789596065,-2.88462119049,-0.213481731268,0.511358499691,2.45720644704,-1.15675298035,-0.335601741778,0.366213913407,-5.08212335617,-1.35478803256,-7.1685558662,-6.1937563655,15.7218354777
off_to_on,-5.8663670015,-4.52667483692,-3.78955659198,-0.0426313718068,-0.0187194857175,1.48180249126,-2.02878064557,-1.47224746468,0.448654807126,-5.79582297119,-1.14653799693,-8.72629262306,-6.05238813367,25.6275146789
off_to_on,-4.91514662757,-3.81359136426,-3.84840802256,0.180636848235,-0.711743935922,0.164689754038,-2.6955657908,-2.35449524782,0.443989997422,-5.19313625715,-0.705449385631,-8.14657317265,-4.4753159066,26.2919546931
off_to_on,-2.93603839637,-2.24370870768,-3.05225542832,0.400716019634,-1.36872340846,-1.22470752448,-2.87695544835,-2.73323256694,0.358893656481,-3.33365951617,-0.0857010310737,-5.52315575295,-1.81964884938,18.4097710629
off_to_on,-0.384117162762,-0.197254075603,-1.59135687601,0.554826387575,-1.76569155839,-2.38874222785,-2.35227140112,-2.46610781287,0.216972324326,-0.597987020311,0.611777273124,-1.49176624295,1.27796540447,5.67702743415
off_to_on,2.19083086106,1.84723929886,0.19795913462,0.591249837551,-1.72834895686,-3.05567209877,-1.06687191503,-1.57276365411,0.0508335825779,2.39372532519,1.25287591335,2.94311211977,4.07143544899,-6.64183357969
off_to_on,4.27071730861,3.4378638867,1.91785400908,0.486058644882,-1.19702761139,-3.03871931882,0.797327524525,-0.247018915658,-0.107237777672,4.93060484463,1.69634824841,6.67934373078,5.90221217382,-13.7075119398
off_to_on,5.47145286127,4.25626006992,3.20192538897,0.252922391234,-0.259238938206,-2.29018155952,2.82355533564,1.18326877747,-0.232850981914,6.38991823313,1.82757551525,8.80792335659,6.36715589295,-12.9262915103
off_to_on,5.60264516137,4.1795701509,3.79391074262,-0.057735890087,0.863206817285,-0.935071193624,4.44850699006,2.34126236259,-0.313146297913,6.39885429778,1.59136663892,8.84295670652,5.4117635361,-4.92658766664
off_to_on,4.68114705947,3.28672747822,3.59561528856,-0.370855845975,1.87109325971,0.732541710133,5.12095984818,2.90796899006,-0.346013258069,4.93523173998,1.01352510678,6.831173165,3.32658618124,6.67180823994
off_to_on,2.90675889652,1.81573491772,2.67681102274,-0.607131916555,2.4728395745,2.30112901073,4.48539816814,2.71849174313,-0.336142110022,2.33859435726,0.202768772625,3.31775986143,0.653259511631,16.6193405025
off_to_on,0.613920156467,0.091303268192,1.24938557434,-0.705755437512,2.4721357812,3.3382676254,2.52945301969,1.81652063934,-0.290251577274,-0.772951589314,-0.670245547904,-0.814108849546,-1.96837988726,20.0399483583
off_to_on,-1.78761896706,-1.55315107006,-0.384638592557,-0.642419531154,1.83094953139,3.51198359225,-0.361403470532,0.447659357617,-0.213874373011,-3.65901632598,-1.41299590316,-4.57980767153,-3.96629962705,14.3498087327
off_to_on,-3.87476113689,-2.83883684976,-1.89777331741,-0.436659067701,0.687711739019,2.7025165598,-3.47274068085,-1.00883841228,-0.111095275601,-5.64481688466,-1.85988356411,-7.13913427434,-4.96951675219,0.38871174827
off_to_on,-5.27190496488,-3.57923654157,-3.00075355212,-0.145847408584,-0.675959678887,1.06577202545,-5.94489079794,-2.15034948111,0.0129295335055,-6.29020675165,-1.91565123646,-7.98787017869,-4.87583516942,-17.6644372637
off_to_on,-5.7085889337,-3.69167896551,-3.49404890495,0.152487754998,-1.91087332865,-0.980889276973,-7.02237001656,-2.66939981035,0.148308511303,-5.49459889133,-1.58012647232,-7.05132515414,-3.84277985302,-33.5934405594
off_to_on,-5.06975309897,-3.19026034608,-3.29985477645,0.384397752666,-2.69613923543,-2.85779630424,-6.29302373379,-2.4432891482,0.277969001399,-3.51062467551,-0.94632537467,-4.66576679165,-2.21317652862,-41.2367537878
off_to_on,-3.43018272775,-2.17016294035,-2.47126647367,0.501488685032,-2.82718372215,-3.98591262636,-3.83823256939,-1.56662189706,0.378443568441,-0.865139468566,-0.172264107113,-1.4637478434,-0.404002252795,-36.6617733479
off_to_on,-1.06153293411,-0.790902507524,-1.17886721165,0.493810240862,-2.27046674929,-3.96751885656,-0.239625932142,-0.316953685697,0.424585845654,1.78792026655,0.564664270185,1.7982654033,1.20587249783,-19.6769930612
off_to_on,1.59853345153,0.739422516837,0.322209953403,0.389400768811,-1.16986788774,-2.72686343777,3.56808965184,0.934511123754,0.397145499554,3.83995556443,1.11618287162,4.42193298849,2.35774902977,5.84538532633
off_to_on,4.01862010463,2.18197421047,1.73940357238,0.240895081423,0.195626909046,-0.560385238627,6.55859907887,1.83758453122,0.290638012055,4.87706495445,1.39914412334,5.91467913685,2.94688204234,32.9702363238
off_to_on,5.67922233818,3.29227167896,2.79678321486,0.104224733131,1.48909125605,1.92811161329,7.91132470718,2.16597615943,0.118372449421,4.76686022954,1.40825574895,6.07336214455,3.0070334423,53.722685338
off_to_on,6.19108059019,3.85547451299,3.28735674788,0.0173380527498,2.40445819408,3.99530514033,7.25230391765,1.87626975545,-0.0878439948123,3.66337753986,1.20304802101,4.99399178685,2.66018721851,61.5017406318
off_to_on,5.39698136735,3.72915498929,3.11434399937,-0.013080185938,2.74184764682,4.98180545293,4.76273642265,1.10655807002,-0.284091023289,1.93562204158,0.875761124281,3.01622999864,2.05464921106,53.1312316968
off_to_on,3.42713151395,2.88439089379,2.31295934558,-0.0118145510761,2.45002118152,4.52217716943,1.12127131862,0.118989586553,-0.425398453946,0.0470928472835,0.513438584617,0.62464194928,1.31487563237,29.9160751768
off_to_on,0.687361335757,1.43185386623,1.04691007264,-0.022059203847,1.62753648319,2.67305339833,-2.70045292851,-0.791150525265,-0.47824339209,-1.57430643032,0.169088477817,-1.66582227768,0.518564959064,-2.61221777085
off_to_on,-2.22350327839,-0.379865996818,-0.421708345473,-0.0840131053019,0.486568653957,-0.085475977374,-5.72268073027,-1.38750060051,-0.430463898357,-2.63755210451,-0.147331495453,-3.41450777392,-0.295852109268,-36.1741669005
off_to_on,-4.65056217448,-2.20053509073,-1.78482033554,-0.213485658887,-0.706796174199,-2.98038122165,-7.23223045545,-1.55554020772,-0.29520339525,-3.03549993029,-0.45564218649,-4.33130895639,-1.10053051818,-61.9982116407
off_to_on,-6.04058246532,-3.64618944557,-2.75326212815,-0.389271864433,-1.69747363551,-5.17066062362,-6.96277191616,-1.31860854484,-0.107369531036,-2.83201502381,-0.776763128253,-4.31505117916,-1.84546563311,-73.1967914815
off_to_on,-6.07913143954,-4.38518456884,-3.12043243618,-0.555147433945,-2.29470575746,-5.99804842375,-5.13071117755,-0.807238269467,0.0864331791435,-2.2034048879,-1.10225244077,-3.45312382622,-2.43969374447,-66.5987116007
off_to_on,-4.76972113524,-4.22127226568,-2.8100112922,-0.637052425665,-2.40319245384,-5.18559470028,-2.32633792496,-0.198568712601,0.241328342575,-1.36126943141,-1.37708648625,-1.98787235732,-2.75821044311,-43.55747346
off_to_on,-2.4328343523,-3.15081800723,-1.89570033287,-0.570234470169,-2.02950019132,-2.92244818282,0.692821138732,0.348345719289,0.326634081312,-0.486062749798,-1.50594281618,-0.259081742477,-2.67546045656,-9.56051816429
off_to_on,0.37529442895,-1.37639799015,-0.586900750374,-0.326934854381,-1.26815724784,0.19066375343,3.23102584339,0.736960058443,0.333392549256,0.307826305253,-1.38391351835,1.3663244089,-2.11471539902,27.2061516268
off_to_on,3.00215285662,0.730130698346,0.817747973314,0.0657560520039,-0.275526799424,3.31678752857,4.82987242755,0.943809037775,0.274700033777,0.969875104067,-0.942091894479,2.56568877488,-1.09477934924,57.9230428474
off_to_on,4.85910555547,2.70847255348,1.99897068537,0.525466857445,0.760545685847,5.62330497537,5.34084511437,0.996993646596,0.179063389738,1.48421300853,-0.190912759726,3.12164145257,0.24573651835,75.2877419086
off_to_on,5.56010206325,4.11581253963,2.69161643614,0.933441441079,1.65009285584,6.51377034519,4.88733009568,0.937849076974,0.0793842585004,1.83358742899,0.757329948785,2.96228606139,1.66014816601,75.2264055455
off_to_on,5.00424707645,4.63165845872,2.74742106143,1.16798055277,2.22758070633,5.78294008622,3.74965074194,0.787174339916,0.0015918049609,1.97750717155,1.69967061525,2.17252091979,2.84334984394,57.7858335758
off_to_on,3.38423891368,4.13517842327,2.17004379829,1.14228841097,2.37586447659,3.65392817776,2.231298895,0.533758251838,-0.0430883698433,1.85717362124,2.38900468151,0.972793247841,3.50801341006,27.0430125737
off_to_on,1.12327076804,2.73542859437,1.11323618316,0.83448634594,2.04735407848,0.694650812824,0.564003471643,0.151245549405,-0.0596957399827,1.42601514854,2.60460594842,-0.332227374479,3.46566727955,-9.90037849711
off_to_on,-1.23868042726,0.746826896835,-0.157835516244,0.299552152049,1.27980512695,-2.35296661283,-1.11489340433,-0.365223196574,-0.0647243880666,0.691363320143,2.22519116379,-1.42548455452,2.68739253109,-44.5778789794
do_nothing,-3.17714332617,-1.38399543233,-1.33269639941,-0.341540321045,0.20142850917,-4.77477313546,-2.71613537284,-0.962237842056,-0.0770893367733,-0.254240577657,1.2798407861,-2.05414400919,1.32355513556,-69.0890181056
do_nothing,-4.30045284853,-3.18190980525,-2.13253261128,-0.932973915156,-0.980924822632,-6.05784970829,-4.12030004942,-1.51326818702,-0.108534924979,-1.23124588961,-0.0426943169784,-2.09215902275,-0.326242940915,-77.8780343715
do_nothing,-4.425847776,-4.25243655687,-2.37851243185,-1.32648782421,-2.01437753985,-5.99194041821,-5.1204214061,-1.83995606545,-0.157289926739,-2.00877470143,-1.43337134104,-1.57167168569,-1.88659931722,-68.9800172025
do_nothing,-3.60123473161,-4.37050104437,-2.03406938001,-1.42232312626,-2.65156771559,-4.68220377337,-5.42932562793,-1.76841075007,-0.207501185455,-2.37010338558,-2.54232107933,-0.673031514559,-3.00299376119,-44.4663101449
do_nothing,-2.07398675576,-3.52854152443,-1.21047528735,-1.19644854334,-2.71177599623,-2.48474231261,-4.76501572865,-1.20261848398,-0.234771786745,-2.18642402245,-3.07609841299,0.325964577149,-3.43386434909,-9.98476514857
do_nothing,-0.220062451529,-1.93384721298,-0.134617723745,-0.706148898217,-2.13597166036,0.103915020614,-2.98802717819,-0.186091282461,-0.215806248851,-1.47120549273,-2.88344247483,1.12912544903,-3.11120507411,26.5196203456
do_nothing,1.54646665359,0.0429219846905,0.912183486789,-0.0728333939087,-1.01795376296,2.56611158827,-0.233332909749,1.07706196233,-0.13857500279,-0.392019455786,-2.00264513586,1.50745550277,-2.1523086649,56.6345318069
do_nothing,2.86232165218,1.95496188585,1.66790155844,0.552140370239,0.402354137359,4.46096938042,3.02940872805,2.25824492493,-0.00913186723374,0.769171678014,-0.6548508968,1.36615756271,-0.820273356707,73.4524030946
do_nothing,3.48480964666,3.38152036215,1.95647619992,1.02797761619,1.78771120264,5.48576248148,6.05380033662,2.99368141121,0.147649476596,1.69754260823,0.815818183718,0.772168202576,0.553485897036,73.2195054809
do_nothing,3.33130392113,4.02154622357,1.72996816419,1.25935058286,2.78579348519,5.50119417699,7.99684804286,3.00146985703,0.294021012063,2.14276259978,2.03786317649,-0.0674757044513,1.66032958612,56.2479063863
do_nothing,2.48428109661,3.75788096776,1.0755911152,1.21624888397,3.1241930092,4.53083515906,8.17536350445,2.18703024337,0.390221088185,1.99882084316,2.71515739493,-0.871106525795,2.29160420585,26.8375632401
do_nothing,1.16415142375,2.67827425099,0.186725715933,0.934575442486,2.69088223002,2.74632845072,6.31503769588,0.697380195884,0.406723226295,1.33773449912,2.70619938302,-1.37217699609,2.38030300788,-7.80141882258
do_nothing,-0.322896396339,1.04957614243,-0.693133795088,0.49939808875,1.57454064931,0.444460582103,2.69953369681,-1.10058455701,0.333810667049,0.384190040655,2.05684618228,-1.40511068039,1.99805871058,-39.3708069231
do_nothing,-1.65133906012,-0.747855871197,-1.33733554487,0.0176990123295,0.0494781917064,-1.98539687474,-1.84730544677,-2.71736527079,0.185280808228,-0.560850379737,0.978241664612,-0.95928578644,1.31319800375,-60.5815046758
do_nothing,-2.54436889697,-2.30957744437,-1.59520839939,-0.410273575149,-1.49386106937,-4.10925918898,-6.15938564588,-3.68619247107,-0.00496556550359,-1.22097001251,-0.221362680385,-0.182712501021,0.527605691516,-66.964376329
do_nothing,-2.83051778719,-3.29919321708,-1.42745601254,-0.712821888409,-2.65470536115,-5.51533391471,-9.05627694373,-3.71001737049,-0.19234958976,-1.43383950447,-1.22847962807,0.666892613734,-0.184673513585,-57.8995403431
do_nothing,-2.47745544602,-3.5218891071,-0.909150129755,-0.856925609981,-3.13366660448,-5.89443446822,-9.70086214605,-2.76047807651,-0.334022456994,-1.19780078411,-1.81137739922,1.30831281275,-0.717301270313,-36.585768664
do_nothing,-1.59547219738,-2.96284815398,-0.201224828169,-0.846261512876,-2.81688421163,-5.11784047494,-7.86907961002,-1.09350181201,-0.400352256441,-0.659695716754,-1.87669791472,1.53186528765,-1.04008290096,-8.97947955296
do_nothing,-0.409170941445,-1.78272691767,0.499640761804,-0.710557976308,-1.8067543447,-3.28902965425,-4.03769925071,0.826244055999,-0.382030620652,-0.0500449479761,-1.48112304882,1.27092103997,-1.178772305,17.9617347957
do_nothing,0.796924642276,-0.27283156649,1.0171154059,-0.491752636234,-0.389588770788,-0.746727269133,0.745915061238,2.46856590471,-0.290901037422,0.408655375526,-0.798344156621,0.62471509151,-1.17964675322,38.1916317699
do_nothing,1.74647105326,1.21774235117,1.24078806434,-0.23216523483,1.04982274777,1.99225027256,5.17513191963,3.40133857995,-0.154711889091,0.584886796725,-0.0553429852037,-0.17653947874,-1.07680936227,48.0706439802
do_nothing,2.23659237155,2.36439671877,1.14887099916,0.032196706896,2.14014959928,4.34366725159,8.07727622924,3.41967795012,-0.00790605517629,0.480526835772,0.539707743005,-0.853218687328,-0.877138207542,47.0220409904
do_nothing,2.18382359217,2.93866903426,0.803395374049,0.272935085297,2.627304975,5.7943543827,8.76054168715,2.5977125196,0.118354425422,0.217175345119,0.855076859571,-1.17661462222,-0.56862397293,37.2145630199
do_nothing,1.63883665176,2.85284572087,0.321987495641,0.467269583049,2.43866413317,6.03048701872,7.20163184147,1.24717294141,0.203779258273,-0.0267421548658,0.862603575609,-1.05243780493,-0.146414382373,22.4634162664
do_nothing,0.766428216083,2.16889385772,-0.162762257181,0.595855425236,1.68973032214,5.01750971262,4.01584577887,-0.200111040698,0.242097648235,-0.101339244396,0.629619396982,-0.556664198084,0.357975714418,6.79294750732
do_nothing,-0.203032392897,1.07254159515,-0.542371614273,0.642877939338,0.634290638043,3.00672383698,0.226210236613,-1.34211981182,0.239389786039,0.0430609155776,0.28269290778,0.091036614352,0.861297220928,-6.80786613478
do_nothing,-1.0364094509,-0.178097693316,-0.757830588856,0.599104668857,-0.422762402434,0.465969583197,-3.08338682993,-1.93473429933,0.208886520977,0.329040591276,-0.0415666894226,0.608897286378,1.23884274147,-17.0126328815
do_nothing,-1.55676987723,-1.31462431283,-0.804874043311,0.466554899902,-1.21965919329,-2.04430024096,-5.10878577153,-1.95322972529,0.164580001008,0.583158666206,-0.241130268534,0.761722479913,1.3611400865,-24.0039417573
do_nothing,-1.68222137141,-2.11554851758,-0.720339597463,0.262153683661,-1.6082758933,-4.01155282774,-5.54449872918,-1.56832897557,0.116124557282,0.614175125054,-0.27488221293,0.457261855169,1.14536934392,-28.6923240387
do_nothing,-1.43517321981,-2.44630769486,-0.557414624073,0.0177663039824,-1.58019917036,-5.08682082732,-4.61370969312,-1.05066784489,0.066745737007,0.30705660565,-0.164898188838,-0.206726430693,0.601133130681,-31.7127624768
do_nothing,-0.922165447443,-2.27593705695,-0.360927042659,-0.224652549228,-1.24421077795,-5.14475080716,-2.91303752402,-0.644607539758,0.0145565285272,-0.307295069446,0.0222180153541,-0.965681516007,-0.150653012196,-32.6910453627
do_nothing,-0.293478339159,-1.67091150063,-0.152788770479,-0.42200558216,-0.768219296838,-4.27801854441,-1.14307940903,-0.463428169367,-0.0436799364443,-1.03934170449,0.205205059427,-1.4779743758,-0.898921117929,-30.1571921023
do_nothing,0.302789635496,-0.771846949754,0.0672348632302,-0.540440306868,-0.310192810457,-2.73853680339,0.165663122424,-0.448666995949,-0.108204132861,-1.59675276178,0.317197125218,-1.45255112265,-1.40228277771,-22.205377833
do_nothing,0.757339772101,0.238872498618,0.307122696382,-0.56367156186,0.0353967847782,-0.853565725361,0.826018339765,-0.410119436685,-0.173334205634,-1.69286692665,0.324249361794,-0.769830490149,-1.47036929607,-7.66454703534
do_nothing,1.01710648829,1.17098162348,0.562351755312,-0.49629631409,0.257062195562,1.05182865675,1.00561805377,-0.1298244133,-0.227332119966,-1.16877350217,0.22910426841,0.449634617593,-1.03869148933,12.7156779558
do_nothing,1.08159748209,1.8565757132,0.80048199001,-0.360934157602,0.407700226444,2.70387829574,1.08282211608,0.513843397985,-0.25529700474,-0.0807782547713,0.0621451909169,1.85861420213,-0.207927082423,35.6324932783
do_nothing,0.984086143209,2.17429806856,0.959666885463,-0.190306064632,0.559275775372,3.89578345497,1.41657462949,1.45610803713,-0.244117639953,1.28581096356,-0.134099491962,2.98120813293,0.771465705643,55.5624956372
do_nothing,0.768370333174,2.06679547031,0.964594832912,-0.0172207841072,0.752489187541,4.48169694984,2.1341417476,2.43254755056,-0.187689549651,2.49039789638,-0.319386110691,3.36765096285,1.57012011986,66.1270802015
do_nothing,0.47183941369,1.55089175889,0.755815238082,0.133882524028,0.964479412112,4.36945870103,3.03261600445,3.05616561761,-0.0904428785228,3.07950760207,-0.463760504476,2.75585285336,1.88653105728,62.1468900673
do_nothing,0.121159882493,0.7188981671,0.32182502958,0.250958217234,1.10959306566,3.52923244271,3.64240805944,2.9618162377,0.0322227063692,2.75113631862,-0.547925042014,1.18356788202,1.55509646053,41.7169174281
do_nothing,-0.259926922545,-0.271491628013,-0.27958065502,0.332967452559,1.07408767751,2.02162816013,3.43235275857,1.9654451408,0.156950542501,1.48196194435,-0.558848455973,-0.991631941014,0.61714066376,7.52899881219
do_nothing,-0.637398422294,-1.22082240943,-0.921881785156,0.38434814555,0.770969468769,0.0317447710672,2.07386610552,0.174922055325,0.258070837625,-0.432708281383,-0.485670321616,-3.17837737084,-0.673433014642,-33.1567225775
do_nothing,-0.957914869113,-1.92448918436,-1.43645920263,0.408274513387,0.191857409658,-2.11629857252,-0.34877672878,-1.99731840318,0.314175458765,-2.44819316716,-0.320287910452,-4.72187468156,-1.91731489503,-70.0754071918
do_nothing,-1.15180760823,-2.21739287005,-1.65988007936,0.40204245936,-0.567355499066,-3.98930474088,-3.28006165024,-3.93582636091,0.313620217135,-3.93277326067,-0.0639160411912,-5.10711859983,-2.69219149439,-92.7177890826
do_nothing,-1.15030256036,-2.0170144633,-1.48787763813,0.356895941844,-1.32092259192,-5.12974700417,-5.82871811127,-5.01152701017,0.2573159061,-4.37251772028,0.263102444419,-4.1297110973,-2.69230240338,-93.4981871249
do_nothing,-0.912020986294,-1.35251974974,-0.917759372784,0.26258988479,-1.84622871555,-5.18160448193,-7.0624476898,-4.79730689336,0.158058898806,-3.54991688005,0.613923031751,-1.97686182518,-1.8387209636,-70.3285720096
do_nothing,-0.448236257762,-0.368554787212,-0.0629407326522,0.114807391019,-1.95825508932,-4.0199197049,-6.35973174925,-3.2336306849,0.0367526851617,-1.63322838356,0.916313418671,0.811385247694,-0.321298121666,-27.7129982167
do_nothing,0.165012966025,0.702065446966,0.868643356012,-0.0778763941702,-1.57879518729,-1.83453808292,-3.68526532234,-0.680849932035,-0.0831884594552,0.858300422478,1.08561534386,3.49224742296,1.44552651451,24.098517741
do_nothing,0.796119224445,1.59361128945,1.62876072838,-0.290856925787,-0.773946843987,0.874672818243,0.325238239107,2.16829161236,-0.181486005579,3.20653740219,1.04806324117,5.33655926595,2.94250826739,71.7529728419
do_nothing,1.28891147093,2.07779491435,2.00074970268,-0.486213914682,0.256173439181,3.40765952197,4.52024889003,4.49398120079,-0.245048321203,4.71649297663,0.767877911826,5.84394338727,3.7046044932,102.502995926
do_nothing,1.50725490495,2.02949506584,1.86687399953,-0.621061340523,1.2345848508,5.05801476694,7.58912747699,5.6076113402,-0.269431321086,4.93571343824,0.268421288926,4.88899760966,3.46851012516,107.878131735
do_nothing,1.37875985903,1.46701332911,1.24897241913,-0.659079644978,1.89327465907,5.33445972864,8.50347207401,5.17661295494,-0.257648376804,3.79802130936,-0.361901106142,2.75276472819,2.26045556224,86.191262002
do_nothing,0.921980942759,0.551970721297,0.307754808912,-0.581431448711,2.05842860611,4.13517944946,6.88763554094,3.33790614897,-0.217158786647,1.6434025943,-0.984106828271,0.0309546700575,0.394723723113,43.0925574662
do_nothing,0.246275472343,-0.454270080157,-0.700982805274,-0.393349845486,1.70520983861,1.80805228088,3.18050573585,0.658403645724,-0.15640581842,-0.892466312098,-1.44183695591,-2.54977732084,-1.61775366769,-10.0174314061
do_nothing,-0.477324561248,-1.2666936774,-1.50084198807,-0.124170235952,0.962644970156,-0.936024887292,-1.47981601376,-2.04691750654,-0.0822947277799,-3.08149319249,-1.60469755932,-4.34717026009,-3.22199019332,-59.2389750979
do_nothing,-1.06560505408,-1.66265691936,-1.87711225181,0.179141521976,0.0668980867535,-3.23935731558,-5.61912759432,-3.97929604674,0.000492352869936,-4.33068974871,-1.40859880554,-4.98148632469,-3.98411762789,-92.0983178382
do_nothing,-1.37691756489,-1.55047356637,-1.74078689716,0.462733854331,-0.720227020253,-4.37728301505,-7.91810248134,-4.61342872874,0.0882665506313,-4.35829099306,-0.879689653839,-4.42221236224,-3.71685816683,-100.960785868
do_nothing,-1.35127975264,-0.997456999939,-1.15367103163,0.677422069056,-1.19821368566,-4.00725079827,-7.66132023788,-3.86003680674,0.175952138647,-3.26197342899,-0.13292385876,-2.96143142819,-2.5267024654,-84.9288526012
do_nothing,-1.02362914035,-0.206836567106,-0.30640249982,0.787724815206,-1.28911747036,-2.29693695895,-4.9849397275,-2.07875679634,0.254874978925,-1.46102264796,0.655872600168,-1.09049855263,-0.770410080655,-49.7182632456
do_nothing,-0.50656075866,0.55014857337,0.543422299224,0.776427379156,-1.05191302626,0.121076722688,-0.832054431982,0.0614019882423,0.312086122852,0.461964579505,1.29692794625,0.672048408451,1.06189297695,-5.64647299312
do_nothing,0.0503043575078,1.0251257888,1.15271762083,0.644650628322,-0.64629121509,2.3608984975,3.37241529461,1.82341169861,0.332083577847,1.96073596565,1.63849499531,1.94002238882,2.49674882736,35.5583254916
do_nothing,0.509134391916,1.07595745838,1.36731415439,0.409033936368,-0.261279112909,3.59323703576,6.21508969774,2.6593175204,0.300889719871,2.69568621881,1.60796774377,2.55387443914,3.21152470907,64.0962290739
do_nothing,0.783455435282,0.713826832257,1.16524909058,0.0982554609705,-0.037170048085,3.34627534802,6.78227837468,2.39222624125,0.211436647334,2.61801884917,1.22957061688,2.58386498562,3.11166814534,74.5733907168
do_nothing,0.85537546827,0.0971599034747,0.655595945035,-0.249510874689,-0.0114793115776,1.68806721609,4.97008826376,1.26005188907,0.0684674160337,1.94471245821,0.613575470324,2.25098003341,2.33133600547,66.9519380274
do_nothing,0.76650502172,-0.526235845295,0.034625286138,-0.588097228996,-0.11005248918,-0.780924050048,1.50672559125,-0.191890151348,-0.109023179833,1.04194702926,-0.078820555002,1.8041749599,1.16435796719,45.8384386728
do_nothing,0.588923217258,-0.90909499143,-0.484570604319,-0.865255540262,-0.186612751376,-3.13032264807,-2.31970527194,-1.32770876918,-0.289277607389,0.267200109964,-0.68314012121,1.40643597366,-0.0449408317506,18.5128546174
do_nothing,0.389932452818,-0.895120038951,-0.744254962017,-1.02716632954,-0.0947123783239,-4.4313407024,-5.1287804023,-1.66617250164,-0.433560764085,-0.167190727817,-1.07640465781,1.07549905672,-1.0107328919,-7.54014569049
do_nothing,0.205925018483,-0.477488425036,-0.691362699535,-1.02707431551,0.237299131616,-4.10115851105,-5.94155309872,-1.06366599424,-0.505218258984,-0.257732532365,-1.20535011657,0.700871056588,-1.57824296102,-26.7592002361
do_nothing,0.0358951055725,0.196207464038,-0.387915775637,-0.83762548458,0.759766177874,-2.13456251806,-4.52280641674,0.232402946875,-0.479747383257,-0.180162649642,-1.09062815656,0.126644204552,-1.74016921767,-36.6661533699
do_nothing,-0.143996239777,0.87537676621,0.0194556866919,-0.463960316204,1.30489324409,0.866454133104,-1.45003430691,1.67905627941,-0.352967530453,-0.183650540678,-0.808034354485,-0.73798018823,-1.59952977821,-37.8327844741
do_nothing,-0.353030416687,1.296654056,0.358433530691,0.0473159563285,1.64182343638,3.88384200185,2.11242231118,2.64638936076,-0.144589731548,-0.456094860098,-0.455489748521,-1.83078144916,-1.30090146893,-32.8670317816
do_nothing,-0.579999006597,1.280911324,0.496197157662,0.608425443018,1.56523314317,5.83401247836,4.84815186526,2.66184863398,0.104414263856,-1.01879143554,-0.118686082825,-2.91353708724,-0.961524739832,-24.9468516193
do_nothing,-0.772818783149,0.801859225843,0.387094948301,1.10316590638,0.984650534671,5.95591662445,5.77104390619,1.59914789678,0.340522250028,-1.69645513783,0.152371177231,-3.63086641039,-0.630362571777,-16.520534758
do_nothing,-0.851211171426,0.00060021597886,0.0859949336258,1.41149270737,-0.0207044723842,4.09707940829,4.5782723841,-0.259191453407,0.510484696251,-2.17784170908,0.348779109328,-3.63456016251,-0.288975299081,-8.6445091019
do_nothing,-0.739574420884,-0.860373383212,-0.276571909657,1.44080887294,-1.20580728204,0.790744506778,1.74644974367,-2.31054576233,0.574902772901,-2.14501348984,0.490420435773,-2.72877980158,0.110846411154,-1.11837337962
do_nothing,-0.407256016034,-1.48830380242,-0.547250018786,1.15531026987,-2.22599551669,-2.90988916113,-1.66037907879,-3.84154935791,0.51874371749,-1.42017330388,0.603152477659,-0.979382706832,0.593606699773,6.76692293001
do_nothing,0.101703190557,-1.66419591981,-0.610297720819,0.593712193212,-2.74592096623,-5.78708043785,-4.39540245244,-4.28303200479,0.355660609529,-0.0695118999124,0.696535625549,1.26002251951,1.11818237547,15.2931342414
do_nothing,0.665062510132,-1.32216635135,-0.432718132058,-0.132051164261,-2.5548837821,-6.88028709824,-5.4930170049,-3.41824488198,0.124669495088,1.58220529829,0.752412365263,3.42453201121,1.5694973134,23.6669768428
do_nothing,1.11157133418,-0.574815218013,-0.0771444318043,-0.859375266864,-1.64784055037,-5.82421158211,-4.61866379213,-1.46849385649,-0.120051780366,3.0395231901,0.729771407882,4.89903895783,1.79097893515,29.9864517431
do_nothing,1.27628327583,0.325483420884,0.32224177365,-1.4143838669,-0.241672390067,-2.98057818027,-2.17586349069,0.975622064221,-0.323414831055,3.8003068356,0.584257687362,5.21352331775,1.64674700148,31.8650483262
do_nothing,1.0636488799,1.07618800299,0.61155157998,-1.65790241818,1.28210321903,0.686259683494,0.865681561704,3.15348009828,-0.443637791149,3.53850514594,0.294217625847,4.20633888547,1.08837488974,27.4618279912
do_nothing,0.494434374989,1.43300576062,0.677099866782,-1.5247087425,2.49157707264,3.94768617206,3.35173188629,4.39331878299,-0.462323768908,2.23791933173,-0.118124605072,2.09677362612,0.196989264157,16.4761559148
do_nothing,-0.284111324508,1.29757295596,0.490551297995,-1.04387526668,3.03882748754,5.74291061802,4.38725424889,4.33862085441,-0.38755488004,0.224066539792,-0.580513893821,-0.563002439333,-0.820589869489,0.659022191158
do_nothing,-1.03358896152,0.751836413329,0.121849242175,-0.333185500354,2.76987443479,5.5493990305,3.6724618982,3.06207432603,-0.249318967141,-1.92352869064,-0.984268421409,-3.04595891411,-1.68580185899,-16.4287768589
do_nothing,-1.49761729566,0.0257367250963,-0.285563485044,0.431661000253,1.77330742529,3.55761490348,1.60368700093,1.02823220344,-0.088969934417,-3.55319272944,-1.21477800446,-4.66944250114,-2.13664455583,-30.3880700416
do_nothing,-1.4901138401,-0.59067641359,-0.568572459695,1.06450458777,0.351190208693,0.58673202847,-0.897713388827,-1.07922467357,0.0537470751136,-4.15649218682,-1.18913078931,-5.00471085466,-2.01974610398,-37.3657858339
do_nothing,-0.96809008151,-0.85862552615,-0.607493799415,1.41895445903,-1.07793082485,-2.22742319557,-2.76065909765,-2.60123625416,0.151904789334,-3.54236953746,-0.887574163398,-4.00770755928,-1.35188559684,-35.358252999
do_nothing,-0.0611874961929,-0.683906627582,-0.374749047056,1.42650718726,-2.1113025994,-3.85709580115,-3.19739251527,-3.12919097026,0.197356183318,-1.90775004645,-0.366830411601,-2.02761141951,-0.325888533922,-24.9477242735
do_nothing,0.95656516692,-0.15627709817,0.0497796759306,1.11143273506,-2.4854846013,-3.76290107571,-2.02500086983,-2.63204684577,0.199840661712,0.222485494986,0.250870078336,0.309648553992,0.7449344403,-9.18093482828
do_nothing,1.74776406795,0.481635728251,0.503699824896,0.578630915587,-2.15085756587,-2.08845402166,0.251793244255,-1.44151708127,0.180013590361,2.16775333361,0.81081977191,2.30397314583,1.52729787176,7.3927364442
do_nothing,2.02130164774,0.926445934142,0.799598339084,-0.0208649452891,-1.27433530065,0.403529008157,2.63247254112,-0.104997263622,0.159264561704,3.31817974588,1.17083568575,3.40237354473,1.77971586079,20.1980632115
do_nothing,1.63482299794,0.934343689126,0.795052518345,-0.535251144581,-0.172318893356,2.63046297885,4.01695627626,0.835444842198,0.150246883494,3.33755177,1.24362374369,3.36612263037,1.43638494494,26.1087163024
do_nothing,0.654272734762,0.424928818216,0.449889919672,-0.853790039591,0.800672997899,3.61298936952,3.65534514715,1.05322899345,0.151694436514,2.27284156935,1.02244679651,2.33021296939,0.632614812437,24.3999058323
do_nothing,-0.652496494468,-0.47192170798,-0.150799795332,-0.932605077978,1.36838746623,2.86290828912,1.47622537777,0.557116468765,0.149467349613,0.532626858271,0.581536451274,0.738638393432,-0.338865665495,16.8464525299
do_nothing,-1.88980043265,-1.4471921966,-0.81779071156,-0.797817424816,1.41508964119,0.588263199141,-1.83896809226,-0.323747329307,0.123418927379,-1.25772801755,0.0512302443736,-0.81904329137,-1.12717325736,6.94338837095
do_nothing,-2.65478255379,-2.11492450882,-1.31744698828,-0.527191746919,1.00818771396,-2.36541149454,-5.07410415608,-1.08267901685,0.057451218966,-2.47353966239,-0.423620647311,-1.81203012373,-1.44463029843,-1.45594298241
do_nothing,-2.66697061594,-2.15190244045,-1.4506814198,-0.21840322858,0.357563362137,-4.82080416885,-6.91687461596,-1.25056720006,-0.0511655952959,-2.70543826936,-0.727880759273,-1.94366988634,-1.16832666426,-5.57969639319
do_nothing,-1.86460569881,-1.42573738878,-1.12444325309,0.0442059463952,-0.270056436382,-5.71164529535,-6.45946850919,-0.599805739258,-0.187004945085,-1.89724688122,-0.808326796123,-1.24012706886,-0.386219618712,-4.72581441146
do_nothing,-0.435159530167,-0.0638752272001,-0.390845645821,0.213090594935,-0.648926397845,-4.49933708328,-3.57457567293,0.742911435893,-0.318482632852,-0.360438701185,-0.683691808587,-0.025740703448,0.629082432577,-0.437981125814
do_nothing,1.23193789063,1.56519058133,0.560527384434,0.28437614105,-0.669433093928,-1.4065639944,0.979506234464,2.32130405172,-0.406471943141,1.3383562163,-0.430427639028,1.20231418023,1.51085305133,4.19137642114
do_nothing,2.65738244833,2.9574030534,1.45607524542,0.287899889616,-0.366002082617,2.62419983033,5.77492085522,3.50672542231,-0.41690464204,2.57653004514,-0.150572999296,1.95389877922,1.92287677368,5.82929310913
do_nothing,3.41485426994,3.63358951781,2.02101002818,0.266345913612,0.108417814028,6.23956596954,9.1849552846,3.73267512603,-0.333121730248,2.89187499901,0.0659079931239,1.91746629174,1.67608847643,2.3323297302
do_nothing,3.26042191518,3.30246477281,2.06523899692,0.252927142772,0.548055652321,8.14531505728,9.94800790433,2.72093075709,-0.163588587746,2.141885674,0.170612428196,1.065649477,0.797691118087,-6.24148043233
do_nothing,2.20828464213,1.97061364034,1.54476184029,0.256785017543,0.77357683817,7.57064803842,7.62552430079,0.614330071349,0.058008289363,0.552516292209,0.167975912897,-0.338352593852,-0.470792846755,-17.4341147898
do_nothing,0.529492505248,-0.0401994272851,0.578887798676,0.261482794768,0.69539380634,4.55898200556,2.78822306854,-2.03684080625,0.280767268065,-1.35843060989,0.105512659845,-1.83229289999,-1.74626685548,-27.1092645325
do_nothing,-1.32562840026,-2.17806673079,-0.582227203839,0.236277713206,0.339551379465,-0.0219324186825,-3.14134679407,-4.43608635853,0.450424291738,-2.95533970521,0.0481814751779,-2.91049549714,-2.62388285421,-30.870807181
do_nothing,-2.8571428449,-3.8239518906,-1.62945338412,0.154553014729,-0.170005230467,-4.75805802888,-8.34138613249,-5.79770006416,0.524768449858,-3.69615158942,0.0478209114785,-3.19010982341,-2.80501942339,-25.6988362456
do_nothing,-3.65766321536,-4.48175421396,-2.28353617836,0.010940218375,-0.662552760726,-8.15980418402,-11.1859043093,-5.61237612108,0.485737076711,-3.31006496556,0.120046615896,-2.533602567,-2.19241470373,-11.2321505918
do_nothing,-3.52469920408,-3.9345277698,-2.37376648953,-0.17067082553,-0.983506350945,-9.16112096928,-10.7790899464,-3.82955667777,0.344357095767,-1.88386431169,0.237664332024,-1.0900881011,-0.922797012978,9.76989852171
do_nothing,-2.51129508852,-2.31612007954,-1.88329652793,-0.342181385111,-1.04512543391,-7.47278826853,-7.24685370979,-0.89223150038,0.13704283483,0.168760749587,0.342882139029,0.753759987793,0.672080831988,31.9887775129
do_nothing,-0.902716766469,-0.0745045979586,-0.948974623495,-0.447871737372,-0.847830950413,-3.66824320912,-1.68815280992,2.38991251233,-0.0854117498772,2.24125954497,0.373054910269,2.49324723705,2.1624006312,48.9981126066
do_nothing,0.870665570599,2.16203023695,0.182156385431,-0.446119510603,-0.46774076624,1.02419395179,4.19334232678,5.08802027235,-0.272472571213,3.7249778491,0.289289710629,3.65502501991,3.14423695402,55.1763744985
do_nothing,2.35609196848,3.77349879902,1.22473790318,-0.327490536458,-0.0193936661772,5.14514052798,8.64754753333,6.44059879421,-0.387414785243,4.19391247384,0.096071024724,3.92958733238,3.35271319756,47.493642181
do_nothing,3.20000639089,4.33212032851,1.93295947753,-0.121587174384,0.388708938263,7.4920517835,10.434500715,6.08501142606,-0.415634962262,3.52598242092,-0.156419211328,3.24931341009,2.73182762622,26.6129295033
do_nothing,3.23472766919,3.72428179873,2.16190179503,0.110739680842,0.68727570737,7.50047323381,9.19330849624,4.15971023428,-0.365535101747,1.92682204624,-0.388770440845,1.79429900886,1.44325517457,-3.05083628388
do_nothing,2.50893416179,2.17406114241,1.89651692343,0.297533762596,0.856435977479,5.39055945644,5.5077937891,1.24748233455,-0.26240079536,-0.145111656286,-0.521574752387,-0.0687695608034,-0.184561520661,-34.3600698061
do_nothing,1.25826650448,0.163810667321,1.24320166016,0.38102855349,0.912453270986,2.03812024983,0.661009336154,-1.81672654437,-0.138025923982,-2.12263254569,-0.506152298225,-1.89092362588,-1.7487673427,-59.2961874307
do_nothing,-0.170716259356,-1.72012945931,0.390143774156,0.338656628066,0.880972286204,-1.37118689083,-3.82272329753,-4.20629033236,-0.0200690442959,-3.49482391517,-0.344615065102,-3.25577479637,-2.8776870127,-71.1023065582
do_nothing,-1.41855495396,-2.96597919693,-0.44919643953,0.191700629456,0.772314979207,-3.77093954686,-6.68191526395,-5.34527757864,0.0751336079508,-3.94271615296,-0.0909992907852,-3.87435213004,-3.32069587308,-66.1325942105
do_nothing,-2.20490541206,-3.28317730094,-1.09209680424,-0.00199107464492,0.572512559286,-4.56882559027,-7.29529441883,-5.05689720839,0.144168350166,-3.40930754881,0.167575827445,-3.63971569558,-3.00089996535,-44.90118772
do_nothing,-2.39129573377,-2.67358717511,-1.42712429329,-0.168853866905,0.255546873662,-3.80422651833,-5.8138986775,-3.57762578706,0.192713569668,-2.09112831058,0.342955441998,-2.63500406309,-2.02151211365,-12.0488912479
do_nothing,-2.00170321081,-1.40954852875,-1.43065928017,-0.246504570954,-0.188647736489,-2.06366839304,-3.02227908328,-1.4434986167,0.228531493845,-0.363070373121,0.379081942209,-1.10088357073,-0.629699364447,24.760011515
do_nothing,-1.2003341969,0.0687714494117,-1.15868797034,-0.206790259869,-0.724626807551,-0.201041221404,0.000232531682909,0.703392335526,0.25465629991,1.33420109247,0.273346934756,0.62418179754,0.848623692947,56.7185404009
do_nothing,-0.236712795484,1.29976814963,-0.719942858753,-0.066405567089,-1.25708580099,1.01987111889,2.28195006749,2.31789811615,0.265897994554,2.60883028721,0.0775636281854,2.17554429265,2.08507432794,76.0501227351
do_nothing,0.625128530933,1.94227873345,-0.240390449922,0.118962659628,-1.64337201732,1.21928814481,3.27658711257,3.09748897296,0.250282080514,3.20437168443,-0.122290584084,3.23270047995,2.81883548091,77.9268572656
do_nothing,1.17480221826,1.86943024854,0.170460447859,0.274926036252,-1.73350706648,0.521231628978,2.99045082336,3.02993519314,0.194906530163,3.04164116353,-0.240110071431,3.57866927129,2.90739590803,61.6622931018
do_nothing,1.30514806932,1.18910612697,0.44334683696,0.335741248702,-1.42584372757,-0.539325206477,1.89158554098,2.34022948059,0.0937657793764,2.21428336085,-0.224394858424,3.14146828349,2.35067888167,30.8959400287
do_nothing,1.03297746753,0.190502768656,0.559004913991,0.268724243739,-0.71769735994,-1.2758728863,0.656633402161,1.36925348712,-0.0458713692316,0.948486939985,-0.0799266291402,2.01199560408,1.28666259325,-7.26496124379
do_nothing,0.487744824962,-0.76072937144,0.543845125145,0.0868342132747,0.270737761887,-1.16577315298,-0.132059072891,0.436850071629,-0.201548448999,-0.45701790177,0.132663301171,0.4334260148,-0.0391230900494,-43.9325489667
do_nothing,-0.128068101951,-1.34224564805,0.454680643837,-0.155105043865,1.31308196043,-0.0912382717593,-0.216205631294,-0.259069069036,-0.339572431806,-1.69511002277,0.320049653151,-1.24055553824,-1.32460646587,-70.5481382715
do_nothing,-0.597095470009,-1.37180970389,0.357461879822,-0.379086201092,2.13378873772,1.59280455264,0.267166304431,-0.675814142547,-0.42399125151,-2.50745906161,0.393705875735,-2.61629976637,-2.27437675947,-80.9129684863
do_nothing,-0.749844952222,-0.853845106247,0.30552051648,-0.510662215785,2.48977851158,3.19236003417,0.889834783082,-0.89002005374,-0.427751317376,-2.72869689721,0.307278057031,-3.34938417733,-2.66432637102,-72.6583816656
do_nothing,-0.516500825253,0.0336304211831,0.3224406537,-0.504129949665,2.25023703479,3.95684430604,1.15720560815,-1.01862241328,-0.342180585912,-2.31473696099,0.0787476710566,-3.23402890956,-2.39519398297,-47.8046668793
do_nothing,0.0463524469887,1.00221255221,0.39363811097,-0.357325793053,1.44650821281,3.39757188493,0.752698096341,-1.13751472651,-0.181337426505,-1.35306242786,-0.21241940108,-2.26901826846,-1.52238565314,-12.2709194873
do_nothing,0.763358165343,1.74323350418,0.469132501979,-0.111203783641,0.272672999468,1.51363967279,-0.30352293644,-1.23560755021,0.020556866156,-0.0521720329746,-0.45350906723,-0.67753197568,-0.252249476149,25.5526555789
do_nothing,1.38373356415,2.01653721387,0.477802445787,0.164999908051,-0.966338414788,-1.1686401116,-1.64814391854,-1.22342210221,0.218022182365,1.29231394845,-0.542454277843,1.13252300976,1.0987862884,56.830035472
do_nothing,1.65208084697,1.71364486852,0.35068103711,0.397088704976,-1.94405879812,-3.76466855122,-2.72263536025,-0.989634730196,0.366789729712,2.35427947472,-0.430802901597,2.66516351676,2.17684121982,74.409758757
do_nothing,1.38939468996,0.881457791129,0.0479641822384,0.529067430358,-2.41062687373,-5.34939221384,-3.01312588587,-0.477043573137,0.435841668894,2.84972146927,-0.148403711497,3.46913192942,2.68004191878,74.5327454753
do_nothing,0.561423514718,-0.294805248786,-0.417843246915,0.538111972316,-2.26733424372,-5.30522881183,-2.28146715707,0.259704307766,0.41520146866,2.61120518725,0.201558974288,3.27145477489,2.44274604029,57.6875897236
do_nothing,-0.688120284602,-1.54022633025,-0.970825934503,0.436888670579,-1.59267312394,-3.56702929002,-0.689534746896,1.04496352649,0.317160984082,1.64463009178,0.477710266924,2.07134381772,1.49069274628,28.395901437
do_nothing,-2.05466932558,-2.55533424865,-1.47894110509,0.263802000281,-0.611387850923,-0.667757090926,1.23857718159,1.63117688001,0.170903036702,0.148655963813,0.554507625234,0.161689464975,0.0484570491316,-6.01287317702
do_nothing,-3.14211098235,-3.08211593535,-1.78158713935,0.0662345985184,0.382426247974,2.43731962817,2.80644700932,1.79034590355,0.012689411449,-1.51592405105,0.375499074227,-1.93527924049,-1.50774554815,-37.3091775237
do_nothing,-3.57022513475,-2.95838695328,-1.73314974062,-0.115952267467,1.12141383112,4.70658250958,3.41516681252,1.41221758882,-0.124856411115,-2.9064587652,-0.0152472126184,-3.60588713396,-2.7435843738,-58.4411392571
do_nothing,-3.09233625693,-2.15266171712,-1.25198605033,-0.260237679496,1.44721133237,5.38553555565,2.80684577506,0.567735590634,-0.220794191433,-3.61224662202,-0.47807319994,-4.32011822613,-3.28372434807,-65.2257982205
do_nothing,-1.68838356074,-0.775784284239,-0.360261060928,-0.361583407747,1.35125946991,4.2795339071,1.18309259028,-0.492607817411,-0.26889006509,-3.37269856794,-0.820953067949,-3.79332557361,-2.92087622009,-57.2110442315
do_nothing,0.398101042451,0.931710729765,0.799906615846,-0.424393162967,0.961722286776,1.82375419994,-0.853341591203,-1.41175250096,-0.275268050187,-2.16531067496,-0.868550565239,-2.08485080503,-1.68506475925,-37.5079674204
do_nothing,2.69694300338,2.63581141021,1.98360047778,-0.451417399179,0.483435584793,-1.07682041577,-2.51729181798,-1.84852970685,-0.25233595282,-0.234108388076,-0.533703197148,0.399450905255,0.149159689683,-11.6934823565
do_nothing,4.61920801966,3.96615652648,2.89416550747,-0.435969975632,0.114418462271,-3.37920502051,-3.14042585083,-1.60659119583,-0.211875645609,1.95556263359,0.135282519307,3.00595939565,2.12318587882,13.8506566841
do_nothing,5.61100470707,4.58813959513,3.25808751859,-0.362132233991,-0.0296371446684,-4.28373642421,-2.43735619496,-0.721105969804,-0.160240609149,3.82891432721,0.951840884494,5.00803305893,3.70895740402,33.647461465
do_nothing,5.31194289622,4.2793922451,2.90460115801,-0.213708108112,0.0448986066502,-3.52395593694,-0.63430985714,0.532853527278,-0.0974947425213,4.85270667867,1.63894345285,5.80797937239,4.44825998175,44.383593112
do_nothing,3.67217194786,2.99532865195,1.82684499958,0.0117701914904,0.219728999975,-1.45786670157,1.59429476436,1.71937862957,-0.0205317535582,4.68440960513,1.9159264356,5.10846845636,4.07928086163,45.3917633163
do_nothing,0.990934363023,0.905978523234,0.204171664286,0.290745884648,0.320001082269,1.07291327258,3.36428757221,2.38564024311,0.0715351611966,3.27698734768,1.59779332661,3.00396572837,2.61562048996,38.3025960573
do_nothing,-2.1395303154,-1.61149368023,-1.62525226457,0.570027716406,0.193360733878,3.06338071991,3.91116482156,2.22304473206,0.17242886465,0.90785329423,0.673559825841,-0.0341502128024,0.355331620845,26.0878990151
do_nothing,-4.9739756538,-4.0322199665,-3.23856474132,0.775915023568,-0.217812458622,3.7254177087,2.88959687698,1.18914910923,0.266788294264,-1.87876276469,-0.665576542554,-3.27455798508,-2.18381017455,11.9019829128
do_nothing,-6.80240336501,-5.78980583383,-4.23191520025,0.835037592966,-0.839259816301,2.78647021303,0.529719669946,-0.455135390687,0.332630460342,-4.4026459573,-2.0628667213,-5.91220595096,-4.38705807148,-1.84228826079
do_nothing,-7.13584679134,-6.40948815485,-4.32665971568,0.700642611902,-1.47844965961,0.595269315499,-2.41320207913,-2.21095489396,0.347728909304,-6.01781586498,-3.09142744171,-7.27269884322,-5.69266771487,-13.8580533819
do_nothing,-5.83845746511,-5.63684186953,-3.44852935924,0.374801651668,-1.88615636776,-2.00523534855,-4.90479841974,-3.4926097663,0.297740900032,-6.27754250746,-3.38238050127,-6.980809235,-5.7316266809,-23.7666501966
do_nothing,-3.16915880536,-3.52638691719,-1.7565423677,-0.0827525316396,-1.84556064109,-3.99130679726,-5.99057794343,-3.81731646882,0.183013423855,-5.05127232309,-2.74694593945,-5.05122791384,-4.42276619156,-31.471820334
do_nothing,0.27869574565,-0.460458967516,0.388156911601,-0.564505641978,-1.25780736051,-4.54272549323,-5.14219350122,-2.97177657218,0.021269629367,-2.56382271936,-1.25298002189,-1.8823302282,-2.00040339175,-36.4920046316
do_nothing,3.72294485533,2.91534500972,2.50668256497,-0.942692221633,-0.19317385916,-3.35602966716,-2.46706674704,-1.09944374464,-0.15525487534,0.652224921015,0.771499041216,1.84043723301,1.03178923667,-37.6328610907
do_nothing,6.38384560101,5.83163879759,4.11821669285,-1.10681090664,1.11200291208,-0.770543864296,1.29638680241,1.32297646164,-0.307690980513,3.87807485851,2.81376498651,5.3034059533,4.0097454902,-33.2318193601
do_nothing,7.67016615326,7.5788991825,4.85670348464,-0.999159992447,2.31450504079,2.34056389116,5.00142771084,3.61582772198,-0.401063651234,6.37387771643,4.3124136738,7.74560860563,6.255937792,-21.9450011324
do_nothing,7.31296848712,7.68920139875,4.55792004915,-0.636185882329,3.06255355291,4.87618343919,7.46104658883,5.09513544392,-0.414088777968,7.54817284654,4.81600228917,8.62081974801,7.23161222977,-3.77680407872
do_nothing,5.41626278753,6.06680241375,3.29506900833,-0.107570549625,3.10298281705,5.90035786146,7.83799479306,5.27885283828,-0.345046983193,7.09310686224,4.11790988965,7.70842238528,6.66108459023,19.1138541762
