label,COUNTER,INTERPOLATED,AF3,F7,F3,FC5,T7,P7,O1,O2,P8,T8,FC6,F4,F8,AF4,RAW_CQ,GYROX,GYROY,MARKER,SYNC,TIME_STAMP_s,TIME_STAMP_ms,CQ_AF3,CQ_F7,CQ_F3,CQ_FC5,CQ_T7,CQ_P7,CQ_O1,CQ_O2,CQ_P8,CQ_T8,CQ_FC6,CQ_F4,CQ_F8,CQ_AF4,CQ_CMS,CQ_DRL
off_to_on,-12.2477211579,-2.29043150401,-2.66229093143,0.698406513005,-4.3299292057,-9.03827535137,0.834417429174,-6.84700854182,0.0754424135397,5.75362606039,-0.677461678325,3.12989606831,6.7584039233,25.0844135123
off_to_on,-12.1154406025,-7.09185422284,-3.31025824394,1.5436678854,-1.21067973037,6.77861893424,8.63495619692,5.28965410573,0.445381341042,3.17288528262,1.81819106092,-2.62202124046,3.33481998287,20.5819740513
off_to_on,-2.79586081269,-6.55422260651,-1.89273603374,1.35121058998,3.2502218411,16.2827620567,10.0686529542,15.0204174206,0.389987404953,-3.07644312939,3.10857373416,-8.14482779364,-2.41367333242,-17.2887781815
off_to_on,6.79259540074,-3.66519911044,-0.313295040443,-0.0937317529634,5.44030497424,11.081652584,4.77387582916,14.8507586259,-0.0135739252295,-8.4117910211,1.42211690536,-9.12381960841,-8.5591463611,-9.58572521276
off_to_on,9.4568869439,-0.591819948288,0.665431209155,-1.57809220526,3.62014401623,-1.53787871697,-3.11412172667,3.55386816956,-0.322714213701,-8.23641205121,-2.10782236214,-4.08663109364,-10.3856326815,32.702183853
off_to_on,6.70127929211,3.84489850183,1.87355118077,-1.77408562709,-0.529380444853,-9.45225896188,-8.06874293431,-11.2815810053,-0.267971169341,-2.20377908788,-3.96551402502,3.77058512739,-3.90190490751,33.7118606229
off_to_on,3.00433906721,8.90035401995,3.2855367418,-0.704374301188,-3.92416315419,-9.23844034051,-7.73456629946,-18.2371209801,-0.084743946775,5.60316056761,-1.91681630796,9.50993809795,7.60779749532,-10.5130745374
off_to_on,-1.93990778751,8.66870845492,2.73222601236,0.619896810668,-4.91584614866,-5.71500204031,-4.07858703251,-11.9765875403,-0.101854909423,9.70852350817,2.11938142163,9.54393117016,13.6777678519,-29.5711791397
off_to_on,-9.4933314177,-0.478909823963,-1.13262807114,1.46695561189,-3.56492167317,-2.29268793715,0.540696459913,1.99286234492,-0.170447765528,7.21353242358,3.99898673517,3.11556607269,7.39220695444,-6.08725200013
off_to_on,-13.8905649244,-11.4563371766,-5.44983722086,1.6075341979,-0.329020355183,2.21511321389,6.06357007169,13.1366995598,0.11066982425,0.244648678081,2.15659805943,-6.20313903715,-5.21213694898,1.59017031946
off_to_on,-6.56904936456,-12.371748073,-5.35605591586,0.812115465231,3.80061776473,7.91492365485,11.1680238442,15.1682680273,0.632223355359,-5.78543485772,-0.90467792504,-11.1639503392,-11.1514227381,-22.9221786224
off_to_on,9.92400565384,-1.62928178579,-0.0576708643554,-0.814580174349,6.35069212104,10.7607966989,10.1612637922,8.81146778141,0.721649706437,-7.24606158427,-2.25552557299,-6.91973175578,-5.97076949736,-19.2911221097
off_to_on,20.1916673839,9.19245385549,5.50967911646,-2.12814212623,4.77410883012,7.19045933129,-0.80870601185,-1.72469182353,0.0581573957556,-5.01145171196,-1.92150172475,2.69990459876,1.9288027303,31.2199220801
off_to_on,12.9136367622,9.90082702434,6.18951214995,-1.73156949077,-0.425749190944,-1.47203865195,-14.7729722379,-11.4679134887,-0.761190975829,-1.65826355648,-1.48485375003,8.24627672971,3.8073503103,52.9776564476
off_to_on,-5.27222700427,3.18733703607,2.03005780398,0.183428732904,-5.37554649815,-10.5832196013,-17.8638067427,-15.0612869366,-0.923257173313,2.04947987285,-0.952632986593,5.28070703113,1.47989122574,0.821247250974
off_to_on,-17.7023704795,-2.21525346217,-2.93892411551,1.70986783147,-6.49331294107,-15.0240988552,-5.2437830726,-9.17853498779,-0.394136655021,5.93936902744,0.829735259135,-0.967408714013,1.5776375351,-50.235185335
off_to_on,-15.8484258677,-3.96105660358,-5.41369140553,1.48417716158,-3.58557377896,-10.1341717862,11.6997269424,3.27699664574,0.20259565353,7.60291920153,3.26289144616,-3.1189995674,3.95406913346,-20.1350484085
off_to_on,-4.44799132724,-5.23111897538,-4.52741373968,0.283823240999,1.01874594602,4.48294922919,17.8663114084,13.5964755057,0.505867978879,4.27915259384,3.82218470549,-0.697616334308,2.68909537061,42.4516989312
off_to_on,7.79221345961,-5.56958834298,-0.776105767175,-0.341542976933,4.86915914465,19.1876231241,10.2963289119,14.1993129747,0.671442336494,-2.60454746061,1.26879893483,1.10247009014,-3.22630720044,37.9413664399
off_to_on,15.1464494275,-1.17722929515,3.89382307509,-0.279885289559,6.08218858744,18.9169853057,-2.34330529098,5.07102597249,0.724200131387,-7.83141946972,-2.54407125133,-0.550873239055,-7.3957850336,-24.4014390478
off_to_on,13.8850240801,6.21699431452,5.86482492304,-0.564239959678,3.51485799012,0.533540441588,-11.5162803623,-6.80082080215,0.299311312876,-7.82996045012,-4.66129586607,-2.96226627164,-5.0899045469,-53.0656229906
off_to_on,3.16537526723,8.97254673147,2.97179251512,-1.24873397345,-1.68510361766,-18.6246308592,-13.8319965629,-13.2135526667,-0.644287980696,-3.39523331371,-3.71108603069,-2.36286463063,0.950177706634,-27.5079464536
off_to_on,-10.374003417,4.00179224203,-2.02512344616,-1.03688810322,-5.62327538181,-18.5319268676,-7.95273227214,-10.1661521889,-1.32917319687,2.80479008395,-0.369186121722,1.30538781338,5.5244069012,-5.12705179675
off_to_on,-15.6317554505,-2.96548645897,-4.0391213967,0.592632683762,-5.02705167404,-1.28976003325,4.46929191851,-0.162909439966,-0.933329686414,8.11697268347,3.40739362681,4.53959052922,6.72595728276,9.34002054412
off_to_on,-8.93692747635,-6.12038674291,-2.1705405562,2.11053973738,-1.00253264256,11.8562865245,14.6817263966,9.26333691956,0.290579844864,9.02887118149,5.07337838434,3.78271372497,4.45072005131,63.9203609847
off_to_on,1.55688671423,-6.22547168056,-0.435429599534,1.71122701281,2.37583740234,8.96093149865,12.5718738879,11.0096309466,1.18164254951,2.95169220051,3.02526264312,-1.07175075206,-1.59187617936,115.875806008
off_to_on,6.93545490194,-5.06913903007,-1.01741675054,-0.286611439438,3.05328982943,0.813516171986,-0.368401281074,4.44542324623,0.99616779507,-6.72580341275,-1.36726653117,-5.64960109029,-8.50351128797,43.7404438316
off_to_on,7.84481943352,-0.154024460717,-0.705811409643,-1.81428230239,2.44118999,0.771685513533,-10.790705016,-4.30845611258,0.149544538461,-11.2075467372,-4.31840376701,-4.62645161046,-9.2931575805,-134.63410114
off_to_on,8.70017113121,8.8008332561,3.14765305418,-1.58273413837,1.8292927555,3.75004327861,-9.76876905454,-8.70579448693,-0.479004310441,-5.67989056307,-3.43764995051,2.00066410274,-0.900794415429,-208.104350161
off_to_on,7.04983189366,13.4508425037,6.5563764421,-0.291336678316,0.237677239502,-2.5670331376,-2.56328656856,-7.12608777685,-0.566217282035,4.21788016339,-0.2606528071,7.3864651268,9.25992157706,-52.1441287651
off_to_on,-2.38465712512,5.69274283649,3.55584551972,0.705741540979,-2.74566974198,-13.6904393072,2.12155869703,-1.6857579675,-0.391890876515,8.94088422327,1.98703101388,5.10586252249,10.5272495312,160.309579228
off_to_on,-14.8736970116,-8.98744047278,-4.38392557522,0.978911844337,-4.52161186087,-12.213476082,4.54231146276,5.07914860654,-0.194329867795,5.97221986714,2.13913518627,-2.818689336,2.01891542315,180.549134907
off_to_on,-17.0616272163,-15.7586554255,-8.81576293616,0.860956242612,-2.47650677161,4.76953248906,7.87260185168,9.87909862973,0.0630060001355,0.231088537901,1.27674601358,-8.11738190865,-6.78511835952,26.9547023675
off_to_on,-4.14926723368,-8.66253499242,-4.98949377421,0.479186404618,1.84596088113,18.2640225051,7.1927073819,8.11834723184,0.34765265204,-4.17745067027,0.221146165669,-6.13998820528,-8.33214185285,-76.654951984
off_to_on,12.0294458128,3.15315855716,2.38072654895,-0.268060790102,4.23320676002,12.9530068963,-3.22252667127,-1.34057519551,0.417025521657,-6.84144200469,-1.1024630467,-0.0515512169152,-4.30497722766,-51.4051943941
off_to_on,16.9085612772,9.12013908013,5.98070113996,-1.04409663073,3.01263180756,-2.72522704801,-14.8298902903,-11.4384874897,0.168344955934,-6.42197312373,-2.08104718393,4.99522028068,0.336790881184,-32.1158916644
off_to_on,9.49628574634,9.11166819541,4.6743014203,-1.14999886452,0.340034363615,-10.8014279723,-11.496119814,-12.1468551956,-0.144066657762,-0.28939514431,-1.36557796157,7.44599231743,4.45973457919,-77.9538538852
off_to_on,-0.617839133694,7.54835142267,2.25750620197,-0.396067027641,-1.53486858149,-7.92900637731,6.38849608791,-2.10076415039,-0.229639408168,8.81925381423,0.995446246285,7.23943068816,8.22942082236,-55.5563853971
off_to_on,-7.41384284222,3.35029167908,0.404745645931,0.58399244339,-2.56858962829,-3.84164378101,17.9870479753,8.8402263812,-0.12464704168,11.8451562252,2.88484282644,2.6608798265,8.1956092701,92.9193654149
off_to_on,-11.6956026426,-6.31524244256,-2.50500028276,1.0718980239,-2.93540357059,-2.48324504064,8.98036496544,10.8245894526,-0.0477235968123,3.77022601522,2.33385510023,-6.28431141911,0.808215909206,181.306224558
off_to_on,-12.5824033746,-16.072692737,-6.17916635751,0.953932932573,-1.54624612322,1.43446560623,-8.63515226383,4.53545790521,-0.0355412473027,-8.56697256958,-0.448149585352,-13.6403005643,-10.234530873,50.9686439647
off_to_on,-5.41693977683,-15.1124041014,-6.63020840286,0.474390122027,1.71724976811,8.57321250757,-13.5058083859,-2.08244787951,0.0392771701948,-13.5502658345,-3.46003760875,-11.7451781458,-15.153902874,-145.877257766
off_to_on,8.87311886382,-0.947351214413,-1.38890109169,-0.289362350135,4.23325112049,10.8811747794,-3.34831231052,-4.37237857607,0.15537857701,-7.55129615884,-4.34703693791,-0.199684499163,-8.05419572109,-148.313024596
off_to_on,19.2185640267,15.4792258291,6.06285612706,-1.23778998473,3.30533058526,4.17485023791,5.87109176059,-4.15809060545,0.123124182937,3.13235328928,-1.69916108268,12.5236545708,6.35929806966,22.0215144774
off_to_on,14.9650609857,20.5630975026,9.2862508822,-1.72752292632,-0.302048957311,-5.20241447304,4.53243875194,-4.08974364394,-0.0773549126076,10.6676192952,3.329863827,17.0041140093,16.7621986954,108.049977924
off_to_on,-1.30211364206,10.7939087313,5.53632456067,-0.918785382162,-3.29231714547,-9.92612194463,-0.617843251394,-3.48340788766,-0.18732690106,11.4462508051,6.56782508191,10.476967555,15.0106639536,21.6139092014
off_to_on,-15.7295773695,-5.82099166079,-1.8268412086,1.02997048024,-3.62573999835,-9.44551259151,-1.09168888639,-0.505162735174,-0.0363257295467,5.41206386871,4.26764768176,-2.65799899463,2.61012560328,-51.1974575116
off_to_on,-17.2812069006,-17.5146630727,-7.04304193668,2.53867438862,-1.76154902543,-4.79206191206,1.50589049351,4.41433332958,0.171804813021,-4.48497971582,-2.03339164524,-14.5100305645,-10.8711570441,12.3836473708
off_to_on,-7.07244422835,-17.0228838773,-7.08889882972,2.00053712746,1.0366405319,4.88842793451,2.14901070103,8.34436465646,0.141114977314,-11.8692097079,-6.24651659387,-17.6834631228,-15.9012351123,74.9995893953
off_to_on,5.42822193977,-5.8250188427,-3.34107911325,-0.336461359173,3.47799997132,14.8687515158,0.84868694367,7.74268742578,-0.0695801351496,-11.0557880159,-4.7271802855,-9.61742502156,-10.7165210985,-2.12914153104
off_to_on,12.0661269913,7.42057326128,0.97453557398,-2.36508423895,3.73741073593,13.4051472394,-0.836976446777,1.16665640197,-0.137739686023,-3.13390708561,-0.396504599328,4.57156519229,-1.11622675152,-108.155780435
off_to_on,11.0704884928,14.0761936023,4.16089428076,-2.28722181757,0.768651051699,-2.74524700437,-3.80248913968,-7.92780800408,0.0129047101986,5.30299847482,1.9780605067,15.2456692869,6.95090400927,-68.0272002844
off_to_on,5.18117517876,12.1623281445,6.21124106877,-0.48251443109,-3.32273432447,-18.0712060292,-6.43431541512,-12.1609078884,0.0848759927489,9.71913611087,2.14289489579,15.9758709912,11.9919164152,61.8747501985
off_to_on,-2.36828002148,5.19858262237,6.12192146306,1.15209947487,-4.50347066552,-14.9522104289,-3.04054116562,-7.17225237474,-0.102689937451,10.0481666406,2.81437315635,7.69558145409,13.3171343439,89.4892310746
off_to_on,-9.08077023327,-3.5483028204,1.62801551479,1.45109000104,-1.52786866305,2.88665734087,6.28052134009,2.67537407577,-0.260308327944,6.08157063044,3.68906795175,-4.08446804688,7.57820918997,-0.417908119493
off_to_on,-11.720937131,-11.7079133766,-6.31119386917,0.93417170532,2.35783518205,15.1303219607,11.1063003735,8.78572959875,-0.0237766743824,-3.07108573195,1.62869667924,-13.3433735719,-5.75049471503,-44.3667075571
off_to_on,-6.79833348901,-14.1677800983,-10.9009851233,0.517450816411,3.57528272191,11.5423617034,4.19534807211,8.21982236296,0.429791842506,-12.9441046879,-3.19044318535,-14.984089204,-17.8770825615,12.2865926136
off_to_on,4.6502646415,-6.04452896875,-5.84613838674,0.126184663955,2.2221015251,1.334824092,-6.21056886244,4.9943278266,0.501668955777,-14.1214087699,-5.98327328174,-7.06721439386,-17.1140245976,39.8817190615
off_to_on,13.9654797396,8.12272370742,5.32968699259,-0.772541568129,0.391104938629,-4.9538627873,-7.39545394197,1.64681501058,-0.0326767845801,-3.72125277879,-3.83424518195,5.47013284992,-3.20270144506,-30.1178774199
off_to_on,11.3310294684,14.9100250696,11.0316180624,-1.75124673138,-1.43949585125,-8.64460632943,-1.13787839445,-4.1175155438,-0.636207994635,8.56142575199,0.348641437997,12.7887865268,10.894459379,-81.3704760817
off_to_on,-2.38596821087,7.32237576384,5.25130671161,-1.54999158121,-3.6284736077,-12.1007304849,0.347279908555,-11.554622075,-0.620593145592,11.7500514367,2.62625078027,9.74773038234,14.1654583557,-18.6206277808
off_to_on,-13.7981303489,-5.08642297723,-4.44964988403,0.171872158792,-4.33660325528,-8.25633671115,-4.28267149747,-12.3915208464,0.0167362363361,6.86589689704,3.2899948449,1.57647171475,8.87764119302,65.8799673587
off_to_on,-10.9477916906,-8.06869357618,-6.69133067499,1.97100633526,-1.00771013278,7.19576646294,-2.65404360719,-1.11598083811,0.605594515314,2.28406561195,4.16270877385,-3.33740773714,3.12572594179,50.3353480515
off_to_on,2.68207332648,-1.26840294262,-0.959540426326,2.08518466824,4.72499436645,21.576207925,9.24076568974,13.7175630691,0.594573303474,-0.287721090194,3.68999780602,-3.78352274079,-1.60683265169,-17.4730039193
off_to_on,12.2891279237,3.23307119184,3.24881946479,0.449732337236,7.09719563306,17.495695916,16.1018885134,16.7025772938,0.091500896622,-5.77783268154,-0.681550787508,-4.30956782673,-8.30811140266,-18.2276673831
off_to_on,9.00153055315,-0.463212722055,0.759865994311,-1.28977037892,3.0085358315,-3.02497673244,4.20608395123,4.29835347448,-0.397009510694,-12.7628273271,-6.56259031033,-5.71995742927,-13.872297809,30.7363903603
off_to_on,-1.69285122059,-4.66536014954,-2.87668554951,-1.66696714765,-3.6029535084,-19.4182676927,-16.0665189212,-10.5274017445,-0.517431544444,-11.498552868,-7.9288098986,-3.66359227103,-10.322830087,19.6496885691
off_to_on,-8.94467531289,-1.64258509582,-1.25364204875,-0.775607204597,-6.3891616386,-18.0928018008,-21.2109707989,-13.9775003404,-0.258725687703,1.33527003224,-2.82501607211,2.82368496356,2.56868539037,-50.0491034062
off_to_on,-8.48855747857,4.48305277595,3.08466933788,0.285357194388,-3.93272090961,-5.74462012903,-4.71378222663,-5.78437979307,0.179838294128,14.6595067336,4.08523938963,7.86573347583,13.8677533996,-65.2832300849
off_to_on,-3.20202627055,5.18623146046,3.45534307132,0.787303993075,-0.00434060893913,4.88963932481,15.412306577,4.44377594103,0.497179570477,15.8056285689,7.46357794404,6.51699998832,13.9361961497,3.02108010143
off_to_on,3.23327992209,0.475700992261,-0.508789998368,0.801089753867,2.26603156671,10.7051479764,19.5090878087,9.2115328158,0.405930046459,5.4274445767,6.28473137616,1.05995976682,4.81917399062,53.2739546344
off_to_on,8.32752053367,-2.8916094632,-3.1586663701,0.562920239379,3.24083250274,13.7115071734,6.95471753579,7.24021279743,-0.0876992237452,-6.20235163142,2.04555542653,-3.48024253004,-4.87069362022,26.4586314854
off_to_on,9.03508906224,-2.3441792594,-1.82129322369,0.0295918444423,3.75780996688,11.0853676433,-8.37866270363,0.53445181507,-0.537220206381,-12.3540876839,-3.81020472384,-5.58329937954,-10.0770920315,-9.09944661673
off_to_on,3.59851513548,-1.04662403259,0.406941647128,-0.740554042974,2.63706180262,-0.095388531457,-14.8960941088,-6.65144429955,-0.44758948605,-12.3313840016,-8.41172093847,-5.41530273689,-10.1556512849,5.53376144276
off_to_on,-4.68096392408,-0.316884018401,0.883970977111,-1.16468042712,-0.972658451206,-13.0985783367,-10.741704152,-8.37942314317,0.116566557052,-5.69491854402,-7.33793856023,-1.48300114058,-4.73752664084,20.5145586965
off_to_on,-9.52671253496,1.7513037518,0.934314195443,-0.594588923909,-4.77305950923,-16.5636347239,-0.44725288986,-2.44997152363,0.533099438137,6.39463200979,0.0808752144415,5.45987699665,4.6822858489,-13.1702690048
off_to_on,-8.29651773357,3.87896778233,1.63508561984,0.735734702724,-5.22851462303,-8.38507096249,9.40402616356,5.37428658745,0.354413671713,15.6070877565,7.56794566682,8.69287091017,11.3981748107,-40.1545681237
off_to_on,-3.58270872777,1.39239690882,0.961477135574,1.603051357,-1.7924428788,2.85290954892,12.8693020772,7.2485094309,-0.154369012349,12.1900058194,8.10270309462,2.666845903,8.6553119037,-2.55676780351
off_to_on,1.82492249404,-5.15438377729,-1.99667048719,0.99133584274,2.4878257047,9.68327039249,7.8406594275,2.77198224509,-0.391245622501,-1.7390222387,2.25803647674,-7.38559714568,-1.39340988077,36.9385593808
off_to_on,7.52051696851,-7.66837264372,-3.74344271004,-0.669614882123,4.43872199998,11.6885375084,-2.36397986789,-1.86553159405,-0.178322249751,-12.477930129,-3.32122655771,-9.97693724138,-8.98148887552,-9.01736040407
off_to_on,11.7354210764,-1.0963587787,-1.07866857938,-1.79537199852,3.4594002816,9.51124882659,-11.353514169,-3.32711518255,0.112951253641,-11.0669039779,-4.73642112979,-2.0469892656,-7.86613544683,-83.4575195496
off_to_on,9.59861812456,8.30275581693,3.32342730808,-1.29473546204,0.881584000279,1.4785525566,-13.2776452573,-3.84026743472,0.141945442163,-2.47830759444,-3.75503664527,7.30507342452,-1.05217965855,-44.9688415391
off_to_on,-0.791423410738,10.2212964834,4.08924708973,0.299470411363,-1.74621627099,-10.0202649207,-5.58136723225,-4.19472841153,0.00502803966701,4.29841882804,-2.24486956302,9.19710927525,5.04166462923,105.52116104
off_to_on,-12.7702036081,2.95331413465,0.630379062461,1.49770993567,-3.18564230791,-15.4906399558,7.90365593952,-1.08958069057,-0.0257684428125,7.42972486325,0.838162794462,4.55770084273,7.23753600009,183.436574607
off_to_on,-16.1554191794,-6.01088495202,-2.56825869888,1.41848542537,-2.64665214158,-8.15095159527,16.4645738186,5.49275105935,0.0730940905896,8.28595577071,5.00075151186,-1.29599203916,4.99855384798,55.0590684778
off_to_on,-8.05832035243,-9.90239093468,-2.68943706256,0.418008843427,-0.526783292353,5.89186366488,10.7621686783,8.57490258387,0.107290234417,4.1343545163,5.76443078554,-6.66801331973,-1.40790418019,-169.420952999
off_to_on,4.41858990191,-7.95246512148,-1.44926718124,-0.635363007445,1.49490710287,13.1250744363,-5.31547424528,3.1837376747,-0.00143085991308,-6.23470463977,0.667012360934,-10.7340447859,-8.52441279336,-247.559736296
off_to_on,12.3986051052,-1.96002677692,-0.665978143446,-1.21216819603,1.99917701135,7.95270422194,-15.8126955776,-5.19608825303,-0.119928316344,-14.1439979606,-5.4185464037,-8.65782096591,-9.5964965345,-81.2634483514
off_to_on,12.9295162152,6.1941310326,0.791884248999,-1.16543928525,1.24977597371,-1.97506587535,-10.2701816342,-7.29201295987,-0.127176475885,-8.94033523876,-5.59653589078,2.37751152872,-1.80117900178,169.559141157
off_to_on,7.90136855292,12.3053765141,3.53699478425,-0.46139690478,0.449968298307,-6.31887262205,3.64278904614,-2.5484846258,-0.0659522708558,6.12027145068,-0.130023825646,14.6232996711,8.36041560139,254.160250441
off_to_on,-0.524275191531,10.6022015383,4.575753054,0.65965212963,-0.0500919098534,-3.74749834977,10.385490187,1.56376013399,-0.0241513567714,15.3899368412,4.15929579679,15.6537633523,11.3688550675,94.0255569411
off_to_on,-9.96984513723,0.357039418109,1.04560502222,1.46091822287,-0.856761005137,-0.666442546208,5.88765517828,1.41637064179,0.0185341609887,10.0966746056,3.22210986593,3.59808043138,5.39677536186,-134.123682125
off_to_on,-15.4526438501,-10.9839759654,-4.67047373869,1.2087468528,-1.90314042953,-0.993196460903,-0.664688327095,1.06231973037,0.131609787867,-2.04978948696,-0.00711203540328,-10.0762761024,-3.1072387168,-192.999321828
off_to_on,-11.6821716823,-14.440445823,-6.89674473297,0.0399190721734,-1.87265127405,-1.4173641839,-2.3140637741,3.28746187909,0.261393684839,-9.28185495579,-1.41843788659,-14.4217583346,-8.20979764788,-52.8322286726
off_to_on,0.710036560148,-8.01632990725,-3.34489137596,-1.02993512327,0.0777935343531,2.3096199128,-2.12257191075,4.10191251591,0.222297082098,-9.54423958851,-1.26427138258,-9.59126957179,-8.99919374616,88.2416169594
off_to_on,13.4471008975,2.99726627582,2.66562304526,-1.17940701933,2.65046435638,7.49296987606,-3.84198073762,-0.164156872107,-0.0774138653229,-6.8397056635,-1.59434329877,-1.68616035133,-5.83197564991,70.5246648022
off_to_on,17.0901622436,11.8166308172,6.43767769242,-0.596973441269,3.35015190108,6.54149308079,-4.11343605886,-5.65805858376,-0.433400742184,-1.51112991666,-1.67632166856,6.02604835066,1.63002448884,-25.8659750653
off_to_on,9.1729037952,13.8321944899,5.9938496732,0.0130134284483,1.11862488443,-2.74603612661,0.598499436484,-5.90041808768,-0.477194317891,7.39564532115,0.466101631852,12.0307923949,10.2571414243,-27.6297630163
off_to_on,-4.2415025542,7.29751729811,2.05069832907,0.418292491367,-2.42200322429,-12.1558215178,6.00362243364,-0.777557240815,-0.086419990011,14.2563045375,3.63534317479,12.2352221629,12.624553793,59.1860499212
off_to_on,-13.9949717288,-4.92734501566,-3.32546202086,0.848182803747,-4.38067392212,-11.2097015574,5.84784225457,4.10543169647,0.402845998101,10.8683680283,4.13032853053,3.87762819624,4.93888447853,70.6123126389
off_to_on,-14.3316063706,-14.6429901837,-7.06788624166,1.12715946668,-3.03231561674,0.602853869024,1.48715865321,5.09801361751,0.525351090267,-1.71893258386,0.696786495841,-7.98344166797,-6.77621675264,-38.1604121274
off_to_on,-5.7839639431,-13.8621950561,-6.36505603421,0.575471141116,0.855500206121,12.6198608656,-1.49193912607,3.0292599128,0.216503142635,-12.7379653278,-3.73032872727,-13.962168507,-12.5491532039,-110.959504272
off_to_on,5.90025725162,-2.95702796658,-1.33344780133,-0.842327267377,4.51296895352,14.205720364,-2.98468170471,-0.506067759864,-0.14361829211,-14.1285553945,-5.45707988791,-10.3464502561,-9.07301928135,-40.0158166226
off_to_on,13.2825517962,9.07167371767,4.45715617331,-1.86054518886,5.04734470783,4.74842467331,-6.4466035059,-4.44348456516,-0.243330592901,-7.50423291807,-3.37510757968,-1.44343035937,-1.05135776777,62.6804154478
off_to_on,11.6824289734,13.5879074709,7.1622235081,-1.18899885733,1.70499189901,-7.64928123972,-8.82011634248,-6.07899907249,-0.187034703292,1.86971043751,1.06382501039,7.09200694017,6.11608042346,51.8236196487
off_to_on,2.34355595988,9.4795073343,5.66867382333,0.689910692106,-3.14054437919,-14.2191414752,-2.31895886964,-2.58753245725,-0.200558965826,10.8593810262,5.18318681311,12.1451085777,10.1844128974,-22.211736318
off_to_on,-8.16940704849,0.978419132595,1.21698510352,1.82843077233,-5.63791671463,-11.0367967379,11.3762536213,4.02486536894,-0.206829548719,15.6429411147,6.11991135535,10.9114752388,9.39419948464,-18.6516378775
off_to_on,-12.5324053664,-7.72962204179,-4.13121080188,1.13562326099,-3.80938172163,-0.204129052931,17.9331709948,7.47094901912,0.0210067083246,10.6153868074,2.67124467791,1.68791673948,2.12844243433,47.8658813494
off_to_on,-7.94001277,-13.0649978523,-7.56305828547,-0.355707778487,0.599356365108,10.9879658272,7.55822714889,4.4953331979,0.380812381622,-3.75406209987,-2.85216282564,-10.5134039937,-8.34164544955,42.4078637626
off_to_on,1.98434431731,-10.8639485187,-6.18191740614,-1.00948312104,3.87806119677,14.0291668663,-10.5596545006,-1.42728917045,0.467631800116,-16.412743265,-6.0542681734,-14.9495885838,-13.4372590563,-46.4507596244
off_to_on,9.98810574671,-0.118856617222,-0.120819478117,-0.656459573573,3.90466757124,6.38378280081,-18.3488297242,-5.21644802005,0.140266383926,-15.9650026874,-4.77000306616,-6.55998301738,-7.82811433436,-81.3000234362
off_to_on,10.4634144431,12.3180886071,5.90906439467,-0.295305118522,1.64651506713,-5.19203555038,-10.2719809636,-5.6850371749,-0.246516410656,-3.85808905761,-0.968483834071,6.70823681928,3.59782478072,-8.69988834753
off_to_on,3.41345833477,15.7817176824,6.78830268819,-0.223166418589,-0.644038385788,-11.1095366266,2.69267260907,-3.92382246768,-0.326805778242,8.10495419188,2.20976856663,12.3969558701,10.8130699586,54.5399978422
off_to_on,-5.66674853547,6.78502586373,2.66488570018,0.257435799579,-1.87562226574,-8.50356149177,9.01541872078,0.0733699832048,-0.179407507115,11.93394384,3.77171235075,7.28006845989,9.40299516712,22.7027442213
off_to_on,-10.051827183,-6.69146787431,-1.69922142147,1.16830915295,-2.32068121598,-2.0647087774,8.38739763871,5.52016804701,-0.0843876993139,9.24004102668,4.15456151597,-1.44354679778,3.06703392569,-24.2711461498
off_to_on,-7.03962752747,-13.6763933212,-3.11592546514,1.25241841914,-2.11064415757,3.44044333445,6.03649537536,8.24640101363,-0.051235545682,3.90272825129,2.94110175459,-6.52862792426,-3.13968715918,4.32455433566
off_to_on,0.276609134111,-10.6771954951,-2.79240345412,-0.170024557687,-0.739167653146,7.25228203719,3.11732843455,4.679738148,0.0984388487629,-3.29262157646,-0.447659929771,-6.88874576094,-7.4382506043,49.7423458607
off_to_on,6.33180104126,-2.11685599035,-2.49030726803,-1.72973221541,1.62404052303,8.90410441089,-1.97295775736,-2.43676309735,0.304028575434,-10.3844163659,-4.37468542404,-4.09715652125,-8.86926197094,15.7707759669
off_to_on,7.91599930462,6.37521193186,-1.22332737252,-1.57312825759,3.24309304181,5.55933934132,-7.26973671146,-6.58934658443,0.28717723889,-11.5266634745,-5.64243361195,1.10834771032,-5.26252017682,-55.162782822
off_to_on,5.44544119952,11.3124402189,1.97197029792,0.0975254762978,2.28168793272,-3.47982891268,-8.56664688621,-5.64641435792,0.0109217065309,-3.85897366219,-3.0276178236,6.61484835815,3.07247832425,-53.1523740801
off_to_on,0.523664112667,10.0604745312,4.50173351369,1.32848993892,-0.809422266177,-12.3464181308,-5.59107056112,-3.24311553735,-0.214483960472,6.56162585289,1.30338184783,7.87511418556,10.3692856811,11.6064263117
off_to_on,-5.48560970584,1.84481388641,2.92933097664,1.11318773706,-3.19316143322,-12.8459351373,-1.48517320391,-1.61873128854,-0.182649964803,10.8105375785,4.31561320792,2.78724782852,10.1122371885,33.2850307036
off_to_on,-9.83754443457,-8.61464265785,-1.60706866631,0.395021994304,-2.50236135002,-3.16215742912,3.19212160778,1.80286606146,-0.0618207383917,7.14673047363,4.73499275877,-4.54844725182,2.39843271216,-5.14650493665
off_to_on,-8.18440882525,-12.8378653877,-4.09525309224,0.114548994321,0.512875366816,9.70657504371,9.89515399777,8.01985419679,-0.0623633529989,0.774445057188,2.84225368801,-7.96920582547,-6.09005362224,-13.9263626429
off_to_on,0.725901111285,-7.08981705169,-2.11775910769,-0.242243483924,2.7830460647,16.1095506496,14.596396223,11.1334640805,-0.0911455546673,-4.31201481997,-0.62087676424,-5.80520920118,-9.38746039257,33.2014469732
off_to_on,10.7628663043,2.97200164524,1.31759927689,-1.22027950677,2.29130169493,11.3958705247,8.27375407472,4.67267142558,0.034485172829,-7.80090629851,-4.13955891056,-0.974787259137,-7.09346658431,48.8726049717
off_to_on,12.6327946043,8.74794989084,2.40936066006,-1.7581398241,-0.00945911452671,-1.17476097054,-9.63965615307,-8.10379032734,0.218869679246,-8.26588633448,-5.2736530822,3.75592684592,-1.96828181076,-10.6243960795
off_to_on,4.00333015903,7.8977358458,1.29709928745,-0.522962549573,-1.80601161145,-12.9962449902,-23.5041355696,-15.4014764554,0.21573010248,-2.61703939938,-2.64004644622,7.35314838297,3.95547333359,-61.5846467921
off_to_on,-7.09564011757,4.16660179152,0.306549139712,1.65098224034,-2.10277361271,-16.1291527755,-16.3333133458,-9.74607398148,0.0275196036938,7.26628374822,2.02371403812,8.12522739741,8.91271264432,-30.8114038078
off_to_on,-11.0237767092,0.0847583936896,-0.282143074007,2.36215144281,-1.51928309676,-9.03308954705,7.54232177111,3.50848682822,-0.10485023369,12.6029071846,5.00963284533,3.68802235545,9.55775461076,24.9896935454
off_to_on,-6.61668977412,-5.13414768217,-1.79654367108,0.828378473876,-0.51734735634,2.80229929458,23.5832803436,12.2821687585,-0.0849904642887,6.8984114702,4.11867535787,-5.12525251889,3.33537738078,20.6798333723
off_to_on,-0.0433411691069,-10.0888193923,-3.4536031739,-1.04500019195,1.22049031695,12.0421501716,15.1032553396,10.3013335431,-0.0615180220909,-5.25547182765,0.431156388924,-12.4861163863,-6.86410445121,-17.222483229
off_to_on,4.17282410045,-9.1428991722,-2.35201826088,-1.35312259585,3.28123320456,14.6567670168,-6.53162051513,1.69529679572,-0.115371558912,-12.5151437975,-3.16255375706,-11.8278499976,-13.0906171756,-9.63664963043
off_to_on,6.53531745665,0.353539513584,2.08679725079,-0.584555501289,3.72715411232,10.1910898466,-16.5789526327,-5.2886229608,-0.111469187541,-8.97491588798,-4.33962479081,-2.00886138593,-9.38699736344,32.7304777965
off_to_on,7.4039299907,11.7121964754,6.06519449318,-0.30827027209,1.10098134774,0.0900815050542,-7.21880693138,-6.45506027371,0.0359776273472,0.986963386358,-2.47740180578,10.8500994683,1.88482941104,33.9118084732
off_to_on,4.03863158252,14.3675445395,5.35339324966,-0.561080185562,-3.1613024668,-11.5046084568,6.1282744889,-3.53078265398,0.174919794883,8.98421825928,1.22012720305,17.3074278687,11.7015860979,-10.4037831437
off_to_on,-4.17326591101,5.42824845933,0.121165165177,-0.081897032801,-5.56615052113,-17.4113893209,7.78356330233,-0.286073568873,0.1443079297,10.1590528931,4.1456395575,11.4422713589,12.36267756,-29.7660374928
off_to_on,-11.2080570883,-7.37713121965,-5.42241901524,1.25989855505,-4.05247560301,-12.3806175769,0.374310744194,1.3959124373,0.0224809939558,4.71181660098,3.86715146069,-3.7722824938,3.80343408654,-6.27722296643
off_to_on,-9.73383834794,-14.1652799286,-7.33905117071,1.9177276125,0.0973348446561,0.78363481467,-3.86332394379,1.91302910164,-0.0236804967779,-3.8462311209,0.378440795657,-17.2084237922,-7.02354279873,1.89347435826
off_to_on,-0.137183498405,-11.3057231184,-4.72160830474,0.869960086202,3.91934559443,12.8106829675,-1.49028719396,1.97013461684,-0.00763367104988,-10.0769525489,-3.43836848017,-17.9460692742,-12.048776574,-22.3545371649
off_to_on,9.32989985239,-1.62099951861,0.845836055507,-0.900140857157,5.40690926351,16.3965540793,0.919858623939,1.42379740702,-0.0509876533042,-9.22490604164,-4.36014108924,-5.13538862056,-8.04296573416,-19.5224509484
off_to_on,11.3824874224,9.36054685853,6.51101718525,-1.76248534146,4.17785516931,11.1303703963,-0.355071345442,0.112844995443,-0.13150471903,-1.47914736227,-1.88230359118,10.7339389973,1.43275137299,29.6132700278
off_to_on,5.84334315531,15.2905810523,8.78418555912,-1.36048876674,0.742734688897,0.735639803592,-1.52292529085,-1.15078264406,-0.111593830442,7.12186973782,1.61646017123,17.4613177183,9.05611679676,51.3466947214
off_to_on,-2.68316972939,11.141875933,5.24219329593,-0.443589317569,-3.57887633014,-10.4206024531,0.558277869676,-1.2813017539,0.0140459415318,10.0021390027,3.5013084637,11.7237471685,9.4943418771,1.74654325279
off_to_on,-9.435869801,-1.88754389207,-2.65207963234,0.458222370755,-6.37814121636,-16.95079865,3.24405212517,-0.355920815884,0.0986508456663,5.9945877945,3.04779906023,-0.15105124716,3.36733747072,-46.0722055136
off_to_on,-10.8185799058,-14.4825096727,-9.22281304872,1.228796182,-5.33945585317,-13.4368580554,3.15394470081,0.452676286614,0.0797433207572,-0.920379133252,1.14772189491,-9.89504925221,-3.99881102559,-16.2516996802
off_to_on,-5.165684751,-16.310825741,-9.00696294682,1.47592558879,-0.553309312946,-0.174999222016,0.753898693783,0.380270400122,0.0516956496758,-6.42905040235,-1.11655351811,-13.3529286587,-7.61118419021,40.8058572178
off_to_on,4.64917316229,-6.09998809229,-2.14576803735,0.746440788474,4.80344982609,13.8325247121,-2.2188498491,-0.23007790021,0.0664333193533,-8.46849253156,-2.95733733415,-10.0374422703,-6.39543996992,30.0391388387
off_to_on,11.4768488089,7.36646024333,5.49324912175,-0.540502060264,6.8292389108,17.6931355886,-5.01600572482,-0.76649332401,0.0396532591029,-6.19274285717,-3.50139301959,-1.09518364815,-2.26879991373,-31.720924475
off_to_on,10.0555938807,14.3940856252,8.09323442851,-1.26386792433,4.18076241332,8.81847546096,-5.53311860203,-0.988476343759,-0.0700688949984,0.185872246503,-2.0088232751,9.70296070757,2.67602642091,-51.1087371037
off_to_on,2.30166559989,12.1726625477,5.11067947556,-0.93850041156,-0.930039085829,-5.27538269961,-0.990384697126,-0.595616336402,-0.147740383392,7.4980875346,1.09489482514,15.3495901137,6.79398062257,-15.7557850767
off_to_on,-5.56574135034,3.74684090754,0.297140354148,-0.216244473307,-4.77168652613,-14.3210670077,6.09976778276,0.790367608209,-0.0958027562352,10.2644858622,3.87338876563,10.3272515052,7.80179714461,6.03485905603
off_to_on,-9.69256956472,-6.47975347762,-3.22039887575,0.176063931429,-5.05128517022,-12.7831637839,8.05886275644,2.56075185748,0.00637124080832,5.69666633398,4.22025869954,-2.75747967546,3.71797105536,8.26756156711
off_to_on,-9.65411807984,-13.7632303677,-5.08304981532,0.318084555963,-2.26966687051,-2.33809379066,2.33582779938,2.96337358676,0.0419065725808,-2.71765904158,1.74828518115,-13.6115584309,-3.98398489694,50.2653515716
off_to_on,-4.85323508135,-13.0903171846,-5.31437281553,0.536681362665,1.24678824732,9.28114303554,-3.56417597385,1.00265299545,0.0457916135046,-8.42300039243,-1.80419704792,-13.5565285987,-9.76969238424,101.857041729
off_to_on,4.84671874569,-3.20020592386,-2.6134458153,0.616033764155,3.34332751062,12.8449815345,-2.95467518855,-2.07552908744,0.101859898238,-8.21131017799,-4.07552016222,-3.94608423653,-8.6175747447,42.1345854639
off_to_on,14.2075102148,9.5535157331,3.038032973,0.206331022768,3.24993438667,5.40996858225,-0.446762558428,-4.11655775556,0.135736376941,-3.97958437736,-3.85507813606,6.06628579795,-1.22367563093,-122.860194523
off_to_on,14.0170941812,15.249666395,7.67234194059,-0.375742929887,1.42777546923,-5.73068390464,-3.51376857511,-4.23010952054,0.00886325123489,1.15578610957,-1.54259385748,9.48371535528,6.49698279429,-193.77287259
off_to_on,1.53478074884,9.84787125459,6.35534526862,-0.477311205732,-1.05395360947,-10.115481685,-7.80403912314,-2.55324110724,-0.199742062918,5.8186663529,1.52398956204,7.07235650377,9.1221093374,-46.8426436267
off_to_on,-13.3309689414,-1.2310591801,-0.5985048007,-0.0959579128045,-2.80754471812,-5.47329924003,-2.27620290421,1.14355760866,-0.220475971503,8.78559246825,3.79274420775,3.12659684309,6.02082098309,154.089253273
off_to_on,-16.9396026622,-9.46044321094,-6.82716127107,0.134687591051,-2.55203207973,1.40746903058,11.2257412783,6.35198660895,0.0289127064776,7.36965667382,4.02032081945,-0.873688805138,0.308465625482,169.455608429
off_to_on,-6.51405761773,-10.8485297715,-6.71580492379,-0.0590441881339,-0.218029089416,4.89063432952,16.1387967296,9.47644373272,0.269653098309,0.35409686337,1.94361927183,-5.58029498293,-4.65606231183,19.413088438
off_to_on,7.53234167055,-6.62144811686,-1.41717117378,-0.258053875748,2.3635378228,6.00324715535,3.77446494882,5.73239622679,0.1988011915,-8.24774641506,-1.30512180092,-8.88239959609,-6.96035403158,-77.019594382
off_to_on,13.4426010168,0.342163389955,3.41491990948,-0.138420452224,2.78439075209,6.11224912388,-12.8698188833,-4.57491913179,-0.111511139655,-11.4914747627,-3.84620446902,-6.51110556539,-5.92519983255,-46.5844371372
off_to_on,8.8201375351,6.89937692214,4.42456230678,0.0494468036409,0.582012224118,1.95394536869,-15.9276138909,-13.5679875652,-0.306489897875,-6.61202153607,-4.33853572756,1.35888426575,-2.07412715181,-26.1688005179
off_to_on,-0.436259289052,9.4133202987,2.84732572737,0.0805110393664,-2.06313277436,-7.4864697382,-5.33186444138,-12.5987593032,-0.188488855862,1.99865873206,-2.55883493529,8.04664264063,2.7289852133,-73.5896153653
off_to_on,-7.47885277388,5.94672826365,0.886054890272,0.231387673523,-2.65963905014,-14.0168209267,5.11588138543,-1.58340862334,0.0907472838593,7.91034901509,0.865802517163,7.75278434772,6.18566233143,-53.6366328351
off_to_on,-8.72812301517,-0.950913749145,-1.13827041244,0.660128591086,-1.02562294724,-8.22134361161,8.38676280713,10.4833588601,0.269905384294,8.86127668606,4.46996087447,2.50554208337,6.82982569698,92.0303910628
off_to_on,-4.21393961013,-6.05786451724,-3.24464139295,0.786839042808,0.979452274096,6.65112261857,8.71739670187,14.5402824735,0.25235872141,6.36285375481,5.85972591815,-1.56540026943,4.23559906196,177.418154005
off_to_on,2.65484626244,-6.61896963117,-3.93427948336,0.000562860328098,1.87762791893,16.2288635884,7.86927868711,9.17239116293,0.0959555200236,1.43677574678,3.14568916325,-2.80645859332,-1.10876713499,45.3957938322
off_to_on,6.72621673004,-3.99819124601,-1.83169686083,-1.21241531826,1.76459802341,11.7044999806,0.802605846922,-0.632919922251,-0.120454321757,-5.61162567573,-2.49563817171,-4.25841525826,-7.00234444809,-149.90808501
off_to_on,5.33462122891,-0.372992781183,1.88491469403,-1.59595332131,1.17135760653,-0.970266405949,-11.6149524483,-9.31988408886,-0.303580477608,-11.517521375,-6.65139392184,-6.05351138429,-9.40543733907,-148.005967666
off_to_on,0.798624410535,3.52096367501,4.35659096449,-0.660787988812,-0.0336386606981,-10.2673868444,-17.330346775,-13.3447414074,-0.313810908228,-10.4807666438,-5.61727563193,-3.60372131586,-5.32707493165,26.2518838714
off_to_on,-2.77343850405,6.50144903912,3.93621644883,0.729220057928,-1.88392494558,-11.4927701655,-7.8755175565,-10.46927549,-0.0864769265622,-0.879867264311,-0.425945842796,4.25600303651,3.32234076414,113.002668015
off_to_on,-4.11308199099,5.74996316864,1.16582963991,1.47602341089,-3.20022211115,-6.986843816,8.7881731793,-0.777820832386,0.222400126535,10.5031884578,4.2476541924,10.318888252,10.060172881,24.5003958733
off_to_on,-4.25732133692,0.126488888754,-2.39190104595,1.34202043793,-2.3716880567,0.26908849073,17.4651238195,10.7948065126,0.346212111717,13.9834879494,5.1188802757,6.93313469743,9.27842712411,-50.8540728861
off_to_on,-2.84979317882,-6.60579045796,-4.91604758641,0.649607893302,0.608251680045,7.70858123202,12.8881596294,16.0531121515,0.200780619706,6.62032427219,2.90627522712,-3.45121314633,1.37193705803,10.8542021557
off_to_on,1.46621221536,-8.50819057535,-4.53079749298,-0.411174122852,3.56316257315,11.0696372657,1.30602149555,10.3273379347,-0.0306590260377,-5.13687209652,-0.0205494425443,-10.391182212,-7.55494448318,71.9653592364
off_to_on,6.85421915347,-3.51294584978,-0.684682115995,-1.5306945268,4.00649029111,7.24146548136,-9.96519372157,-2.55990418008,-0.14196877343,-11.9271662025,-2.51285975448,-7.48539715242,-10.5465811628,-5.94421949653
off_to_on,8.19247425096,4.60018787419,4.29527599582,-1.84452997904,1.4867522225,-1.13456173184,-16.3499879597,-13.2083482083,-0.126748251894,-9.23332511775,-4.07335317512,1.61164359934,-4.93932213483,-110.75952193
off_to_on,2.97543544896,9.81060608656,6.46481088744,-0.712269434117,-2.00477960741,-7.77628330751,-13.042751137,-14.4502620354,-0.0936144257638,0.148518405649,-3.38224597785,8.84007070555,5.29193388581,-67.5461991595
off_to_on,-5.04510558229,8.17026963093,3.87661405261,1.09857291969,-3.81543387293,-9.10973912184,1.22189350873,-6.32372490579,-0.0757143279387,8.70666192658,0.153708560666,9.23603425665,11.5953272813,65.0208954252
off_to_on,-9.86602894171,-0.17260792227,-1.60693524657,1.90137264096,-2.83638135754,-5.83270186385,16.7485198256,5.04817271595,-0.0432850744309,9.42338637895,3.97303661219,2.56116702814,7.4966512209,92.9527756742
off_to_on,-8.90272229988,-10.3552028501,-6.15812637992,1.04541867477,-0.216824033149,0.120701029632,18.6801388064,12.0732437804,-0.0153336896628,1.48892622256,4.14076429655,-7.57349878764,-4.47640417391,1.59967554918
off_to_on,-3.13873742613,-14.3375469494,-6.80800790374,-0.328873625441,1.908991711,6.30247835939,4.14849595379,10.4670193442,-0.000983225657466,-7.8325242695,0.280304599521,-13.9299310049,-13.431992694,-43.8635362225
off_to_on,5.46258637332,-6.79573135496,-2.79944564731,-0.866604010225,2.37557150525,8.82211487706,-12.6260769263,2.12365011299,0.102005516015,-9.25702911998,-3.30077419708,-9.4070139832,-10.2356269239,11.6012370995
off_to_on,13.3068540051,8.20244794166,3.90807227702,-0.612878575093,1.64466372101,5.43382809535,-16.2815888655,-6.13119392062,0.335331547168,-1.19835110993,-2.72603526242,4.94878351266,2.69322329602,37.8162138387
off_to_on,14.0835121328,18.4492866699,8.75817222297,-0.419079728449,0.647695405363,-0.658959157291,-6.44083618882,-8.26302857766,0.432507526849,8.01947677037,0.694032563279,17.5661127218,13.4646172796,-33.2160891759
off_to_on,3.79440816012,14.4601236607,7.26827788944,-0.38023283095,-0.458090865288,-4.34257261866,5.58862478471,-4.34004077999,0.0482550529719,9.27018645934,2.53953082431,16.4310166819,12.8514195928,-83.8072373041
off_to_on,-11.9787600586,-0.964488936703,-0.36704333646,0.100443218392,-1.84358085239,-5.38720213588,10.832413484,0.633079750424,-0.645558812892,2.3945404151,1.11458909476,1.78926482161,2.6418224577,-18.7341627736
off_to_on,-20.2091811557,-15.4371642137,-8.10686897606,0.903398480226,-2.72471989948,-6.62902166971,8.19700556564,2.90750121767,-0.908495565691,-5.14944555366,-1.04102008402,-13.945472803,-8.15719321871,67.9604172148
off_to_on,-12.9972733152,-18.6216411854,-9.41800305186,1.01782958771,-1.68150960962,-6.05533168813,0.55562488701,3.03084796415,-0.282277237737,-7.65671297929,-1.37045613109,-18.8377885281,-12.6325999062,53.0731154598
off_to_on,3.75991274677,-9.86070226815,-3.73751277001,0.0717323290491,1.25720437916,1.62748252,-7.50833194185,2.5218745049,0.692422224898,-5.74347462582,-0.569075272664,-11.355751308,-9.87215841675,-15.3495462286
off_to_on,16.4429477684,4.10489167019,3.66369774048,-0.923776506125,3.70981853205,13.3096471805,-9.76543417983,0.768115464594,1.00524484053,-2.12054937434,-0.495244717004,1.73870181959,-2.30804382033,-17.2273935495
off_to_on,16.8172662718,15.3048304452,7.64480355524,-0.922188547738,3.12934540091,15.7815260806,-3.30193277016,-2.44493227516,0.389959078596,2.6093661729,-0.748762267837,12.9429227169,6.84500387618,30.2574550539
off_to_on,7.14822280862,17.9620631915,7.07553643403,-0.194003430561,-0.25911332359,2.16668381429,5.92641881045,-3.96809863895,-0.39700727576,7.7595259285,0.470516090655,17.4125315112,13.3262882437,17.6433609682
off_to_on,-5.11592496386,10.0426456991,3.22970808762,0.346535963083,-3.47522117042,-15.5970780896,8.30652619502,-0.842992501556,-0.593746475615,9.5886802538,2.77564643228,12.6598244272,12.5817442544,-52.5464879495
off_to_on,-13.4567768337,-4.65868040124,-2.48250636321,0.518665232082,-3.78113787399,-18.9060702035,2.65598646535,4.12122279302,-0.297656763861,4.62881287617,3.28877434771,-0.119568629624,3.56706897852,-66.6678063871
off_to_on,-13.8817038725,-16.8944465665,-7.68810977585,0.67794861364,-1.13749631043,-4.76877462668,-2.37839126412,4.71271136273,-0.0617454960969,-4.64640854612,0.538968306102,-14.0849994489,-8.64499679832,3.25488301207
off_to_on,-5.86496108533,-18.10491292,-8.59089034004,0.612315659892,2.19868253274,11.6021780094,-1.13628053673,-0.201931854145,-0.0203165465069,-10.9217509253,-3.14317646106,-19.7423799078,-15.8328406594,54.18096131
off_to_on,5.65019311017,-7.79947983468,-3.39570161229,-0.194357248773,3.76756648593,15.5426304569,0.853390145621,-4.78157585309,0.113433051074,-9.58754977927,-4.35546584937,-12.6074994076,-13.0556554649,27.2370395967
off_to_on,12.3298332019,6.13425996785,4.40329152272,-1.26119432119,2.57422406323,6.98770066635,-3.60451710434,-4.35576349689,0.366130334577,-2.9425274097,-2.56167674468,2.29652261596,-2.35835160585,-8.08428166644
off_to_on,9.84713503492,14.7721908231,8.67227803185,-1.29471150901,-0.384535090343,-4.36687742153,-10.1755883011,-1.2297293916,0.378519683152,3.79869518531,0.152207103477,14.5757201782,9.29155608485,7.17088957054
off_to_on,2.07483259795,14.7057193004,6.80082037235,-0.0303868904405,-2.79386037767,-10.3270699304,-7.14913486253,0.497238907133,0.0271551301189,8.07396074319,2.3228307837,17.0793814884,15.1839663871,21.8445442537
off_to_on,-4.1355544567,7.75220377865,1.50482076802,1.1615140158,-2.88981516882,-8.33320457431,7.2663567758,1.7395517809,-0.303771057198,9.71374669093,4.00112067121,10.2766601384,12.6173281809,-13.5831130061
off_to_on,-6.51208740208,-2.66592851354,-3.32694346471,1.1010430182,-1.14591230984,-0.797705060182,19.1640776071,5.11259374237,-0.283825342385,7.48457293316,4.53327745043,-0.600852893545,3.323904807,-42.3702086536
off_to_on,-6.88344258009,-12.4784900549,-6.15552959272,0.309415349341,0.437560076111,5.98732447599,14.4714108012,7.57237587858,-0.0979409067799,-0.160921966997,2.07682024284,-10.4609754195,-8.04470538439,-4.99306721722
off_to_on,-5.22826473221,-16.2508521436,-6.59780524039,-0.0952590919616,0.977437855488,6.49935219716,-3.77025781002,3.08884445781,-0.0594015240488,-10.3764948909,-3.18809257563,-15.6901263916,-15.6080714226,35.9041379861
off_to_on,0.595490736258,-9.91540971629,-3.63993607814,-0.163090566379,1.58310751545,2.21159943007,-18.6118610389,-7.06871400299,-0.0678402211288,-15.3557918738,-7.18687760056,-13.2275765335,-14.4067631571,-8.33276814362
off_to_on,8.5172506132,3.88332985934,2.44805024386,-0.619429681759,2.83813271109,-0.663542342718,-18.1014749536,-13.0510804676,0.14894502856,-9.37915183099,-5.73186172337,-2.31286497007,-3.79236801257,-81.9118959996
off_to_on,10.9551011343,15.3802016384,7.81068447097,-1.15769881553,2.78429624145,-0.807823913794,-5.93339259214,-8.08700560524,0.433638394905,4.14796945364,0.220833803677,11.7692991695,10.1842244159,-43.6957001316
off_to_on,3.5586063008,15.5659998687,7.66850203824,-0.686670013329,-0.592843107058,-2.99908292636,6.74760873431,3.10599436987,0.324187247916,14.8209739018,5.26896269705,18.9238862689,17.6585066844,105.915886408
off_to_on,-7.57388470602,4.83340383793,1.74403345357,0.711953674141,-5.30874797883,-7.32314158266,13.919074315,10.6542974548,-0.198339129138,14.7875951887,5.71835708579,12.7850428741,12.878423196,183.299865617
off_to_on,-11.6853897177,-7.55774515213,-4.88292022993,1.49648226476,-6.31628358935,-5.55478619448,15.3237532413,10.4503954897,-0.541196729187,5.15099395361,2.97389622341,-2.18595331591,-0.283810796205,55.3039860337
off_to_on,-5.50529485847,-12.6883657797,-7.04582256076,0.794744855683,-1.4881527838,5.39982319783,9.81455974279,5.1592251048,-0.282289404108,-6.67799870159,0.186359221176,-14.4115073384,-11.854626521,-168.585430358
off_to_on,4.02466039787,-9.27432883644,-4.26932217628,-0.379060854205,5.10438952482,14.0819090232,-3.61306346858,-1.93011291071,0.219259596388,-13.6743690292,-1.99911298863,-15.9474215766,-14.702021096,-247.35770722
off_to_on,8.77935495287,-1.91046196247,0.225976477694,-0.7327665897,7.39956118072,8.36036602062,-17.9850790761,-8.58687666693,0.314177423206,-12.5845502056,-4.32344931217,-7.82808445361,-8.97967915927,-83.0612855869
off_to_on,7.16276151852,5.05902082091,3.54333080898,-0.446367826971,3.80269387812,-6.0762954897,-20.1080348778,-11.0581980736,-0.030581011617,-3.8515973993,-5.3755880509,3.88710856253,0.94640518584,166.388384287
off_to_on,2.10558023382,9.50274967903,4.69286198765,-0.337224235779,-1.96376941598,-12.6177859546,-5.61934959349,-6.1490212663,-0.213292484687,8.09609726506,-2.55547723086,13.1581208736,10.3677743429,252.268436652
off_to_on,-3.99375217802,9.21747730897,3.4409013185,-0.21461373906,-5.48338404389,-6.85977057221,12.5600415939,3.19736337715,0.105585126664,15.2122180794,3.23800953383,14.755570001,14.3839737076,95.4493178537
off_to_on,-9.04124730064,2.37150773001,-0.0119025865895,0.529091317513,-5.25118800999,0.00837749050776,17.5486812288,9.24018579785,0.467881639488,11.0459207465,6.91288881761,5.875172592,8.8936007704,-130.23572036
off_to_on,-9.10438820377,-7.96085062107,-3.85700978989,1.20727033545,-2.21023589512,1.34232645738,7.97951659343,8.0596537962,0.225900816707,-1.93619183559,4.82199311817,-8.72395177946,-4.19207464816,-189.594360097
off_to_on,-1.64002605771,-13.1523716792,-5.04795561306,0.438112885194,1.87319767721,3.86524343737,-2.79997742757,3.11922477814,-0.502473497115,-12.6482217634,-0.712922864244,-16.8611704928,-14.7852545617,-52.1863184264
off_to_on,9.01760582555,-7.05374940331,-2.20087955807,-1.39475971901,4.8438216144,11.051628746,-5.67491316597,-1.07477995692,-0.850267649569,-12.0084888537,-4.36036363573,-10.2916466866,-13.032390213,86.1840688371
off_to_on,13.5653706205,5.76716342032,2.44566997086,-1.96081321439,4.79671423729,12.1122649488,-4.83416217143,-4.36278989079,-0.268068154511,-2.34936802548,-3.99786180453,4.72013894074,-0.653694018754,67.5092642862
off_to_on,7.18565026691,13.3860868821,4.97757154694,-0.0849949156467,1.69646221511,-1.24340060693,-5.91034656409,-7.32040006163,0.696781044974,6.21753409131,-1.80910745308,13.4248939445,10.1933081212,-28.0313545928
off_to_on,-4.86441699752,9.12476748026,3.57035795595,2.25746355776,-2.26291743581,-17.3094064326,-5.15497751367,-6.83890144081,0.977802670387,7.65012520687,0.00778538718164,9.39149454687,10.6762701864,-28.1337424064
off_to_on,-12.6454275471,-1.80490142273,-0.257340061426,2.29352652772,-4.60978264721,-17.6941143132,2.18072215558,-0.391125739824,0.274529706003,4.61578526183,1.6824674794,0.0411017717393,3.95066146743,60.0814059764
off_to_on,-11.0323812756,-9.36385409701,-3.67929253722,0.0277995832873,-4.32608550513,-2.66284230386,9.8158170766,7.59646375548,-0.588490713534,1.6261299098,3.42467689304,-5.33231693481,-1.86649899005,72.1407752513
off_to_on,-2.66620347759,-9.36403421412,-4.79434959847,-1.94199658512,-1.58649710554,10.7659016682,7.43399047701,9.23448632381,-0.710047848521,-1.33498056647,3.36561342098,-6.3105910628,-4.51638853279,-36.6416847138
off_to_on,6.4030602776,-4.65323335034,-3.00912050951,-1.86988627491,2.61688180663,13.0037670691,-2.87166875798,3.01325959412,-0.183113286358,-5.52333400254,0.152913847464,-6.45815060945,-6.58434498732,-109.83218184
off_to_on,11.3249786472,1.39138136683,1.14143413853,-0.61764804289,5.77857638145,9.45726595416,-8.05265537264,-4.34513472678,0.209572958688,-7.80938612633,-3.82426529958,-4.23850306039,-7.12131534562,-39.6542419489
off_to_on,9.7496244506,7.57060714076,5.46943036744,0.241373128942,4.75547058296,4.6272558861,-2.82283826014,-6.49226347231,0.137371732841,-3.67333429551,-4.42482434723,3.53168692382,-1.78299691743,61.9779388329
off_to_on,2.20423861002,11.315843605,6.50125849917,0.590921991696,-0.579784985068,-4.64389662734,3.49265846943,-3.83372990838,0.0315464977251,4.96372412292,-0.923952278791,12.0368605192,7.99094125876,50.3509195392
off_to_on,-7.22416095581,7.98116047307,2.33461634115,1.14275642789,-5.63427156547,-15.6447468477,2.39657016728,-0.217563193142,0.22831012757,9.91393401886,2.92376427797,11.1710556445,12.7961550439,-23.5174709724
off_to_on,-12.4000493183,-2.95479988973,-4.46216577762,1.64022216059,-5.49248511616,-15.5830969459,-1.39035077579,2.51376120584,0.381770856066,6.18098959275,3.51411522416,-0.64966584689,6.19481056472,-19.0614619633
off_to_on,-9.49760404679,-13.7712530435,-8.21176733189,1.03689386443,-0.74903762375,-0.485847822481,0.112221126484,4.14619720005,0.0711388456469,-2.18847245408,1.29792645484,-12.3274142779,-6.17384112803,48.1905049794
off_to_on,-0.246415099662,-14.6966433792,-5.48821928151,-0.705715431848,3.36975189046,14.1244564725,3.81932483281,3.59875626908,-0.425713658774,-7.53361599437,-0.87910942176,-13.0018707288,-12.7272292677,42.9034967743
off_to_on,9.32570671861,-4.17262477741,1.33524207448,-2.14342184179,3.64030822899,13.1448651756,1.2194651891,0.329865275613,-0.484318261115,-6.94288383469,-1.68180941924,-4.05887875927,-8.86123221302,-45.9024272009
off_to_on,13.0971323384,9.36257614714,6.57570938748,-1.99880534835,1.84033536866,2.67668379661,-6.01321425788,-3.36243387746,-0.0675633511685,-2.8120459062,-1.81090546753,5.35108704247,0.245280155237,-80.5246510776
off_to_on,8.43351574095,15.751750552,6.73979404345,-0.576685961085,0.54946849046,-2.18812586689,-7.28420604055,-4.46600948554,0.246294668502,2.19547944131,-1.5830032928,9.94438354406,7.65160312636,-7.98195356941
off_to_on,-2.26127983428,11.343814435,2.80362318849,0.85284708704,-0.721490344867,-1.66619154505,0.339863246234,-2.80082589438,0.155889123121,6.74224203904,-0.242849983265,10.1250667444,10.3380321417,54.5748690228
off_to_on,-12.2311832141,-0.0718621647881,-2.10155689881,1.53540386515,-3.01344945395,-6.45523258049,7.30622575823,-0.1521934201,0.006039137345,8.3469213002,2.0257454419,5.84147573685,7.51688144565,22.0049755832
off_to_on,-14.1270478995,-11.1062716677,-5.47791862138,1.56857191538,-4.22511793455,-13.5406483613,6.03983553323,2.78927321243,0.112925349874,3.99645797803,3.24633983702,-3.66751586991,-0.581925935855,-25.0192241489
off_to_on,-5.7540859671,-14.8374195117,-5.88163882081,1.12228187389,-1.52650496545,-7.39203359622,1.09592368206,5.7117778987,0.233867614384,-4.96142510228,1.87875658934,-13.7281290925,-9.7994221827,3.99653594142
off_to_on,7.14138601247,-8.58611364095,-2.74587759688,0.0839997907396,3.48233470769,12.0798491227,-0.228638627701,6.03374206608,0.0388278452212,-11.4586951756,-1.06572685975,-14.9465244306,-12.5444546338,49.5810209169
off_to_on,14.9554027337,3.39418048057,2.54159924832,-1.34887680472,5.62796688861,22.3991785731,0.095742051711,0.973740049906,-0.280158150845,-9.13028982197,-3.13363204089,-3.86894158218,-5.4219120396,15.5073525308
off_to_on,12.042760492,12.171082965,6.31645720517,-2.25201742434,2.61120551952,8.7539566913,-4.14631308041,-7.12043061258,-0.305973952752,0.555502971391,-3.03232604471,10.8022004308,5.59931009408,-55.1851778871
off_to_on,0.861580690439,11.6173924471,5.38685144759,-1.67337843529,-2.22964464573,-13.6553352489,-10.6449816122,-11.0255495149,-0.0611590822754,9.49132446513,-1.25239932793,16.5683724343,11.1600948904,-52.5510583208
off_to_on,-10.6344148412,3.77097349247,0.490902144435,0.21738202326,-4.4235840786,-19.9444318226,-9.54023573723,-6.15365281768,0.0883187961632,11.0560953167,1.20681485401,10.038483287,8.46701859048,12.4764434295
off_to_on,-14.7882959482,-4.27888010844,-4.10446278943,1.97914476377,-3.14683400047,-7.39688477605,2.65729984922,4.05612995019,0.0619098512696,5.58609273099,3.39529209613,-1.45209857643,2.15581557581,33.7131592688
off_to_on,-8.81584930356,-7.86987658303,-4.90143168524,2.15248380332,-0.390709420929,6.75844470539,16.455234517,11.588455423,0.107468195097,-1.98112056316,3.94015239177,-9.41450668215,-3.3389725868,-5.29793512718
off_to_on,3.36373818458,-7.39722954247,-2.3171151331,0.690321276039,2.15712938975,11.4112037067,18.798806247,11.1433687642,0.23957643912,-7.6243757229,1.67508926602,-11.449363079,-7.60394657709,-14.240703244
off_to_on,12.9988563081,-4.62438704034,0.715771917055,-0.989277152942,3.49942772037,9.61316033538,6.11451449662,3.30107156406,0.151966187192,-9.97544131269,-2.50443711723,-9.08474522741,-10.0264942063,32.9036256478
off_to_on,12.7436074635,0.174112063122,2.22763407447,-1.4557577717,2.55037669672,4.62589101021,-12.6152632879,-6.99551363588,-0.186281094672,-8.1443254645,-5.42769485062,-3.00759513821,-7.0275820588,48.3931093743
off_to_on,3.31219999511,6.1653574416,2.40508509453,-0.664970186147,-0.518692834434,-4.82530711931,-23.1407526044,-13.1783822355,-0.337107926905,-1.13391860889,-4.38196292636,6.19774886655,2.72842316912,-11.2047499746
off_to_on,-6.89516574301,9.70632639829,1.99352970418,0.23724847011,-3.11049778287,-13.8072562227,-16.7059560758,-10.5491489816,-0.0602069163111,8.98297161807,0.0928484020291,14.1912906408,12.9784814292,-61.7581338226
off_to_on,-10.2133645737,7.02400334482,0.931254715494,0.384715412057,-2.72477994097,-11.3616955779,2.48572187753,-0.328098562718,0.239944908287,15.3212191662,4.63372578236,14.0157576875,14.3566326622,-30.3704837441
off_to_on,-6.69793588721,-1.01811086148,-0.987850408813,0.0815640188322,-0.230067555788,2.63083982808,19.3649823227,10.0306248907,0.108838932917,11.1636177603,6.00449959424,3.34746855667,4.64967802925,25.5977008057
off_to_on,-1.44851975621,-8.66134308998,-2.89440601393,0.070440248602,1.41361399528,12.9398953299,20.596844396,12.8616375154,-0.230927846903,-2.17458802642,3.34436360587,-10.7863637631,-8.28540880258,21.0144663916
off_to_on,2.71792719565,-10.3051757731,-3.16610524989,0.334361556314,1.25440899683,8.82522247166,6.82222819504,6.97955119815,-0.216857425984,-14.5904142179,-1.69030085239,-17.2234856354,-14.5787997059,-17.0393172962
off_to_on,6.37217131181,-5.16914480249,-1.11784690191,0.201145092903,0.870326408683,-1.46404611963,-9.01159053692,-2.43298800417,0.168541841771,-16.2933426221,-5.94670422731,-11.3061884319,-11.1569755058,-9.39535910715
off_to_on,8.38725512141,2.85208466472,1.95898912845,-0.422714632303,0.965683951485,-4.47707888313,-15.2724382274,-9.36639013863,0.376080990043,-6.92724201967,-6.34902786307,1.1107022096,-1.97106970253,32.7382666744
off_to_on,5.05570883072,8.69735345052,3.723625535,-0.648248778062,0.226160878721,-1.10013483354,-10.9319268916,-10.6305707357,0.13845398918,5.52117227394,-2.08530243932,10.6272135688,7.47558674132,33.3379654943
off_to_on,-3.58248175179,9.18545243242,2.82938010661,0.131531771612,-1.66438516648,-1.37507413143,-1.96598967563,-5.70525444937,-0.176474773457,13.2041568448,4.01076277525,12.9711029214,13.1703935052,-11.1985139016
off_to_on,-10.5529787784,4.14569789136,0.0522362938047,1.08449933991,-2.50011889955,-5.77104735056,6.21548980704,3.18600265332,-0.197338948153,13.3896045273,7.17638403353,9.35802829278,12.0950064182,-30.0599116608
off_to_on,-8.95680044409,-3.62242194342,-2.52547951702,0.831767976456,-0.714830866986,-4.73088483551,10.3649127203,10.4612724129,-0.0698009373849,6.74615618614,4.89671925519,1.56730943972,3.22613973472,-6.05021889871
off_to_on,-0.378811398505,-9.37051683382,-3.28604715473,-0.589251990418,1.84747863711,4.1179995414,8.12976063475,10.2806834587,-0.0776744057926,-4.31303103468,-0.697368119268,-8.52448471135,-9.26140266881,1.96685200817
off_to_on,7.155697315,-8.98754635049,-2.0579766954,-1.52871101637,2.31785277734,10.4762513648,0.202418848587,2.40062810002,-0.121408909592,-14.1068915156,-5.04844908888,-15.3312469345,-16.5268851752,-22.527661266
off_to_on,8.42947517591,-2.25054724686,0.216103014218,-0.843604440032,0.674350566135,6.15056373543,-7.72712207498,-6.76829277801,0.0426376083077,-15.0531492176,-5.46270020472,-11.7833008997,-12.1331472566,-18.9597363696
off_to_on,4.72451988984,6.18358043803,2.25943476257,0.552189201905,-0.805317710048,-3.68970205638,-9.27453875278,-10.3274034559,0.28254871972,-4.87075418448,-2.7204821331,1.62602309039,1.11139382584,31.4499876208
off_to_on,-0.666548732249,9.99843418333,2.99082612217,0.987394327831,-1.04111256606,-8.54038503183,-3.67325278533,-6.74088881172,0.248729484552,8.97101328357,0.884417580673,14.0463208597,13.037178473,52.9184187819
off_to_on,-5.80641153066,6.48294600411,1.9789906984,0.34773498645,-0.889153670193,-5.54234900999,4.26542958296,0.823723805328,-0.0381742306424,15.5358991542,3.71145361864,14.8468208037,15.2997801651,0.49366394293
off_to_on,-8.25604744954,-1.17397648367,-0.167015030652,-0.000736027631613,-0.8142640303,0.242621228017,9.24340314277,8.01968202355,-0.187079285273,10.8858993512,4.80389271005,4.95419935387,7.82849471793,-50.3905869232
off_to_on,-4.92063553941,-7.05047117328,-2.11651064099,0.489227311843,-0.140451931289,4.00743585217,8.23386679615,10.523858335,-0.0549792719472,0.0661902072046,3.30371481929,-6.00736849607,-3.32610961895,-19.9112965155
off_to_on,3.08622701377,-7.76055919651,-2.86269562431,0.636950767284,1.11707826577,4.78782779881,0.590641073679,5.25571703877,0.0397381281485,-9.72011403462,-0.682418773533,-11.3600123506,-11.9671965894,42.4452406384
off_to_on,8.82121041594,-4.24364921324,-2.27896302569,-0.484443520294,1.66619987005,3.34264723382,-10.0209313472,-5.51044745232,-0.129016200981,-13.9909874512,-4.87188584871,-10.9979035596,-14.3278479028,37.0841341543
off_to_on,6.75583428131,0.895447781058,-0.573886600531,-1.76942259128,0.841854727516,0.567650959227,-14.8394175746,-12.9141231262,-0.283935572012,-10.157002283,-5.8605649833,-5.45829625509,-8.53734859132,-25.4251091591
off_to_on,-0.185999100178,5.8997806687,2.03783258426,-1.45066518616,-0.430556360829,-2.56199985112,-7.0180441389,-9.21407494711,-0.0652398890483,1.80769999821,-2.27238990142,5.48938012162,4.07727087407,-52.709441903
off_to_on,-4.6615838036,8.94420882648,4.41943205016,0.323632220008,-1.18615006521,-5.22783348808,8.78414952392,2.72370070672,0.366040753347,15.1344553233,3.35147570376,16.2931147721,16.3875390414,-25.5116369482
off_to_on,-4.50236714086,6.91998697296,4.13685489138,1.6374994787,-1.48946664293,-6.07145712396,18.3863334244,11.4318436987,0.490264825654,17.9774736705,6.39512575368,15.6612017069,18.1134047403,-3.37147259643
off_to_on,-3.55872507937,-1.55929349028,-0.165391041788,1.42599932352,-1.3133260928,-2.55003440356,12.7240265852,9.52335112607,0.128960766412,5.17714324663,4.25646263634,-0.205692737957,5.21489117525,8.90025604226
off_to_on,-3.40017624222,-11.5749716622,-5.71735142985,0.543587187878,0.023674070339,5.64551261166,-2.30291614556,1.10621477854,-0.327852040176,-13.1866993543,-1.23090400443,-18.3651751115,-13.4129911096,61.6729612968
off_to_on,-0.26375604058,-13.7492194115,-6.95511293396,-0.0590885223664,2.17564171214,12.2054617811,-13.229188977,-4.97783448942,-0.436382145669,-20.2547736447,-5.40034928702,-20.6588512727,-21.9336797718,114.050364936
off_to_on,7.05495304683,-3.80641128465,-1.5916135382,-0.70385997217,2.97498533517,8.54873671274,-13.465641449,-5.73273054973,-0.193463743804,-10.097045557,-4.93704709551,-4.36496834086,-12.5214641741,43.8042082763
off_to_on,11.4832204,10.6746308021,5.65485369792,-1.63589212007,0.953205940193,-4.56909184391,-6.94885199378,-4.59558361402,0.0880727768083,6.61373762895,-0.728132985404,14.4013518747,6.39532977307,-133.177690748
off_to_on,5.44388497184,16.3979569258,7.54829963146,-1.68175299967,-2.1875089002,-14.65988534,0.239549098263,-3.86972669868,0.204281902376,15.2597267657,3.32749233015,18.8829934306,18.3387009286,-206.544277062
off_to_on,-7.55603389714,8.15853461235,2.50531292994,0.121471772427,-3.28822516933,-11.339428739,6.508348058,-1.36106664211,0.191311618538,11.7898593147,4.21283631267,8.36463386997,14.8767213724,-51.3410196993
off_to_on,-14.8997367894,-5.74405168959,-3.79870092394,2.28022303551,-1.52898967258,0.998561559397,11.9560568799,4.62958876912,0.13388691293,2.869780765,2.22157681434,-5.04718267739,2.11545734207,159.888077516
off_to_on,-9.26752538686,-13.0167683749,-5.48284712497,2.18984038598,0.975709813005,9.51875930943,13.2109716696,10.3141092306,0.0361993810605,-4.45611628194,-0.385005968132,-11.3332683572,-8.25385812953,178.891091442
off_to_on,3.28681659798,-9.86059015753,-2.78135411778,-0.21222745522,2.11854252818,8.88859109397,5.49816478206,9.19185987362,-0.0992445451112,-8.66632787102,-2.17338941212,-9.99869679606,-11.0973329925,25.2119081743
off_to_on,11.3660347374,-1.86220596907,0.204328740411,-2.0234983901,1.77743265652,4.38615963714,-9.36007984075,-0.253543685459,-0.193469414229,-10.2654696871,-3.07633556092,-5.23016472142,-9.01370831698,-76.668684421
off_to_on,10.4738456749,4.88558874819,1.72935124142,-1.26042840779,0.814834159149,0.904721959069,-19.9127234605,-11.0817401636,-0.162976961646,-7.49503553656,-2.79445114702,0.711776798565,-4.50398747779,-49.4096688291
off_to_on,4.35181370353,8.81573479465,3.11479829355,0.55618749946,-0.304698785189,-2.90562969408,-14.5352233331,-13.5450161938,-0.0269737430245,1.17258183206,-0.524281617529,7.35383933261,3.20128618296,-30.2173420773
off_to_on,-2.50440209806,9.30491571908,4.12098404516,0.912484184199,-1.32956672443,-7.89991738457,4.14983240031,-4.99687480984,0.106030056694,11.6459973808,3.01359364402,11.971469405,12.1855490703,-78.1647341089
off_to_on,-8.43759176747,4.01949838185,1.92067193996,-0.0635401664236,-1.79095702394,-9.32110293353,18.179203494,6.62230241791,0.14807501948,15.1098814407,4.82498932688,9.46444606967,14.4566992041,-57.151241202
off_to_on,-11.3048241905,-6.25715938254,-3.65639764648,-0.340993096959,-1.41777813457,-3.19659033461,13.0909923377,10.8810023387,0.101550190941,6.68934929758,2.62665484649,-1.63170749437,4.3741754256,92.1791633329
off_to_on,-7.32715708763,-13.6438647678,-7.29702835951,0.473383390959,-0.343399576504,6.29588987415,-3.67401154411,6.10348398449,0.0253193367312,-7.626373756,-1.89548572878,-13.9222907817,-11.1661043951,181.818683294
off_to_on,3.46053389235,-9.8344069386,-4.05208074789,0.642343526664,1.25746992898,10.7169490841,-10.9304242479,-0.103595695145,-0.0387478290115,-15.3940353166,-4.48162734527,-15.6541165249,-17.3697341278,51.0173964545
off_to_on,13.48963823,3.1000221014,3.49182567416,-0.537875099345,2.84745001141,6.88489210691,-1.54269335685,-1.82894617469,-0.0857523847702,-10.2145326718,-3.0919030625,-3.32994764673,-8.15168753298,-146.956916642
off_to_on,13.6369148363,13.1785744356,7.53198282749,-1.32834687237,2.89521502856,-0.878996825255,7.90395194937,-1.94717358809,-0.108213567248,1.81259826321,0.127826870567,12.0623827207,6.57654342764,-148.777846245
off_to_on,3.09085840356,11.4130266593,4.443714322,-0.307269673259,0.163633889035,-6.53506565911,1.63706449668,-5.12444561113,-0.0770692305063,9.51126560416,2.01983234146,15.626076369,12.9389841877,23.5293054163
off_to_on,-9.29370918811,0.987811764828,-1.49188093242,1.22349085805,-3.7517225502,-7.26649230904,-10.9952218571,-8.04272702346,0.0127616155433,8.54501824158,1.97660686744,5.19400676047,8.26468801526,110.071411917
off_to_on,-13.9560560836,-8.09592475197,-4.44574332269,1.16226141803,-4.89274044619,-3.75774162961,-9.0172992098,-3.39748849006,0.102391617517,3.27078193912,1.36816387578,-7.0107541007,0.322786548388,21.8323148565
off_to_on,-9.01257239108,-10.049710641,-3.71026950575,-0.209380193043,-1.42106755512,1.27938598373,7.33116724613,7.23401024097,0.116977173097,-1.42712788157,0.811431163471,-9.93715151809,-4.70976655881,-52.6779696883
off_to_on,0.4684178948,-6.10739162849,-2.05636060438,-0.840537078798,3.49396229864,4.72716616876,14.916639298,12.3240456331,0.0522564126662,-5.03674729964,-0.250296995576,-5.28572313853,-7.02038917156,11.2139149922
off_to_on,8.5671779669,0.424743247858,-0.424150358226,-0.179880179599,4.99684763902,5.06480983991,1.9543540665,5.21492861133,-0.0241313102948,-7.35046346785,-1.72579632619,-0.7780207584,-7.17215241752,74.8887139104
off_to_on,11.8227799565,6.91294854842,2.21264052669,0.213128665843,2.12477641128,2.92806335874,-13.4279657011,-6.12618557454,-0.0601417138683,-5.17157233423,-2.35872843809,1.86578776622,-2.97665072167,-2.29414988923
off_to_on,8.74093611498,9.98883292373,4.91946332233,-0.484984827068,-1.67777663256,-0.608841866574,-9.52910794264,-9.28681150749,-0.0656125202815,2.60054189377,-1.32159257178,5.61085835841,5.01323693538,-108.806055639
off_to_on,0.0447266891277,6.60835774446,4.58660661536,-0.887105545599,-3.18751558569,-4.65794815713,7.36139732914,-3.14764577343,-0.0610095359683,9.87112129565,0.746102276054,8.58488232034,10.4662518201,-67.8975065491
off_to_on,-9.74448897863,-1.68616941604,0.31678325346,0.253317484242,-2.4440631072,-6.70772154895,13.6171373919,2.86624956551,-0.032428421759,8.83491287595,2.4901140632,4.81954428086,7.99158254734,63.4687344966
off_to_on,-13.7743742429,-8.73717186046,-4.61059723732,1.72302222367,-0.997712220811,-3.33366979314,2.99961176338,2.92569234767,0.0278947287584,-0.0946915272278,2.7709161566,-5.02133366821,-0.150470286987,91.1009363656
off_to_on,-8.37246435287,-9.83726284897,-6.25729093915,1.40437359096,0.585107696774,4.51416860649,-7.76090355441,0.748693527374,0.0780317361889,-8.444466901,0.987311284051,-11.5592526327,-7.46681434577,-0.420435395859
off_to_on,3.01779796242,-5.64265346068,-3.79042202211,-0.600950240581,2.23098719069,9.59085988499,-6.96062190208,0.943547567307,0.0720886006509,-9.76997034671,-2.17625355242,-8.31283020706,-10.3930191068,-45.5335046231
off_to_on,12.3107196441,0.860546746444,0.896413486654,-1.99664345923,2.96351985451,5.8931727372,-2.52982861009,1.67639420342,0.0256389201245,-5.14785234021,-4.17627329406,0.509838773444,-8.4563978176,11.4615408106
off_to_on,13.2034887466,7.77935942572,5.262086211,-1.32556418282,1.73129421889,-3.19937593176,-3.29836333001,-0.497826881635,-0.0115931090982,1.56758812086,-2.51592189349,7.05848884606,-0.999247930719,39.6062268278
off_to_on,5.44072107574,12.3827994858,6.75372411984,0.399805577116,-0.887660804221,-8.64268539406,-2.8759429418,-3.6473445822,-0.0293765006612,8.2153025295,1.87415581759,9.00732120036,10.1550587205,-30.6897675389
off_to_on,-5.67306023358,9.69303760203,3.62663908482,1.35802679741,-3.02944444685,-6.79973302688,6.19796844693,-3.24855981311,-0.0511673866346,11.8175830465,4.67970396564,7.47335721201,16.656029108,-82.087499075
off_to_on,-12.8462673165,-1.7599022061,-2.65765424456,1.04692836582,-3.32967502833,-1.92856411607,14.8049583949,0.690245899733,-0.0677453817027,7.60381711295,3.02629477022,1.64636858779,10.0183738654,-18.2931334337
off_to_on,-11.2703317636,-14.077043879,-7.11103315692,0.205615818917,-1.64586491495,2.08545799087,9.16957640112,3.90785788068,-0.0396101394053,-4.13747282218,-0.93411310214,-7.67360087212,-6.26393186947,67.4081351344
off_to_on,-2.08759283976,-15.710057361,-5.74741276694,-0.482763902984,1.30460495768,6.05402727156,-6.1689065922,3.97937892886,0.0281234397441,-13.9296632287,-2.95901195606,-13.1005250739,-17.4566454258,51.6443686313
off_to_on,7.90452927635,-4.58977854674,-0.176201525715,-0.818829262021,3.95040546551,9.48746510532,-13.3615564853,1.98616447283,0.073193878019,-12.2597756712,-2.16006413423,-7.65953344433,-13.8305270657,-17.4118331601
off_to_on,11.4539982813,8.66584748144,4.21375535793,-0.716984962903,4.16084464866,7.05755128987,-7.30334480283,-1.08916070114,0.0591927849087,-1.54329782582,-1.10741876446,4.18668059378,-1.24544785172,-18.8409374902
off_to_on,6.92050133621,12.8165323047,4.40793944067,-0.187795872127,1.10829563287,-3.40657887748,-0.84850307831,-5.127967132,0.0202685083529,7.0402011114,-0.991109521547,10.4409969989,8.1051150355,30.2853044988
off_to_on,-0.982090651692,7.63531684398,2.11949032988,0.444372736151,-3.10624643335,-13.6634529552,-1.93406970618,-7.62222008705,-0.00209041047797,8.05194649251,0.110433277792,7.02157539989,10.2680491684,19.1352080746
off_to_on,-6.39133943783,0.724525421653,0.119214559205,0.793546596484,-4.9787670276,-12.7914987843,-1.34248611943,-4.25117333844,-0.0168919092074,6.27166164672,3.09944251939,1.49376388418,9.13153461057,-51.0090888029
off_to_on,-7.21881617989,-3.45403670527,-1.19016158934,0.758111195678,-3.09421931695,-1.02272607517,8.96939763684,4.83294967146,-0.0430561055047,5.70612162052,4.95280390685,-0.240550524007,5.89841816386,-65.993307632
off_to_on,-4.80026889813,-6.20672507966,-2.49928187322,0.338891479342,0.715851555048,10.2041561861,18.2916387191,12.2232148357,-0.0572918087371,2.29831714583,2.43517450536,-2.05913037048,-2.12381324328,3.48231429705
off_to_on,-0.698810961448,-7.98251151581,-3.10538920011,-0.503576826501,3.62362053693,11.9685028969,10.710575116,10.0326249677,-0.0312018364511,-7.25667106753,-2.88607051975,-7.58992326009,-12.3461634608,54.5268676154
off_to_on,4.09051874027,-5.5838558069,-1.71803273318,-1.3682036777,4.08891219399,5.96758874105,-10.1446198801,-1.1410352466,0.012356561214,-15.5555686269,-6.05852879416,-10.3044824173,-15.2353926076,27.2980381759
off_to_on,7.46434971489,1.97459528493,1.18331283462,-1.28483500556,2.04098010622,-1.55094867808,-23.0504859921,-11.9752443723,0.0318727478952,-11.5580952787,-4.56973838463,-2.38401152723,-5.80522342552,-9.01128824618
off_to_on,6.4376360961,9.26020626622,3.49768233076,0.135373347712,-1.4302514054,-7.27613960377,-15.1702896745,-13.188867178,0.0318886727463,3.85832870579,-0.352357409244,10.8369187401,8.46211275942,5.50403130056
off_to_on,0.429724400578,9.59069941882,3.62707307145,1.68895714673,-3.94616100749,-9.4657669933,4.04686988369,-4.00284019669,0.0409538141853,16.6187244887,3.56946739263,14.9848277351,15.4073074205,20.5513623813
off_to_on,-6.72258816826,2.59635389235,1.38797394715,1.69180606838,-3.1953627072,-5.47136188002,16.2320606268,7.40872852084,0.0449442210831,14.9926127321,5.60970612003,4.89067889457,10.7185731179,-13.6340511665
off_to_on,-9.4230942461,-5.81362221454,-2.32038688463,0.138087793974,0.233979722181,3.68313933165,13.3824429212,11.4034051439,0.00645860909364,1.62576201077,4.6857244112,-9.13071238477,-0.376425367341,-41.1648487781
off_to_on,-5.15808508649,-9.54876528395,-5.27342085215,-1.21700488272,2.70121227803,10.0624977245,1.60516616451,5.76328152294,-0.0556403836803,-11.1522786687,0.204705492929,-14.2849653364,-10.1120012093,-3.22781837552
off_to_on,3.33307949918,-6.42887100585,-4.36569479068,-1.15522434444,1.77186624115,6.71687453691,-7.82374911808,-2.4713302615,-0.0745685606135,-13.7905106893,-5.36365043638,-8.0161828329,-12.8025434089,37.1072002453
off_to_on,10.0204175178,1.63925677578,1.17364422089,-0.352327578482,-0.521033962633,-2.55281329892,-7.9017012835,-5.05210787227,-0.033433182862,-5.87367973292,-6.84450767512,3.48753036195,-6.17383372612,-8.62404023414
off_to_on,9.66163447391,9.27678211041,6.98469425173,0.0482015465246,-0.663712859255,-7.33211431797,-0.712012617326,-1.95078204428,0.0102492978823,5.6019620904,-2.15615643085,12.5631790598,5.82644688302,-83.3507264613
off_to_on,1.64189924908,9.79339127045,6.78285641188,0.135374520926,1.05973695319,-4.09053594531,4.68836009122,-0.0909979554222,0.0176938161115,11.5236021505,3.97721936553,13.1067942241,12.996978982,-44.5267496945
off_to_on,-8.60735097227,1.10412895214,-0.286517956811,0.547877963111,1.1159020873,0.706446206798,2.09985815092,-2.55306451637,0.0208778365941,7.30740216378,5.21796205293,3.08124919196,7.93229938232,106.890004133
off_to_on,-12.8328127047,-9.86622512758,-7.52118973968,0.934093896386,-1.44701943399,1.70922600399,-3.80950233856,-3.77779575655,0.0472032274989,-2.67194279506,1.50402439399,-10.9910537075,-4.34056461544,184.714830651
off_to_on,-6.89330674168,-12.4269138528,-7.76346789221,0.44506961829,-3.00526459831,1.74876795618,-3.75295989665,1.26243438219,0.0565340660559,-8.90551536574,-1.65026717786,-16.6672388431,-10.9663201085,54.4735181657
off_to_on,4.74167139754,-3.59940962342,-1.32179378385,-0.58383563048,-0.730675301997,4.26741548532,2.22537603884,7.48356654014,0.0091855064676,-6.77267414198,-1.29131066126,-8.22737833075,-6.42213556733,-171.943291173
off_to_on,12.5397211639,8.17018144645,5.16224039686,-0.875212288225,2.76687099948,5.22942775484,4.35446991938,5.67986930998,-0.0525654615263,-0.580453708422,-0.270156764597,6.02937218971,2.09245056084,-249.842146976
off_to_on,10.6308349788,12.4362252544,6.64933052817,-0.199442539691,2.87782606455,-0.667316828586,-1.22588464748,-3.38520426421,-0.059293675236,3.67057964988,-1.28412758279,13.504101311,5.81087766803,-81.2102348361
off_to_on,1.53072377149,7.3521447641,3.89418613331,0.259717082916,-0.460263462963,-9.24205976813,-5.1399505575,-8.36165432295,-0.0195868643864,5.51175213579,-2.02567267418,11.0940938698,4.79936446068,171.711526737
off_to_on,-7.47212336384,-1.16422552004,0.0950310597495,-0.0987575054416,-2.81676104984,-10.251160313,0.840172622512,-2.63838283777,0.00191745342064,6.65258873729,0.531596438796,4.35250473173,3.51776899972,256.339334605
off_to_on,-10.9374504653,-7.71743841773,-3.2809515564,-0.310616975617,-1.5531839251,-1.42496754182,9.47285168805,6.3148732664,-0.0065012508716,4.7186244886,4.01415374197,-3.05921087814,1.73917980941,94.5928301728
off_to_on,-7.9525738326,-10.7206652429,-5.79987699146,0.367458447818,1.05669958842,8.01506386116,7.5011402206,7.19172567736,0.00433585944315,-3.14926863538,3.28478185357,-10.9484917041,-3.43344283468,-135.085824217
off_to_on,-0.73402203525,-9.06035199227,-5.74631022243,0.957163505355,1.7574274395,9.661911833,-4.62471424843,-0.401831037352,0.0437427279374,-12.0357141437,-1.74224789886,-15.1822803719,-9.27019703571,-194.331029069
off_to_on,6.93644480749,-1.31929571554,-1.53567495498,0.287518959487,0.641355085369,5.37931719631,-13.0152040922,-7.07001381427,0.0545960201309,-12.108851547,-5.29073021644,-8.73149652169,-8.62584155967,-53.5614595911
off_to_on,10.6900337799,9.68740566958,4.88003492535,-0.885918192487,-0.163255762136,1.10674004147,-9.51735249651,-6.60281918804,0.0105936036542,-1.43665336317,-3.36413260002,6.66267871822,-0.0514761078444,88.3448649221
off_to_on,7.86285335515,15.7619949894,8.4532241892,-0.865024041915,-0.176330242423,-2.69195064073,-0.300335124512,-1.54726253974,-0.0334827407561,10.1045505758,1.43174600665,17.7578585481,9.06460849269,71.1348027973
off_to_on,0.0673956386735,10.660030017,5.88236753276,0.306793859119,-0.582833517571,-8.17373767084,6.23590195957,3.26447327818,-0.0284026784935,12.6846567099,4.15644059149,14.3084606431,11.2157483331,-25.27580766
off_to_on,-7.49808427769,-2.4289830051,-0.903250942175,0.855120398139,-1.43358719977,-11.6056986387,9.74231028863,6.30332475951,-0.00529688767157,7.21828926496,3.5374644628,1.30096425057,6.31004115187,-27.4954770928
off_to_on,-10.1088757959,-13.398774457,-6.64427544594,0.0559366759745,-1.24483637845,-6.19215912274,11.5000469831,7.10241161391,-0.0126493798579,0.573181163496,1.50019512049,-8.65947832814,-1.1385693625,58.7843148002
off_to_on,-6.73944571972,-14.8704036974,-7.51185833359,-0.703197896371,0.438247891323,6.23915010495,7.15090146811,3.90807421078,-0.0301963472718,-4.76510002141,-0.81188918887,-10.75204592,-7.78013135481,70.0406181015
off_to_on,0.197246398403,-7.55570346652,-3.7207291531,-0.250066667548,1.98711226029,14.1023431238,-5.73576143561,-3.15090762786,-0.00976608607415,-10.1122272683,-3.39890287087,-9.11259710702,-11.4161116643,-38.3799350962
off_to_on,6.86073382658,2.88780381759,1.63932651325,0.534858900285,1.88337295,9.99499866242,-18.2575907304,-9.59438163793,0.0334012917948,-12.8133611111,-4.92169398046,-5.97088425106,-9.14685066735,-110.630843097
off_to_on,9.60299593202,11.1133473413,5.37281877608,0.31461386429,0.59836964569,0.00977881256343,-17.6699513947,-10.3220872229,0.0417986650154,-7.08117700349,-3.18983528818,1.3275467468,-0.291782529708,-39.4283136691
off_to_on,6.5578073259,13.6826756112,5.94488581284,-0.466239529631,-0.55391665372,-5.54212851261,-3.11510608538,-4.47802163697,0.0112787381531,6.25883914405,1.43377645594,11.5308331964,10.0294964957,63.0982400351
off_to_on,-0.689803624193,8.90842655385,3.53186727331,-0.4147657841,-1.3126263737,-5.76474168831,13.0032031985,4.60769256723,-0.00633323850052,16.9936057257,5.4136871156,15.8858125806,14.1494606825,51.9006007521
off_to_on,-7.45356967826,-1.61864044817,-0.667190540851,0.441165594785,-2.0412064125,-6.58087424035,18.8888907679,12.0444442641,0.00542947080338,15.6897129191,5.66919707643,8.05278925318,9.05516302085,-22.4143059007
off_to_on,-9.23008135277,-11.8756824086,-4.7510733219,0.746473519557,-2.12267304918,-7.64029111268,12.9498221556,12.9008623682,0.0046944388095,3.50411895644,2.43844374941,-6.54364150229,-1.43569402843,-19.0902364008
off_to_on,-5.05663694512,-14.6629433723,-6.31683188472,0.0735673083463,-0.371671195556,-1.80280902691,0.61095391577,4.81118273299,-0.026612261976,-10.1655932283,-1.86194962554,-15.7430926693,-10.781679737,47.2435776329
off_to_on,2.179055167,-7.70958764686,-3.74864424147,-0.527701919905,2.70815371651,10.3965210237,-11.4426915922,-7.85982919283,-0.0447149440639,-16.7401411107,-5.04890922297,-13.115644739,-13.8919775019,41.895656608
off_to_on,7.93385928888,3.84443356186,1.72777090334,-0.425779100465,4.36543977331,15.67802815,-16.8121287871,-15.2114985071,-0.017811143209,-13.2176235623,-5.76967644274,-2.41175695389,-8.75745503418,-46.4261197772
off_to_on,8.46760869711,11.7824682934,5.97479621646,-0.293668853316,2.352910289,4.8389731195,-11.8232748221,-11.1348163491,0.0190118717261,-1.78161527349,-3.34717756507,8.23697339554,2.22015078127,-80.6572159659
off_to_on,2.97903918525,11.5943078489,5.4223540033,-0.518130059044,-2.07826087426,-11.4992131503,0.151229463634,-0.180691355775,0.0227967387826,11.0535254984,1.40850044023,12.8430171736,12.0779393697,-7.875411218
off_to_on,-5.01025304573,4.98659494838,0.852317031977,-0.20933623118,-4.92730007087,-14.1855432506,10.4447926432,8.08016140766,0.0100253680913,16.6643427075,5.76015988491,9.53967884168,13.6940793871,55.0382774546
off_to_on,-9.30776645443,-3.21418955628,-3.3794656009,1.10555672981,-3.54200985158,-0.95585978492,13.3771579316,9.76627406509,0.0170864610683,10.5002147631,6.68107564489,0.505688407597,6.07997655379,22.7485500026
off_to_on,-6.20994336608,-9.05449950916,-4.13194764034,1.9724840438,0.590199382745,10.3538889532,9.90890522272,7.746040169,0.0302302684569,-2.80357520674,3.27560236138,-8.66155345016,-4.79734692213,-24.5422540335
off_to_on,1.68269423957,-10.3010013958,-2.21972321399,0.753905312918,3.6306117341,6.54501887463,2.77215067641,3.99337562084,0.011186014019,-12.7751609682,-2.39906868853,-11.8578868473,-11.6197288585,3.79866765132
off_to_on,7.90832107856,-5.74450554914,-0.00163462162918,-1.67043569107,3.47670747035,-3.7749830239,-6.62337282484,-2.65594539957,-0.0294970797175,-12.4707449427,-6.55522608031,-6.82425229225,-10.8166258359,49.0176523796
off_to_on,8.19002587899,3.4211354678,1.80217114538,-2.61080213659,1.22509894123,-5.16207421969,-14.4075868652,-10.3122016274,-0.0435372602899,-3.73210881551,-6.10097504053,3.01962512718,-3.24607550165,15.1697813172
off_to_on,3.02515886749,11.5325250387,3.26367029218,-1.0226475794,-1.09533201372,1.24110042316,-13.6504586393,-12.1947105443,-0.021340499897,5.96970473586,-1.23740359425,10.8166350581,6.58848899051,-55.2038587954
off_to_on,-4.44998405053,11.1993595848,2.93519900417,1.22512393483,-2.67929556311,1.76322413124,-2.60438524531,-4.83664109842,-0.00111257104464,9.9405906595,3.98726606017,10.6442805293,11.6664227415,-52.5711622652
off_to_on,-10.2765786756,1.06012527565,-0.553237283843,1.93370954198,-3.21895489589,-5.60772091316,10.3495563347,5.97185079442,-5.38082885621e-05,6.30937539,5.135487,1.85820705301,7.19245944435,12.3987132373
off_to_on,-9.80599596176,-10.3848389275,-4.75785566927,1.08389169754,-1.73114990477,-6.35354365625,15.0589243593,11.445222393,0.00805561927144,-1.28831436746,2.13471106874,-9.05828717779,-3.25718232328,33.8554979778
off_to_on,-0.663483790946,-12.1620520433,-4.67048581684,0.0296621153963,1.91210795242,6.73508056845,10.1365494036,9.14899201068,0.0337642713677,-6.37301488666,-0.831523001409,-12.5713533025,-9.5250808261,-4.90994018321
off_to_on,11.8747868021,-2.79740129201,0.744154159929,-0.61089097353,4.95996058126,18.1583111289,1.04204668207,2.65630052373,0.0432186884621,-5.15928120348,-0.985313911213,-5.01118655157,-5.90775196716,-13.9870727658
off_to_on,16.2309638523,7.78507789769,5.86635474409,-1.05255450976,3.82120867978,9.44782216397,-8.07962207082,-4.59599648421,0.0141549425955,-0.24756996007,-0.392167491138,6.73154964369,2.08945464916,32.7881143587
off_to_on,6.12174300545,9.64015575353,4.83634360887,-1.09418997741,-1.19045308406,-12.9797172415,-14.4276265903,-10.084861513,-0.0227544474839,2.75864201532,-1.83244030769,11.8526521848,5.30997399108,48.1200580495
do_nothing,-10.2694567346,3.37092088607,-0.9333169073,-0.26456767585,-5.21242680594,-23.6530305456,-12.5910745164,-9.69750503521,-0.030790455443,2.18933028672,-3.47169357428,6.90341238432,2.54118382999,-11.3768199437
do_nothing,-17.483238305,-3.00767385298,-4.72217645314,0.909252965368,-4.30762123853,-10.9019952463,-0.062053797378,-1.42804318565,-0.0203981418243,1.21182358833,-1.35377383417,-1.96652289714,-0.216881514059,-61.855443182
do_nothing,-9.70548807842,-4.99751506114,-3.31108581809,1.15090904558,-0.0679732766262,9.27739875075,14.0560970694,8.58921308594,-0.0193792770418,1.59935972881,3.56239631796,-7.47516125159,-0.170151951183,-30.4445743967
do_nothing,3.67426203823,-4.78644365727,-0.229908887472,0.249138607688,2.91541697628,16.0735019251,15.7580543266,10.4924763214,-0.0194809854898,0.63736728463,5.35897651718,-8.02873509378,-0.803302513494,25.7019092466
do_nothing,10.5428284543,-4.25324543695,0.520841524556,-0.518614893522,2.87267376005,8.99932921121,3.80314887341,2.91001732755,0.00383801064393,-3.40072423001,1.34341104363,-5.31255616389,-3.75928494016,21.3448880493
do_nothing,9.20940470655,-0.843376706322,0.241517434884,-0.280363441835,1.80255808397,1.92665081169,-7.93292406761,-4.92325807114,0.0373710818453,-6.30785057248,-3.73581510334,0.130586664159,-4.38972676326,-16.8041330935
do_nothing,5.69462690215,6.50527956807,2.226616091,0.168938040908,1.23073315434,0.472426637882,-8.91686419196,-5.56571126689,0.0427849536524,-2.83306543133,-4.16634754254,7.25135133686,0.812900905442,-9.54864404251
do_nothing,2.34713372729,11.6389338985,5.09657136237,-0.184812838502,0.011544240148,-2.34232215866,-3.90943940604,-2.04183466101,0.0165210751221,5.02163529075,-0.72650658441,11.3662865907,7.14050549825,32.4064145328
do_nothing,-3.92978457886,6.97720326127,3.7056809118,-0.764272345638,-2.7181158113,-10.0178444191,-1.55066641722,-0.482198939677,-0.00691200098284,9.18735244715,1.76038684759,7.60732706759,7.14156838144,33.2622651514
do_nothing,-12.3735658598,-5.62733015542,-3.02572955274,-0.277142721238,-4.78999548794,-14.3610024705,-0.464551021074,-0.147421450024,-0.0116798510374,5.24504262164,1.81750835741,-2.52879731282,0.617113167515,-10.9969979969
do_nothing,-14.4971085905,-14.7344935623,-8.85243848294,1.01746647606,-3.24853836806,-7.18935663644,4.36916455793,2.79025186025,-0.017517057688,-2.77872072641,1.75178520718,-11.4029380691,-5.76913444512,-29.9631316276
do_nothing,-4.09842772483,-11.626616344,-7.03921931034,1.35495264094,1.52719804152,7.3677241369,8.61064561442,5.7284120089,-0.0324596619456,-8.07266516261,1.88485229118,-12.5398932892,-7.40596670916,-6.22709975034
do_nothing,12.0732265686,0.325595398648,1.2871141212,-0.00944389918813,5.63212355807,17.2408510645,3.92517790068,2.41368417451,-0.0316123875894,-7.96285082256,-0.327109269044,-5.77629448342,-5.29067498057,1.79280008501
do_nothing,19.1843838108,10.4248241306,8.15130027434,-1.56260017847,5.52055387385,15.0065467858,-6.44504479064,-5.55181069081,-0.0016743543915,-3.7787945379,-4.4701557001,4.27140729492,-1.28481616821,-22.4320357815
do_nothing,10.4419693024,12.1290968019,7.72598908001,-1.47632258951,1.2708895114,2.82519088313,-9.60348059512,-8.40245907813,0.0294677759701,2.57259016516,-5.4167215256,11.9658422916,4.52882508401,-18.7081616775
do_nothing,-5.33136714112,7.13719380884,2.01633428823,0.0849605329648,-3.73614986674,-11.0589196282,-1.4209890534,-1.65284200078,0.0326780101409,8.76240931919,-0.296526101698,12.9109549589,10.1573715725,31.5842832147
do_nothing,-13.9666205096,0.0565833757134,-2.98542856954,1.42414968174,-5.71701139438,-17.2288671698,7.4980691974,6.93933597428,0.018588461988,10.8035405593,6.16175506819,6.01764413638,10.222919873,52.8573722909
do_nothing,-10.9749930306,-6.64455008516,-4.53565968236,1.48034774505,-3.47308148501,-10.6758098639,7.1276850447,7.70352254573,0.0113903520417,5.57309919279,6.92731077689,-4.81156246517,1.8845894012,0.341695184514
do_nothing,-3.30317343978,-11.4546974085,-4.38376768979,0.592048850807,0.740577261887,3.62581824798,0.169251267603,1.25137791839,0.00637866605239,-4.80295763209,1.46622402171,-12.7556274841,-9.78423803217,-50.5248541064
do_nothing,1.99237251331,-11.2144562314,-3.89333583752,-0.541602958256,3.45763537384,13.1869156504,-5.12266475313,-4.3153484288,-0.0135131191728,-13.1271861885,-4.29310455057,-13.2554941869,-15.4304241105,-19.9387244425
do_nothing,5.37268825776,-3.42342571823,-1.37686386044,-1.51912578142,3.3654040447,10.4825818626,-6.04947306303,-4.6950891065,-0.0364634004631,-12.8508495104,-5.73045303194,-6.62688848928,-10.1518852944,42.5780152841
do_nothing,9.23358293612,8.76467677098,4.06704227818,-1.78640298236,1.88043634421,0.969653844141,-4.12059967674,-2.48433661317,-0.0340483065122,-3.6164476703,-3.59409468319,3.73606335222,2.42504876237,37.2490826887
do_nothing,9.97485817903,16.5873694668,8.51289339586,-0.69274086921,0.382815252723,-5.13284095792,0.353340180775,-0.840833444444,-0.00743659193177,8.36474581886,-0.515501728194,13.204162755,13.5075446193,-25.5058946696
do_nothing,2.14108319276,12.9830316675,6.54615042243,1.36118466418,-1.45991738852,-5.60719082147,5.96120128216,0.498571526111,0.0136972200744,14.9224062897,2.55349674556,16.1863259635,15.5632716024,-53.0944162232
do_nothing,-10.4942885791,-0.107203986525,-1.35660302814,2.59966428373,-3.59709637424,-4.90864634177,7.85826425654,2.58233686228,0.0171895643117,11.8255910475,5.02610231393,8.86575409382,7.36714410198,-25.8169612845
do_nothing,-15.4263001098,-12.8728609406,-8.0338640093,1.61838881295,-3.78695985108,-3.45960289637,3.97173248844,4.5494908305,0.0196315704417,1.57519254377,4.9558848243,-5.6274331902,-5.09406165311,-3.13434326914
do_nothing,-6.43635410322,-16.3700824993,-7.67895741637,-0.77678824353,-0.382210264161,2.44447130136,-1.02217778095,4.56361804708,0.0275595290433,-9.10254004209,1.22852511739,-17.2324066566,-13.2476925513,9.66241779681
do_nothing,7.21914092213,-9.52026263751,-2.1729853389,-2.27954706073,4.0265141121,9.96974304128,-3.45313074022,1.4150377564,0.0211232540711,-14.3808082242,-3.84128812414,-17.2563802977,-12.7998596216,62.405884591
do_nothing,11.9123670495,2.07143496273,2.64010006473,-1.67164063539,4.80055418845,9.29891177533,-6.46987376304,-4.45477385324,-0.0099604269035,-11.9726031577,-6.24647235419,-6.08398230336,-5.85954130556,114.123309981
do_nothing,6.21871226126,11.8081931869,4.50001379922,-0.0241658496424,1.24997664563,-1.89709131013,-11.0272667322,-9.44711418148,-0.0407038704504,-2.57079323341,-4.27197228435,8.37459245664,3.16999324956,42.9627632455
do_nothing,-0.306839476032,15.1658878018,5.06568426126,0.89057032027,-2.45373145329,-12.079467124,-8.2933350217,-7.88989785604,-0.0392707946396,9.99055176555,0.338269732355,17.6086992833,11.0026586829,-134.600774763
do_nothing,-2.49925638587,9.79955415977,4.36580962594,0.718513421395,-3.05861286707,-10.3741733459,7.32806348793,1.53457853447,-0.00560608302132,17.846853842,4.42399073366,16.4594524809,14.0955123302,-207.62565028
do_nothing,-4.51484785506,-2.77071569289,0.122241836253,0.478665563189,-1.86345686511,-0.772150243156,22.4268668518,11.2235067932,0.0301246127398,13.2670791579,5.52227176562,4.44180938423,8.48292478918,-51.016630823
do_nothing,-8.18329312362,-14.8935512665,-6.38484234016,0.759074369626,-1.09252593193,5.7153483981,17.1510792867,11.3527936797,0.0352686013534,-2.32735175418,2.95137512422,-11.9045055295,-4.61497680135,161.816432311
do_nothing,-6.60929658537,-16.6071166494,-8.74313101279,0.815912978224,0.0744993035135,6.9986440857,-6.05730680727,1.81887661479,-0.000699172951395,-16.1944224674,-1.53525665956,-20.2817050933,-15.5282334097,181.105948901
do_nothing,4.11834315006,-5.35376696116,-3.13695316024,-0.214888498492,2.85927757003,8.01362058038,-21.8608761286,-7.24993932354,-0.0479350565819,-16.1517160249,-4.52551616787,-12.8010188585,-14.2491680518,25.7769306782
do_nothing,14.2169942635,9.64083620071,5.38042646565,-1.75279728674,4.74566368592,7.22248774672,-14.8873383852,-8.26248107417,-0.0453927056327,-3.974382547,-3.8557499382,4.19985642058,-2.06000825538,-78.3618209982
do_nothing,10.8424786853,15.8307150956,8.36191757834,-2.1257053967,2.19516014017,-1.78672819547,1.51685631308,-4.18483198375,0.0328102447147,7.54349145942,-0.746792100584,15.4510965641,9.52095755976,-51.8589763115
do_nothing,-3.61123518202,9.70965276507,4.08488110032,-0.569071996332,-3.26262192944,-14.7725117421,7.66319402731,-1.15881765245,0.1137524409,10.2112763017,1.87476905263,13.1111452166,11.9444210416,-31.3546245162
do_nothing,-13.5408512375,-1.53221870639,-1.77805858913,1.64741297632,-5.86096952523,-16.6102712466,4.52762247745,0.976828601801,0.0843591143701,7.24838431293,2.6596154017,3.29239889697,7.06190357397,-77.4736862003
do_nothing,-10.2347293865,-9.32460619327,-4.49590490911,2.48526726704,-3.05254720731,-2.24642690729,4.94527023637,5.19223791271,-0.0556422324932,3.90325399183,2.203818141,-4.604896569,0.558299795973,-55.8166332048
do_nothing,-0.654157590826,-10.8165501875,-4.53456257668,1.31025071669,1.52378939027,13.2441843443,8.64177236463,8.58463135788,-0.159349614373,-0.85804833421,0.925027008205,-8.48881392941,-5.64499697394,93.0125245284
do_nothing,5.51231694291,-6.98498209932,-3.28193690433,-0.621931918639,3.60063372508,13.996985175,4.18857257128,5.02992551213,-0.109563284613,-8.39177651547,-1.26263581399,-9.89267648248,-10.5752755402,182.194371934
do_nothing,7.75643023686,0.891914112699,0.132288162304,-1.73606136709,3.19704595241,4.01119709593,-8.16859830729,-4.27671823947,0.0234670775532,-12.4549044199,-3.14448954732,-6.52602502161,-9.56920769379,51.4062275854
do_nothing,8.74036254894,9.6997614235,5.17173757067,-1.60879500109,2.10463646329,-2.02980605084,-14.0379427772,-10.2156172571,0.0867607054466,-5.70934140811,-2.5128354497,3.63965549891,0.305827018172,-146.794463749
do_nothing,5.35308091884,13.077391372,7.24289511888,-0.740072894423,0.0483799161748,-1.68630109238,-6.89245421336,-7.15379516314,0.0644264322546,7.7489630848,0.671730549385,13.8797124626,12.1798897605,-149.465161339
do_nothing,-5.15698164777,6.60530607834,2.86392360105,0.413909135019,-3.32616303056,-4.56095547887,3.3055265042,0.73018780327,0.0672969507101,14.5679787017,3.29185567403,13.1956786631,14.1091604524,22.1632844568
do_nothing,-15.0899736995,-5.79320380266,-4.53553607364,1.50232352827,-5.16183416402,-11.51411638,7.46314008323,6.33483352982,0.107673532642,8.07252975007,2.68210022514,0.442482442154,3.1847342666,109.086907172
do_nothing,-12.7696456936,-14.1303606584,-7.88275914432,1.7883852814,-2.34489168976,-10.0269961035,8.4082750302,7.3773381536,0.0466558353483,-4.23308869625,-0.107232996368,-12.5846064944,-10.2099327575,21.9720508026
do_nothing,1.35944904516,-11.8494910066,-4.69031659144,0.636630911355,3.0754296245,4.90783944609,8.39762695888,4.73372549698,-0.1569758837,-10.93662214,-2.08676159473,-14.4214255668,-14.0529017866,-51.7624745666
do_nothing,13.7075993181,-1.35945367921,1.19773627387,-1.27308165307,5.42016163488,18.40300416,0.941116753293,-1.1971043614,-0.291415876978,-8.80060637447,-2.13120631438,-5.42257760217,-6.68588321489,12.1026136578
do_nothing,13.8657665261,9.45063511988,5.24346864158,-2.09516532797,2.5934159635,13.8718062214,-13.8797522254,-7.93587448427,-0.142556037197,-1.99589235877,-1.26913539744,5.77791416492,4.30582670565,75.4317625421
do_nothing,4.79626157034,13.7546530646,5.99261274623,-0.861422797051,-1.64126770983,-4.14480870823,-19.2519930635,-9.27396358935,0.172523228215,4.9898956942,-0.191518223157,11.952953319,10.9274345,-1.98913757641
do_nothing,-4.80502612061,9.22344945981,3.54434905339,1.10342548308,-3.220967155,-15.9278431542,-2.86600908271,-2.16025226727,0.308423265019,9.08970296737,1.28475217641,10.5304599844,9.87828767867,-108.821662564
do_nothing,-10.580782963,-1.34537959863,-1.4832786668,1.61450741019,-2.27658792708,-11.5485831821,19.7460606671,7.15125712045,0.133335626756,7.49327994805,2.53756374343,2.44212134357,2.61354725439,-68.4879749803
do_nothing,-11.3376541322,-11.0420800194,-6.20408648819,0.309279879959,-0.821467334972,0.379546273968,21.3848910497,9.57822146734,-0.107656601528,0.456234118322,2.16936161666,-7.34912169751,-5.71787002486,62.472431164
do_nothing,-5.22943621599,-12.9874647592,-6.35713059774,-0.972435718281,0.749108593217,7.79463772642,0.286390674594,4.4244828886,-0.138600264687,-6.5071818195,0.154481749628,-11.3862074777,-9.1785559976,90.3664560142
do_nothing,6.14347128453,-6.06777348427,-1.3056451951,-0.661955389438,2.52432958477,8.601522182,-17.1867558578,-1.47330770083,-0.00792543508767,-7.9275208069,-1.78679132406,-6.76676061054,-6.19962723757,-0.418856678561
do_nothing,14.0888369398,3.95138082052,4.21309328075,0.548169287831,2.93962223727,6.38143961777,-13.1731107954,-4.4713427956,0.0360474891239,-4.64801003255,-2.46038232962,1.05053016869,-0.932840607411,-44.9801599009
do_nothing,10.5980460727,10.0212048135,5.45675896347,0.818934015871,0.718684650608,1.62868694775,0.287716583686,-6.86953051097,-0.0722678445882,-0.89209167125,-2.23064465333,5.2275585854,2.46438421264,12.0999511104
do_nothing,-1.38493175485,9.55680572868,2.80719474741,-0.273252417242,-2.3705151936,-6.28170802593,4.02592962577,-8.5015048862,-0.139957460258,2.68175280642,-1.31915141936,5.72099506372,4.59886756253,40.1252351108
do_nothing,-10.8920076365,4.31380441956,-0.372932749561,-1.22672909422,-3.3682905643,-12.776003801,-0.222382819852,-3.95779398628,-0.0237185779955,7.4386602509,0.907347858777,5.91325600141,7.04483071661,-30.2973316589
do_nothing,-11.2290160621,-2.79511652807,-2.55959555203,-0.692620488389,-1.91249329655,-10.6156905557,1.69654673617,7.51860136192,0.152881987008,9.88108648516,3.78892032276,4.35916975818,6.78987723837,-81.9836979104
do_nothing,-4.63087766218,-8.56880763074,-3.87243927857,0.767943344047,0.153093146622,1.10619118065,10.198994011,15.9868174977,0.176681442482,4.01268505932,4.47919940181,-2.60653045007,-0.0265524767981,-18.6968038885
do_nothing,3.76386199423,-9.33426890564,-3.17289253538,1.47465551176,1.97578351874,14.0876104081,11.3336924466,11.4560655881,0.0390561195753,-7.83452478403,1.28204799881,-10.8935916612,-9.60793477956,66.6380167887
do_nothing,10.2841025073,-3.61780024157,0.586839435592,0.709200691934,3.67485104686,17.7730238481,-0.254229776757,-2.71733330211,-0.0710263543109,-13.8993031792,-3.24137966809,-10.2412780975,-12.0510328928,51.0061534074
do_nothing,11.1493609541,4.81947635476,4.72225680822,-0.617696764572,3.7904118949,8.34005786668,-12.9114620227,-13.5786810297,-0.0426048919398,-7.10446320625,-4.79385403352,1.21661800903,-3.59265165058,-17.5616971788
do_nothing,3.64117819579,9.29498960216,4.61537559669,-1.25348122281,0.34539313135,-8.06953224316,-14.8928947306,-13.8998186005,0.0141978338363,5.02438226968,-2.54031526509,11.4918602071,7.43318011651,-18.5780783167
do_nothing,-8.27293066992,6.51768451635,-0.102255918134,-0.915747575155,-4.91574953951,-19.5669499965,-7.80467188022,-7.28549196148,-0.0484481276056,9.88359421077,0.427568597609,9.23698374726,10.2658570203,30.710999822
do_nothing,-14.631329715,-0.595544374995,-4.44443865093,-0.128771150448,-6.7489726974,-17.3468245308,1.14131684222,0.91363402202,-0.175537455281,5.36004106092,1.71062492809,-1.60782064216,4.12616050522,19.6045694988
do_nothing,-9.53684756706,-6.33680547969,-4.27592206557,0.663891720517,-2.64923904971,-2.89461475992,9.86749601082,9.55899399024,-0.160962544915,-0.289900233048,2.12064401566,-7.9910739397,-2.78430271656,-50.5719118163
do_nothing,2.39915709517,-6.97579722471,-0.809004291677,1.24737095863,3.55303298334,13.0565694499,17.1820230089,16.2788696324,0.0632528397728,-1.60920976298,2.80984998501,-4.91303453491,-4.40248959913,-65.7961196245
do_nothing,11.886446266,-2.59542147401,2.32693667848,1.18048305465,6.25833624864,19.4516151229,15.7794674611,13.9828023411,0.294611544458,-1.5313840377,2.46029281751,0.894402206588,-2.37448216426,3.26038728072
do_nothing,13.725693421,3.45905421105,3.58330361144,0.0460983305735,4.29036085918,13.0768359774,0.263854099805,-0.410655002133,0.284961860117,-3.43712249337,-0.513147699362,2.87416392643,-0.943412340003,54.0076764133
do_nothing,7.77344055025,6.55370256459,3.15684216216,-1.56387674091,0.530368442579,-0.851348692692,-19.8541848971,-17.2281865264,0.0408192582638,-4.68835910445,-4.31931753394,2.26163567932,-0.749286579411,26.8176118587
do_nothing,-3.65110238952,4.32244543366,0.878574959077,-2.04858118343,-2.6187459535,-13.4222303036,-25.3785254173,-21.298063294,-0.193965076211,-1.47728769491,-4.9526266024,2.32528866413,0.351926553755,-9.24404389991
do_nothing,-14.7017066943,-0.886888198586,-2.71939540242,-0.541441219211,-4.55080117236,-16.9756597085,-9.02081353909,-8.57514553541,-0.238074068118,4.25607937343,-1.14486644573,1.86725469716,2.70591531826,5.50157360022
do_nothing,-16.5478031903,-4.50361394437,-4.92139783294,1.65040186167,-4.47979923178,-9.28191108644,14.1696854423,9.15758967751,-0.145648629334,6.77997741276,3.67607975371,-1.47790745222,3.6704806997,20.7285107681
do_nothing,-5.66398340549,-4.72397791967,-3.39947206235,2.24078236023,-1.56862369338,3.97272931056,22.5635811319,17.338912745,-0.0535616436496,3.53066459167,5.06471267577,-5.53973906394,1.01360391375,-13.3016051553
do_nothing,9.62933671856,-3.08146373013,0.485031991528,0.671536526173,2.72744718672,12.7108364351,11.1890482674,12.5880468762,0.0213652811421,-2.68049333744,2.13520427793,-5.67974977524,-3.67428411959,-40.8328336212
do_nothing,16.5631216019,-0.466164532937,3.34743265172,-1.23364317606,5.11346360419,11.4507853531,-5.3648575022,2.1375119999,0.131985860514,-7.0325972274,-2.10922165585,-0.984406959782,-5.80540367279,-3.11341763269
do_nothing,11.4921799222,3.77277638151,3.92628066038,-1.62423051275,4.01084598997,3.84492561243,-11.7520088042,-6.42500158528,0.227876644081,-6.18682915661,-4.12319676945,4.7813982443,-2.49744588422,37.110688053
do_nothing,1.37628412434,7.77234503689,3.15729934777,-0.708005132272,0.881619634748,-3.26634809383,-7.50036146866,-10.5943569523,0.182716149489,-0.0716886804621,-2.73894039036,7.53083251166,3.79314131945,-8.31400880302
do_nothing,-6.88637800815,6.59455433407,1.18213885224,0.18001320873,-2.22204199024,-7.34830404224,-1.84013772272,-10.0059746615,-0.00487292177482,7.2745384322,0.596534138029,5.90183032373,7.35918506102,-82.8229522117
do_nothing,-11.8857330939,-1.04878510247,-2.40092296148,0.650541842278,-4.31961552587,-8.66822303467,0.984092641393,-3.89266407466,-0.170585986989,9.64063292422,3.37164699487,0.935587783299,5.16217250681,-44.9060002042
do_nothing,-12.426132158,-8.75750194292,-5.56966636054,1.13052521734,-4.40495609615,-5.3754781741,4.07874776944,5.84498523116,-0.189166205778,4.05918279167,3.67390872635,-4.90600118586,-0.572594047222,104.685738625
do_nothing,-5.31074733744,-9.3102826886,-4.87495868533,1.21303685998,-1.42662575382,3.33192117425,7.46593944378,12.2847600162,-0.114041986834,-5.559623746,1.20193834528,-8.58716457337,-5.8036169518,182.144108787
do_nothing,7.48630186069,-3.44727925209,-0.335229629918,-0.0659779961368,3.23027247522,10.9100550797,4.81634842541,8.89984412606,-0.0507077082563,-11.6034902833,-2.51569731109,-8.04620513143,-8.35861986667,55.0984584751
do_nothing,15.8585649159,2.53508453561,3.80949683704,-2.02293387394,5.54874984434,8.52701844354,-5.24010959054,-2.15334440326,0.00782260181968,-9.46813560795,-4.84526324755,-3.25074271639,-7.06548218575,-166.647380032
do_nothing,11.8626752488,5.84595265522,4.50109462269,-2.22945389576,3.23776104237,-2.26772318466,-12.1734707105,-10.592223126,0.115759185733,-0.649683957612,-3.72488445347,4.19888090301,-0.578606439805,-244.223376644
do_nothing,-0.32414221054,8.05238616065,3.06078758044,0.227727549475,-1.19527875165,-9.53626311639,-6.03202320927,-8.86704621306,0.213549731587,9.21541737218,0.513252747147,11.1787019093,9.22345191135,-82.3892492427
do_nothing,-9.73976048854,7.96470912104,1.52426039438,2.75597447452,-3.63094072104,-6.47736512206,7.23863882902,-0.266211832242,0.169358840598,13.8036840501,4.85604744027,12.8249523925,14.7623717295,162.542734708
do_nothing,-11.0426631642,1.42295408355,-0.790147463073,2.23814439457,-3.16547985576,0.487952373462,12.474934371,6.18908067378,-0.0198185233102,9.44376685239,5.83450637914,5.54369177323,9.07064376069,247.83201853
do_nothing,-6.69379350443,-9.55468811386,-4.34363928634,-0.715754643099,-1.62026655113,3.34421207439,5.85977228543,6.67926162038,-0.184775456268,-1.79921095917,2.61997517786,-7.42372927914,-4.79580640266,96.956456696
do_nothing,-0.0371969384643,-14.6198573331,-6.03205947851,-2.47298253121,0.223992867196,3.90981639198,-1.85754231373,4.33548586285,-0.180057953502,-12.3415774496,-2.24515239062,-16.0896098996,-15.1498946272,-122.670418161
do_nothing,6.94528246288,-7.25440268925,-2.78376372728,-1.26154345862,2.73237586784,6.21365196579,-3.8192122821,1.3574927021,-0.0465137023896,-14.7613513932,-5.36554098573,-13.0190938214,-14.0437489914,-184.532392452
do_nothing,10.3062884965,5.63851969664,3.03889586856,0.75495290271,4.38405289059,5.22289835136,-6.15014015762,-4.15952921679,0.0625071994014,-7.95690394275,-5.263814242,-1.45393770037,-4.54600044429,-56.9079253817
do_nothing,6.08780451413,11.9348919116,5.87200556228,0.980683328271,2.41308432713,-4.90253869837,-12.4903367451,-11.114269117,0.05999864515,3.04892506354,-2.50967522785,8.85176523718,5.53404333371,75.7441130392
do_nothing,-3.00874956758,8.65067553618,3.98315063332,-0.0267579122159,-2.54322895125,-15.3810036321,-11.8843419149,-11.3696811293,-0.0100014609727,12.1375430454,1.65525479621,12.3101075512,12.0806728211,62.5812934365
do_nothing,-8.72633801305,2.17854414664,0.548135699949,-0.0729817744305,-5.59360039666,-10.3997990347,5.09607949003,0.570611165331,-0.0440306799349,15.0370083973,5.51193055784,10.1423035273,13.7162414692,-22.7658182496
do_nothing,-6.88867805235,-2.75785611582,-1.84432381027,0.920647738754,-3.32661608884,8.32530924296,25.473991889,16.3606116773,0.0191538172501,9.44321425018,6.52818611691,4.28143913416,8.00093751625,-19.4306713789
do_nothing,-1.22103759205,-6.64536668535,-3.49424948917,0.916443480463,1.73493001667,19.0677532909,25.1964915111,19.8436372045,0.135331590029,-3.04370626301,3.08871948156,-4.78084830843,-4.69319591777,63.8126216977
do_nothing,3.50975166939,-8.59688123641,-4.09404631759,-0.751364205987,4.44185513575,8.66133304322,0.932449196855,5.6521027749,0.173141858595,-14.7586232136,-2.86755083735,-13.1166284788,-15.9917828695,70.6015923463
do_nothing,6.37543470812,-4.91741407923,-1.73981709299,-2.06842177765,3.12825356136,-8.86397156977,-23.8266676857,-13.7309468114,0.0416435708764,-16.5374854338,-6.68999116661,-13.2986596532,-15.7088336487,-38.7335365309
do_nothing,6.4814599981,3.35318986325,2.72933760572,-1.21166416719,0.231113052212,-12.4169900606,-27.4891172638,-21.7067480701,-0.176499899113,-6.93988422908,-5.60490507961,-3.46359775332,-3.94999623247,-111.371616631
do_nothing,1.2886726543,8.62398187969,4.72076969627,0.868450635394,-1.82766430827,-2.68392257885,-12.4618753818,-13.8155189228,-0.277003434724,5.90317712846,-1.3469760374,8.10382718865,8.60935062259,-43.1841830305
do_nothing,-6.97160191936,6.36622152563,2.06690767456,1.87120280726,-2.65033242828,3.10644095266,5.9799557381,1.93545297631,-0.159753186639,13.2551664679,2.58632862388,12.0663342641,13.3232003451,57.2688351494
do_nothing,-9.64094106719,0.946197260374,-1.38310800238,1.14323209072,-2.26759981338,-0.609472787688,19.1253993669,15.3573686739,0.0537985194166,13.2038245338,4.69266050364,8.26215707256,10.7483200105,49.5601134277
do_nothing,-2.68417001693,-2.12390371486,-1.64824789844,-0.0348473969747,-0.414273311971,-1.82473360458,23.8418750592,19.798793241,0.179055558656,7.61035377013,5.02589254181,2.33977265902,4.35438682361,-18.3952982864
do_nothing,5.71146699812,-3.94240585316,-0.599033369318,-0.622922233102,1.97877181298,5.88983035086,14.6414586765,12.2427019843,0.178054342349,-2.70784084057,2.87871253358,-3.61989935384,-5.11638175959,-12.7933493993
do_nothing,5.99615693926,-6.69417301888,-1.68834629626,-0.875354815618,2.76796116576,11.0227357156,-7.87184887939,-4.27661978288,0.131974736697,-14.5306151071,-2.05194066024,-10.0632374221,-14.5662736208,50.2515363135
do_nothing,1.28769321743,-6.03602471434,-2.8168175877,-1.15264974686,1.19066955377,2.63256612169,-26.5753134416,-18.6423940123,0.068752962015,-18.4733642067,-6.65620878425,-12.3515279517,-15.0535010273,41.1766265122
do_nothing,1.13584282871,2.46030574927,0.419801680441,-0.933318836517,-0.924354065691,-10.9634692857,-22.4276152331,-19.1869286874,-0.0517953282234,-7.35787902439,-6.11204035652,-4.03509525048,-1.90320092734,-47.904385852
do_nothing,4.31172654935,12.1521172006,5.71680122451,0.302600471895,-1.52041495775,-13.2526092165,0.268093358876,-5.8784496473,-0.193339160833,11.5760467653,0.029672695844,10.626698776,14.6940718489,-82.1983175033
do_nothing,0.251809836526,10.6460279711,5.42490344207,1.83514319818,-0.765722362866,-2.51044657115,17.1152652289,9.14812331371,-0.225965854206,20.7921904615,5.98662307479,16.6766706864,18.1507931915,-10.9636803302
do_nothing,-11.1240237844,-2.71635681655,-1.85911217859,2.15090511121,-0.175886770478,7.79414576187,14.3852440676,14.8970921896,-0.101493233931,11.8302943189,5.99664254022,6.36005172229,5.14953734056,51.3855480142
do_nothing,-14.493053916,-13.6399276009,-7.70413526188,0.631464675991,-0.243597046924,8.62815683039,3.25778924005,11.22024767,0.0624953705346,-5.12684332083,0.853237349715,-9.4356221279,-10.3303736571,22.1608158253
do_nothing,-0.91891511269,-10.6264168228,-5.09590610327,-1.5989362439,-0.126566395951,4.2684702058,-1.09282148941,3.89638550542,0.138133370114,-14.3011764104,-3.78360401846,-14.1631259081,-14.2310280583,-20.9679686546
do_nothing,16.1512405241,1.30867689449,2.12980185051,-2.64251297903,0.718599791299,1.18202394723,-0.659685028538,-3.94769621596,0.136026239842,-11.4171843712,-4.26101012329,-5.52151171178,-6.9238171705,8.14198415189
do_nothing,17.2011269051,9.29815819257,5.54460782302,-1.58512299839,1.57756459083,-1.55911874704,-5.02468522671,-10.9311298774,0.12335067069,-3.28985461658,-1.71541366678,4.80482430221,2.20314663651,50.7903936998
do_nothing,2.35289049533,8.62067902452,3.49804119487,0.664422291341,1.21424022068,-6.48707928398,-11.3657649418,-12.7287622036,0.082530579813,4.08363861288,1.12932704321,7.99079004158,7.5782190093,14.8135823929
do_nothing,-10.8314319074,3.74430781736,0.673742955968,2.22163497149,-0.701672688067,-9.70130974033,-8.16722929785,-5.60522181968,-0.0350146416801,9.35955366127,2.91785675065,5.83237317222,9.13476607151,-55.8878783221
do_nothing,-11.6702366149,-1.5738915262,-0.710620528242,1.95767420654,-2.73346984824,-5.16197864561,5.02200137401,6.17169308606,-0.167762487169,10.3907725608,3.08815280885,2.37453330682,6.30230725049,-53.9007786951
do_nothing,-5.90354029598,-6.83924444183,-2.55436465836,0.418425724604,-2.49763002609,5.61929824163,14.6758213688,12.6932260164,-0.188189678228,4.02891375637,1.16186710485,-2.48125868748,-1.5770720498,9.47734838965
do_nothing,-1.17401944961,-9.36113950438,-4.55678853672,-0.969567524344,0.69409822699,13.3457777018,10.9317902269,9.32393274614,-0.0817580850829,-6.77291892208,-1.9477574921,-7.76254326405,-9.85784231202,30.9383221863
do_nothing,3.63084310309,-4.92956194198,-3.09637869883,-1.40293558439,4.02641074305,10.5128106402,-1.44968770943,0.888276772291,0.0336311339101,-12.5605469368,-3.72442870972,-7.92322529494,-10.8577661747,-5.04919155293
do_nothing,9.74382236227,4.49568685031,2.06284277469,-1.14349061186,3.56785649881,-1.01045885838,-11.3284017527,-5.72292597445,0.0792153072054,-7.8472929754,-2.69232868242,-0.547320517049,-3.21269249366,-11.3399500879
do_nothing,10.5660742273,10.372412521,5.5847536054,-0.638417174977,-0.82372112809,-11.758925604,-12.4774481058,-8.31163967292,0.0951869141731,2.21580730155,-0.130448819095,7.51938243494,5.86234628926,35.5300415015
do_nothing,1.30130386376,7.6077667163,3.77936340172,0.156893775544,-4.56815621662,-13.0065778508,-5.00464564863,-7.26102757185,0.118584683123,8.75638501848,1.98269396098,8.09829178525,9.34243553599,49.4063794324
do_nothing,-10.1332525632,0.270944974025,-0.366937834797,1.24700819472,-3.67049012302,-4.24296988527,6.68529112579,-2.12869414034,0.0965460458809,8.87016000455,3.28364239013,2.49541450899,7.21195325784,-10.7212664524
do_nothing,-11.4916206198,-5.09757080218,-2.36941581159,1.88683933025,0.415800853195,6.61979095449,14.240143676,5.61197388994,-0.00870924314422,4.96715258316,3.7786145578,-1.89893724662,2.75794760445,-61.4312461355
do_nothing,-2.55214209489,-7.05755793573,-2.47920912952,1.14098380517,3.0664896099,10.9476283612,10.3537840543,10.0667523178,-0.11856702938,-1.3142547403,2.00013536012,-3.17487969773,-3.0664311605,-31.5736799455
do_nothing,5.52513796196,-6.85369067398,-2.94171019528,-0.775434429366,2.48236774058,7.23731716489,-2.3999796547,6.33285012783,-0.133835300359,-8.77401493556,-2.79820121719,-5.31116052102,-9.52955542165,22.625996612
do_nothing,5.93173125952,-3.24119541035,-2.47637502176,-2.27434730497,0.884083400605,0.430608480213,-12.3398502749,-2.61132512131,-0.0734555838291,-12.3777927146,-7.2362593099,-7.68403626344,-11.8238032559,18.6002958168
do_nothing,2.82354419193,4.65633076186,1.33635000205,-1.90536651431,0.176925885872,-5.02655980157,-11.4920873766,-8.47119220782,-0.0235126998274,-6.34594306917,-6.02184143495,-3.3776024517,-4.86697062435,-16.881640746
do_nothing,1.50251089257,11.685463532,5.88793943756,0.0600034112747,-0.496617589319,-8.01260591094,-3.30457457253,-6.846713436,0.00765879770278,6.91349379951,1.24594226122,8.44037403704,8.32626218954,-7.52399464885
do_nothing,0.388204421368,10.0991721394,5.39717422383,1.83619672503,-2.03323280455,-7.33204421162,4.6213633851,-0.768389735949,0.073553965531,16.0292631922,8.03148794557,16.1131815738,16.6360002951,34.3292954816
do_nothing,-3.40424263874,-0.593305740299,-0.711903186173,1.91360367706,-2.92738582483,-1.16816188749,9.31612476409,4.40913782859,0.147287594917,12.0571789482,7.6864974664,8.56437191998,11.6447786711,34.3010614556
do_nothing,-6.69557466579,-11.4128847881,-6.04576042055,0.474633149167,-1.44122330285,7.62102737063,10.1126396011,6.04611970014,0.120665902828,-1.67765118408,0.95616555764,-8.79495730691,-3.11537618035,-10.1792493342
do_nothing,-4.18964622977,-13.0602451236,-5.32887684643,-0.993041564563,1.43854360496,10.8176980763,4.53025547652,4.02492006266,-0.0233078718845,-13.3900071014,-5.34524745791,-18.5980093077,-15.2372360911,-29.4379474711
do_nothing,2.97963835871,-4.88385179582,-0.509888397578,-1.30571481453,3.15503506276,4.25297411203,-6.39982503054,-0.586283894755,-0.143400090529,-14.6380955303,-6.25718490173,-11.5845553333,-15.1238705996,-6.92534659124
do_nothing,7.76878212266,5.94928189675,3.10086058361,-0.61229058587,2.70740374721,-5.34158493385,-13.5341748084,-5.04706401043,-0.112696295384,-6.33645514541,-2.95923983009,3.93921662743,-4.04323447041,-0.0116517168165
do_nothing,5.74709501335,11.6978617453,3.54512031083,0.140305857353,0.975170485404,-8.1934863388,-8.84464188321,-5.84682699911,0.0116992137123,4.86768982126,0.628726384647,13.6206259682,8.40963904269,-23.9807930146
do_nothing,-0.454324081702,9.44974668405,2.45785500452,0.424734389115,-1.12391831241,-3.91456197933,2.93820697821,-2.15252001906,0.0696776541894,12.6352067272,2.7426963817,12.2717087067,13.4994513025,-19.3121142743
do_nothing,-5.24240669586,1.72490279222,0.998393901995,0.473061681386,-2.93591490339,-0.0401035684586,9.7355112906,2.94397759577,0.00961373289651,13.4069887606,3.85037678565,4.73396553454,9.78968996551,31.4046298247
do_nothing,-5.80472319256,-6.16019267252,-1.15672505817,0.528980093916,-3.22076071617,0.373543749095,7.6331108887,5.66354048514,-0.0632585439342,6.48784396244,3.74657327905,-3.34194881978,1.63666798944,53.0409660406
do_nothing,-3.1028092699,-9.80238364819,-3.49084055792,0.340726408614,-1.14179172171,1.96217520122,2.82395520429,4.70421106128,-0.0437145945968,-5.28679586264,1.23570481072,-9.71380575535,-6.36099786873,1.80083351045
do_nothing,0.7234367993,-7.99813644745,-4.06128723031,-0.284663385089,1.91533740224,6.6205202636,-0.753910922924,0.879552956323,0.0423356227145,-15.1933753475,-3.10966480073,-12.1430991343,-11.531773849,-47.8605022783
do_nothing,4.19727813413,-2.13655450909,-1.7194000562,-0.854091885814,3.32680172293,7.878407223,-5.48378999522,-4.018807408,0.0917476791139,-15.7186732209,-5.925009191,-7.35920577774,-11.2632984695,-18.1609999243
do_nothing,5.98691744339,5.24360760049,2.28679345456,-0.697225623913,2.23074229775,0.56675907161,-10.1847519681,-6.98374903068,0.0640049424592,-4.88462396014,-4.25858719441,3.69694973629,-3.53525487178,41.5493025295
do_nothing,4.19963249679,10.3930040205,5.10507560513,0.050376178724,0.0878653298523,-9.44594574928,-7.19782536576,-5.05980033022,0.0179907770698,10.0572078571,0.79507435636,13.1296057105,8.41924697999,34.1900051851
do_nothing,-1.70620927036,9.11558108968,4.36382440104,0.588721449472,-1.6352859032,-11.579511366,4.86922950607,1.09130514532,0.00862460651769,17.5007478093,4.95735150798,12.7863726064,15.4399018858,-27.8645096373
do_nothing,-7.84205568708,0.965123495306,0.24608123394,0.576400145345,-2.53217013418,-3.94897503776,14.2934422769,6.62983044768,-0.00703820687796,12.0840236848,5.24462125364,3.29069354265,10.8472073867,-52.9714027953
do_nothing,-7.56562453439,-7.933635823,-4.00462009518,0.429217798314,-2.05689465635,5.42291884226,10.1901074429,7.37553815185,-0.103554307864,-0.327319729144,2.45529823393,-6.59447674205,-1.38956947805,-23.8524702266
do_nothing,0.662050268408,-10.0119877663,-4.78272673399,0.341896730337,0.319418150097,9.37174781442,-2.55994691684,3.69868781887,-0.225159678229,-9.59121974807,-0.9377854525,-9.80629487697,-10.6801704407,-1.42623467009
do_nothing,8.83048676903,-4.71898214114,-2.01822965991,-0.155690465306,3.01656984584,7.71729837576,-10.5332406445,-1.62201514615,-0.181010821078,-11.5630021513,-3.68592228695,-7.21634803737,-11.4450935407,9.39812016343
do_nothing,7.49476942888,1.54127610644,0.948885807714,-1.12733453317,2.87943965939,2.95077986321,-9.28416753311,-6.69218203857,0.105357642462,-8.90867708064,-5.32799766262,-3.21124607684,-6.69846258053,60.3439915306
do_nothing,-1.80404268957,4.2584293612,1.95968129866,-1.48806761173,-0.603003090928,-3.74774155752,-4.6448467845,-9.38587123458,0.395930600736,-3.87625745435,-4.40643725497,1.01395136005,-0.693444850803,112.654117094
do_nothing,-7.77134171194,5.00324471888,2.27381640842,-0.312654592022,-3.60154816519,-9.86686641976,-0.0345373776564,-6.2499735114,0.349563534562,4.03653561362,0.17311558208,6.16240372141,5.87741442345,44.6446346069
do_nothing,-4.3631111002,5.3889524524,2.92828132148,1.49968853917,-2.51338080817,-10.082791952,6.53111491801,3.03433420514,-0.0326386087432,12.3546469682,5.94301588052,9.45806271774,11.4234079867,-130.420302171
do_nothing,1.89433818138,2.76425764624,1.90026886178,2.01395523839,1.25817557189,-1.90551797807,12.8561332858,11.8069865029,-0.344858663071,13.86226306,7.80741699167,6.33470337928,10.6478498318,-205.223822659
do_nothing,3.12214820323,-3.79165952128,-2.02630041052,0.724578885181,3.34349962311,9.02564846628,11.0196821036,12.0052640387,-0.274337771568,5.03881588128,3.63917521534,-1.95178306663,1.46927214481,-53.7465807338
do_nothing,1.55742564327,-8.22830025584,-5.12458480846,-0.872106480054,2.0812901274,13.0037609094,-0.856925483376,3.42080823947,-0.00606947034466,-7.42932373264,-2.8740741235,-7.75549900196,-9.1155245202,155.997088792
do_nothing,2.83699915201,-4.80326191796,-3.04538956302,-1.40020875481,-0.387748582458,5.93708054077,-13.3474855003,-6.63156542756,0.068109440924,-13.478628402,-6.53438508587,-6.53743513273,-11.989759044,177.717960964
do_nothing,3.81694419601,2.4302794539,1.9689172494,-1.11639445291,-1.93694085389,-6.33578479393,-16.472826623,-12.1048649435,-0.0674432638054,-10.6504773778,-6.03791369743,-2.35775713608,-6.68060338213,27.4887658927
do_nothing,-2.18910780074,4.73512536731,3.49519727709,-0.734197149454,-2.41322143827,-13.2011078826,-9.56800466996,-11.7597045884,-0.0575340065928,-3.61174094102,-3.18311186835,-0.413409943075,0.241454883599,-74.177495131
do_nothing,-10.5300084151,1.61654160177,0.547064269055,0.00582050874498,-1.83051983475,-8.50235958953,2.50230377976,-5.05596876196,0.223385736978,4.28270470213,1.10502116089,1.10301370987,5.23656161521,-48.9633299758
do_nothing,-8.40478561489,0.286332739296,-1.1361950072,1.39777409687,0.27422181133,3.87841461972,15.1747007668,7.59805011999,0.410468223718,11.9089685319,6.29924791824,5.7142558399,9.18066871783,-30.4397100714
do_nothing,4.89850467526,2.32809108243,1.09957215893,2.28939689371,2.79238735787,12.8188964075,21.5623137424,18.5541925919,0.168765916413,14.3381239718,8.90290431847,8.95543528945,9.81285928061,-77.3899104724
