label,COUNTER,INTERPOLATED,AF3,F7,F3,FC5,T7,P7,O1,O2,P8,T8,FC6,F4,F8,AF4,RAW_CQ,GYROX,GYROY,MARKER,SYNC,TIME_STAMP_s,TIME_STAMP_ms,CQ_AF3,CQ_F7,CQ_F3,CQ_FC5,CQ_T7,CQ_P7,CQ_O1,CQ_O2,CQ_P8,CQ_T8,CQ_FC6,CQ_F4,CQ_F8,CQ_AF4,CQ_CMS,CQ_DRL
off_to_on,6.85927385687,8.85918838652,1.40216094348,-1.3545074954,-1.92321726141,-6.88991010806,-3.76868507457,3.22376169345,-0.269913013038,6.89765575229,2.06829993112,9.53186023394,11.3917230386,-40.4019856322
off_to_on,1.99207697966,8.23365509569,0.861080722873,-0.272627669527,-2.52986476014,-12.2742190264,-7.40057016514,0.952190901264,-0.0930298695518,7.6478814049,2.22551573601,8.72412723037,11.0047336478,92.2429360082
off_to_on,-5.11916534933,4.34910223206,-1.41444742687,1.47376749916,-0.285940958838,-5.37985894354,-1.54607745614,-2.01430243605,0.0281569885832,5.99404684229,1.93124288541,4.53422106606,4.91140932273,65.9124199594
off_to_on,-6.90154070447,0.6486599305,-2.08175520735,1.98274127976,3.61247121405,8.79403795387,11.014360788,0.309979958303,0.0010623772678,4.44612840402,2.24376246095,0.107720606953,-0.238112462303,-30.8361110378
off_to_on,-2.35795886177,-3.38936693334,-0.245567449669,0.728170469703,4.77677175026,13.8176675041,14.5307385209,5.16680980383,0.0200942192347,0.0667199521246,1.27902186536,-4.86075222151,-3.79897912178,-29.8570619093
off_to_on,2.48471022432,-8.26028749302,1.33729064905,-0.733024135719,1.37601173466,3.45466198729,1.98314078233,4.86968673965,0.153985408596,-7.95451791419,-1.82854414553,-9.69017367395,-7.92464223856,55.5811822813
off_to_on,3.26314413468,-9.92465456978,0.761666016991,-1.03073804035,-2.86193160965,-8.35766187935,-12.4908993198,-1.32275830604,0.195723214426,-12.4659818179,-4.14988267527,-9.4957008766,-10.0102264272,65.313715859
off_to_on,1.82654057819,-4.04243425186,-0.0531434612715,-0.612538344797,-3.36682983817,-6.56721040763,-12.0903813391,-6.25367720266,0.0271697543601,-6.81643807976,-2.77748235634,-1.26093992734,-4.93718055512,-38.0569207653
off_to_on,1.28529596379,6.32673933958,1.17769681875,-0.45834515265,-0.716980178599,3.4764654877,-0.45033660418,-5.479868617,-0.154195572139,4.4069050098,0.623061615197,9.19345640021,5.66465786974,-102.181708211
off_to_on,0.984491725983,12.0366734633,2.80955140169,-0.370470330417,0.744797953,4.67007737387,5.47483932047,-2.07110995084,-0.1420669752,10.2770255014,2.15799105313,12.048661121,12.5720160348,-30.490220256
off_to_on,-0.970776477209,8.06357598012,1.38628840499,0.342704202313,-0.582696164261,-5.47939644286,0.935908971219,0.309816327549,-0.0308216608426,7.49249755917,1.34134529745,5.28596521225,9.47396653889,63.693411728
off_to_on,-3.28305756703,-0.925932495852,-2.79700644573,1.22012784585,-1.63389376233,-10.7495910302,-2.04650830903,2.63931984267,-0.0148034960422,2.33597334319,0.94193403918,-3.36448835515,0.189519532329,45.8970479869
off_to_on,-3.05127335065,-6.80977395654,-5.3932383117,1.04217229251,0.236569051373,-0.674251491192,4.07293863311,5.93368987474,-0.0542906952778,-0.647728083429,1.67564594363,-6.93010825984,-6.94577254327,-26.9317030354
off_to_on,-0.397785089197,-6.87703344289,-3.62036042243,-0.243859312363,3.1671553586,13.2932249947,10.0816058281,6.79524611651,0.0149737670142,-3.73549436286,0.974957693003,-6.27104761388,-8.34825632129,-19.9812739922
off_to_on,1.7402414297,-4.05824683555,0.515581793255,-1.19600468615,3.53437719862,13.5423461248,4.67154704684,2.05177539532,0.15092436408,-7.89268130916,-2.02599831186,-4.66186812273,-5.8910049857,45.7600209865
off_to_on,2.02930354639,-0.837783846374,3.54362486388,-0.787202419029,0.899331052087,0.0405824268292,-8.13933019427,-5.22497495527,0.15205152496,-7.74262402957,-3.94022323244,-1.22017376492,-1.6055924291,39.2918623889
off_to_on,1.95482795223,2.96260795333,4.5513906152,0.271984256495,-1.9412908367,-11.3293936619,-14.2307944841,-8.63533287734,0.00117585174061,-0.00529020277717,-1.83672598067,5.27568483948,3.7007739125,-45.1148527509
off_to_on,2.27631563796,6.53686708908,4.21460017937,0.651421982253,-2.8929021908,-10.3347241542,-7.2819763139,-5.89591729058,-0.0965139040561,8.64354492496,2.07151899634,10.0498211776,7.66056958154,-74.2565699438
off_to_on,1.17408213719,6.36403603586,2.06460691242,0.178731603663,-2.38218480052,-2.47742983876,5.30951350698,-0.167498440255,-0.0478836506803,8.94063654093,3.28471362793,6.69310273098,6.89242441795,-2.78171552535
off_to_on,-2.46317086286,0.583713646351,-2.39753857289,-0.217595338448,-1.45209377114,2.45436271888,12.1430709871,4.62197776915,-0.00549534165072,1.53299843379,1.07170779079,-2.89390364844,1.44052768202,53.8637976069
off_to_on,-5.82655211773,-6.7038721653,-6.71546650173,-0.00658577100308,-0.105921102935,3.06890752541,8.55910982528,6.64253454865,-0.0828205523818,-4.38172835756,-1.21731380668,-9.16758012604,-4.27648238705,18.5784418093
off_to_on,-4.66411882328,-8.45873767375,-6.72710993328,0.298116386524,1.78819212767,3.88988920282,-0.862719784334,5.42959884645,-0.145205175728,-3.83111425676,-1.20984043723,-6.7339513004,-6.21269020156,-26.4283434846
off_to_on,1.22987571428,-2.4849090937,-1.58387491375,0.0673912722092,3.29594527802,5.8487069385,-7.15718589233,1.53024505602,-0.0269846441298,-1.0979928977,-0.0430899503397,-0.356269438745,-4.43863087158,3.51992969351
off_to_on,6.76845422928,5.49511986523,4.48332249257,-0.482239299543,3.10723632123,4.81822640202,-5.58155808036,-3.12089305803,0.187969255657,-1.2935828236,0.307328268494,2.8354196879,-1.41582000765,47.0681778467
off_to_on,6.5804657445,7.71279372723,6.53727103412,-0.611030076837,0.98240910828,-1.46395907726,-0.766350688138,-6.39079503942,0.26420127587,-2.84056921431,-0.235010388351,2.39509846804,1.26997947134,13.0717672891
off_to_on,0.699050416782,2.68425224951,3.89033105305,-0.0589737886963,-1.92884641185,-8.77674150274,-0.302485521565,-7.06721572691,0.116432470079,-1.2241199956,-0.579332103121,2.35787471897,3.23174084786,-53.3178107502
off_to_on,-5.33477970091,-3.57194269302,-0.172105609703,0.639096654897,-3.85529042383,-10.01967831,-2.82704127347,-3.94940054476,-0.120368380215,3.62486419017,-0.214242436004,3.58310340353,4.15799305623,-47.6665812084
off_to_on,-6.05423463095,-4.72192686879,-2.46003842457,0.806859013571,-3.44193238862,-2.87063797755,0.677434785225,3.52913923308,-0.268804407692,7.13973510551,0.624922809819,3.04017936844,3.86480703884,14.935508836
off_to_on,-1.49427405793,-1.099106193,-2.45467120548,0.341726294404,-0.782100567832,6.81713592298,10.5543294912,11.350411826,-0.240438473592,5.59798276927,1.3492272276,-0.546593258551,2.39270014543,32.3071873718
off_to_on,3.20642193189,1.71887981295,-1.52772112508,-0.298717185864,2.23646451292,10.2841020202,12.7128981575,11.1768402472,-0.0411758363047,-0.510808937087,1.05387336053,-4.55211766438,-0.705117288015,-6.84337655702
off_to_on,3.57383910211,0.453707402062,-0.996238741435,-0.660826171692,3.30134556621,5.05023021158,-1.86798862546,-0.0945866159764,0.221539189353,-7.28916960035,-0.652684097182,-6.0416526499,-5.49285047126,-14.1178444427
off_to_on,0.494346194074,-2.03125787379,-1.0407211788,-0.668499006877,1.92123629463,-2.62862528248,-19.1178423237,-12.8946588483,0.349532261292,-9.91004584007,-2.4325692373,-4.44548517711,-9.14733902058,32.0245499103
off_to_on,-1.55672993542,-1.21031713059,-0.764019976084,-0.453062208706,-0.131653938027,-5.64366137272,-16.9644583709,-13.777037989,0.196607970702,-5.76473449382,-2.16200347498,-0.510991934253,-6.85077190108,45.316949275
off_to_on,-0.418102048819,2.7368787224,0.762249881536,-0.0399626675298,-0.986416793629,-3.98682517372,3.7442759606,-2.04760215538,-0.157775871666,2.84330683109,0.309755074771,4.48422580496,2.25385978782,-12.9497892179
off_to_on,1.31389393753,5.13717687939,3.04745356356,0.572518645664,-0.691321740498,-2.04532918514,18.4569675836,9.00943893171,-0.430466485678,9.80640318191,2.62525672606,7.86327040688,11.5413545471,-59.438966236
off_to_on,0.391520012778,2.80362819009,4.00295205446,1.08493930618,-0.537014258028,-0.674311527907,11.8564735402,9.27299673749,-0.362236640898,10.3745317314,2.78665187409,6.64653254981,12.5532653916,-26.7092581721
off_to_on,-2.21504654383,-2.32053377008,1.96698381766,0.972618461392,-0.99423510343,2.50991516035,-3.17593866608,3.12187153109,0.0536538882176,4.81784102193,1.2127862876,0.962575780367,4.10310263739,26.6590450516
off_to_on,-2.58490180385,-5.80649027403,-2.04092090142,0.090351396846,-1.23916648758,5.80689260904,-7.12033187304,-0.175741635342,0.510820144799,-3.15357941182,-0.74516093337,-5.26479524532,-6.61523476576,20.0223709669
off_to_on,0.471950978019,-5.28749533565,-4.78981179798,-0.967701604872,-0.519378064302,3.70141137982,-1.12212843124,-0.30448103304,0.574439643357,-9.63500310262,-2.59224342945,-8.08282749414,-11.8164245945,-17.2651827437
off_to_on,3.4246902219,-1.64261293759,-3.90229668732,-1.36849796502,0.86774919087,-3.29496406657,0.114428489556,-2.93433130681,0.0819332424077,-11.3717244514,-3.71243032034,-6.6657136087,-9.53632662353,-9.12782480515
off_to_on,2.68943458182,2.79091056932,-0.178625523966,-0.864615145934,1.99624802427,-6.28224262851,-5.95143412355,-7.48772768808,-0.568561073865,-6.34505926923,-2.44762023581,-2.31487570662,-2.5722836898,31.2433003608
off_to_on,-0.59060643702,5.78259836605,3.22161319514,0.0632409679017,2.06053045184,-0.57225940489,-7.2857059567,-7.03097059278,-0.711116135502,3.5095634728,1.56530468339,3.44557234392,5.25852910789,30.8027873893
off_to_on,-2.3737940247,5.79580153114,3.65021344564,0.803976436184,0.750222966949,5.46874634175,1.32015213332,0.22033384671,-0.161223133348,11.6020422326,5.18766164665,8.34492286479,10.2365863628,-11.6705325781
off_to_on,-1.37437931075,2.6218790814,1.12252876819,1.08426815033,-1.35553438411,1.90876178083,9.70314945253,7.38102140645,0.486572793063,11.8745946926,4.57658163989,8.98654140311,9.27772392034,-28.1417973826
off_to_on,-0.33315002538,-2.239028784,-1.88372990272,0.874949669859,-2.70152422964,-6.56313889247,8.42547511852,8.39141350478,0.550233910681,4.64239146019,0.11390393872,3.6539827425,2.52628953365,-4.62813181059
off_to_on,-1.24024787408,-6.32327812726,-2.66159754777,0.230646225605,-1.95872449292,-6.14754129983,1.38311470993,4.54557819735,0.109402452244,-4.46517622549,-3.78541374806,-4.71730493394,-5.46754411598,1.75099722674
off_to_on,-1.82072977775,-7.40092941299,-0.715551124501,-0.56926772412,0.311601297899,4.90399330449,-3.08669507383,-0.333816363282,-0.183377393481,-10.2439737034,-4.03801807726,-10.1323978313,-9.33788165182,-22.3156568476
off_to_on,1.12433823903,-4.23315687052,1.85145795935,-1.0034133406,1.95842486212,11.8629094107,-4.14316248093,-4.89347413414,-0.0675057849603,-10.4231214719,-1.83222334723,-8.5493490608,-7.3977205526,-17.3748501132
off_to_on,6.00040499156,2.46606388731,2.55644763469,-0.762004803602,1.69047574201,4.30620263455,-4.79714017614,-7.55603324192,0.0312174789964,-4.59892264353,0.263344231367,-1.10135437134,-1.71918530142,32.1779133382
off_to_on,6.83369772591,8.93242441675,0.981584326696,-0.136232585798,0.474492235244,-8.46869352497,-3.93305522177,-5.10371022471,-0.205796613378,4.80538491093,1.59769400265,6.82726690982,4.58164531728,51.1696813739
off_to_on,0.388421100494,9.77361574308,-1.30367822295,0.296997327284,-0.160352845826,-10.6199222901,0.161496894142,1.50650325008,-0.413870359937,11.0685094068,2.50840237743,9.30723107974,8.3658345173,-2.0879856818
off_to_on,-8.69196375567,2.96153635747,-2.75062241708,0.339288609416,-0.340989801769,-1.59936257543,3.59554816628,5.15667292488,-0.136868014866,8.15432257627,2.34182770265,4.4002974042,6.81203813108,-51.6808481971
off_to_on,-11.6541220271,-6.57088614727,-2.82793051422,0.29141903553,-1.13568729466,5.29409959179,2.27615121509,1.95414232594,0.377074391136,-1.14526488328,0.580542277139,-3.42414769746,0.16093750259,-19.8035973397
off_to_on,-4.71053976323,-10.6539746727,-1.36847586264,0.419473086626,-2.10472888066,3.19730509818,-0.171377641849,-1.82018714247,0.494324907764,-6.81671886951,-1.37309153837,-6.79401074648,-6.42501841852,43.8284658956
off_to_on,6.57525636762,-6.2396280893,1.47170464684,0.545204053659,-1.31949907126,-0.568518698718,1.96694374112,1.1450451402,0.134164405569,-3.99042639575,-1.77139631777,-3.2607820676,-7.19611437437,40.1770665022
off_to_on,12.5395954762,1.58440752368,4.15572052712,0.282401372461,1.64286646874,1.53841818566,5.63664293409,6.71209707498,-0.170036225492,0.939987119535,-1.11382379359,1.78520429256,-2.41962285296,-22.6953027766
off_to_on,8.77537522665,5.95747049062,4.29794152429,-0.422322459137,4.13276669077,5.47113842565,2.85161629763,4.60664370432,-0.130811268511,0.393332024493,-1.02572384629,2.33605710391,2.30467448578,-54.5697483898
off_to_on,-0.279092241807,5.61397642177,1.41785117371,-1.07829839435,3.09654014349,3.09139737386,-5.47255200268,-5.10133708665,-0.058583839116,-2.96667711162,-1.14943350776,-0.0964205524152,3.5898775255,-31.3936694534
off_to_on,-6.9085953501,3.8288326147,-2.02371396833,-1.01960353773,-1.17643805693,-4.8853167509,-9.20579627307,-10.6488349051,-0.204342014577,-1.32037431081,0.309863879013,0.25581494776,3.36169125882,-5.58203935539
off_to_on,-7.96745662127,1.94022203295,-3.60008205885,-0.0926438446474,-5.00261907512,-9.98517953283,-4.12386507374,-5.60418414431,-0.288017653406,4.73138008252,2.89714307931,3.23434827132,3.34485414379,15.0733254246
off_to_on,-5.95112659717,-1.94788981269,-3.6555623392,0.987242031341,-4.94052039015,-7.09300224735,2.06348400822,2.27367179585,-0.014940467249,6.19154429422,3.51231126756,2.22898614409,1.21365996559,68.9152002891
off_to_on,-3.30952310335,-7.34504396837,-3.3779525559,1.19658437502,-0.914188138167,0.956289066532,2.63511368852,3.97333987016,0.347767304241,-0.17284399989,0.744004962626,-4.41423810003,-4.24914333224,111.527086769
off_to_on,0.997747170262,-8.84239485434,-1.67276740679,0.334651051333,3.97477880661,8.26219334573,1.82277316162,2.40281400659,0.34958100663,-6.10314594954,-2.66203651047,-8.20808341471,-8.03865300291,33.2828494462
off_to_on,7.51232287081,-2.55207894244,2.94062617681,-0.624609587986,6.02269125336,10.6109242095,5.24591563662,4.70393079781,0.0532978006622,-4.0171823289,-3.29154237567,-2.03866102826,-4.49199766172,-138.452594089
off_to_on,11.6729372303,7.07348916643,7.78206862355,-0.659762033093,3.65113292031,6.44020284893,8.00211854683,7.85745365422,-0.112162945087,1.99885301074,-1.34560731366,7.93425403258,3.67798180287,-200.309062097
off_to_on,7.60896962221,10.9462693546,7.31452886065,0.0153354280278,-1.32293946427,-2.15100597792,2.04732856219,2.89533145396,-0.0502612763657,3.30903074095,0.454935727471,9.40435140809,7.79383730641,-42.5587615851
off_to_on,-3.31152303826,5.7942416927,0.4489297583,0.33174165245,-4.95769681244,-9.20740653293,-8.68535620486,-8.60632738133,-0.059331373881,-0.0940023684086,0.972010552187,0.973089835745,4.7369522391,161.251149613
off_to_on,-11.8705322665,-2.54859996127,-6.71708709828,-0.0611920768031,-4.61600356265,-9.63814529718,-11.6088664468,-13.703190086,-0.224117992085,-1.14893757249,1.3125489533,-6.24052499667,0.197092195053,175.573555358
off_to_on,-10.9929427833,-6.953881755,-7.89062745976,-0.371252603776,-1.4354225581,-4.6050704517,-3.66694141434,-6.02623453294,-0.24147456828,1.82225709452,1.90492144892,-4.79877324241,-1.04281480195,24.9006473739
off_to_on,-3.36921255943,-6.48795041746,-3.8054912824,-0.0351361060473,1.2882820154,0.823464029678,4.34852128086,5.1298299357,0.0293475352145,2.63044080156,1.45681617898,-0.265928158171,-1.80676306219,-75.6366364106
off_to_on,3.4238324958,-4.16249108346,0.404553210557,0.338827818393,2.11759785753,4.74325742481,4.30786643069,8.4277078226,0.27838323753,-1.87246511747,-0.594466367141,-0.497349310854,-5.56297461698,-54.0676025667
off_to_on,6.40769058957,-0.825908571062,2.66433378441,0.0431526161108,2.52014677544,8.64549450974,1.66273817446,5.11357875798,0.224978523424,-5.9435990003,-2.54046528832,-3.13245564997,-8.11971359442,-38.1514294878
off_to_on,7.64997057341,4.38782418686,4.58439145885,-0.415163746126,3.45562086011,10.6529290659,4.00838316145,3.06396427378,0.0351586365411,-3.52679532429,-2.43770623293,-0.801961507968,-2.95824199078,-78.5810744201
off_to_on,7.26795831186,8.9659586797,5.86514644828,-0.0797945300362,2.87307297783,5.03063182768,7.08163097529,2.5708510112,-0.0111801150227,2.81351501208,-0.56002270624,5.7723938832,7.38233897095,-47.6798468937
off_to_on,2.18149308951,7.60729457198,3.43748771589,0.742855568252,-1.30344356373,-8.10695076919,1.67155747209,-2.15341565097,0.018840663125,6.09851593457,1.20095231652,8.30473632233,12.4003796578,100.604964464
off_to_on,-6.83193819672,-0.51323054789,-2.59595795238,0.758811026235,-6.58694487688,-17.8377271147,-9.65543229885,-9.68962763097,-0.0884248666492,4.33499851755,1.65406104407,3.35352952833,6.8264005756,180.715270907
off_to_on,-12.299233909,-8.67171758857,-6.81399462329,-0.263414447805,-7.24178527139,-13.1732788689,-13.4530351216,-10.2448836027,-0.242849054982,0.840899939343,1.144439199,-3.5282819029,-3.07967142516,45.5751114355
off_to_on,-8.17990418917,-9.48636204542,-5.09835220462,-0.979150576255,-1.19854179817,3.05308665225,-3.6940081825,-0.124661597625,-0.178600906102,-2.17592021403,0.567824408279,-6.70673007659,-8.30275648207,-148.331779771
off_to_on,2.02337194629,-3.05540883209,-0.199385034021,-0.496800002403,6.37380538438,16.2521194755,9.56615687548,10.8636723006,0.0694843585054,-4.85903831673,0.327273890162,-6.46553075648,-7.10052107191,-147.934886118
off_to_on,9.12832725319,4.06765062628,2.47351096285,0.251982130092,8.27315648586,15.720000368,12.9815907483,11.2527850025,0.192598043277,-5.70583032431,0.0718684958923,-4.24849358258,-3.39116332371,20.0641670263
off_to_on,8.5797552856,6.53699967766,2.08580648893,0.0905115911849,3.18317780474,4.14221771216,4.99377099084,1.84919112499,0.0965594990473,-2.2279003746,-0.86425610627,0.970672029056,0.282601599534,104.540600902
off_to_on,3.32074448732,4.34659358051,1.68179581044,-0.413996436554,-3.37949375656,-8.02682174676,-5.60614824051,-7.16532609921,0.0117056061338,3.5952380277,-2.38221146628,7.59883833451,3.59170939808,22.6875859352
off_to_on,-2.10604921828,0.449421460776,2.09971169837,0.088271448666,-5.67941447196,-12.8973172756,-10.7717179505,-9.10533340429,0.0657187301023,5.7665844617,-2.92640993954,8.95795131725,5.07988638019,-44.9330025176
off_to_on,-5.68794274042,-2.53423639129,1.17257542522,1.26531373906,-3.38230107947,-9.1434455494,-8.1344762204,-5.1922749161,0.0840046345546,2.3570679127,-0.868880007018,1.98851546932,3.28904221731,16.8743887148
off_to_on,-6.23307722445,-3.06471747714,-1.29739414412,1.26828664939,-0.157581595937,-0.588348128113,0.66035535166,1.10564301871,-0.0601782325535,-1.18034289346,2.92371023391,-5.80572346239,0.405957178613,73.5358802845
off_to_on,-2.58817090459,-1.07168740718,-2.37367396287,-0.41396368807,1.38753409617,6.5093784365,10.2773049078,7.35712207715,-0.195191881727,0.120914385339,5.08127326652,-5.15413337705,0.0428880204535,-5.54874325027
off_to_on,3.25209625143,1.2341194428,-0.942319456845,-1.83770199247,1.71753458012,7.75881025642,12.642399906,9.98428296954,-0.137806168236,3.12437109611,3.34481589127,1.589918439,1.25674046348,-109.042487891
off_to_on,5.94632320773,0.98461801136,0.143308805895,-1.21402152495,2.08212933155,4.64082784596,4.14882022591,5.32295676553,0.00661110559358,1.15999145046,-0.708480696526,3.5140940979,-0.640728783176,-68.2127648332
off_to_on,2.81314320766,-1.62637212863,-1.0654473589,0.534290854998,2.19772579159,2.07070994843,-8.16896246486,-4.63647206735,0.0482841666699,-5.74347691333,-3.74225086213,-2.75454182479,-6.16480776727,59.312467323
off_to_on,-2.19655066918,-2.90995862809,-1.97790350868,1.11881724425,0.934625096153,0.863444809418,-13.0923322098,-11.8151806081,0.0290895845342,-9.9923166125,-4.46334896013,-8.05142637824,-8.98284738361,87.0298517432
off_to_on,-3.48183737065,-0.370514622624,0.344370273674,0.139622040374,-1.59208420054,-3.30785205699,-8.12018781372,-10.2352143747,0.0905765073161,-5.86735541574,-3.64205949146,-4.06343943772,-3.85420434986,1.4605533275
off_to_on,-0.986679185282,3.64437132407,3.84464002205,-0.557639613945,-3.59156162924,-10.7233845196,-0.571299797838,-2.06507751834,0.167432889693,3.9312188837,-1.33804340421,5.32635271045,5.83427870236,-39.6668696266
off_to_on,0.865311630683,4.71932769197,3.9566587884,0.195335012022,-3.28870665134,-12.5043562043,4.34310662969,6.3157113569,0.0862938426611,11.8396088429,2.97830661295,10.345362526,11.632497736,14.5432712852
off_to_on,0.218845202528,1.75696351171,0.241747152645,1.14075401886,-0.667693054225,-1.29046434749,9.00834959338,10.991741264,-0.103732607798,12.3973556171,7.22384607655,7.60381716993,9.26569178563,38.6242458591
off_to_on,-0.231611737945,-2.26835777823,-3.07769130657,0.558637002018,2.50125017326,15.2439466478,13.9115643285,10.7600187361,-0.1749913775,5.03932049723,6.86984635234,0.916430125113,1.51704076346,-31.3046953661
off_to_on,1.42414099619,-4.22620817085,-3.04241861623,-1.06434328057,4.11965784292,19.8259516297,11.0715023361,4.62970090959,-0.0794677205059,-6.32804359586,0.471563360926,-5.8580528494,-6.31898510091,-81.14277311
off_to_on,2.83215318755,-3.47850361015,-1.09058652834,-1.60942344919,3.21822528028,6.3318252633,-4.62537734056,-5.93602967244,-0.000486226466137,-14.4903757322,-6.92705988098,-10.4587129493,-10.3891789495,-19.6721096264
off_to_on,1.06231648395,-0.977852715468,0.258196164255,-0.306007452584,0.366461100937,-11.7493903694,-22.0330550871,-14.1067868808,-0.0224439215196,-12.9274593478,-8.61587065077,-9.40127062115,-8.72548442884,62.708079022
off_to_on,-2.74168814142,1.96392236283,0.770865244513,1.14934910638,-2.82496907686,-17.4082963218,-22.5882517916,-12.706140651,-0.00976075885088,-2.20334108386,-3.72074001674,-0.956481073599,-1.93015839197,48.5801343427
off_to_on,-4.67586953182,3.59264723041,1.22464521483,0.917636565938,-4.48593586748,-9.14078426382,-3.5648073342,-2.78935349623,0.107049944354,8.94905811024,2.46879366581,9.04280833969,5.69652595969,-15.386943555
off_to_on,-2.81626965894,2.51645165283,1.2511812242,-0.460885554525,-3.38751551838,1.41719905589,16.7151617607,7.07221955082,0.170386815177,11.9394626045,5.20882521292,11.1630314149,8.7803598289,-14.9153059655
off_to_on,1.13511893645,-0.327051985059,0.340652697786,-0.857607077182,0.061766209551,6.28392536638,20.6032268814,10.7935059079,0.0571903044384,6.96225705697,4.61137258567,3.98110281224,6.09297700423,31.8465110722
off_to_on,4.15118188964,-2.01466233911,-0.60895056579,0.408211098105,3.5673568814,7.56734921437,10.2444470905,9.65401303698,-0.0980712509656,0.76895068647,2.93899405367,-3.75926614759,1.29845282217,19.1697258998
off_to_on,4.38836270708,-1.10369137798,-0.552432559062,1.50345723839,4.48310630231,8.32823906091,-0.59502140158,6.20858963407,-0.108980142705,-2.74361543226,0.681956610452,-4.88180804392,-2.1423409801,-49.8585346034
off_to_on,2.05022532077,0.493612399229,0.00245273415706,0.584899215922,2.26921339634,6.00896866748,-6.27676260903,-0.623306746661,-0.0139454475586,-5.37178602122,-2.61090801931,-2.20812967284,-4.28832235653,-65.0247646464
off_to_on,-0.94987739416,0.34572503527,0.0896959793705,-1.48511473973,-0.888568155545,-1.46034687113,-10.9318046078,-10.2255177198,0.0247875330225,-7.99441225688,-5.41346485958,-1.70304919929,-5.79672112433,1.38130100043
off_to_on,-2.59507434938,-1.01768977544,-0.034095767052,-2.07206703505,-2.47649001319,-9.23354750072,-14.1991194732,-15.1229485801,-0.0226795988088,-6.7178096485,-4.93324003563,-2.54778880977,-4.80149123949,50.6835938149
off_to_on,-2.83049242325,-1.21028514451,0.100202513431,-0.281832213344,-2.28999312677,-10.7337480639,-8.47359716386,-8.39600436826,-0.0692942731276,0.851916268247,-0.782143665691,-0.10331643383,0.242685103171,25.7771562411
off_to_on,-3.15759030371,0.222102663875,-0.289468421644,1.7390091269,-1.84865716932,-6.08018903727,6.38107857073,5.16985812189,-0.0737316144553,9.14092713701,3.88744567822,4.42761484541,6.21382665902,-7.64082319283
off_to_on,-3.43365012007,1.28363582518,-1.61184342325,1.61247855922,-1.56493745851,-0.219536992233,16.7208709914,12.5978133507,-0.0187033255011,9.68703346814,5.48099096465,4.72182491409,7.42649270545,6.69754875045
off_to_on,-0.9640605303,0.786695361636,-1.88122395557,-0.182793512438,-0.0990648228612,4.956169642,11.6352827771,8.49871972458,0.146409517577,1.95743596317,3.27951958073,-0.41238286486,2.34138011596,20.594528069
off_to_on,5.02374245656,-0.0428312005029,0.859923745979,-1.19134735758,2.85337597726,10.4225623619,-1.20713397036,0.851663871457,0.335814181632,-5.65341000303,-0.555868734843,-4.37003493139,-4.34870609313,-12.3948448206
off_to_on,9.58213707017,0.0506241354715,4.40171362807,-0.427401130394,4.71840663493,12.8448127607,-6.15619511605,-1.59612919274,0.249278203449,-6.41300230101,-3.33062560084,-2.42180217664,-6.93044631889,-38.2220435594
off_to_on,6.50924929574,0.308336104208,3.96908696618,0.566801572128,2.77235449167,5.60507388083,-2.00808205351,-1.05894720778,-0.228200457126,-2.50294106126,-3.6910388834,1.67341611398,-4.02635256037,-1.90195949694
off_to_on,-3.0254519588,-0.276550122189,-1.074856089,0.296097127402,-1.79821366522,-9.58732360313,-1.65855721107,-4.15786465476,-0.646157614248,0.390170422364,-1.91744902441,2.31065414722,1.66845484497,34.6703567187
off_to_on,-10.062838954,-0.698065111982,-5.23705057709,-0.552962559478,-4.57060434511,-18.8347184913,-9.05738176748,-8.65617848897,-0.421401602075,1.54837008426,0.725552203885,0.614333921658,6.55649649174,-12.1843970089
off_to_on,-8.06840978462,0.379118563089,-3.74764970985,-0.474030131583,-3.10835118234,-10.9889006494,-10.4627990587,-5.69833872642,0.309037228415,3.79683246963,2.74517302047,1.07293933484,7.59191030237,-84.3198686664
off_to_on,-0.70677842794,1.4616320824,0.982978562903,0.423981310439,0.16943135203,6.3823301462,3.70343847929,5.09717813607,0.711935789123,5.81846045777,2.94849841639,2.46743392423,2.84888581517,-43.0904404697
off_to_on,3.56055437516,-0.362382225065,2.80744962272,0.714202204802,1.44592227223,14.1675401885,19.3341142513,11.8309281887,0.326503882732,2.18808163896,0.966600442698,-0.920097448077,-6.16787627247,107.675876686
off_to_on,2.57540235392,-4.21728099216,0.392306028693,-0.0359835959088,0.469220224633,5.56100621856,14.7822158515,5.74190834268,-0.306699149379,-7.18332295301,-2.05164261866,-8.50326991666,-12.9441767931,183.465473747
off_to_on,1.8485382227,-4.62414454082,-1.4453712591,-0.677655507515,0.180433557752,-5.39765719835,-7.4453564574,-5.92321276517,-0.417073326384,-12.8067145125,-3.53302015249,-10.4843671308,-10.0250808313,53.0678928853
off_to_on,4.86662772352,1.53639283632,0.73563038085,-0.33936587359,1.88103459541,-3.4472003599,-20.6266607955,-8.94654924166,-0.0494082910564,-5.77694703647,-1.5955197362,-0.108702089832,2.86185301433,-170.637013957
off_to_on,6.8834144031,8.95212137602,3.83047932982,0.367642895001,3.08167015209,6.77484369038,-8.80899667055,-0.854711030358,0.148349663974,9.44832610082,2.28219848471,14.7855078448,15.7781287835,-245.113266828
off_to_on,1.60263767141,8.62808601677,2.75484769803,0.499164559802,1.09636140176,7.86883087847,11.6808458487,6.77172578906,-0.0322748370695,17.6977961782,3.96728207022,18.3689496805,16.6265310168,-76.3776344546
off_to_on,-8.50020523853,-0.771296851688,-2.13803933327,0.145587343294,-2.82595210741,-4.88839652472,14.8295626727,4.6643167837,-0.140109161574,9.92656472163,1.37355995641,5.1690522273,3.59378306304,170.963886419
off_to_on,-13.2045445505,-9.96780974149,-5.38004464226,-0.0686394748759,-4.67811514065,-15.9503608544,-0.505267920471,-2.69272141727,0.0929274298055,-6.31051912432,-2.52266631138,-12.8388790573,-11.9303541496,248.175330016
off_to_on,-6.64253765832,-9.74567459986,-3.62290290245,-0.121463788043,-2.55108292395,-10.4736939542,-12.0051021668,-5.25603391756,0.29675849821,-15.7646324632,-3.21411532915,-19.5010818256,-16.6316397185,85.6568405999
off_to_on,5.12732107506,-1.79448866796,0.485973044446,-0.360054239068,1.26390407852,5.83515323097,-6.27949612968,-1.50782120829,0.105994713103,-12.0763566787,-0.534724961832,-11.352843568,-8.63493334584,-135.29245187
off_to_on,11.1145950873,4.68068084862,2.57986618118,-0.576605890606,3.26724496222,14.9543730439,5.24160460914,1.57849992308,-0.222321173622,-1.81281000996,1.51826259805,1.88773845205,2.44259014864,-185.271241271
off_to_on,7.9082250033,5.27131704873,2.23718635004,-0.239976236538,2.54431321079,9.55168754933,6.36140028016,0.281472616228,-0.2294103915,6.0933308268,0.816007913837,10.5666733044,7.79949945941,-45.4285529132
off_to_on,1.69824697619,3.98484621746,2.13211005132,0.496042252192,0.823804477149,-1.00008805352,-1.01156151814,-1.05297209794,0.02658386811,9.23491334225,-0.243931112272,13.0513529606,7.74067041692,87.6154419661
off_to_on,-1.57208731252,4.24858284275,2.80553908247,0.84541045656,-0.302875772952,-6.0090816999,-3.62540933683,1.71607682648,0.126843343967,9.00839439317,0.610962059627,10.8181210485,6.51707509817,65.8450949412
off_to_on,-3.25321926149,2.67444404256,1.4797933349,0.485417171262,-0.919773303309,-5.44851672079,1.40102038857,5.13835573431,-0.01030250362,4.998196358,1.50476619018,3.08760931715,4.00572199036,-26.5478231414
off_to_on,-6.6772366575,-4.03287298311,-3.04025813967,-0.0966848053982,-1.61795326556,-4.19172712058,4.16080940409,3.23639010959,-0.0660658406631,-2.88192061316,-0.0799778505954,-8.76460098206,-2.22395056218,-25.3312133122
off_to_on,-8.92804219022,-10.5449915925,-6.8907993843,-0.430465101982,-1.9923261458,-2.51991328813,-0.455670331372,-3.01833524603,0.0806073873784,-9.58602529361,-2.24424339233,-16.2383950426,-9.04106900657,57.0678846945
off_to_on,-3.84995824173,-8.18518817161,-5.14620014282,-0.558227043192,-1.08034726722,1.63498279188,-4.87494841592,-6.38494247416,0.156042871042,-8.65364981887,-1.25882662228,-11.0038681371,-9.15395146176,64.2168768272
off_to_on,7.11443874629,2.22614877243,1.5008635954,-0.54741464415,1.02628595473,5.74987721053,-2.03139585207,-3.24285606774,-0.00743207674775,-1.19899236244,1.83497226089,2.98628081559,-1.72477180262,-39.7178692118
off_to_on,13.3951047832,9.70903297512,6.75346597913,-0.203757012607,2.71488777476,4.96717107129,3.05585073188,1.75840489719,-0.174160737032,4.14280827714,2.00011293059,11.6893897981,4.73433505503,-103.958336285
off_to_on,7.78860190044,7.10705747264,5.94561171555,0.395383746554,2.30172615913,-0.154891705579,1.80210922519,2.58040891884,-0.105166148902,2.37849781246,-1.74721756601,7.68047779464,3.72475706879,-32.8657181721
off_to_on,-3.77172303417,-0.176213961998,1.05050230641,0.682534931927,-0.128002247451,-3.8736731785,-3.74183853293,-0.168305774702,0.059146886275,-1.19988039063,-3.85988939023,-1.06218823151,-0.108260373855,61.8216669037
off_to_on,-9.50090442167,-3.01928311722,-2.73511205203,0.366686721855,-2.50574289182,-3.12693663564,-3.83168125102,-1.11494562001,0.0674507260458,0.895272343445,-0.347134681991,-2.91613144999,1.30579895303,46.6543328964
off_to_on,-6.2022197535,-1.12046101755,-3.35887134913,-0.0548376293602,-2.62660495288,-0.447399118883,3.63561179307,1.81079323433,-0.0274106194731,6.96796091599,4.6381005499,1.8963239703,6.28361391742,-23.5931282798
off_to_on,-0.919277903449,-0.902792900472,-2.63872600464,-0.0456548960839,-0.367347429098,1.23076626856,9.11829820218,4.76694003311,-0.0101931430917,7.9994151706,4.34389143092,3.67007223236,5.46339829578,-16.8734415653
off_to_on,0.788973840451,-3.82812346392,-1.94472807508,0.117196047849,2.07919457077,2.03688829646,4.61071961735,3.47298093887,0.0965149105766,0.0504780474124,-0.898825616705,-1.77306913337,-3.4885033194,46.3928119534
off_to_on,1.45169430972,-4.18422260303,-0.376486059574,-0.164072880297,2.43744212322,2.32061130868,-5.48126999279,-1.57038635666,0.0841010973985,-10.0983993565,-4.36574507557,-7.81228388293,-11.0614340252,38.109439594
off_to_on,4.4966048269,0.912054873204,2.32595214033,-0.740456432127,0.687527892456,0.706970403543,-10.4088619364,-6.24865424947,-0.0601256677656,-12.8721688496,-2.5811656641,-7.13892135743,-8.54236778755,-46.413379983
off_to_on,6.63077251782,5.98207345026,3.92249632032,-0.81911567769,-1.20478311649,-2.76601808511,-6.10089223796,-7.1439444251,-0.125289546237,-6.03036756264,0.686161854836,-0.723677153671,0.651592528054,-75.5012607993
off_to_on,2.67073919531,4.91598325359,2.48098648989,-0.0850027054855,-1.72275636421,-4.83510824862,2.07985936183,-3.56169116648,-0.0350379104167,4.59345981755,1.05602973856,5.53829074786,6.75347647239,-4.51857447171
off_to_on,-5.15846657438,-0.363402698061,-0.614665468592,0.859705714059,-1.18854982099,-2.87719487849,7.25525148328,2.79409004957,0.0427927626778,11.5378927543,-0.327475221228,8.03724218597,6.34131898104,52.5376880297
off_to_on,-8.72829800298,-3.29711711095,-2.38336815377,1.22946551914,-0.536341940389,1.59618435272,7.14933402727,8.26121796912,0.00241201509409,10.9001823908,0.0738387766582,6.24652512128,3.62914503314,19.2819622792
off_to_on,-4.48566621525,-1.96977687592,-2.0280616586,0.774409495432,0.252791017262,5.17954937303,3.03107477129,8.61839767435,-0.0330735228545,3.62149996505,2.1089484183,0.639396809173,1.68152476059,-23.9709942643
off_to_on,2.48525320444,-0.220557675602,-1.12089586844,-0.228293998907,1.52534281039,6.04318326032,-2.73283955501,2.67704753602,0.0414531607259,-5.31690972283,2.54443727119,-6.03997750413,-1.02061311148,5.56271996672
off_to_on,5.72725707114,-0.599129554537,-0.611042157725,-1.18975686717,2.42756248511,3.60717510585,-6.68018160161,-5.28998014114,0.11270057038,-9.80209894907,0.305245880641,-8.39770916406,-4.99661691209,47.4313224595
off_to_on,4.49083639176,-1.09155376425,0.200488127794,-1.37692469123,1.50256282199,-2.08875120397,-5.42838771859,-8.73001036551,0.0466403086965,-7.33359690913,-2.25383113,-3.91348801409,-6.66365364695,12.5575169599
off_to_on,1.79506917401,0.375230184509,1.56582205497,-0.46499134419,-1.01338861689,-8.06900243562,0.365957701729,-5.35593034666,-0.0755862755376,-1.16218908705,-3.0062984389,2.68534054026,-3.36913676527,-53.8202891775
off_to_on,-0.784643045743,2.22199295823,2.22411069805,0.851371853071,-2.83527154476,-8.68403525612,5.05402393871,0.676293051274,-0.0920804848467,3.50930456636,-2.15992554399,4.78196220269,2.19060821776,-48.601471812
off_to_on,-3.24473609992,2.032589327,1.29077469446,1.32491791555,-2.27502670509,-2.14435798843,3.85177192143,3.86818856147,-0.0171053554683,4.87854950855,-0.498448277511,2.41335282354,5.36680484618,13.2447076436
off_to_on,-4.41080944638,0.325423800436,-0.287374748807,0.566031400228,-0.274779961968,5.46010106788,-1.09371462057,3.29190626448,0.0147316749754,4.58680034913,1.85639594312,0.91024508183,4.93709929281,31.0634590538
off_to_on,-2.74739947382,-0.85951836142,-1.22301322315,-0.442252966575,1.07337826001,7.06566516478,-3.25147808327,2.03372395339,-0.0141122752777,3.44991987997,3.99502617733,1.76659735978,2.60769258373,-6.33275225177
off_to_on,0.673464035158,-1.2835552806,-1.62335171915,-0.603277898756,1.21628850226,3.75056432878,-0.266093977424,1.88002374089,-0.00548306895153,0.191493471935,3.70931151354,0.649518439535,-0.606696041649,-12.4023631304
off_to_on,2.94178880699,-1.86734160875,-1.97220391538,-0.0652921524314,1.16519967505,1.78003670971,3.08520918095,1.10716284984,0.0519683753995,-4.84561160428,0.135489727194,-4.13687720585,-4.30455533834,33.3408591101
off_to_on,3.06541605986,-1.9103955151,-1.43943184097,0.180738803087,1.3537187181,1.93915220031,1.73819667367,-1.85348588314,0.0618609337614,-7.56785576729,-4.1435454226,-6.95284314516,-6.26916433311,45.7477552877
off_to_on,2.52349889235,0.148944092311,0.949292448571,-0.232364381468,0.971961243759,-1.15192823697,-2.63002316682,-4.79995402957,0.00365454065976,-4.21486197868,-5.24822625093,-2.48631685358,-3.76820188586,-12.757755603
off_to_on,1.91818614259,3.30719248898,3.76949819584,-0.614925854641,-0.428558631189,-8.08938059626,-4.14071424773,-3.9823715396,-0.0287431528431,3.28988523923,-2.10248307946,5.63093388857,2.26638053249,-59.4359636717
off_to_on,-0.221561990541,4.08855247736,3.86299640628,-0.251524541128,-1.95986985511,-10.7450379721,-0.800420866944,0.628807636547,-0.000666315776282,8.33472525862,2.487241695,8.69527029378,6.95531932522,-27.6053081474
off_to_on,-4.13264707016,1.01185362945,0.275237423989,0.640020160514,-2.50183538018,-3.60045197875,3.30171487056,4.51170115474,0.00375860577615,6.36023195926,4.71407771841,3.79388987028,6.37198277025,25.0335706493
off_to_on,-6.5767196211,-3.04526021329,-3.88276427004,1.15264677054,-1.81326008898,6.93005741882,3.84968021357,3.77708438379,-0.0526535073335,-0.610623714252,3.17698486272,-3.59504791069,1.26349262242,19.0375709507
off_to_on,-4.10559951004,-4.30107308216,-4.66726786024,0.655605682002,-0.140759236996,10.5871080145,1.15290115287,-0.28272621389,-0.0764357466931,-6.49408389442,-0.325807239056,-7.22232267726,-4.48553195864,-16.8446413221
off_to_on,2.22248756832,-2.43440947164,-1.66407094437,-0.554006247081,2.15254920458,6.61913369197,-1.8277969241,-3.04877059419,-0.003696280587,-7.09611350244,-2.78029059212,-5.99451167551,-7.37746464509,-8.1143338926
off_to_on,7.28680219776,0.094568299871,1.99582159919,-1.42975766843,3.87683741174,2.06934799755,-3.35904436848,-2.07393241615,0.0777548903171,-2.97978797051,-2.69329216471,-1.95959130131,-5.79680822322,31.8659195102
off_to_on,7.10461514018,1.90820803366,3.49024731558,-1.09329518555,3.16964531181,-0.566225319149,-2.98122180108,0.784234960101,0.065550994529,2.44014921939,-1.08685999295,3.21966307721,-0.212695734203,31.1995228328
off_to_on,2.38586344314,3.55444724808,2.78162577018,0.22423663102,-0.281199411589,-5.23094198365,-0.285133260026,2.33924532724,0.00360635857814,6.04556316191,0.186502990366,7.61261793139,6.31396427671,-11.0330481593
off_to_on,-3.07934183066,4.61491737811,1.20015896179,1.28839852514,-3.86242183716,-11.5115873074,3.51252091919,1.43345799427,-0.00728771383438,6.23110688021,0.729753578677,7.95622828026,9.04468137079,-27.7328475941
off_to_on,-6.2036077898,2.69718155506,-0.770106731515,1.15715406843,-4.41365665873,-11.1787574607,4.62386776181,-0.929986117889,0.0175432394739,2.78889203377,1.44317239958,2.55564693992,5.26784209686,-5.19458298236
off_to_on,-6.1754988495,-2.94276760218,-3.05303087729,0.188768735886,-1.78559489181,-0.112178754489,0.90553153019,-3.01413988175,-0.00791038305042,-2.71003776775,2.2755850979,-5.47766827069,-2.52938473359,0.535150570337
off_to_on,-3.45115812455,-8.25325296593,-4.2606452565,-0.566631373976,1.32722528,12.8197512567,-3.82992203779,-2.98139015342,-0.0701184056734,-6.78134568124,1.65105500719,-10.1423722685,-8.32849435063,-23.1410579499
off_to_on,1.14508122789,-7.51445550065,-2.41703267086,-0.705766650248,2.87423027156,15.2217230455,-3.69783787397,0.191506268158,-0.0697764536012,-6.2318887302,-1.01339354065,-7.94173558169,-7.96120900609,-17.4855299751
off_to_on,5.8896537145,-0.0914702162215,2.03599695439,-0.625983291992,3.03831570469,6.11321423368,0.932768574256,4.66290211881,0.00625695737144,-1.51227096396,-3.4934210597,-0.678130285473,-2.55962345283,32.298483093
off_to_on,7.90207907564,7.80320097075,5.43397231176,-0.513668948147,2.25340382735,-4.59304049741,3.35177293999,5.80664760156,0.0585970332695,3.23710542328,-3.04341807547,6.53275289627,3.24232250225,51.4030792873
off_to_on,5.03514597876,9.37168040867,4.48414990479,-0.021075016037,-0.0304811309945,-9.28834800421,0.16495861408,0.941168678977,0.036568831659,4.64545286553,0.0215272810436,9.25748947108,5.90152693758,-1.29352087942
off_to_on,-1.44511578612,4.20486959664,0.127781791594,0.837982558847,-3.28920456641,-8.78519310874,-3.50206426902,-6.1010116166,0.00588705561427,3.63291102207,2.63945263864,6.558895337,5.43124614142,-50.4303071643
off_to_on,-7.00927716601,-2.38968387343,-3.54324570995,1.26366572309,-4.60912475717,-5.95410309439,-1.76871431233,-7.89127493096,0.0191999889502,2.9022678338,2.78530733205,1.01429619236,3.63996572338,-19.1240009411
off_to_on,-7.76143452791,-6.01534916305,-4.02168704557,0.664624144741,-1.83507099803,-0.679133658253,2.83442813175,-2.0079340722,0.0287450231295,2.0150906004,1.30588923103,-4.02576958599,0.934288199195,43.1774719899
off_to_on,-3.98819743657,-6.67690849564,-2.46520723928,-0.446965746768,2.7401847379,6.24600250946,3.25135319762,5.54538520217,-0.0132964839265,-1.9002453931,-0.205626032623,-7.18686201576,-3.66223948693,38.6738399838
off_to_on,0.919461985714,-5.5591212293,-0.840700364581,-1.10125540215,4.36591008865,9.9353187336,-0.865354445461,7.32903091278,-0.0590296022439,-7.94888349321,-1.45725679713,-8.34732398628,-8.80929783451,-23.8888287052
off_to_on,4.49408795045,-1.67182715604,0.936021473542,-1.00904509063,1.69564078993,6.70573444519,-2.32815823945,2.99553736458,-0.0445864034539,-9.59819172365,-2.4245784726,-5.92910319199,-9.27410326184,-54.673025292
off_to_on,6.55769594235,5.48610714332,3.48837209033,-0.514659734427,-1.61301238136,-0.322112044093,1.97967709725,-1.750885469,0.00260987855382,-2.24319430693,-2.02017521002,1.91483886556,-1.29506942525,-30.3827084456
off_to_on,6.69051519375,11.5371620929,5.11690232143,0.169506957161,-1.93826332188,-4.95025525876,4.91785902665,-3.33113624181,0.0166721411565,8.97128250804,0.339452688772,11.8797023274,10.3085747439,-4.17446917712
off_to_on,2.99573224557,9.67152945129,3.06871924744,0.955257434866,-0.191477147184,-5.42776686693,-0.868997126717,-3.54404822356,0.00319212644129,12.9973193861,2.71665688272,14.8098135137,14.2930769446,15.5774889237
off_to_on,-4.55578475583,-1.00841664579,-2.21078874789,1.35314406141,0.341308525932,-4.51852561903,-10.3610942711,-4.23149821749,0.012962529306,5.38418652403,2.37619099998,5.0285430436,5.25480893149,67.667794928
off_to_on,-11.0143542403,-12.098485515,-6.32030501231,0.797064076294,-0.937319427914,-3.48300698393,-10.3306240312,-2.99509261028,0.0400863047113,-6.12483189031,-0.390655245059,-10.4469386277,-8.4423760372,109.595828875
off_to_on,-9.8801844918,-13.4758027044,-5.49416638357,-0.439765557746,-1.44813454256,-0.509537675938,3.12612601949,2.59158574868,0.0328368527478,-10.3659058694,-2.13097575848,-17.0268404565,-13.0231074846,33.1807646289
off_to_on,-0.539868706963,-3.90719900658,-0.706518957709,-1.32459071464,0.330187318152,4.53036869463,16.8566145856,8.88272097489,-0.00924547050966,-5.04622001841,-0.717710806624,-8.54728051728,-5.1253746089,-135.774285789
off_to_on,9.618214107,7.61491166181,3.77731100513,-1.21071608835,2.49117515656,7.81712865819,14.777288971,8.70192837256,-0.03197971503,2.23328636006,1.62927566491,5.55630288159,4.92259379584,-197.413865866
off_to_on,12.0066090234,11.2130912362,4.91279397354,-0.395435362587,2.37243123697,5.95194651035,-2.43561791972,0.420771531156,-0.019144003817,4.10224771776,1.29232550268,11.5239652658,6.55578228929,-43.0246873568
off_to_on,5.18362470273,5.57826821697,2.93262974225,0.495453789703,0.0570616322482,0.236855660356,-16.9572010606,-8.81398300897,-0.0114015829248,1.3144684172,-1.6534914499,6.59429574469,1.24268524261,157.311212416
off_to_on,-4.32221512108,-2.13765413266,-0.0606105413621,1.06729501861,-2.01211250821,-5.10240405619,-14.2543319481,-10.6126304237,-0.0238495418557,-0.315311385759,-3.24127963372,-0.529226040629,-1.85157422852,172.060948255
off_to_on,-8.79645296084,-4.70831731221,-2.06762198047,1.03273648958,-2.15691610167,-7.27289368645,0.491920637257,-4.18748013543,-0.0187045425087,1.69127892187,-0.806498073951,-2.36976869375,0.855499420887,25.2467624778
off_to_on,-6.11290393059,-2.05014781027,-2.21972848824,0.276642252235,-0.984647589923,-5.99331409979,10.173504263,3.97793071367,0.0186870607058,3.70505219347,3.23606414015,-0.711351106801,3.66512084393,-72.2902143157
off_to_on,-0.374482793715,0.07932171131,-1.24694503873,-0.67055268615,0.0612717351408,-1.89350472998,7.10294041717,7.70692744598,0.0444567700541,1.4036264502,4.11904945626,-1.24090580664,0.920237068505,-51.2779514688
off_to_on,2.99448688299,-2.04553258576,-0.815674213618,-0.910583354699,0.60401269546,3.84900935103,0.120949437347,6.13792770431,0.0283671607144,-4.14601539629,0.624752983002,-4.56521986141,-4.90807671798,-37.787070055
off_to_on,2.49719560859,-4.9925747119,-1.34470316198,-0.319708881407,1.2707672826,8.55900642415,-0.379782383098,2.02217326591,0.00240036323627,-7.26458717881,-3.32790031588,-5.76675937182,-6.84953793458,-79.5033872301
off_to_on,1.16531565367,-2.48969845665,-0.949466395295,0.211351202371,2.12948208832,8.68861710829,2.92241971435,-2.04592075306,-0.000107201858449,-4.15530353592,-3.4694711838,-1.42199158969,-2.41062885688,-48.3805129813
off_to_on,1.99348921891,5.49276973699,1.89482096718,0.0933622665759,1.95702230875,2.61540084448,0.598195856791,-4.71567701497,-0.000488286389807,2.68394082368,-0.271109861393,5.73833297867,4.0179707575,99.9059424991
off_to_on,3.48464863599,10.814973211,5.00450433395,-0.118616220071,-0.312063214485,-6.82120849857,-7.10271064777,-5.13534837255,-0.0249877866401,7.17276992062,2.09076055435,9.47365819499,6.7850405154,179.279925182
off_to_on,1.42348103206,6.38588062408,4.16339308597,0.203149693776,-3.4617274755,-12.799050706,-9.34223649643,-3.01413355919,-0.0457809184202,6.00763810479,1.30437624017,6.14494478057,4.52312605873,44.1120993211
off_to_on,-4.48137604312,-4.46636648853,-1.10904232438,0.590407004665,-4.31689093281,-9.20761105823,-0.911064242177,0.736258680173,-0.0255427925196,1.25098258913,-0.473053745069,-1.9037818563,0.0347827837949,-148.253889851
off_to_on,-8.17422471477,-11.0803572172,-5.74905062839,0.291263963732,-1.19013197407,2.86647471081,9.14203922743,4.27535400311,0.014340034516,-3.01274754624,-0.233215733733,-8.34461821736,-3.34767716745,-146.069737472
off_to_on,-4.07372873653,-7.70233762574,-4.91657819293,-0.328844055415,3.41327604698,13.6702087335,9.4950295052,5.70925357036,0.0273299483134,-4.8547010846,1.43660743721,-8.35405994135,-4.33378741037,22.1823530516
off_to_on,4.78876237686,0.674447364561,-0.0390266308845,-0.348025955738,4.95579178004,12.9258079302,1.05888035374,3.70190403687,0.0173078197586,-4.67215248452,1.40545727047,-2.79784122535,-3.5451202499,105.41623698
off_to_on,9.02228734711,5.5943415159,3.22002828507,0.0764850392744,2.01209206845,0.910049428036,-6.34173048108,-1.532964315,0.0206710649602,-2.90700043,-1.18304699878,3.00340034681,-1.93636718737,22.2860643346
off_to_on,4.08461407371,4.85559096548,2.24339927541,-0.0451819571203,-2.08964611513,-10.9159949072,-7.30488516334,-6.84104147377,0.0316568458661,0.425417971259,-3.38845046773,4.89927120903,0.327121277829,-45.8295054146
off_to_on,-3.96322707609,2.45270491325,0.00366203996989,-0.666951066628,-3.41022454613,-12.1065659734,-3.84546643115,-7.14465706675,0.0114544563245,4.27661678871,-2.32558889367,3.73675486095,3.36077519766,15.8397613624
off_to_on,-6.13331223405,1.35830531178,0.0461252336995,-0.534870822527,-1.77153129185,-3.84907436026,1.75882160987,-0.47290251757,-0.0337272670318,6.41551065742,1.14473064592,2.91046561163,6.0237224191,72.3456919979
off_to_on,-1.5433758233,0.349525303877,1.60852156562,0.681308306253,0.188359920129,4.63748566363,8.25511167315,7.87069030862,-0.0507709276798,5.23387805966,3.65386829254,2.98148961413,5.70819839106,-6.46346536397
off_to_on,2.682608083,-2.18472605686,1.3962031593,1.47027113451,0.957186856377,7.42678758812,10.2016856289,9.09907157975,-0.0237645386234,0.954622684573,3.17113192419,0.832868655319,0.861887754964,-108.899675986
off_to_on,1.62072519944,-4.77670124035,-1.34966893262,0.593774412664,1.13097861952,5.75378768113,1.59038283606,0.868330404805,0.00306603466599,-4.66734148474,0.482121653212,-5.02394106171,-6.09264506223,-66.9002574649
off_to_on,-1.55582026206,-4.67449155611,-3.73007242219,-0.958752025798,1.14036343936,2.57094919841,-12.1955878922,-8.54821780528,0.00325439700243,-8.69270470405,-2.33690492031,-10.1932209024,-9.61088029969,60.8886752187
off_to_on,-1.28772871981,-1.33211353408,-2.94466677189,-1.31557237786,0.449930867515,-1.27343713548,-15.5352855645,-8.96080171609,0.00707328401296,-7.74563388605,-3.58014990138,-8.06904522781,-6.08493617948,87.8690847418
off_to_on,2.16839107885,3.12619562753,0.422361652797,-0.318015683263,-0.684226918233,-4.86063541153,-2.27203150392,-0.356543175798,0.0345056806724,-0.93032822173,-2.50348844775,1.88371826448,2.03837355479,1.37920984596
off_to_on,3.55387905512,5.89204615344,3.28711933448,0.545025835307,-0.900144528692,-5.97413900704,13.1403511256,7.1676052598,0.0480961328799,7.39749369239,0.274157681105,11.6796377017,8.18297298679,-40.2632641503
off_to_on,0.371515713309,5.18374395229,3.33113986273,0.446940391474,-0.0362947074467,-3.98791246217,13.0994392074,6.00160306855,0.0154415513802,10.314877908,2.79854752512,12.426723694,7.98608924499,13.6949842654
off_to_on,-3.73435234426,1.15692975821,0.929115670447,0.0827831008921,0.216898979917,-0.736103245658,0.338169419642,-0.325423273367,-0.0291205107222,5.51815925093,3.24072330427,3.66768861128,3.01701182403,37.5964672213
off_to_on,-4.07867915379,-3.79803668837,-1.63919626881,0.157154419058,-0.820304204701,2.77688193973,-7.06170593807,-3.35460308021,-0.0361395627764,-1.91324597255,1.60554689216,-6.51626020794,-2.03871894337,-32.1489554422
off_to_on,-0.734383740251,-6.32584246036,-2.40377212459,0.30948961046,-1.20449769173,6.86232157775,-2.00146134297,-1.09514719364,-0.0173086685854,-5.67095118457,-0.588025971685,-10.3222605926,-4.60166571637,-81.2022931126
off_to_on,2.51403912204,-4.70294544173,-1.26638456105,0.0121046656634,0.582900147094,9.01785590022,3.31164079762,1.1466796869,-0.0145227266834,-5.18384906667,-2.10852202009,-7.10316389316,-5.27931583902,-18.8001286841
off_to_on,3.30172437691,-0.188775586637,0.325642471667,-0.445380598377,2.58067114176,4.37224031095,-1.72938510689,-0.210383605567,-0.0216175529059,-3.91918226499,-2.61521453886,-1.3196061068,-4.65935947934,63.9198432739
off_to_on,2.39705007847,4.24964132702,1.05021749534,-0.501086766283,1.79948102242,-6.25635339695,-9.51596887975,-2.48259937341,-0.000459099576969,-2.75079427801,-1.84872075384,3.44080323277,-1.70943595533,49.4069564094
off_to_on,0.937701260778,6.00481264641,0.844865665136,-0.185623535963,-1.16083913622,-13.3769011182,-6.92922367331,-2.13295435222,0.0401243353141,0.609082166537,0.234738257932,6.19340184948,3.48226662567,-15.1686348104
off_to_on,-1.27029193206,3.92536709745,0.394003547727,0.138577239001,-2.70550382951,-9.26896088051,4.18179585914,-0.0102529953863,0.0487035457108,5.7067756023,2.32800702735,6.25088938239,7.42253416391,-15.1663646992
off_to_on,-3.83726654629,-0.995441657898,0.00984301749568,0.375049702363,-1.33777737413,1.62728888947,10.6526009608,1.44359587206,0.0151690939664,7.72229534508,2.46726054476,2.86456967275,6.20751315573,31.1926319116
off_to_on,-4.45002612698,-5.35674701386,-0.475156470762,0.4953277235,0.623322864393,8.54432572531,7.82909298236,2.55405190622,-0.0133639202544,3.87218893422,0.650689927684,-2.36976262212,0.475365625719,18.1954814691
off_to_on,-1.51303696272,-5.45776065866,-0.962015328317,0.247988599955,0.967562987131,8.10290605644,3.36629014906,4.22591591718,-0.0118425376006,-2.15963817718,-0.755531184895,-5.58718206471,-4.82560414518,-50.7042651641
off_to_on,2.87875465923,-1.1873967366,-0.91149094814,-0.340306459264,0.498553586933,5.28404366708,1.45598778993,3.93739508167,-0.0112524359426,-5.1057486951,-0.34564773756,-4.64306815846,-5.94826998835,-65.1521237066
off_to_on,4.83359973976,3.2301494537,-0.0481395579962,-0.623453329489,0.707897711438,2.51499945266,-3.83150012391,-1.22964822708,-0.0313076976822,-4.65801117383,0.137835087666,-1.38670717888,-3.6929299351,2.03377288921
off_to_on,3.36293393619,3.90616275374,1.17273215425,-0.173649361473,0.977956185173,-2.97831812147,-14.362711392,-8.18075723457,-0.0379273760021,-3.6676526446,-1.29246001589,1.23711250591,-0.720799930584,51.5403821646
off_to_on,1.02152572777,1.70060176255,1.91402127619,0.407240109014,0.123419537106,-9.69609508758,-18.1124890458,-9.37269614591,-0.00422303348558,-2.17499051462,-3.07349056777,2.5942880698,2.04021514586,26.3104411358
off_to_on,-0.42003893453,0.121992552537,1.51614612302,0.282039258311,-1.0655011737,-9.68633867606,-4.02765067069,-2.16477681056,0.0351237891499,1.92443591084,-1.83385331274,3.2839234268,4.52716852515,-7.41506259902
off_to_on,-2.2756750655,-0.0652523116242,-0.147040665375,-0.2870079996,-1.14364695202,-0.843810343698,18.3893003044,7.09089903136,0.0359521813772,6.91714644539,2.3248979101,2.57484617137,5.10483630169,6.82622480769
off_to_on,-5.33822472804,-1.15756403103,-2.33010764634,-0.302531062543,-0.616329251224,6.98536472447,26.1995232477,10.3051935519,0.0131454887624,7.32767654059,5.08733495243,-0.305331977472,2.06543586366,20.50897929
off_to_on,-6.44444382137,-3.51656416406,-3.45647215514,0.342320916151,-0.753439555049,5.47130663856,10.6712786634,6.1552731894,0.00710306736763,1.52193706036,3.29685264984,-3.26246622545,-2.86501735793,-12.9700703702
off_to_on,-1.95230252503,-3.83211577886,-2.2358351774,0.613716468902,-0.743240731268,0.514855906104,-11.6259023037,-0.71444970775,0.0117415091899,-4.99020623707,-1.18782090612,-3.02122547362,-5.45313754268,-39.1649470287
off_to_on,6.01724529668,-0.0746438860359,0.877856140059,-0.0369565153369,1.07432925583,2.11904192453,-19.3053802535,-6.0101192358,-0.00711475521503,-6.40870491521,-4.23935300328,0.0121956713483,-3.94867663232,-2.64135079035
off_to_on,10.3188702902,4.5699785589,3.75910264727,-0.748003696238,3.44543308904,6.77386478659,-10.4118477769,-8.07060463136,-0.039804983177,-3.49386697996,-4.09451070464,1.74074512563,-0.743241508837,34.6404543197
off_to_on,6.73480952332,5.35916068514,4.42505739065,-0.51769145949,2.91727824161,2.34428725151,0.193756279014,-6.03777584946,-0.0408616814757,-0.569891110353,-1.7004545528,0.335110740273,1.65612601841,-11.4414234268
off_to_on,-1.33920191776,1.9882082144,2.50494274522,0.322945933998,-0.96458532179,-10.5939003323,2.69004491152,-0.195918853759,-0.00562437334741,1.29110922968,1.59448986597,-0.926496245225,3.52455111162,-83.1382239045
off_to_on,-7.35810137153,-1.7841147965,-0.962055062852,0.667661601675,-4.15918528194,-15.9092902697,2.16365715411,5.94730599715,0.0203109141623,3.78634495861,4.32123583095,0.995856309012,5.14661205047,-42.0691365733
off_to_on,-8.35767983107,-3.4489167076,-4.29738117965,0.227323706337,-3.34614555359,-4.58571626551,6.24879024918,7.71426327171,0.0156616801009,5.80640501021,4.25693530336,3.43732112405,4.04683607676,107.821198733
off_to_on,-5.51747035366,-3.64697220576,-5.54246321962,-0.263452855858,-0.167955739468,11.247615886,11.6950924906,4.40434407765,0.0110181338283,3.60300058629,0.565578359054,1.54661558644,-1.57432392343,182.386665582
off_to_on,-0.589267606161,-3.07433179649,-3.36058107663,-0.274363026452,1.70624214518,14.5241428507,9.0394874892,-0.244542786526,0.024946355141,-2.79280474171,-3.7206375724,-3.92645566774,-7.98309625338,51.3944350511
off_to_on,4.97531827281,-0.863984480949,1.29106262443,-0.101209463493,1.63554429077,5.02282860436,-3.15225417204,-3.30007349788,0.0272486994333,-7.65641562324,-4.30675794287,-6.50011447809,-8.5335445103,-171.469544759
off_to_on,8.48233185407,2.90155086007,5.12957132776,-0.128751748782,1.54008824346,-4.18144938212,-14.9973942538,-5.20774530499,-0.0041049893111,-6.10469720043,-1.09960439068,-2.29112007582,-1.7222474771,-244.150307939
off_to_on,7.2287915815,5.67595581629,5.46309766755,-0.151379809721,1.83028651833,-5.98606419662,-16.1896274786,-6.06105546253,-0.0363304520189,0.21690813698,1.69118932441,4.83457152112,6.47274538661,-74.394351715
off_to_on,1.82552801327,5.08472648586,2.79240052851,0.181579238201,0.906725894152,-4.3486255369,-6.04844140507,-3.29296168475,-0.0315712094422,5.77042707013,1.57716823135,7.9794732865,9.36052530749,171.875582171
off_to_on,-4.0897917164,1.49380896387,-0.505863131714,0.627509699542,-1.52078365546,-3.08243432318,7.60450592252,3.64752836515,-0.00677295690264,7.01986211871,0.766854488468,4.67978473243,6.00680502624,246.760130703
off_to_on,-7.69538909628,-3.09899231557,-3.23786019823,0.534270981879,-3.34428242356,-0.728350453853,15.7614773162,9.18762380924,0.000155736607703,3.89984358881,1.5270174527,-1.96466944921,-0.162954662151,83.251458039
off_to_on,-8.23313915005,-6.82743203409,-5.30132461727,-0.262144331264,-2.79385196346,2.75142285325,13.5886365544,6.98236044507,-0.00480305718623,-1.87848710466,1.89639954449,-7.33491013312,-5.97683664612,-135.810736527
off_to_on,-4.80692113307,-7.46391923929,-5.25782739914,-1.03594673986,-0.368806509119,3.71427495549,2.73621065619,-1.2620967812,0.00945966288231,-7.07271964345,-0.74291907518,-8.20696047936,-9.1640300953,-182.86214131
off_to_on,3.00696571896,-2.88044527514,-1.18715437965,-0.869075278826,2.26132515507,1.67504378238,-8.98757248895,-6.94108856726,0.0346023782668,-7.44256244959,-4.13593815391,-3.55736547561,-7.19235130579,-42.6799617937
off_to_on,10.9925066764,5.26911899082,5.04716282336,0.252138666336,3.56444899192,0.619862926534,-13.050738082,-5.34435443455,0.0316372386475,-1.77914743122,-3.54632665666,4.24573296655,0.226871817355,87.2732182036
off_to_on,11.2861510499,10.3313481211,7.57626445788,1.2255158688,2.37251163484,1.09860476489,-8.17947393665,-0.946644164045,-0.00121255464935,5.13281733874,0.95309913235,9.51433343519,8.09973875018,62.686277359
off_to_on,1.56930696281,6.98938797914,3.29773630188,0.970058596639,-0.992948321622,-1.11677596948,-0.961403806343,0.251961740567,-0.0226771031728,6.97346195352,4.0095160526,7.67775190412,9.76106547898,-28.4862071064
off_to_on,-9.4357802137,-1.62293956224,-3.13282540678,-0.256195673045,-3.55015411786,-5.41169141503,3.3646181639,-0.479911554723,-0.0153824064057,3.36542131489,2.54721569721,0.424736454923,4.42112619443,-23.6085085758
off_to_on,-10.6728617026,-6.91180180316,-4.56942849815,-1.06560866679,-2.2057277998,-4.21055256543,6.75289860016,2.0650027519,-0.00817480986951,-0.363156279371,-0.349147187842,-5.73515608795,-2.03966502321,59.7213137939
off_to_on,-2.14491575244,-5.28802094804,-0.751257953571,-0.630862608459,1.66725343203,4.05060250275,11.0700373339,7.09036383865,-0.0181580033999,-1.16020182285,-0.940077337387,-6.66691501289,-4.78118110367,63.7496956691
off_to_on,5.39004297853,-1.64877089031,1.65139081186,0.305484803613,2.98321192484,8.5759178164,10.1040753494,7.16284846208,-0.0191596504578,-1.87032066882,-0.346208642533,-4.18005845449,-5.02650615628,-42.5883529625
off_to_on,4.51017469327,-1.01109969089,-1.10090285053,0.533396121735,-0.162328790687,1.38684546915,-2.27901740627,-1.09991725032,0.00745677605012,-4.96448979119,-1.34453326412,-1.67784085297,-5.43281623797,-104.69571193
off_to_on,-0.449737067413,-1.16586819754,-4.27894929947,0.0323295573815,-3.2732779159,-8.34597934908,-17.6324001583,-10.4614138308,0.0330037073976,-6.75085302979,-2.65505614698,0.76854519345,-4.25925660318,-30.0465284937
off_to_on,-1.45458237748,2.46817063893,-1.71961082584,-0.226293325753,-1.75851415819,-6.51954974095,-18.1767682945,-10.9309220563,0.0258908325572,-2.17670791068,-0.938516452558,4.48309244952,1.46304256422,64.2363727367
off_to_on,1.69431356492,7.75302601795,4.7917655618,0.096085965887,2.18566372468,3.91285007127,-0.563085491733,-1.96266099455,0.00255666754312,6.49389553545,2.80008703864,7.45918411237,8.76283731584,45.4034271231
off_to_on,2.7440980894,7.36458251959,7.43916474524,0.276663927413,2.92423674193,6.96155349322,16.1032821609,7.273856501,-0.00369879357031,10.7999061656,3.71510699258,5.57650000706,10.1605878012,-26.2101491138
off_to_on,-0.686341903051,-0.558673759409,2.7415712269,-0.101430727121,-0.0104032266858,-1.05087652048,14.0989749528,9.22349498376,0.00137165744331,6.33345187676,0.482108993156,-1.20915841377,3.25625778658,-17.0289919526
off_to_on,-3.9753058865,-8.54442547399,-4.17987280944,-0.376295490035,-1.60892464815,-5.49229938047,0.47590351327,5.29786038488,-0.009388931938,-2.18631032336,-2.38620755117,-7.26633124632,-5.40855101416,47.9265168896
off_to_on,-2.91564516051,-8.81245147324,-6.48549213425,0.020619333364,0.276477958085,2.41740334353,-5.01491221327,0.886838874715,-0.0288950598732,-7.46470446145,-1.38480027445,-7.49820140543,-8.30368089204,37.8099411471
off_to_on,0.653739861834,-2.48016743905,-3.37448706289,0.47285669868,1.58561808634,9.98662567008,0.397056021226,-2.50108656536,-0.0244980933507,-7.58348103492,0.810533827204,-2.95290563322,-5.40484617887,-48.4141345721
off_to_on,2.57691718062,3.35053421201,0.857873534191,0.14322050492,-0.879526123311,2.38316496856,0.843865182834,-6.28961763998,0.00412240541659,-4.97279651416,0.0992902639557,1.62665778484,-1.75366829934,-75.4970912293
off_to_on,2.14131320483,5.00604475277,2.93634095659,-0.552832471149,-3.69084339163,-12.7433466379,-9.7664152391,-8.6539767109,0.0215763173694,-0.835954301012,-2.1832212427,3.93821823363,0.632302359203,-1.66361993722
off_to_on,1.25471871207,4.5455265608,2.99401627891,-0.517289697324,-1.99080273804,-14.6437966496,-15.241655607,-5.07898538057,0.0140788213108,4.92180717224,-1.48962345905,5.00284594385,3.73729584973,54.4783127055
off_to_on,0.225503643452,3.7565412227,2.04225151313,0.250437731966,2.5965013544,0.591273625078,-1.88819206316,3.90352111163,0.00679867153852,9.41821453566,2.23831306087,4.93262774408,7.22853926558,17.9036124226
off_to_on,-2.0604992417,0.923095652288,0.173327008386,0.61620192277,4.05535441507,14.46587706,17.6682929313,10.4084337014,0.0139621236157,7.6580705025,3.90372812157,1.7250843977,6.55317502137,-26.1012212557
off_to_on,-4.41075534132,-4.6025763982,-2.13596392918,0.128699381311,0.81397329099,11.9504489778,19.8405010207,8.00818771376,0.013532411733,-0.566733184178,0.897568716212,-4.33471890247,-0.328965791692,5.61160991974
off_to_on,-3.31205055055,-8.3815754287,-3.0890361473,-0.303001794234,-2.30138329251,-0.123902624593,2.58039719665,0.0382782988465,-0.00911079378652,-8.1853362552,-2.84504580584,-8.17579797656,-7.89985275125,48.2853663049
off_to_on,2.13071596741,-5.28644370941,-1.41227482515,0.0168827474208,-1.40511740597,-6.14415852305,-12.9142544815,-4.86512567575,-0.029222786633,-8.22126984517,-2.58013345664,-5.08128196953,-8.52942205017,11.6112100213
off_to_on,7.40208083066,3.05809926305,1.60379234523,0.392875853975,1.34483213385,-3.17499136641,-11.8608077564,-3.92388591558,-0.0213669099156,-1.93470797777,0.571111603706,2.60313346067,-1.7889410338,-55.4032546862
off_to_on,6.72951133354,8.74619709856,3.07643273157,-0.0615016345237,1.68518497376,-0.625712960914,-2.45125290985,-2.17915845442,-0.000720280704104,3.28718854785,1.79110005241,7.15454666376,5.02094072566,-47.8164505575
off_to_on,-0.356945177022,6.3783523836,1.56823714229,-0.832958807074,-0.825968259838,-3.78689189298,0.977926163468,-3.31126997408,0.00494678705561,3.27677842049,-0.291512589116,4.48095633926,5.70499220892,15.8953299943
off_to_on,-7.91830269564,-0.914429866436,-1.39345863519,-0.682845790563,-3.10895097426,-7.02390399657,-1.53815092165,-3.88156238981,0.00116571321973,1.04953411697,-2.1089145557,-1.24531955156,1.62398697803,32.1803662105
off_to_on,-9.33426812541,-5.65977533874,-2.94228078075,0.435822884148,-2.82755095557,-3.21792480201,-0.35737302024,0.488407433597,0.0100724266313,0.997825509173,-0.699155352418,-3.4868745434,-1.67308759631,-7.62303823189
off_to_on,-3.60253028077,-4.61286437649,-1.76438373836,1.2006432728,-0.203786839649,6.25225288324,6.494921966,7.13320814246,0.0247289911898,2.44292756358,2.25928631053,-1.53260622698,-1.71025130402,-13.5109040373
off_to_on,4.23017293419,-1.0249807725,0.769165530549,0.698011108831,3.08177213018,12.8411792527,10.8177479414,9.00762950039,0.0186800420762,1.4590753532,3.06530875522,0.0566735907323,-0.647306543766,33.7323215624
off_to_on,8.32330208367,0.926193131132,2.26752595444,-0.474489475519,4.84863971686,9.74487084071,6.41802846683,3.84749251501,-0.00627762186112,-2.49306801866,0.757759537387,-0.978893061357,-0.713997545312,45.7599299018
off_to_on,6.99442847406,1.16967015563,1.82601629255,-1.09422254023,3.34316412327,-1.11956533338,-3.7059459864,-3.47004460669,-0.020142705391,-5.04614352443,-2.1852727171,-1.50268172988,-0.972150213339,-14.2854989307
off_to_on,2.55848099837,2.03667672943,0.54201489842,-0.66567815227,-0.832063753518,-10.295246573,-11.7772964649,-7.46412788943,-0.0128742469016,-2.68657811578,-3.01787605323,1.38872242651,0.448608533099,-60.4740762086
off_to_on,-2.29530801179,3.53206274877,-0.306531083252,0.329392064801,-4.38427204392,-10.133053277,-11.9481097633,-7.14957453143,-0.00616583277386,2.28893632551,-1.38942992038,4.93864575165,2.68959442889,-26.3176448271
off_to_on,-6.29864695282,2.88083309776,-0.78966056865,1.00405637856,-4.61996448653,-3.38988217201,-3.76190523288,-4.0846631353,-0.0109565100613,4.40983359819,0.858689328003,3.96465641963,2.69972699557,27.0699276458
off_to_on,-8.12703180157,-1.17364308021,-1.53978058173,0.706224594708,-2.39739057374,0.525982738356,6.74616269888,0.768181343409,-0.0087659896702,1.71702883922,1.75664817543,-1.80921326915,-0.625870725785,19.3618694651
off_to_on,-5.72696763245,-5.68323057779,-2.14139149818,-0.393786686499,-0.200277338676,-1.08313055792,10.8302931771,6.07408441223,0.0107865110271,-2.16618930101,1.05714371925,-6.82805885079,-4.34973942214,-17.7685859955
off_to_on,0.973997425916,-6.30724022759,-1.40242920231,-1.18502523725,1.61220380903,-0.0264855803962,6.06941535396,8.68750264954,0.0259890928678,-2.82727888967,0.231536605332,-6.23795380286,-4.46630929279,-8.21488338568
off_to_on,7.88875507486,-2.01003087143,0.793256954564,-0.66231040208,4.11092834696,9.24525546738,-0.251431256611,6.11145911874,0.0172002176528,-0.198218552751,0.446110104721,-0.836450502667,-0.446788354009,32.4953340607
off_to_on,9.75327295109,3.98233444571,2.89501550702,0.693755876338,5.98283510504,17.4161513761,-1.14532840437,-0.354056268021,-0.000996012065416,2.17332060034,0.818490830191,4.98610246087,4.12868325614,30.7017221772
off_to_on,5.47687926576,7.38949243488,3.2826035006,1.26275991254,3.86219380074,10.3209809933,-0.150074231778,-6.61780832986,-0.00579423592795,1.86762008048,-0.358358078137,7.73096338064,5.43174426585,-12.685965928
off_to_on,-1.1730521712,6.16588322008,1.76666577431,0.368230986285,-2.44943080047,-10.2202029137,-4.63160223468,-9.20577224009,-0.00300293738451,-0.0644834824953,-2.61259561144,6.08481042698,2.9793905322,-28.4273850229
off_to_on,-6.19300539873,1.17866087635,-0.740467022955,-0.7622185201,-7.90902958848,-25.0302773977,-11.2398178205,-6.72417898159,-0.0104685645123,-1.33342913721,-3.05688692702,0.376171991564,-0.85538000128,-4.16224919864
off_to_on,-8.40899061735,-4.81226333273,-3.15382257548,-0.74813476023,-7.46382402035,-19.5878339822,-8.17887314943,0.132211851179,-0.0210723585809,-1.27346031384,-0.171951279873,-6.649294683,-3.76812866692,1.55598589575
off_to_on,-7.51593244068,-8.36269197416,-4.2621832986,0.0195592108006,-1.78997700588,-0.00731301616416,6.21621705243,7.79423875985,-0.013599270804,-0.708823401957,3.4500475149,-9.89997428489,-4.84553163031,-23.2473572885
off_to_on,-2.35506756705,-6.87189588354,-2.85019274991,0.22250639085,4.05159828932,16.5667599982,17.298208185,10.5857056978,0.00811797313029,-0.151777447865,3.88267126,-5.98438422443,-3.68745102194,-17.3415093011
off_to_on,6.07700708092,-0.587050858053,0.918386129939,-0.201446561295,6.38569213986,20.5862679749,12.2382919823,5.57386317556,0.0186268380284,0.543327431658,0.804272237419,2.41899796876,-0.201027126591,33.771325634
off_to_on,11.9427234969,6.57329822326,4.51423253495,-0.122973203925,5.28789391954,13.8401393853,-3.22930383988,-3.32334121396,0.0113508178103,1.10643665283,-2.27986939663,8.38154833895,4.00653990151,52.2964082605
off_to_on,9.13220768237,9.3027549431,4.85084344443,0.639637949293,2.25454891256,1.18847005098,-13.3246831839,-8.68401738121,0.00525461477423,0.764936311186,-2.703968462,7.63552807494,5.64542602724,-3.38510229236
off_to_on,-0.919268797599,5.34119633318,1.58174088329,0.815664205327,-1.65926672272,-12.5285102073,-11.6500988479,-7.295989307,0.00840089027998,-0.423010208366,-1.38647683795,2.29305547272,2.97065328833,-54.0971403213
off_to_on,-9.30532550369,-2.04728171579,-2.27367312362,-0.19234204109,-5.03512821209,-19.8161719433,-3.93949796539,-2.2750710961,0.00510017347943,-1.05594900304,-0.286964607349,-2.57002661247,-1.45577761841,-19.9942564474
off_to_on,-9.19674607854,-6.77174293817,-3.57277991172,-1.09224868253,-5.7862939634,-14.2479114277,3.89906245303,2.28879709173,-0.0116611466102,0.0355232448349,0.596159803069,-4.21068879726,-3.1375949959,46.7564762086
off_to_on,-2.95257504568,-5.72502020434,-2.23567316429,-0.589480632922,-3.0825762203,0.879960102659,10.1473582775,5.36049748706,-0.0230826793895,1.95801793214,1.95848695938,-3.34413941422,-1.14567179707,42.9011437353
off_to_on,2.22955580047,-1.49771613161,-0.510043420816,0.579444078192,1.2981163464,13.4630478063,11.4007418963,6.71202720606,-0.0144917116324,2.23503784889,2.6273243581,-1.82581801577,0.612096550577,-23.8902384366
off_to_on,3.4203788157,1.27532941969,0.244779440742,0.774464025617,4.44471481408,14.7872284351,3.62282185509,4.58009635654,0.00142551208138,-0.469065309545,0.87953829602,-0.809786750533,-1.17816061624,-58.8646176282
off_to_on,3.39643446852,1.43115003847,0.744948092623,-0.0742564822725,4.73575411816,7.22972058588,-8.58730216273,-1.38660472474,0.00838428371886,-4.26583997016,-2.17784434696,-0.343284440596,-4.18421769197,-33.925447347
off_to_on,4.08848536199,1.53806820186,1.74906283918,-0.568449382592,2.55592466574,-1.36273621211,-13.2862701842,-7.1952345598,0.0109251703827,-5.28779790259,-3.20739131638,0.497555710944,-3.19400489387,-3.30890506903
off_to_on,3.08945948738,2.96283076937,2.29838427527,-0.13295688,-0.560408193907,-6.50355367261,-6.1070577106,-8.00904395571,0.0144943620718,-1.59122237972,-1.11500334564,2.5104468326,2.5098637121,19.4575057337
off_to_on,-1.57419434689,3.3623891127,1.05203065427,0.31625442696,-2.93191908331,-8.01448538381,3.67131814725,-3.64003636878,0.00539279622021,4.30338407725,1.36994520763,4.60710522925,7.38159256645,70.3614483291
off_to_on,-6.44117392873,0.611716638663,-1.29282121363,0.134414367309,-3.48829482642,-6.32700830967,6.65947117619,2.13924266229,-0.0183818306662,7.48167913423,1.64074327317,4.20676860966,6.31976924841,109.039172085
off_to_on,-5.90988445386,-3.0065583851,-2.34188778522,-0.0880802446681,-2.24790593743,-1.85765473327,5.32855336389,6.49662239824,-0.0188842839264,5.4465327491,0.649807125764,0.53697184533,0.836392386426,30.7423064176
off_to_on,0.180883841366,-3.51107267952,-1.03770439675,0.142992407579,-0.0906181596829,3.38166434228,5.8141614433,8.48206419978,0.0298559698649,0.187449280783,0.639106639632,-3.65058392767,-3.60449494522,-137.987469579
off_to_on,5.45882599216,-1.18991308234,0.771928239689,0.233843114424,1.88619849891,6.40670159698,5.06942516678,6.31941680739,0.0697728362118,-4.66606243753,1.13035288135,-5.28031443443,-4.79363204042,-198.574833659
off_to_on,4.4876120241,-0.246437679021,0.669049921506,-0.293414224446,2.62056880613,5.40045258164,-3.37558940324,-1.31105579401,0.00828035261265,-7.3299550479,-0.148939622047,-4.65649114461,-5.09104338133,-42.8655011447
off_to_on,-0.765639963675,-1.95592074582,-1.03832881573,-0.671332267493,1.40914900691,0.834681428177,-14.4222185189,-10.3616303498,-0.130064417865,-7.43798532758,-2.87772053931,-3.666186721,-5.67452333811,159.163990879
off_to_on,-3.68971486992,-2.01450792542,-1.58095844421,-0.0911406592468,-0.931835650384,-4.13540813867,-14.2853598507,-12.5834027087,-0.171106891046,-3.85772886514,-3.60726431696,-1.41482731538,-3.33842108678,174.886664197
off_to_on,-1.25487200705,2.82917716289,0.562447730438,0.734144715642,-1.80074262613,-4.84364772127,0.0723591670696,-4.67026049082,0.00592075222515,3.95521994043,-0.473950916197,4.50715919202,4.42009084369,26.7989160186
off_to_on,2.69572580875,8.39725988729,3.33517056189,0.531548819122,0.365161831843,0.0525986339186,14.5338243926,6.66337337019,0.258120847111,12.1168322385,3.73711213735,11.7319612991,13.1492527349,-73.4208269589
off_to_on,2.76716127809,7.31159120377,3.34292850308,-0.437562798465,2.94479295782,4.79156267737,15.2133065862,11.8359975554,0.284500887623,13.204863768,4.75233401228,12.333893702,13.9532396307,-53.6529231413
off_to_on,-1.19190965442,-1.21993722871,-0.0330412601661,-0.681113916359,1.41324683085,2.26282085255,4.56644297598,8.49263912502,-0.00949983484924,3.81535934514,1.74026951756,1.79276112926,3.15920282411,-39.0331776003
off_to_on,-4.23742554162,-9.6601999792,-3.74282381596,0.175116681255,-4.00703028427,-5.1656782726,-5.21361402738,1.510561565,-0.340620195302,-9.84215071318,-2.35998979477,-13.1364225566,-12.2440733225,-79.5515238218
off_to_on,-2.67012322019,-10.7094224783,-4.39014841008,0.795721552251,-6.74683530704,-6.65276513657,-8.334487017,-4.5469205882,-0.343870157259,-16.6218459732,-4.43487970769,-19.3698589002,-20.0050231977,-48.8481796947
off_to_on,1.69821338074,-4.47255078619,-1.68373350473,0.251064896414,-1.80782313413,1.68884898738,-7.69946727951,-8.4029574101,-0.0086780514339,-11.1535573928,-3.536949899,-10.7476991498,-13.3325119381,99.170622161
off_to_on,4.22664666884,3.78077624187,1.77461830335,-0.608461889966,6.52266812573,9.01063193589,-5.50860973095,-8.72908188913,0.301966979227,1.46903593102,-0.432783859554,5.76909135915,3.26165286745,180.421736882
off_to_on,2.88318568353,9.5175142213,3.46513745054,-0.616590458301,8.8495374538,4.33283145657,-0.53181580777,-3.66927038836,0.290757337212,11.4934260297,3.12060229472,17.2739652199,17.515866059,47.3845278572
off_to_on,-0.367463987692,10.4249314872,2.95801561911,-0.0293064892545,2.40202271625,-6.34663285573,5.75413044976,4.6329540233,0.0564465686487,13.1352481862,4.6670351269,16.3322273543,18.9529917594,-146.013353636
off_to_on,-2.71330211059,5.29454097012,1.25770577359,0.201098654467,-5.5038210616,-7.62633797307,8.21433429644,9.56562147661,-0.104456302011,7.32223265928,2.67442393085,5.31972584541,7.04116881965,-147.392521526
off_to_on,-3.13561817745,-4.28578156059,-0.757669188924,0.0796914992301,-6.98353130469,2.59609445287,5.24632948386,7.1343097786,-0.111707393155,-1.41110006976,-1.33992781888,-7.59043328995,-8.49265314904,19.0183642487
off_to_on,-1.92361789673,-12.0635275296,-2.62904926609,0.283796844633,-2.69779001158,9.60441940987,1.12550294533,0.746580752271,-0.130535666746,-8.50022421061,-3.75429447679,-14.7358087805,-15.9977333829,103.809555077
off_to_on,0.436339274722,-11.3325171669,-3.57547734727,0.66622031058,1.23100715942,3.29256012316,-1.16672449555,-3.74488946033,-0.209350670054,-10.8358035351,-2.81390369786,-12.8752288402,-11.6939848202,22.6069151038
off_to_on,2.86914024862,-2.28224934479,-2.49882830687,0.361119508981,2.17047647182,-7.800331686,-4.00605603437,-5.04031331708,-0.134737851116,-7.40131988854,-0.459583359193,-3.89281608386,-1.45603079797,-45.7113859989
off_to_on,3.58796107477,7.49273875422,0.717501237794,-0.617821532519,2.47480362739,-9.72966598847,-8.47606260497,-5.10944250007,0.206289919375,0.136208038162,0.716095145583,6.89273488337,6.5279314521,15.424558681
off_to_on,1.81106830148,10.9134346778,4.18706800109,-1.1055525613,3.38010348048,-1.78219977854,-8.85188930597,-3.59296188856,0.500235773556,7.78257160439,0.88795346775,13.5379894459,9.08720016366,73.3667166985
off_to_on,-1.01253084802,7.56011431803,5.01666490556,-0.461668080929,2.47567273951,5.99490178132,-0.0187904323054,1.29923136144,0.32078519754,11.0207870682,1.7165752817,12.108032341,7.6348399726,-3.76435827991
off_to_on,-2.83711701072,1.18096816481,1.91711418257,0.479162010911,-1.48885455028,7.67024249132,11.9210280574,6.89962603954,-0.247915766939,7.38659319707,2.75228959996,2.76292173084,3.46646074387,-107.322293716
off_to_on,-3.23340495046,-5.37327845213,-3.08569446427,0.679006690069,-5.14687244855,4.94786745427,13.8525645851,6.88682936661,-0.592006080701,-1.38325338679,1.65320486412,-9.11534729589,-2.93054329036,-68.2570179024
off_to_on,-2.7233670925,-9.99346448592,-5.95088435304,0.308141489161,-4.5018043417,-0.0463802523661,2.09390701865,0.0482979385185,-0.310012383875,-9.43816113015,-1.81154451351,-14.9709266287,-8.61902109213,58.5248915364
off_to_on,-0.821693549647,-9.19832103854,-4.15846566871,0.158634559532,-0.285007247388,-5.91729420274,-11.0871341011,-6.26975536863,0.245746638573,-10.6116383507,-4.36110177237,-9.51171491895,-8.6621259909,87.0678897762
off_to_on,2.99671109911,-1.26275124206,0.843760119578,0.246583542979,3.23583352269,-7.90577679168,-11.4589433543,-4.99214664527,0.409042768562,-3.92657339182,-3.11074425436,3.30126698481,-2.02108044242,1.65414094478
off_to_on,6.44293852659,8.75914060694,4.8812266427,-0.0697207928571,3.63250192378,-2.29173077324,-0.0994600845446,1.36541678231,0.0619919354267,4.84015993904,0.629501802655,12.5476536773,5.55033340847,-40.748069228
off_to_on,5.37791535914,11.9701227714,4.90573269364,-0.784807190149,2.07766282576,5.23708524211,8.4806335014,4.37730880697,-0.248415224149,8.46968051216,3.07743650872,10.751009103,7.37501784634,12.9855578689
off_to_on,-0.820212378409,5.51088870837,1.58118495268,-0.995229905549,0.370487852481,4.99582787641,4.87519794709,1.09486823251,-0.0813522569686,5.36333933676,2.62693975522,1.28486896729,3.45267121711,38.6680867948
off_to_on,-6.91459122592,-3.77770632399,-1.9294059427,-0.176756871546,-1.19177415942,-1.89795069972,-4.12149694308,-2.96574176028,0.309146792012,0.232524250099,0.999617843511,-6.16938665769,-0.577256018734,-29.6822096005
off_to_on,-7.20284418102,-7.75104618133,-3.33489971777,0.937821070302,-2.58585596854,-3.98990054844,-5.71308276452,-2.37604609617,0.338639182583,-2.19970497018,0.0558737208586,-6.49378010644,-1.41879619404,-80.0541957523
off_to_on,-2.20680396367,-5.97422874247,-2.89220320915,1.18225222013,-2.85046471914,2.52311914285,1.66013205192,1.2356954445,-0.129443442379,-2.32059050292,-0.542793987543,-3.06054578357,-1.56934674724,-19.9608268317
off_to_on,2.54395899823,-3.27206488322,-1.89462744091,0.354428741217,-1.28377209551,6.92947076078,7.01386701305,2.80431848217,-0.604972522265,-3.31249292027,-1.76745887566,-1.2268200328,-3.82520762329,62.4325786059
off_to_on,3.86720334597,-1.15982331376,-0.493282636048,-0.610057414204,1.20705099642,1.04117881217,2.50227356578,1.05033492511,-0.542730517689,-5.24983147982,-2.83869781447,-1.22277663764,-5.70131249023,49.1206183152
off_to_on,3.83971620989,2.99524790153,2.00202202957,-0.793755405509,2.89897255547,-7.00005577908,-5.77570484304,-1.0670362067,0.0675393120496,-4.11774955408,-1.93484400532,0.655232028135,-2.48503013739,-15.2651096696
off_to_on,4.56002004769,8.61694285726,4.82338584165,-0.296264746913,2.83593814892,-5.48997618816,-6.54533420682,-1.38997033036,0.693539833217,2.49397178417,1.04447524765,5.52426372783,5.25251771068,-16.0938904136
off_to_on,3.54897537478,9.55362271266,5.126249664,0.0769327151907,1.16706350097,2.03320371099,0.959885782832,-0.742819528632,0.754635105165,10.3268831578,3.68831619129,9.09737011996,10.5082184709,30.6523047821
off_to_on,-2.32648902478,2.03721169745,0.956207776587,-0.041616882548,-1.2810804712,3.17194233345,6.43404392667,-0.363557329367,0.153751640131,11.2362817241,3.47255429131,5.92598032917,7.25060990161,19.3750455098
off_to_on,-9.88076315592,-8.51159080283,-5.34316779046,-0.110277139015,-3.12706669917,-2.40972369752,3.25782330296,0.0326354449601,-0.590269461419,1.95187139261,0.453391406228,-4.07004402636,-2.62949602787,-48.9647886845
off_to_on,-10.9006863275,-12.540933667,-8.17334174844,0.431209380539,-2.92019809415,-2.7701391952,-2.88752779835,0.934251261304,-0.787899162544,-10.7213896284,-2.7453686332,-13.6046087305,-10.8609151922,-64.8275976548
off_to_on,-1.91238732086,-6.9232681148,-4.25102064825,1.08995053836,-0.512605485748,5.2706831787,-3.29714666268,1.67922111971,-0.272703001241,-15.2012722543,-3.44120920069,-13.4717446718,-10.6249921167,1.24832136672
off_to_on,10.022247823,2.65538779043,3.33092310388,0.742194396253,2.29491214496,9.35478424085,1.1451367052,1.35218039795,0.395229032673,-6.73722182877,-1.30414094331,-1.69041452583,-2.40930621854,51.3770358083
off_to_on,13.9025805393,8.9059591793,7.81344101499,-0.739718213959,3.24446945739,1.18228174054,2.44123496965,-0.0750678435768,0.550145498226,6.98875683045,1.48401931188,12.6260933477,6.9841790207,26.7553390547
off_to_on,6.42154434785,9.16556552737,5.678824542,-1.90723539749,1.74027740308,-9.39331081373,-1.85040927754,-2.02156456219,0.173186127363,13.3643313914,2.34391416114,16.7349932619,10.4199153239,-7.96630673642
off_to_on,-5.1044749862,4.72895305634,-0.153559319174,-1.32034195885,-0.85479740403,-8.89107978156,-5.18559370359,-3.59151246275,-0.182241682252,7.84721120623,0.75565006523,7.05607518616,6.09733152933,5.22591662805
off_to_on,-11.1037664061,-1.92007282223,-4.26311031453,0.616190800937,-2.65574687504,0.0826107869305,-2.04514355772,-3.20934877597,-0.16575437616,-2.22480647837,-1.27901121245,-6.92167498186,-1.53134777064,19.8333580112
off_to_on,-8.67829078702,-7.41299785695,-4.43622980568,2.02248131173,-2.52282514579,4.74033347934,4.40298075509,0.417067111854,-0.00667351427431,-6.98690883436,-1.37838527912,-12.9037381159,-6.19948641531,-11.8528002926
off_to_on,-1.76862444013,-8.07681325183,-2.38607388645,1.64459049807,-0.506983687223,2.16036972119,7.35731619674,5.74486218982,-0.0245622143502,-4.5624367624,0.567627900081,-8.22216009757,-5.47629984432,-37.8382981617
off_to_on,4.63169325173,-3.27897269385,-0.159480402545,0.0213704678225,2.00922678363,0.867130485755,4.83421337044,8.07269864462,-0.116277260831,-0.446654658695,2.19103523629,-0.0138193390797,-2.04029171832,-2.46671494054
off_to_on,7.86326738433,2.82024501046,1.82290065366,-1.3930170552,2.91120839356,4.04105910717,-0.360035337328,3.80513373717,-0.0138255326504,1.03065755915,1.33752333445,4.78674304782,0.370063741909,34.4912661399
off_to_on,6.81072132413,5.26647284914,3.19284793272,-1.64433860586,1.24151623893,4.15799161132,-5.67642149476,-4.86031074547,0.188612991067,0.664512147516,-1.3313609145,5.48102532598,1.10859319721,-10.9101539058
off_to_on,1.60242536663,3.64590466728,2.67323085168,-0.752384122115,-1.40043303765,-2.67995494363,-9.41704848806,-10.9534124074,0.157930232338,0.382961755199,-2.98006507236,4.1531601009,1.94434123352,-82.9020822353
off_to_on,-4.82862207999,1.46183304433,0.102213126329,0.545902897221,-2.37211652809,-8.3318751159,-8.48440701408,-9.13711733989,-0.10823872846,-0.069857612685,-1.85425768065,1.39190866314,3.33864624653,-43.3637459091
off_to_on,-7.60765651491,0.71768123858,-2.23082071647,1.24743773151,-1.11383214033,-4.96851993173,-0.890419886021,-0.657923548128,-0.236158995502,-0.709455574568,0.769155808287,-2.14413388067,3.36968824349,106.123592017
off_to_on,-4.58060125552,-0.208508530472,-2.12948242095,0.834140480027,0.355023591155,2.42292349524,9.38010217639,8.14489301569,-0.0518222071536,0.557535119489,2.29480633275,-3.69208678686,0.704585286971,182.495125333
off_to_on,0.984436167538,-2.73266648442,-0.467703949529,-0.0975075789663,0.463961765666,4.1111982331,14.3632776727,11.4806983861,0.161938653073,4.02354481485,1.85648288673,-1.69967511667,-2.96018329583,53.1896421805
off_to_on,4.11648864998,-4.79058310236,0.255099748299,-0.429795528111,0.199993881928,0.705163241686,10.0804277762,8.01575146315,0.129708831696,5.07201951885,0.737949980462,0.811715287929,-4.57237915303,-170.446026683
off_to_on,3.65730437991,-3.41036856361,-0.270392359027,0.00315944795436,1.06063273218,0.630376543837,-0.251191222117,0.385481195906,-0.0143463825041,-0.414030080792,0.00892900191831,0.0502376042204,-3.09765864801,-245.154640221
off_to_on,2.19144252369,0.828696737633,-0.0368741734227,0.175655828182,2.12030226678,4.91950236244,-10.7162365024,-7.43189095568,-0.0177051457109,-8.36740884816,-0.828668478101,-2.38690696718,-0.159297053224,-75.7494671851
off_to_on,1.34253426816,4.1973815324,1.55613509257,-0.496358689772,1.11545225789,4.82936242624,-16.4776060639,-11.7532177009,0.0546155074696,-9.38212918439,-2.16719913219,-1.32715226584,2.21945602557,172.317030279
off_to_on,-0.0993563530937,4.32512342711,2.30421970756,-1.0742997889,-1.81519842428,-3.61015969008,-13.3813659869,-9.81595556613,-0.0192263295891,-0.718574956236,-2.5939164891,3.74084964863,3.27162832425,248.692105447
do_nothing,-2.97404147658,2.24783935132,0.542629518548,-0.446066143764,-3.60009626775,-11.514816288,-0.254027809553,-1.40410726429,-0.182458495955,8.81773707099,-0.551678306205,6.51031319168,2.93593590811,84.3259717394
do_nothing,-5.25395330839,-0.160614339664,-2.08061885717,0.872718113315,-2.13765628499,-8.6217837652,15.4260041992,9.03551801482,-0.168330900218,9.11730042224,2.69074760441,2.07665265813,1.10931855776,-137.175459731
do_nothing,-4.24560109861,-2.50486074722,-2.75104789739,1.36845605762,0.942189348199,2.76808572558,20.1901274686,13.8110865518,0.0475375010537,1.05946874355,3.70896298709,-5.67639901854,-1.64035316131,-185.595758901
do_nothing,0.0875489913706,-4.45460728348,-1.09799275414,0.637607191839,2.5857300076,11.1227776297,8.84374123444,8.48802549221,0.193304401346,-5.40902380173,1.19379958437,-8.0971823014,-3.43207607222,-43.9111209123
do_nothing,5.1130550007,-4.05656695299,0.971704178525,-0.302103427378,2.1019475762,9.81930929302,-7.39060172164,-2.61344114363,0.12798914768,-4.17727061085,-2.07084492449,-2.15026270734,-2.54650462479,89.2298772967
do_nothing,7.65293755451,0.0146339189379,2.04335788985,-0.700560001053,1.08138530847,2.37664357795,-13.2718548966,-9.79315144404,0.0202902859365,0.581305273858,-2.68878805496,5.94950649805,0.259785730352,65.9562840952
do_nothing,5.46513678114,5.06816955325,2.01619114047,-0.799828692064,0.390032983606,-4.66523284948,-7.64196766143,-8.07903196193,0.0148351423963,1.65120195488,-0.843673224566,7.74632344686,2.03752760898,-27.7973006363
do_nothing,-1.30575398217,6.01788352066,0.9006413413,-0.725274131085,-0.706719821371,-8.19575495672,-1.89202819421,-2.01121531526,0.00327444925129,-1.53575423853,0.632309859287,1.59565558031,1.0599608299,-26.5879760603
do_nothing,-8.48582929494,1.38800402962,-1.12236430191,-0.0499940284923,-2.35735680636,-7.67640726957,-1.8468985758,1.2266826283,-0.1173573193,-3.34634277285,0.500792165843,-5.85478108907,-0.763701880116,56.8394715242
do_nothing,-9.75347330426,-4.21801265578,-2.62358771965,0.982731051248,-3.0155694106,-3.24080310349,-0.915842429943,0.977265801815,-0.201261727365,-0.259861654511,0.221320498673,-6.72203647943,-0.245717289236,64.9153088114
do_nothing,-3.0844757884,-5.25190571961,-1.98191662367,1.1370177202,-1.4591943,3.10963129296,6.13525716551,1.97319362112,-0.0858328507338,4.54125711058,0.852336069311,-0.264700797012,2.3849362715,-38.9085020833
do_nothing,5.63236762724,-1.60738542031,0.188997798481,0.0138036304521,1.28913968378,7.6186831933,12.2275766383,5.406661775,0.107047061875,5.33127554576,1.20688115698,6.06155308218,3.00048524861,-103.578421066
do_nothing,8.48054572489,2.0379812421,1.53444390346,-0.935861889928,3.11009951588,8.07414652397,7.93205256597,6.23085243933,0.145022862809,0.702635410417,0.0905201698404,4.82786650422,-0.950021946744,-32.7615827885
do_nothing,4.61924849513,2.53394366378,1.28664884074,-0.425199630032,3.08682968074,5.02784717033,-3.66869094111,0.960939585857,0.0477611072537,-4.84632900397,-1.44633056806,-2.34743593842,-5.87771367446,61.9023512472
do_nothing,0.152885582918,1.37393567551,1.05865948583,0.599881290941,1.70243854181,-0.680653692854,-10.6678299867,-6.07607349089,0.01998666597,-5.71405380907,-1.6052788407,-6.25004042965,-5.45664844673,46.4279172231
do_nothing,-1.07781273663,1.07001396171,1.53789094751,0.409838438772,-0.484976585241,-8.10436407431,-8.11818730667,-7.80600984618,0.0840345650158,-0.986660531974,-0.418397028233,-1.56633671091,1.26337341382,-24.4761562083
do_nothing,-2.01135615255,1.0385755651,0.783636017037,-0.690141609211,-2.97684979645,-12.8258691507,-1.89069772808,-3.35778083127,0.0535163995443,4.58615253119,0.712101022077,5.81730568787,7.61392173856,-17.9035406263
do_nothing,-5.6008811098,-0.818940455384,-2.30393959111,-0.836915846982,-4.39667431198,-8.44391309242,2.17845308029,1.89422519085,-0.115736994812,5.35497464455,1.17787207117,6.04210940202,6.68339815785,46.2704218899
do_nothing,-7.98477942177,-3.76089844365,-4.7792144907,0.316118068134,-3.02383462402,4.55784100176,4.44696246747,3.98890054747,-0.215154341167,0.565661919872,1.24439618404,-1.79758390319,-0.601493387045,39.093113991
do_nothing,-3.2405432883,-4.17932276246,-2.82857947336,1.02478821573,1.00070209366,15.1360216671,5.64179081578,3.84410060707,-0.107472367049,-4.78671229196,0.683270288499,-8.23518559814,-6.71668368439,-45.3353980246
do_nothing,6.80245931672,-0.403336161386,2.50503015692,0.318525201705,4.82696501517,12.6383763727,3.25578252578,3.05674568354,0.063102120511,-5.1431660384,-0.765171131293,-5.46741122119,-6.12630685502,-75.1767939436
do_nothing,12.7049488305,4.39123676275,5.74360685669,-0.530294571366,5.18947547413,0.0147257864635,-2.44827402624,0.774070584296,0.110019088959,-0.2523260605,-1.92315655153,3.13960234846,-0.609439504294,-4.64837468724
do_nothing,8.19103576392,5.40991342551,3.59041747414,-0.29936193065,1.59902246098,-9.58234113121,-5.4942981368,-3.23636006652,0.0687097351705,4.59120327246,-1.27857247076,7.84006054478,3.89375762151,52.5030948345
do_nothing,-2.75714119558,1.68218046899,-1.26968066934,0.206106761475,-3.02804513465,-8.9679463529,-2.31028215697,-5.7772437629,0.0668655912013,4.32393952123,0.413405017227,4.24694772323,3.80859011547,19.0473823343
do_nothing,-10.7538398166,-2.87491610277,-3.92146481309,-0.138678300273,-4.96449993828,-3.43232596676,2.2569233176,-3.61003974936,0.0805497461944,-0.276819427993,0.891766278844,-2.63433382299,0.687599057603,-24.8753909909
do_nothing,-10.2506805265,-3.8504513088,-2.77598844134,-0.577549091434,-2.98167306642,-0.167033378834,2.42975613921,1.88961593218,0.00873792224885,-3.45703085155,0.109798295726,-5.16451510894,-1.27719116891,4.56306757208
do_nothing,-2.93808003811,-1.08635567997,-0.0891388020598,0.14791693986,0.695242207586,1.42361955124,0.400024470458,6.01039608165,-0.104360833007,-1.30942450823,0.501330932023,-1.41540520792,0.122380777214,47.4151781181
do_nothing,5.16190545822,1.41316366155,1.44887268757,1.20612748177,2.73443820242,4.59342873488,1.0859084791,5.67816922279,-0.121133587641,3.04219804893,2.39046495192,3.41497805092,2.41777011396,13.5235652521
do_nothing,8.24402868499,0.325942743793,1.01085999383,0.680719869889,2.07967920891,6.70740915562,1.94042975122,1.29331346195,-0.0419448866201,2.75879165973,2.20370828674,2.87329835111,0.888113763181,-52.9526838419
do_nothing,4.76840007374,-2.68424923028,-0.436931591855,-1.13954487093,0.643187789497,3.11743382337,-2.90954205527,-4.75363575003,0.00339294031138,-3.64951209713,-2.0577136048,-3.3273134923,-4.96411369851,-48.3916901497
do_nothing,-0.927942768964,-2.53495766515,-0.963621348346,-1.7654053307,0.379237696797,-3.43024919276,-9.62189523332,-8.73710554228,-0.0154801636747,-8.71212116025,-6.0297271619,-7.78438221771,-8.46688353206,13.3054932358
do_nothing,-2.79434337729,2.72336704861,0.755216111817,-0.184050887421,0.554275708645,-5.25360959907,-6.51817720533,-6.437148217,0.00702815907573,-4.23785683999,-3.82182968102,-3.13383556194,-2.76545477828,31.2871018786
do_nothing,-0.39606291799,8.03057537098,3.28040778621,1.55858900725,-0.790368485851,-1.40648152071,7.74014243286,2.49054722822,0.0980073645139,7.38656318654,3.17195932067,7.94072053564,8.76904516941,-6.53757020498
do_nothing,0.416994057988,6.18399905425,2.88606175002,1.3776303512,-3.10498476682,0.773188508231,17.5854801718,11.068691621,0.133852689399,13.9396987429,6.9390167282,13.402965447,13.6233000649,-13.3914336128
do_nothing,-3.60731106114,-3.03946902575,-1.79108593753,-0.0215500016506,-3.19120389665,-2.2525953357,9.52060367689,10.4424368685,0.0452098254041,7.27161863863,3.30027146677,5.44132146576,4.81204251974,32.3791657281
do_nothing,-6.90001418549,-10.9857919469,-6.41390032397,-0.683696424149,0.327188460212,-3.94501259171,-8.66116220439,0.460730675169,-0.0616194216546,-6.45864275163,-2.62686596562,-8.89395410188,-9.03463843824,45.7610221912
do_nothing,-2.31907722931,-9.27082134736,-5.10590078428,-0.384246736102,4.23032983277,1.77043932963,-16.8587033349,-8.87470704825,-0.0773398346235,-13.6793377767,-3.88110081107,-14.9112252798,-13.2313662137,-12.0291114077
do_nothing,7.33800443233,0.52316312219,1.80156131653,-0.341584046998,4.25675896409,9.35229142498,-8.1444475561,-8.99042789297,-0.0506666314172,-8.81588239831,-0.898077939573,-7.32719900759,-4.86051897737,-58.903558909
do_nothing,11.2086620605,8.73380329593,7.13439807908,-0.767204599226,0.472095519232,8.13155833155,4.3771361847,-2.52145099572,-0.0668619711975,1.15219853427,0.671141731857,4.68537842527,4.96592708915,-27.4089723198
do_nothing,4.38154868196,8.62964787881,5.34112948138,-0.591486786356,-3.01105011853,-2.37795591674,6.81291778266,1.83281016765,-0.0791575435864,6.8854014542,-0.925416445312,9.87811266755,6.62645951204,25.4073519102
do_nothing,-5.74191169407,2.6676300733,-0.912240369577,0.498093385616,-3.33141076115,-10.9276364268,1.29851618505,1.37413045512,0.000278485857501,6.51552687215,-1.70569574427,6.92735733549,2.81000711536,19.4853868777
do_nothing,-9.43157520685,-2.57750547301,-4.71692343032,1.38905287895,-1.60846224016,-8.84280405371,-0.884627093996,1.2183126229,0.11791589678,3.81103825905,0.847327882827,1.72320238999,0.961087425187,-17.0727190182
do_nothing,-5.82383842052,-4.30873000172,-3.45623031605,1.18988476417,-0.0683104577647,0.180611113355,3.70309477782,4.71271703423,0.13879622843,1.22713340937,3.64362179189,-2.00546811749,1.46314491313,-9.0844154243
do_nothing,-0.485044232591,-4.0836254461,-0.410306344763,0.278894145606,1.07402070639,6.69915033845,7.54304798247,7.58908508798,0.0530772957926,-1.3401457769,2.92369465365,-4.40543399321,-0.418490317573,31.0994061435
do_nothing,3.54041329517,-3.05909330347,1.04785052335,-0.623522789356,2.43166568341,6.88671193547,3.70241843207,4.01104630025,-0.0219584170992,-3.43279499268,-0.28846144054,-5.03245940375,-4.50516624623,31.2525303299
do_nothing,6.58437253645,-0.522401096652,1.20774373727,-1.2952260527,3.05738442234,3.68091944073,-5.54238374069,-4.86508047475,-0.0350877774229,-3.94828779212,-2.40438978832,-2.64859057853,-5.22157204162,-10.6586154841
do_nothing,7.07280619934,3.03493319443,1.48056055208,-1.50158364015,1.48203141044,0.14870962136,-12.010907963,-11.4269554128,-0.0524151340973,-3.34144524765,-2.44983285652,1.09590756021,-0.851638169187,-27.6233403017
do_nothing,2.29272469622,4.79291670995,1.39860758143,-0.743265553403,-1.59160808937,-3.37305730811,-9.95604876002,-9.66327683014,-0.0997486759692,-2.46080627966,-1.91394235764,2.74917414954,3.42542630244,-5.04737488159
do_nothing,-5.42485514805,2.93474974765,0.0248093333068,0.798851846897,-3.6675482508,-6.32065240891,-0.693809646798,-0.897652619999,-0.0966011194133,-0.0127756110056,-1.05320180661,2.10011425271,3.39099145336,1.16328450879
do_nothing,-9.17990448764,-0.80571174075,-1.66042306939,1.88965196121,-3.38342241406,-6.30209058465,8.62169284037,7.85406261031,-0.00173863398032,4.97032483574,1.10472909852,1.87064754147,1.18353693158,-22.5067717915
do_nothing,-5.80813665451,-3.21438267749,-1.8952759683,1.55749918248,-1.42771300935,-1.80553855035,10.8455931711,10.1718380857,0.094735873872,8.6529131187,3.50510258638,2.16935460772,0.295527552046,-17.6451714933
do_nothing,0.679893431829,-2.93580291337,-0.639409965289,0.240887136769,1.20496834592,5.14904901363,5.54832600839,5.59336892633,0.100761462681,5.37910801663,3.31468601145,0.14251801634,0.0233984223007,31.4974866578
do_nothing,5.33748036243,-0.829948480691,0.758565100461,-0.937864249337,3.85025361525,9.83143592765,-0.583231188078,-0.561214377922,0.051028270194,-3.60920073307,0.16639875704,-3.72035027859,-1.44778569406,50.8360501619
do_nothing,7.2888202685,1.53247596611,1.56383998186,-1.43424574958,4.9145682505,8.01552684743,-2.04811946377,-3.25416779354,0.0239620897309,-9.37553559821,-2.66682123218,-4.34622299512,-2.38675261407,-1.3471674383
do_nothing,6.55474749365,2.51970049151,1.7092523012,-1.25095500727,2.4665562081,-0.425320425461,-1.59104076691,-3.2150735204,0.00949015290238,-6.18298939423,-2.60393436128,0.016501560197,-0.596105295789,-50.4444126608
do_nothing,1.36687818474,1.04736848769,0.704829234849,-0.390295967307,-2.58119584666,-9.7436810391,-5.07005276427,-4.45481529314,-0.0426732107135,0.940210118562,-0.941100311091,3.64321350904,1.57414423865,-19.2097631794
do_nothing,-7.04108859138,-1.76019589706,-1.49409671847,0.810331521532,-5.8552468207,-11.7764326232,-10.4332776924,-6.73948686539,-0.10087683285,3.64272776416,-0.123188794293,1.49708629135,0.510340511672,43.5198414565
do_nothing,-11.348177977,-2.66072943511,-2.99777255739,1.38204866017,-4.16925811757,-4.0934532688,-8.27177735409,-4.63186644195,-0.0876964865781,1.75505842263,0.0510157589554,-2.52959608521,-1.92391841873,39.449766571
do_nothing,-5.95941106742,-0.0957833856036,-1.68172759329,0.770673376345,0.321415627475,5.9567547104,4.24453040889,3.87614035509,-0.0112823986398,1.52691766971,1.1757935872,-1.41088781247,-0.673340653831,-23.5364401359
do_nothing,4.18689504563,2.92275033721,1.44209835657,-0.192924272143,2.82183042933,8.72216175783,16.0240015065,11.7651575134,0.0433728648902,4.19702857128,2.60347782185,3.5806939461,3.64545120148,-55.2048303462
do_nothing,8.79850403925,2.2348826886,2.85705028158,-0.373212134371,2.0804035542,3.76185407593,14.2966978055,10.5137325358,0.0462568625621,3.68091124126,1.96087832613,4.33898906087,4.31755596868,-31.0396301198
do_nothing,5.44834570403,-1.44900200686,1.26150426677,-0.0365138045443,1.21048082686,-0.292633521019,0.907783988303,1.1571357264,0.0471716337098,-2.83912858916,-0.871349729606,-1.44843772032,-1.21501965327,-4.07743498633
do_nothing,1.19681910224,-2.99806297678,-0.628661918383,-0.283413240828,2.17206632395,1.43091745655,-10.2097986073,-7.21042307356,0.0640860307892,-8.67787622801,-2.94355684337,-6.36627900228,-6.35054706304,16.1510434085
do_nothing,0.57904905884,-0.115144450249,-0.341731418615,-0.980966131672,2.49712239173,2.71395275137,-10.6561911469,-9.07680286362,0.0462027175321,-6.2968848353,-2.1386299314,-4.08738103286,-4.2984703562,67.8467654199
do_nothing,-0.604267204726,3.02665101561,0.540957436433,-0.764816846676,-0.63423506516,-3.70925469239,-5.37403495631,-6.92953075163,-0.0238449190496,2.06452842947,0.133203003727,2.07733310934,2.26772482346,109.199179946
do_nothing,-6.05255583481,1.64737252492,-0.7563895806,0.621436049352,-5.17699302144,-12.7336571239,-1.73413863546,-3.70954958451,-0.0798725527627,7.52798643347,1.26752222586,5.10110486784,5.40044815087,32.6169199421
do_nothing,-10.1415869395,-2.56429625351,-3.08504669986,1.52477281359,-6.00843911753,-11.2579032412,1.11565113414,2.06512493141,-0.0692505006527,6.01506487676,0.91740676316,3.70149562337,2.89991323904,-136.348743164
do_nothing,-5.04845129011,-3.7140572493,-2.48081749342,0.725585750183,-1.55957146843,3.47229741881,6.67761338581,9.97631767537,-0.028058983788,1.3065121336,0.598541142514,1.14751557113,-0.466502828961,-197.80417306
do_nothing,6.44453044551,-0.153399831504,1.61043570695,-0.685246039117,3.94481573563,17.2623506587,10.8539795812,12.7240185455,-0.00856868279479,-2.30654651421,0.848259915805,-1.48926079924,-1.53527374737,-42.3729114656
do_nothing,12.6286640613,3.24330817302,4.59331974448,-0.921086570464,5.58186373293,15.1716451365,6.00983807214,4.4466420394,0.00431941833386,-4.67819884272,0.598436564271,-4.92191955255,-2.31509817834,159.398279493
do_nothing,7.53881879738,2.20286435503,2.75782678782,-0.0607205836766,3.10974325541,-0.155279912994,-5.86327278533,-8.68363944539,0.0431351121552,-6.02792296367,-0.71458458121,-6.52124154527,-3.95642701122,173.887706403
do_nothing,-2.11620990089,-0.952135009676,-1.47089005812,0.385849177438,-0.0089646003682,-12.2122205462,-12.5563248323,-13.6238254782,0.0774969902316,-3.86111617342,-1.94013279077,-2.1998667796,-3.03459154896,24.3430839952
do_nothing,-6.59495899158,-1.07454745654,-2.85241121393,-0.0707673546343,-1.48518962997,-10.8029358636,-6.84940709454,-6.39534912189,0.0564272795044,2.76845674773,-1.66347725723,6.05301172463,2.5913396407,-75.6461288975
do_nothing,-4.73631580034,1.96159253638,-0.526772707583,-0.403377572443,-2.08244783408,-2.06491156905,4.04919209076,3.62586344248,-0.00229535289029,8.96461464087,-0.0187811808129,10.0918955302,8.08279475644,-53.5841968766
do_nothing,-2.39886165026,2.81330893368,1.22743520643,0.0321985147758,-2.9349001867,2.52809503515,8.44361421548,6.84466331394,-0.037381081119,8.23689212181,1.55027676256,5.22248294094,6.54217498588,-36.5819709358
do_nothing,-2.56584509153,-1.57143764165,-0.464446707725,0.533969916922,-3.11688993793,0.96108134643,4.58618663306,4.45010798473,-0.0381857893253,0.498183099866,1.92095628806,-3.87852271257,-1.65221665367,-76.6701302196
do_nothing,-1.98003939354,-6.82630249974,-2.86488257673,0.356073220795,-1.04801271996,0.132405954535,-0.402720217368,2.71097354607,-0.0424578543412,-7.31236531381,1.16618795854,-9.00988906375,-8.56984880979,-47.4664473047
do_nothing,2.39802993363,-6.05794506145,-1.75229124594,-0.167525685229,2.60622115748,3.87565437268,-2.4437488564,2.0800479417,-0.0519728384199,-8.86798270097,-0.00516155640119,-7.22911876845,-7.9598204648,98.6004289088
do_nothing,7.61362006456,1.35581520235,2.2632555671,-0.36173299391,4.88887860717,7.42232063527,-3.79306821447,-1.45694714962,-0.0264885001272,-4.40616951917,-1.11623658575,-1.65830090169,-1.56948181841,178.604921314
do_nothing,7.79921977613,8.45717049297,4.40071171722,-0.215062761208,3.65969749136,4.5938405062,-5.14210837795,-6.87158376909,0.0332164683924,1.37118684326,-1.95915582975,3.65168283925,4.44298474762,45.3681518692
do_nothing,1.69206183729,8.56521692622,2.29135820551,-0.0541143897032,-0.0110739104478,-3.4575411585,-2.64928103151,-7.49941528416,0.069012416591,4.94781747335,-2.0399448259,6.61925158928,6.46904703643,-147.231603038
do_nothing,-5.37005312058,2.34459694156,-1.05167450803,0.106413921098,-3.02779812614,-9.28147738871,4.23270201105,-0.975094240609,0.0515853459729,5.96669431968,-0.666210201186,6.44137100531,5.10797282272,-147.285415678
do_nothing,-7.51792725167,-4.1956551073,-1.93267549471,0.300551083762,-3.46518573495,-7.57348772428,8.67190946781,6.23555809714,0.0193811455757,5.02897324031,1.89411944804,3.15624170956,2.03468856422,20.0832513066
do_nothing,-4.73213506648,-6.9239478856,-1.10447032694,0.265760471632,-2.02216950498,-0.514921822409,5.27751309322,7.13998274884,0.00592635077018,1.99457756271,3.69937790845,-1.87489560488,-1.92505701761,104.983533989
do_nothing,-1.47069759319,-6.33589487985,-1.6825450893,-0.0704786587346,-0.445578206316,5.25847761427,-1.69427674614,2.81641366233,-0.0105520934268,-2.8632856817,2.62048101096,-6.40384797989,-5.65236995432,23.4980979334
do_nothing,0.142305547911,-3.93135186847,-3.33270786974,-0.27423299546,0.63949890591,5.66133264046,-4.81800164712,-0.934127966795,-0.0484639234609,-7.26951938546,-1.0130790693,-8.1861964404,-6.88964753602,-45.0087159601
do_nothing,2.59166827564,0.497533949741,-2.14926762384,-0.119925785441,1.73471501299,2.44521301337,-4.39815404177,-2.29306715395,-0.0701714709345,-7.92058495942,-4.04064439164,-5.43592624799,-3.96418353373,15.6826968046
do_nothing,7.18945971635,6.3582013415,2.9949556551,-0.0539879361261,2.77549235816,-0.0503467643034,-5.45113792852,-3.8453538034,-0.0384155417428,-3.47855499527,-3.59254872882,1.71526256176,1.94345893478,72.5974137813
do_nothing,9.32008071148,9.7912015635,7.2578274168,-0.318516523984,2.54362057608,-0.264524091198,-6.21380226164,-5.65038834667,0.0164553219653,3.6737411201,-0.238137808488,9.16520101792,7.06264109785,-5.33437926274
do_nothing,3.53452804725,6.9136697373,5.40097077009,-0.267607683976,0.28674652479,-0.406294316391,0.395562844598,-3.68077237111,0.0402481883526,8.91229748774,2.77295651067,10.6186905905,7.89837608533,-108.446017315
do_nothing,-7.48102738679,-1.05028534204,-1.27832529592,0.545824098256,-2.68933259234,-2.27988922687,12.358003471,3.12737862764,0.0345746703348,8.70211784249,3.11376215508,3.93466444406,3.88778610709,-68.1552817173
do_nothing,-13.6731560527,-8.35533415505,-6.41573319128,1.1866106487,-3.91962515407,-4.06461526431,15.9771647187,8.77813150094,0.0358767779489,2.96559544267,1.2854009479,-5.50384161543,-2.46708549949,59.2165888102
do_nothing,-8.86524331909,-10.3478152838,-6.15606276486,0.468666116479,-2.31668429009,-2.81172085061,3.91050733377,6.89984956144,0.0396381784022,-4.81462839547,-0.828623132602,-10.0349577229,-7.4773707993,87.4824176268
do_nothing,2.17895106389,-6.57990415393,-2.34617261033,-1.01331374662,0.761177444394,1.02834888823,-12.0178354731,-0.631507436197,0.0105543044413,-9.45840909962,-1.94515379392,-7.34224953447,-8.18339277576,2.02783387439
do_nothing,9.92705751636,0.810440219823,1.56352683272,-1.40554196974,3.04917592192,3.93283085184,-14.8776456954,-5.79166154357,-0.041584912617,-7.42941716088,-1.64261187398,-0.940490729204,-3.68388093847,-39.8617188243
do_nothing,10.1333191906,8.4530355601,4.25645398143,-0.261376629931,3.34849605363,3.91509429941,-4.74544919349,-4.67123036697,-0.0627003117581,-0.179283765145,-0.120860495757,4.97679672104,3.68051276502,13.7992488112
do_nothing,5.05280943285,11.3926569421,5.13700030669,0.780080343064,1.78198519926,2.21992934553,3.49255310801,-1.55611046087,-0.0365941372417,6.08126554102,1.37357155429,7.89653694334,8.59735522045,38.2969074123
do_nothing,-1.91865289672,5.97269605747,2.83349565978,0.494904168307,-0.935934691587,0.0829727629445,2.48331654729,-1.47298341345,-0.00580861301367,6.05732018509,1.09233942315,5.96908033188,6.67800122439,-31.0514992207
do_nothing,-7.99332257968,-4.36974835645,-2.02665926729,-0.175694874614,-3.51300365108,-2.96011581077,0.700015287987,-2.48615769141,0.00282958786725,1.35479223103,-0.900860288044,-0.41559263867,-0.36619292303,-81.0257589683
do_nothing,-9.28117797819,-9.96626866085,-5.04071486062,0.131901160877,-3.97669592194,-5.84593322643,5.77188151593,0.801551569269,0.0144154826953,-1.40751424623,-1.90092966896,-6.10180267838,-5.29704236092,-19.9075838259
do_nothing,-3.50906383953,-5.66309495717,-2.83184588864,0.894971578531,-1.19737965551,-4.52964895377,10.8416991209,7.64986912564,0.0441918782292,0.491779427702,0.156759321028,-5.43049258529,-3.52471615649,62.7379651458
do_nothing,4.78755767353,1.92310261286,1.53780652276,0.582123784859,3.04750550128,2.39740032067,5.41202857567,10.0409984727,0.056338081785,1.90089934465,3.1252583335,-0.204309395197,0.75465348609,49.1137391888
do_nothing,7.35976691925,2.96377853899,2.09127121833,-0.801129340109,4.92268696087,8.69945012576,-7.29246632633,2.93060513454,0.0224650435872,-2.25101999642,2.72582943823,1.89409997817,0.222084465983,-15.0142358256
do_nothing,2.73028320133,-1.61991765738,-1.28023514572,-1.61035899092,2.56110323284,6.36451986841,-13.7187477111,-7.87897829206,-0.0241756353616,-7.75367801986,-1.44404680879,-1.1248386687,-4.41097591646,-15.1891760822
do_nothing,-1.47533186678,-1.78941979616,-2.29719669295,-0.913803884436,-1.57992146744,-3.23753561222,-8.30923845608,-11.8192571286,-0.0376595427293,-5.59509331759,-4.54349788339,-1.84366838564,-4.33384493051,31.3831951471
do_nothing,0.0915572769537,5.39524346912,1.93475710036,0.427417831666,-3.60259490794,-9.29742725476,0.747980144801,-6.1536256339,-0.0270361628386,4.34062980456,-2.64260520049,4.25370770423,4.12182253629,19.0964627746
do_nothing,2.16663073309,9.5457671458,5.53363385097,1.20846683152,-2.69631513754,-4.96704882095,4.62870094362,1.72316129704,-0.0268107898029,10.7196853754,1.89514665201,9.11047915131,11.7250935047,-49.7249642911
do_nothing,-2.23404966733,1.93058324863,2.15762786703,1.19325668191,-1.12087329692,3.69931964998,4.51466825746,4.90076674134,-0.0291885089402,5.40483938781,3.65700364479,2.87928785772,7.49581630884,-65.1068297145
do_nothing,-8.73013493965,-9.98806192703,-4.81871733599,0.638959537379,-0.136572151224,6.19204956348,5.74717945808,4.98578578829,-0.00215002152426,-4.8347938802,1.44400527049,-9.34460376498,-5.47402247376,1.25243631906
do_nothing,-6.248562622,-11.4777844104,-6.23288549535,-0.325017171442,1.47273866513,1.5161373855,7.52868095603,6.42399546276,0.0415949018276,-7.38008973504,-0.934184062705,-12.1206704166,-12.762334622,50.8875294401
do_nothing,5.50829810226,-1.01559520157,-0.199493084704,-1.23777277159,3.9679338431,-2.04289303385,4.26689298539,6.99625136592,0.0535774356601,-1.14282349664,-0.87275418915,-1.4008114889,-7.21839539551,26.1065972845
do_nothing,12.8060998299,7.87423541325,5.05887881168,-1.21629078789,4.42569900391,0.0589526918705,-4.88505021351,0.582400075776,0.0251893124174,3.19292690033,-0.256824407092,9.05388637591,2.73769724124,-7.66179143862
do_nothing,6.14797624575,6.00454157951,3.03800560977,-0.133965083372,0.508817135497,2.56489410735,-12.8465254139,-10.8988371759,-0.00182950279688,-0.0125754811487,-1.17707730934,7.2462384544,6.17007557905,6.44303873991
do_nothing,-5.99230756034,0.00504664336785,-2.11044515308,0.829961391987,-4.90799861258,-0.459766654984,-11.8579986668,-15.612671828,-0.00647876105122,-3.39849612146,-1.81793776093,-0.763380322915,3.75364126568,20.6106179425
do_nothing,-8.87381168355,-0.223675464358,-2.51315032601,0.653236868327,-6.13518440949,-5.94867390996,-1.83674883511,-6.07731275175,-0.0147434275582,0.607638160174,0.315272140906,-2.12623966572,2.85262720744,-12.1619783989
do_nothing,-1.81853905775,2.83843510096,1.58964006202,-0.0975070528223,-1.86749995911,-6.02177753003,9.20837874042,9.26405136291,-0.039058953886,6.79976974513,3.23775435821,2.52872229678,3.82758388508,-38.3436248018
do_nothing,2.64853388589,-0.0601450613751,2.86974592433,-0.186217757745,2.96548003734,0.743459643187,12.521086461,14.8442772066,-0.0457438236608,4.75613432641,2.60449511744,1.63362008627,0.339323161711,-2.42267749426
do_nothing,-1.32089338596,-8.06594604073,-1.41685063889,0.417911633767,3.65984209901,7.30818480948,6.53201708996,6.72721035541,-0.0123482173163,-4.60689410005,-1.45524983121,-6.97638503469,-7.67767086599,34.4714905422
do_nothing,-4.5101253186,-9.63776317755,-5.06550128571,0.622946936273,1.38217343256,7.27752342721,-2.17202688141,-3.81306547463,0.0276496875163,-9.27015536231,-3.7500691155,-10.9184919711,-10.7559175029,-11.6493136377
do_nothing,1.92091496195,0.208239455291,-2.13620812326,-0.0465413780188,0.273976844939,1.88333360367,-6.06557727673,-6.0284394985,0.0346163625972,-3.1109430708,-1.3677338339,-1.82605485977,-3.06916444646,-83.6274870187
do_nothing,11.239300354,11.2511834901,4.25601457697,-0.844583734914,1.05523776917,-3.21293440781,-4.34121775706,-2.26959351234,0.0211216030672,5.71558451163,2.09319949773,11.0758591021,7.96553749677,-43.0188241267
do_nothing,9.70147721063,11.2434602843,6.20769377426,-0.981649449828,0.759315806311,-4.85076505544,-1.97515645707,-1.11006306479,0.0193769474025,6.7456061427,2.01858680049,13.0086082068,10.7668786061,107.133386239
do_nothing,-3.44930766329,1.50658031287,1.60876857617,-0.485780611838,-1.81999056066,-4.03086491055,-1.90931761616,-3.47487950014,0.0207756243145,1.02018963848,-0.474168288818,3.05774775948,4.18136265479,182.882754518
do_nothing,-13.8076666913,-6.67597183978,-3.84375547286,0.259308816571,-3.90188580978,-2.62052456765,-1.5364393542,-2.71460415071,-0.00317746712829,-2.63723843956,-0.909443675641,-6.60372911564,-2.98827002464,52.8029452731
do_nothing,-10.5062283458,-7.39681417808,-4.7479147976,0.975034468429,-2.84001313773,-0.92683230032,1.7852091818,3.15412992056,-0.0392189415703,-1.1113662849,1.12546299557,-7.90277225776,-4.80028206797,-170.521061405
do_nothing,0.685050473223,-4.71316923846,-2.08511429251,1.24444123492,0.229059539974,1.64885314287,5.30141902879,7.07862219927,-0.0448882734711,0.215589698466,1.45767235852,-4.69132542843,-3.85597889483,-244.522543624
do_nothing,6.88954559713,-2.96998405582,0.0739390998482,0.637359554852,2.46492047114,4.90912801548,4.44291602526,3.36720821627,-0.016400365946,-2.44537678768,-1.53333020569,-3.03674739855,-3.88289138619,-75.4557211099
do_nothing,5.03238092528,-0.183364912694,0.773229472751,-0.528897486906,3.04264650735,6.98160999928,-0.0763971380166,-3.31664633236,0.00700661966736,-4.94465983402,-3.70145734008,-1.68382957324,-3.09223361174,171.407565457
do_nothing,2.72341771545,6.01174230195,2.17422856948,-1.24031709701,2.79059144742,5.0912655777,-2.96477079551,-4.29249301802,0.00855060222519,-1.63620834279,-1.26343977214,3.55891451201,1.63270105608,247.307787508
do_nothing,4.53424151023,11.1849515633,4.54419807665,-0.995458906134,1.61761324479,-1.61125471807,-1.93047193488,0.772898349095,0.0135290328951,5.6728845113,3.14667619766,10.4752115469,7.74981546528,83.9214210893
do_nothing,5.0472155055,8.24113557765,4.55981279161,-0.33624220028,-1.09756971053,-9.28865788656,-0.402808306086,3.64360070084,0.0327745986384,9.05482354305,3.96184183674,11.1585320436,8.79313679008,-136.170347795
do_nothing,-1.86131121109,-2.60852147716,-0.150310881155,0.166472323436,-4.02405812762,-11.1836266187,-1.44582215996,-0.424559474773,0.0361625141247,3.98839534406,0.503321693862,1.93751912697,2.43085914454,-184.124077144
do_nothing,-11.9695240429,-12.3628438562,-6.5522922926,0.662207864588,-4.39480433779,-4.30119708474,-2.68667982112,-5.81421658941,0.00568530135503,-5.09248682237,-2.47006560458,-10.7571512551,-6.25360696525,-43.2124989471
do_nothing,-14.1644833502,-12.5690352399,-8.44925413489,1.21988505739,-1.54230738837,6.19625446801,-0.244319383135,-4.4077446851,-0.0274999197613,-9.48135048896,-1.78085247333,-15.8682921258,-9.96385668086,88.6797002392
do_nothing,-4.01187490777,-3.77287231122,-3.33415154158,1.14235560457,1.99775845864,11.4461278563,4.43598712298,3.10952519906,-0.0299900439292,-5.41220032013,0.296852992674,-8.49604715154,-6.13998384076,64.7328497171
do_nothing,10.2632577375,6.17513265548,4.41088164942,-0.0148920739629,3.60654628744,7.90322091859,5.45416809358,7.91063508425,-0.0157404561225,2.27891067791,0.341834601115,5.09341378318,1.40866341259,-28.5502787827
do_nothing,16.416687999,10.3137860598,8.02422281074,-1.35159740038,3.13356617501,0.0880695046324,0.319626117811,4.2589532,-0.0137496043151,5.83686044646,-1.11270272117,13.2813474291,6.55696595635,-26.2086742548
do_nothing,10.311444978,7.74710471946,5.31351873221,-1.57908914311,1.60154341233,-5.60138957037,-5.95981616354,-3.6091898277,-0.0152474120555,3.19962463861,-1.12329418015,10.2319981623,6.20501874842,57.7798023909
do_nothing,-1.78520131668,2.09188895298,0.0162832217107,-0.690334713602,-0.66911581905,-7.04682032734,-6.26099269506,-7.01569422717,0.00501177685801,-0.486722197936,0.845199734351,0.976409741233,2.31274491874,65.255605971
do_nothing,-10.6729708139,-2.87813963943,-3.25869723872,0.313950011135,-3.10740879449,-5.4144756432,0.365838359403,-2.8825345748,0.0346592805731,-0.233556282008,2.39859771754,-5.12565165359,-0.924826450476,-39.435202772
do_nothing,-11.6492017931,-5.52190375883,-3.6372052649,0.966978394086,-3.72792932543,-1.45405167376,7.35144882796,3.72360959858,0.037181372041,2.20973949263,1.92792273729,-4.81431667946,-1.68553918126,-104.076274
do_nothing,-5.90571122929,-5.80110606559,-2.97965019317,1.40823333247,-1.28041431457,3.85842217838,7.50013725928,5.99038633975,0.011237221698,1.47472510863,0.346185031879,-2.63688623493,-1.7096406038,-32.5915568592
do_nothing,2.00135998699,-4.12959294441,-2.17322642054,1.23586518428,2.11828929144,6.92872413665,0.324885176973,2.22031316393,-0.00835543356506,-3.15948630571,-1.03822442687,-2.83764866188,-2.89632035896,62.2145990124
do_nothing,7.10325136611,-1.08719469231,-0.446229364387,-0.136702049334,2.93308381288,4.34748581934,-7.7011976033,-3.6282250942,-0.00843509377801,-6.35207174128,-2.12989342748,-3.44305271311,-4.12413803965,46.2428920848
do_nothing,6.80976365843,2.41920068095,2.17313218821,-1.84052801082,0.829190736799,-1.64830416717,-9.56830497203,-6.4039950066,-0.0120452883212,-4.04735170802,-2.76032309983,-0.498506221586,-2.69950666024,-24.7234788897
do_nothing,2.75791103933,5.2484562135,3.90006629224,-1.95008344941,-0.969826818921,-4.60300138552,-3.96637816707,-4.00922714563,-0.0279733763207,1.32601285704,-1.77875311989,4.84194804534,1.71887986444,-17.4755645669
do_nothing,-0.786621363116,6.23220162111,3.3339239959,-0.169162403235,-0.433620082666,-2.120325756,4.35244256778,1.5531893603,-0.0296936819595,4.82693405849,1.0790190851,7.28344681857,6.11093827005,46.9765820402
do_nothing,-1.49064014202,4.4185286064,1.16053344828,1.40525972867,0.611664952271,1.0472647106,9.34738214445,6.11365105378,-0.00270314858188,5.18373856343,3.67410756818,4.54110359743,7.05062607255,39.010218479
do_nothing,-1.13780433358,-0.13510244896,-1.03717299447,1.15279011542,-0.0989026718671,0.448045414509,8.36824405067,6.58501346222,0.0252221472694,4.17243698475,3.55912630864,-0.158085011027,3.72418350482,-46.224881609
do_nothing,-2.28097782307,-5.39811899915,-2.56410823337,0.113344499316,-1.44792287603,-1.42146507731,2.91626733685,3.11573494962,0.0261917237663,2.04666248406,1.02557183812,-3.15138870507,-1.90642960613,-75.753033387
do_nothing,-4.06151611438,-8.03029312695,-3.36760105687,-0.00956644419323,-0.907112756077,0.0251017166146,-3.72781533461,-1.75235727081,0.0134237456808,-2.44399076968,-1.50003975506,-4.6129134555,-6.8322416834,-4.38328262411
do_nothing,-3.39586805937,-6.08801568372,-3.00797571556,0.351806848575,1.05021085226,3.033831561,-8.69853557694,-5.73721122706,0.0114379023272,-7.80671209473,-2.67223978124,-6.04939510256,-8.57065308486,52.882113513
do_nothing,0.35481861634,-0.89845015299,-1.06644684665,-0.265380887221,1.48086370425,1.95038745498,-9.87607532577,-7.74210561329,0.0117921416664,-9.27723335737,-3.00419067354,-5.97208508508,-5.98639520436,18.9720437695
do_nothing,4.32261105358,4.43367948781,1.81447000702,-1.38739837383,-0.289957327016,-2.78681916826,-5.8166821407,-6.41934253901,-0.00649771825596,-3.97185926937,-2.53449861265,-1.17461549432,0.328013027333,-24.866219314
do_nothing,5.76290779536,7.74765531867,4.15058752859,-1.1184346717,-1.46103307676,-3.99527914364,2.76230108721,-0.337385938227,-0.031436958648,5.18833695518,-0.151269957922,7.58661056339,7.83881453323,5.16374763364
do_nothing,4.37049571437,8.01329211655,4.61639584272,0.567980709812,-0.175865744333,1.0528067759,11.2359058323,8.46213464617,-0.0320323807662,11.6739451359,3.62927711096,13.5350651694,12.2433171633,47.9582084565
do_nothing,0.769251086844,4.10093687719,2.52416335048,1.48721114257,1.48914311095,5.2893907702,12.9719944523,13.0548542849,-0.00871791577418,10.6348945344,5.36604263102,9.6543488816,9.28057742975,13.1648354289
do_nothing,-4.27816632744,-3.70847011876,-1.67214478354,0.649221149759,0.809975230539,2.08721330555,5.43219885064,7.70181992661,0.00833371919406,2.35026317944,2.49257197243,-3.01442834758,-1.20995551694,-53.8287749704
do_nothing,-7.98330831155,-10.8502920912,-5.56392982369,-0.311568942236,-1.23061626347,-4.27147478242,-5.82243827383,-4.25615510477,0.00883010115759,-7.76195157925,-2.58510694645,-14.3087943675,-12.5210810194,-48.7522168612
do_nothing,-6.23442379022,-10.7816665983,-5.819824142,-0.0818913412212,-1.43549200218,-4.69558172955,-11.6511578547,-12.1899245076,0.0124503966309,-12.5705381907,-4.76752505106,-14.2692215496,-15.1859696202,13.5571842994
do_nothing,1.00432531383,-2.45539952469,-1.70203757259,0.180753554621,0.627822807977,1.10863014625,-8.70255265001,-9.71963537177,0.025366737729,-8.83561746,-2.55143881901,-3.65205661161,-6.4263389393,31.399325268
do_nothing,7.43805686699,7.01905560027,3.25968810752,-0.74752073402,1.93442526819,4.5686109022,-2.17294165031,-1.57450336191,0.024750084458,-0.151199805167,0.521222242853,7.10825286103,5.95416242069,-6.70533092104
do_nothing,7.1189531058,10.0019162995,4.93996142266,-1.53222375281,0.55088260384,1.35199528952,1.85145655735,3.54009772433,2.79053642794e-05,6.94095952515,1.25300996949,10.0733753931,11.8102800072,-13.1719972368
do_nothing,1.79003650839,6.56696133626,3.27867005092,-0.347083059438,-1.61895389447,-2.98563995897,3.74324811049,3.90905032801,-0.0238284660109,9.39906425303,0.79999568579,7.50684154195,9.40004344137,33.1067402463
do_nothing,-2.24511401518,1.87951070968,1.15795829006,1.69510227365,-1.78978020199,-2.46523226968,6.88452214415,4.28260618941,-0.0238966624777,8.20936836191,1.5252303224,5.00262338374,4.41863502274,46.1537580286
do_nothing,-3.09251218299,-2.18553820382,-0.483301260235,1.83858898872,-0.121403757142,0.915722724849,9.44115273206,6.16755606576,-0.0124916024277,3.73602181157,2.38906069191,1.49384938637,-0.0258802132121,-12.4591490828
