label,COUNTER,INTERPOLATED,AF3,F7,F3,FC5,T7,P7,O1,O2,P8,T8,FC6,F4,F8,AF4,RAW_CQ,GYROX,GYROY,MARKER,SYNC,TIME_STAMP_s,TIME_STAMP_ms,CQ_AF3,CQ_F7,CQ_F3,CQ_FC5,CQ_T7,CQ_P7,CQ_O1,CQ_O2,CQ_P8,CQ_T8,CQ_FC6,CQ_F4,CQ_F8,CQ_AF4,CQ_CMS,CQ_DRL
off_to_on,-4.52547756611,-7.08480767047,-6.44220422687,-5.75463939948,-5.64103677756,-7.70942421644,-4.4614933091,-2.7834959727,-5.04275735889,-5.6529819621,-6.10322803377,-5.93786068906,-7.45808648032,-101.47097972
off_to_on,-3.01497248287,-5.54849595006,-5.18049264272,-4.90481604235,-4.05209271603,-6.4298482197,-2.99757864032,-0.98713070926,-4.14627992001,-3.97952219503,-4.90511752958,-4.56463250436,-5.50790363156,-75.6906939643
off_to_on,-1.42844335517,-3.69197636043,-3.62960654692,-3.81097906123,-2.1982185344,-4.71028556621,-1.46417641144,0.771916471781,-3.05886594831,-2.09320803339,-3.41295478599,-2.89883790118,-3.21690735208,-45.5413726231
off_to_on,0.222318720026,-1.57300578082,-1.80460632697,-2.4826577247,-0.126655594782,-2.57570089728,0.146328834111,2.4642686995,-1.79001898916,-0.0513160830656,-1.68248184388,-0.976001943527,-0.67552907973,-14.1970035274
off_to_on,1.91676371491,0.72273469735,0.249012913817,-0.951840432172,2.08474326159,-0.100089192124,1.83242221579,4.06124842878,-0.366899296379,2.07139493252,0.205438869684,1.13758435526,1.99703400711,15.1480732833
off_to_on,3.61849022957,3.08343516433,2.451770536,0.724895446645,4.32846649172,2.59382851007,3.57337897576,5.52922932212,1.16331521359,4.18382371035,2.1497541405,3.34448857736,4.65732113484,39.6325158005
off_to_on,5.27132296608,5.37699046892,4.69174903508,2.46779412742,6.47329127889,5.34187351914,5.32257060615,6.82612135959,2.73404337181,6.18231691488,4.0370478112,5.5204836593,7.14615895179,57.0443670472
off_to_on,6.79959016084,7.46059386964,6.83155659523,4.17897733626,8.37488326024,7.95212730276,7.0056048827,7.90089729295,4.26305356528,7.95702807853,5.75142109795,7.52354817703,9.30076873258,66.0626739625
off_to_on,8.11291890916,9.19319372876,8.7201779375,5.75068444533,9.8899424994,10.223635028,8.52397648684,8.69648738335,5.65902935857,9.40034104242,7.18525697032,9.20672089833,10.9693107594,66.3947737615
off_to_on,9.11508761485,10.4493967236,10.2083919481,7.07572403397,10.8921581558,11.9678593427,9.76401067921,9.15573016425,6.83017386161,10.416480533,8.24953507831,10.4333573035,12.0262354539,58.7917763942
off_to_on,9.71575286305,11.1330665089,11.1658060618,8.05878675328,11.2878365485,13.03016877,10.6100025796,9.22947556388,7.69373960106,10.9311671471,8.88238411086,11.0928643446,12.3865042754,44.9393005116
off_to_on,9.8433186052,11.1887770283,11.4971972094,8.62708653981,11.0289722587,13.3085317979,10.9597252548,8.88549110467,8.18519362549,10.9000632966,9.05476557427,11.114780314,12.0167045917,27.2357163819
off_to_on,9.45692894596,10.6094590202,11.1558201484,8.73884017494,10.1217648499,12.7668656347,10.7400159475,8.11659683957,8.26574114445,10.3148249018,8.77255051139,10.4791629762,10.9413362704,8.48411285674
off_to_on,8.5555927278,9.43901074841,10.1516606973,8.38836124522,8.6291216077,11.4411269617,9.92002745195,6.94648995291,7.92713485624,9.20581880205,8.07472828627,9.22165007561,9.24307433407,-8.46485012397
off_to_on,7.18279141939,7.76927483995,8.5532369451,7.6069971988,6.66646029352,9.43714865074,8.5199762261,5.4320139834,7.19306217789,7.64095908953,7.02800684274,7.43221500933,7.05654938238,-21.0755560672
off_to_on,5.42553563741,5.73152610231,6.48240219654,6.45971227845,4.3910294516,6.92029862853,6.61380062449,3.66113762549,6.11687534807,5.72060476195,5.7185520805,5.24746957024,4.55603805849,-27.4507355164
off_to_on,3.40763168368,3.48336486246,4.10256035047,5.03773050976,1.98586966449,4.09811851286,4.3249808028,1.74655650044,4.77593994582,3.56897816741,4.24199906632,2.83724957426,1.93830012633,-26.5751329661
off_to_on,1.27777997899,1.19255750676,1.6016304964,3.4482110463,-0.359683786372,1.19804072748,1.81574588734,-0.184482210419,3.26335001403,1.32303448057,2.69309279562,0.387030370248,-0.597487374727,-18.4487628447
off_to_on,-0.806077563842,-0.980186259436,-0.828142528647,1.80234958309,-2.47052352854,-1.55704821393,-0.729138628655,-2.00291554492,1.67812250052,-0.879932396845,1.15634705135,-1.92166291281,-2.87027512876,-4.09248752298
off_to_on,-2.69413665936,-2.89733095127,-3.01095456636,0.203520559704,-4.20467850926,-3.97232885916,-3.12199325214,-3.59149547646,0.115186054204,-2.91447653186,-0.301059329738,-3.9303565214,-4.73558834808,14.5755514716
off_to_on,-4.26148802432,-4.45748064003,-4.80608251601,-1.26293873834,-5.46812641799,-5.90069546119,-5.1927032926,-4.85744218924,-1.34351048842,-4.67752246654,-1.6332752557,-5.51976218081,-6.0994992609,34.9780056664
off_to_on,-5.4219202374,-5.60355517883,-6.12194837921,-2.53694873128,-6.22353530168,-7.25607967467,-6.80731586168,-5.74231996245,-2.63562741543,-6.09598224664,-2.81625820281,-6.62083186934,-6.92628941596,54.2018626888
off_to_on,-6.13679535158,-6.32518495598,-6.92375795051,-3.58700549911,-6.49175099286,-8.01884562797,-7.88222336967,-6.22768254858,-3.72200689908,-7.13061457962,-3.84487213438,-7.21929300565,-7.23877924563,69.3675950428
off_to_on,-6.41768319896,-6.65512162594,-7.23373387668,-4.40926827805,-6.34581633628,-8.23271140803,-8.39197581904,-6.33560915501,-4.58685587654,-7.77578235056,-4.72724100746,-7.35311093208,-7.11128066874,77.9981654588
off_to_on,-6.32230644287,-6.66028580355,-7.12397833723,-5.0227156446,-5.89832197972,-7.99378561592,-8.36962762745,-6.1239713871,-5.23471036195,-8.05532120953,-5.47740907258,-7.10330377328,-6.65613651272,78.34197087
off_to_on,-5.94429847446,-6.42881216438,-6.70301969763,-5.46125101664,-5.28380499821,-7.43335856068,-7.89955644708,-5.67703024094,-5.68482513518,-8.01525664173,-6.10761276353,-6.57946423387,-6.00570462795,69.6093930596
off_to_on,-5.398172261,-6.05500092624,-6.09797496645,-5.76408723835,-4.6386011348,-6.69691137704,-7.10374458592,-5.09264748222,-5.96400277382,-7.71452409906,-6.62152407656,-5.90208851157,-5.29229389202,52.0932691498
off_to_on,-4.8016080289,-5.62436218278,-5.43486959617,-5.96598928671,-4.08091984948,-5.92228973953,-6.1234367366,-4.46790412285,-6.09908838448,-7.21509582847,-7.00967175253,-5.18426368493,-4.62886522902,27.157956748
off_to_on,-4.25758433676,-5.2009046203,-4.81990938317,-6.08896548507,-3.69389453083,-5.22006592094,-5.09874678121,-3.88517203281,-6.11037996306,-6.57296267795,-7.24790513484,-4.51535242387,-4.09322215452,-2.90207004292
off_to_on,-3.83893514959,-4.81847646463,-4.32435773001,-6.13676826664,-3.51396203876,-4.65877410386,-4.14908449365,-3.40064199116,-6.00703636253,-5.83125295495,-7.29928542977,-3.94902055465,-3.71793712954,-35.1170524918
off_to_on,-3.57760091163,-4.47736264687,-3.97515344426,-6.09312859448,-3.52619867034,-4.25699718178,-3.35716433301,-3.03697527539,-5.78523149906,-5.01641796321,-7.11924075327,-3.49731724232,-3.48745369146,-66.1792466143
off_to_on,-3.46019437916,-4.14656478235,-3.75258169411,-5.92406782727,-3.66728260863,-3.98330777085,-2.75885574412,-2.78116234303,-5.42935568,-4.13792737164,-6.66328647643,-3.13162832291,-3.34278025305,-92.8217379184
off_to_on,-3.43061100497,-3.77135187951,-3.59529973367,-5.58399305458,-3.83569760629,-3.76395779482,-2.34030668438,-2.5879243841,-4.91607096247,-3.19136932469,-5.89617183264,-2.79030787229,-3.19309363133,-112.192985139
off_to_on,-3.39940425276,-3.2848913261,-3.41196292852,-5.0246817079,-3.90778507644,-3.49712377329,-2.04273569423,-2.38818950705,-4.22056233861,-2.16432184078,-4.80103556298,-2.39179874743,-2.93255611475,-122.182193578
off_to_on,-3.25866220691,-2.62216483606,-3.09774568321,-4.20578860016,-3.75743176387,-3.07159927243,-1.77418941064,-2.1014320886,-3.32396102547,-1.04393251783,-3.3870825461,-1.85122554912,-2.45986716362,-121.657056977
off_to_on,-2.90030495576,-1.73403092265,-2.5533416389,-3.1052351413,-3.2766618078,-2.38720785021,-1.42655819815,-1.65009019231,-2.22070598338,0.17512266349,-1.69444487665,-1.09790638983,-1.69763653422,-110.586521784
off_to_on,-2.2351915639,-0.599264408158,-1.70365937169,-1.7278089895,-2.39425755616,-1.37397336334,-0.895375927812,-0.973956499386,-0.924587458508,1.48369329289,0.204752893643,-0.09106496881,-0.60864795465,-90.0355606061
off_to_on,-1.21026013387,0.767310552814,-0.513456500548,-0.110520053891,-1.08978335225,-0.00726047922652,-0.0995108987116,-0.0424206828333,0.527613844101,2.85346219627,2.20959171213,1.16873999525,0.793509666539,-62.034645005
off_to_on,0.178848017782,2.31191567098,1.00242688483,1.67630386011,0.599003553775,1.68333985926,1.00215562145,1.13727049379,2.07564086237,4.23540533739,4.19768877488,2.63434518304,2.44118585566,-29.3416893271
off_to_on,1.88163708971,3.94470746128,2.77582439206,3.532603274,2.5764847724,3.6127371911,2.39956570307,2.5170154518,3.6387208545,5.56181935964,6.03593345194,4.2138591404,4.21748344704,4.8731811712
off_to_on,3.79415958825,5.5481845341,4.68960191618,5.33660901064,4.69734467291,5.64698497391,4.02758099795,4.01066284856,5.1217594765,6.75178059882,7.59339073815,5.77962242459,5.9686775253,37.3811265646
off_to_on,5.76801594218,6.99003429262,6.58916754312,6.9564101948,6.78160373655,7.6170539405,5.77007602314,5.50234025019,6.4240726394,7.719362284,8.75478697902,7.18313518215,7.52265662459,65.2438858567
off_to_on,7.62593779377,8.13869042825,8.29967996614,8.26365240021,8.63463814113,9.33796917544,7.4716481403,6.85924558075,7.44957352272,8.38349521956,9.43286025615,8.27393134907,8.71090064704,86.1181669844
off_to_on,9.18201651849,8.87947087448,9.64670382984,9.14761813236,10.0696376954,10.6308106282,8.9554935233,7.94720873823,8.11709788842,8.67807887313,9.57796313938,8.91975782044,9.39095067753,98.481153184
off_to_on,10.2639739595,9.12906991546,10.4775757991,9.52785302933,10.9296337021,11.3446866093,10.0451249347,8.64693902858,8.3695041656,8.56087779588,9.18363708032,9.02517405278,9.46619649078,101.753832413
off_to_on,10.7345622074,8.84640122562,10.6806409117,9.36366938231,11.1062922139,11.3757938487,10.5870524946,8.86877747753,8.18033281926,8.01988529861,8.28739154886,8.5458625221,8.90013247457,96.3120420953
off_to_on,10.5092674606,8.03829763085,10.1998069743,8.65926071773,10.5531038161,10.6810715446,10.4713898269,8.56398392146,7.55713085111,7.07618214048,6.96654665167,7.49651243963,7.72297101797,83.3890642597
off_to_on,9.56796763038,6.75929381331,9.04250204934,7.46374051897,9.29134533406,9.28468270398,9.64760644465,7.7310749496,6.54099517739,5.78281252474,5.32964846139,5.95102906956,6.02955307331,64.8865241837
off_to_on,7.958988403,5.10554512826,7.28001434042,5.86609263778,7.40813737593,7.2765114098,8.13328611803,6.41641870663,5.20239807055,4.2197701361,3.50455056023,4.03490265321,3.96871132845,43.1206493134
off_to_on,5.7950073415,3.20374931915,5.04021773318,3.98569509762,5.04694389615,4.80291688941,6.01468060643,4.70908591264,3.6338552174,2.48574857918,1.6246912289,1.91068891962,1.72544953646,20.5374382888
off_to_on,3.24133093476,1.19662098194,2.49369591191,1.959657822,2.39181770896,2.05099048984,3.43893901041,2.73073885597,1.94041090549,0.687779354776,-0.184678087401,-0.241454658347,-0.50167138962,-0.56768838169
off_to_on,0.498066883751,-0.773076345054,-0.164866675338,-0.0713825014061,-0.352537799692,-0.771615339145,0.59899414032,0.621999937406,0.229186843382,-1.06981431676,-1.81857270425,-2.24551153777,-2.52485305853,-18.2926920218
off_to_on,-2.22150306912,-2.57777222824,-2.73757388641,-1.97719576329,-2.9823439273,-3.45868431662,-2.28695240937,-1.47281410383,-1.40066612877,-2.69562473172,-3.20117703563,-3.95061924165,-4.18973410663,-31.3076174159
off_to_on,-4.71358120604,-4.11758624561,-5.04379574955,-3.6498866544,-5.31528196769,-5.82648240858,-4.99871551044,-3.42053731908,-2.86637137893,-4.11913613054,-4.29054041458,-5.24843227245,-5.39328028231,-38.9521194743
off_to_on,-6.80469052242,-5.32849671729,-6.93767846466,-5.01240371536,-7.20753647012,-7.73127308372,-7.33722408008,-5.11165067938,-4.10731278416,-5.29541754556,-5.07863213396,-6.08442351401,-6.09441174719,-41.2458383131
off_to_on,-8.36813983249,-6.18525498234,-8.32061005181,-6.02272363517,-8.56543392124,-9.08125874135,-9.14454824863,-6.46889943573,-5.08763242365,-6.20597680332,-5.58696925509,-6.46157321059,-6.31590856172,-38.8168468316
off_to_on,-9.33420732931,-6.6988978329,-9.14731549183,-6.67342758401,-9.35053688464,-9.84170043491,-10.3184347587,-7.4511097471,-5.79553841522,-6.85580266775,-5.8586399246,-6.43598386626,-6.13737018091,-32.7632526946
off_to_on,-9.6930169712,-6.90949639,-9.42516363662,-6.98703194571,-9.57794794561,-10.0329077363,-10.8197073945,-8.05200719346,-6.2396916946,-7.26720204215,-5.94802961547,-6.10512135805,-5.68028018751,-24.4703543199
off_to_on,-9.49008379317,-6.87545693781,-9.2072027367,-7.00801185538,-9.30846938319,-9.72174373511,-10.6718720255,-8.29457288673,-6.44344140598,-7.47152917894,-5.9098501041,-5.59044940094,-5.0873612599,-15.4097279711
off_to_on,-8.81548236848,-6.66115985127,-8.58026960147,-6.7928811042,-8.63603310136,-9.00812674239,-9.95331461797,-8.22210648848,-6.43795272795,-7.50022895915,-5.78913113349,-5.01704109854,-4.49923421561,-6.94694446949
off_to_on,-7.78841200139,-6.32491994655,-7.65012511449,-6.39990799168,-7.67236149863,-8.00861930644,-8.78344991575,-7.88760764463,-6.25538063659,-7.37672537031,-5.61365601378,-4.49319774429,-4.03179799887,-0.18146495871
off_to_on,-6.53948247552,-5.90914949476,-6.52587652042,-5.88002661743,-6.53107798075,-6.83949955247,-7.30493670549,-7.34327572812,-5.92317566683,-7.1105599847,-5.38993249264,-4.09311418667,-3.75766378393,4.16371885574
off_to_on,-5.1932550019,-5.4342223394,-5.30592025459,-5.27025476109,-5.31343190059,-5.60167625827,-5.66452277385,-6.63183828653,-5.46037720967,-6.69483918742,-5.10324677283,-3.84519763128,-3.69441409926,5.79297819598
off_to_on,-3.85342339569,-4.89693395877,-4.06729293517,-4.5904939832,-4.09745676945,-4.36945136887,-3.99516421699,-5.78106870324,-4.87639452873,-6.10753190706,-4.7217308836,-3.72783217484,-3.80149349841,4.82829176783
off_to_on,-2.59254084799,-4.27371999948,-2.85971319145,-3.8440327652,-2.93180204546,-3.18450997387,-2.40177713957,-4.80229935162,-4.17235191323,-5.31654671218,-4.20377117336,-3.67329960772,-3.98630504695,1.74570928933
off_to_on,-1.44746446777,-3.52804518969,-1.70482992382,-3.02148377244,-1.83475693919,-2.05572140655,-0.952373914077,-3.69306395015,-3.34464809415,-4.28789890934,-3.50758516726,-3.579372222,-4.11875995883,-2.72857774044
off_to_on,-0.420813923735,-2.62071792031,-0.600381050135,-2.10734995575,-0.798225120553,-0.964480797717,0.324496359415,-2.44331491323,-2.39001656513,-2.99574759074,-2.601466911,-3.3269568332,-4.05229382381,-7.74494516588
off_to_on,0.512149228712,-1.52142075211,0.47176827018,-1.08801037762,0.204281350437,0.125472040516,1.43602035955,-1.04406287917,-1.31112771993,-1.43272099595,-1.47309333671,-2.80125488197,-3.64839768241,-12.4606852174
off_to_on,1.39259072123,-0.219542250354,1.53529113453,0.0402961287566,1.20708928134,1.25544179587,2.41602982898,0.503132898851,-0.121682151138,0.381185806375,-0.136410474672,-1.91334429893,-2.8011543965,-16.1560317736
off_to_on,2.2650435278,1.26751946753,2.60864411172,1.26490360166,2.24101354506,2.45843017621,3.31222058854,2.17756933925,1.14998036394,2.39273818489,1.36504079199,-0.618967654407,-1.45820226564,-18.3214130277
off_to_on,3.16439698512,2.89004961826,3.69576548398,2.55275729694,3.32300885206,3.74717906509,4.17184337024,3.93334925978,2.45950261905,4.51385022947,2.95899416069,1.06835126777,0.365017875519,-18.7066762599
off_to_on,4.10504263426,4.56659037247,4.77981043809,3.84984114995,4.44840967352,5.10550233807,5.02819401427,5.69717157785,3.74776213736,6.62491248566,4.54956008033,3.07198840125,2.57999581714,-17.3290586002
off_to_on,5.07390444667,6.1895598847,5.82098230917,5.08425276134,5.58691464396,6.48431177189,5.89005565556,7.37069659281,4.94474262052,8.58305877205,6.02599504294,5.25576098916,5.02992301197,-14.4426471549
off_to_on,6.02845428162,7.6353321525,6.75884393936,6.17261961832,6.6828971143,7.80305966127,6.73576196429,8.8375351995,5.97560180914,10.2346658059,7.27404901262,7.43616722638,7.50419243231,-10.4771632511
off_to_on,6.90003626543,8.77752417861,7.51877363814,7.02903038973,7.65998941286,8.95654503591,7.51283302884,9.97420068121,6.76816282379,11.4307459464,8.18843211952,9.40194384414,9.76097919151,-5.95748671647
off_to_on,7.60201267644,9.50174589144,8.0215760739,7.57525728007,8.42928513422,9.82626939548,8.14329043924,10.6637313599,7.26082066796,12.0434234524,8.68477649271,10.9385227365,11.5551272172,-1.41703631601
off_to_on,8.04151785266,9.71982626694,8.19476738579,7.75082816693,8.9000132821,10.2948847501,8.53390794955,10.8102348554,7.40977013814,11.9814476599,8.70953006975,11.8542531586,12.6678082812,2.68213565642
off_to_on,8.13306993475,9.38157047808,7.98379695302,7.52150207415,8.99122270038,10.2618362109,8.58991970161,10.3523883721,7.19453836385,11.2027302448,8.24649567332,12.0049658254,12.9341328901,6.01168968439
off_to_on,7.81201775203,8.48242068098,7.36147994409,6.88490849468,8.64291003216,9.65811891849,8.23019188249,9.27398820005,6.62103255017,9.7221989034,7.31917948535,11.3136302047,12.2651172772,8.41427745184
off_to_on,7.04582694457,7.06594027191,6.33418820328,5.87249904941,7.82513376921,8.45816442137,7.40163591752,7.60997021689,5.72165670009,7.61379950529,5.98867307012,9.78247241549,10.661116103,9.91232395924
off_to_on,5.84152651623,5.2207384528,4.94383613457,4.54747153332,6.54395536944,6.68722703721,6.09073029453,5.44687804636,4.55245855091,5.00618360119,4.34738263108,7.49589324916,8.21491997763,10.6890795565
off_to_on,4.248193551,3.07219830405,3.26532534214,2.99888651149,4.84348595106,4.4232047774,4.33040750941,2.91746116146,3.18767889578,2.07239559823,2.50945568007,4.61371995364,5.10404230079,11.0464314516
off_to_on,2.35406520171,0.770060946713,1.39977992412,1.33272378832,2.80382758064,1.7925246695,2.20119443348,0.189845018131,1.71242914901,-0.985378921363,0.599165134282,1.35557783992,1.57310200999,11.3467551743
off_to_on,0.27862788222,-1.52654595786,-0.535487770448,-0.338955677404,0.53520956969,-1.03954344221,-0.173722070251,-2.54757472409,0.214467888967,-3.95432440456,-1.26126030254,-2.02169187129,-2.0915375176,11.9476624436
off_to_on,-1.83926663924,-3.66473842689,-2.41888363872,-1.90932687336,-1.83093511495,-3.88310176446,-2.63900736907,-5.1037984491,-1.22385157753,-6.6306798307,-2.96285042407,-5.25076643617,-5.59175355035,13.1387808892
off_to_on,-3.85566932901,-5.5122259247,-4.13667201588,-3.28713392351,-4.15288418049,-6.54078623226,-5.02201951846,-7.30339315722,-2.53244574037,-8.83836753275,-4.41882940523,-8.08143173102,-8.64861129975,15.0887908376
off_to_on,-5.63629285651,-6.96866634678,-5.59371774114,-4.40473612317,-6.2902922246,-8.82595752398,-7.15014999562,-9.00303833774,-3.65836158823,-10.4444763265,-5.57031075476,-10.3056780406,-11.0305527911,17.8091037392
off_to_on,-7.06983741406,-7.97276605235,-6.7214467272,-5.22290472336,-8.11536478577,-10.5799073231,-8.8685088704,-10.1045213051,-4.56813205221,-11.3699095332,-6.38826824046,-11.7773387549,-12.5755299313,21.1381479964
off_to_on,-8.07820077797,-8.50447843765,-7.48208905508,-5.73187938166,-9.52244250489,-11.6862123475,-10.0557616654,-10.5627062078,-5.24750386315,-11.5941160005,-6.87182687171,-12.4240768983,-13.2046238928,24.7476110103
off_to_on,-8.62236277535,-8.58233652366,-7.86884287082,-5.94872434067,-10.4351631016,-12.0807322598,-10.6361793333,-10.3876356847,-5.6988013647,-11.153555181,-7.04341686082,-12.2505607182,-12.9258280675,28.1695173553
off_to_on,-8.70336515858,-8.25660654086,-7.90220856338,-5.91153821355,-10.8107077332,-11.7562761696,-10.5864687492,-9.64065764493,-5.93652444383,-10.1343088266,-6.94173402858,-11.3328284377,-11.8279449657,30.8409664496
off_to_on,-8.35850233886,-7.59947867208,-7.62329710324,-5.67149397101,-10.6409994015,-10.761586175,-9.93663648679,-8.42520417726,-5.98201270327,-8.65994292528,-6.61369850439,-9.80496423508,-10.0657862319,32.1618642463
off_to_on,-7.65349506887,-6.69384627452,-7.08533078285,-5.28395794832,-9.9510555085,-9.19492711817,-8.76490861353,-6.87348924688,-5.85810789126,-6.87625644632,-6.10666940913,-7.8401421211,-7.83890634975,31.5601047945
off_to_on,-6.67194448845,-5.6223245289,-6.34476872806,-4.80002187857,-8.79496467086,-7.19315322726,-7.18747994278,-5.13085538107,-5.58469985529,-4.93486344158,-5.46205340492,-5.6287209833,-5.36681287374,28.5583363182
off_to_on,-5.5036857825,-4.45801754628,-5.4534751005,-4.25967140065,-7.25013370591,-4.91757947213,-5.34449898938,-3.33973104887,-5.17585784843,-2.97760828905,-4.71116350353,-3.3563178554,-2.8638959056,22.8365684899
off_to_on,-4.2337382124,-3.25818898007,-4.45311222361,-3.68752815881,-5.41052474585,-2.53827161054,-3.38412941808,-1.62513606512,-4.63895957806,-1.12361143083,-3.87378816431,-1.18462772382,-0.517182275442,14.2853080159
off_to_on,-2.93337718727,-2.06148484427,-3.37252527226,-3.0916857922,-3.37958094932,-0.218460261836,-1.44671319138,-0.0834026546547,-3.97588147219,0.539680307043,-2.95948174334,0.762766483031,1.53051914942,3.04453247813
off_to_on,-1.65446638097,-0.888778847363,-2.22835814456,-2.46567639053,-1.26344138153,1.89931863406,0.34902240874,1.22469272109,-3.1859603533,1.96064583199,-1.97115397337,2.40815446337,3.19036673394,-10.4754407614
off_to_on,-0.427646513624,0.252851398121,-1.02858638938,-1.79312564896,0.835101286889,3.70402899259,1.91610374008,2.27579932227,-2.27013423625,3.12270848725,-0.910182340199,3.7205522898,4.42945281036,-25.5942710056
off_to_on,0.73563394792,1.36397113129,0.221839724742,-1.05425225549,2.82161236992,5.12296208909,3.20471597554,3.08093607433,-1.2354651442,4.03912957664,0.217952539858,4.71015136849,5.26538462465,-41.3851520385
off_to_on,1.83785031345,2.44570859197,1.51440363521,-0.233097975308,4.61386509359,6.12414494449,4.20244835193,3.67820640863,-0.0991710703403,4.74443190961,1.39857223303,5.41772416851,5.75483928532,-56.7224056841
off_to_on,2.8879804709,3.49309089077,2.8308059177,0.67572312487,6.14452520532,6.7143891275,4.92964132165,4.12249151587,1.10864119559,5.28389040354,2.6042085494,5.90097237756,5.97817850836,-70.352336935
off_to_on,3.89331986553,4.49001796606,4.13839102974,1.66188314428,7.3627528819,6.93350360316,5.43072918653,4.47366475205,2.34415608916,5.70270014546,3.79322851027,6.22011377257,6.0226096437,-80.9846774471
off_to_on,4.85200730412,5.40679010614,5.38822311168,2.69668117748,8.23484848013,6.8455746102,5.76296693315,4.78499368971,3.5512616352,6.03638338311,4.91103655492,6.42497054947,5.96641531742,-87.399771753
off_to_on,5.74759576707,6.20066312093,6.51638858526,3.73336120466,8.74407767706,6.5284750388,5.9842283919,5.09330130732,4.66516528553,6.30374206377,5.89380960508,6.54546350642,5.86645779383,-88.5643729473
off_to_on,6.54666097942,6.81940061586,7.44857719086,4.71045169831,8.8897989078,6.0628856992,6.14163169418,5.41216523337,5.61783551631,6.50324489924,6.67432624001,6.58679828522,5.75055698503,-83.7467707779
off_to_on,7.19995227647,7.20730381433,8.10745116992,5.55771856463,8.68599712159,5.52208763077,6.26258504206,5.72898935587,6.34459572216,6.61322044074,7.18912548179,6.52985154421,5.61554184535,-72.6203106562
off_to_on,7.64702988456,7.31280033534,8.42183896056,6.20393345117,8.15931638248,4.96362962575,6.34947851707,6.00624832542,6.79099964012,6.59568369937,7.38602033284,6.33644540635,5.4309049489,-55.3435429845
off_to_on,7.823783822,7.0964229705,8.33645868447,6.58538940174,7.34668843779,4.42371233236,6.37872869507,6.18665372301,6.91904893909,6.40312698065,7.23092496795,5.95845826055,5.14717497201,-32.6056022975
off_to_on,7.67177267425,6.53794243515,7.82073955008,6.6539830305,6.2926769122,3.9147925307,6.3042824636,6.20149095816,6.71188437905,5.98721961882,6.71303928504,5.34916363004,4.707473705,-5.62718820922
off_to_on,7.14802117166,5.64154023036,6.87538805903,6.38374095151,5.04669196421,3.42653632735,6.06508305773,5.98098832772,6.17628162868,5.30813220339,5.84765507227,4.47489068963,4.06032654241,23.8892253798
off_to_on,6.23381550577,4.43819628563,5.5356296948,5.77488705968,3.66026700306,2.92987704269,5.59547140335,5.46534711267,5.34258156484,4.34315165094,4.67616971675,3.32509452279,3.1716924617,53.8617288487
off_to_on,4.94114695629,2.98487355928,3.87050371583,4.85489221231,2.18461329386,2.38359891796,4.83710450539,4.61500573361,4.2620380197,3.09338214627,3.26326781971,1.91920229994,2.03437202646,81.9800625299
off_to_on,3.3157594588,1.36054419092,1.97813245643,3.67636702158,0.668666324808,1.74260244427,3.75076601659,3.41883064833,3.0019209026,1.58760831707,1.69160373378,0.309113543767,0.673399008703,105.895663207
off_to_on,1.43620983941,-0.340451403542,-0.0225533958358,2.31209018985,-0.842199937174,0.966834468898,2.32644452914,1.89919946034,1.63901686484,-0.117212886798,0.0546362906788,-1.42310320155,-0.853352029096,123.435212506
off_to_on,-0.59111487001,-2.01685603709,-2.00265826446,0.847846896035,-2.30669098094,0.0298005467256,0.590259024909,0.113328098063,0.252378633014,-1.93892194568,-1.55151220057,-3.17205954744,-2.45939999287,132.817655735
off_to_on,-2.64053606874,-3.56966983063,-3.83540314882,-0.625969494841,-3.68735073355,-1.0743772077,-1.39280970246,-1.8493568075,-1.08374211884,-3.77624164023,-3.03620476194,-4.81952267746,-4.03810179116,132.851932055
off_to_on,-4.5782168395,-4.91089076991,-5.40794819576,-2.02290115009,-4.94969747913,-2.32624153626,-3.5209163191,-3.87354218699,-2.30589585451,-5.51725517458,-4.32151613629,-6.24708276195,-5.47410238431,123.09236231
off_to_on,-6.27458614589,-5.97076543086,-6.63150505429,-3.26804263305,-6.06099700471,-3.6792618583,-5.66204024015,-5.82737918044,-3.36566658041,-7.04928579994,-5.34776686733,-7.3492801356,-6.65620321985,103.931107261
off_to_on,-7.61658405357,-6.70274009595,-7.44853586239,-4.303827504,-6.98903101883,-5.06140500996,-7.66476269259,-7.57386706946,-4.23170680987,-8.26904957564,-6.07685015209,-8.04541478775,-7.48991458525,76.6123279262
off_to_on,-8.51828660178,-7.08565326837,-7.83624762561,-5.09337137086,-7.7012672252,-6.3799909678,-9.37203025476,-8.98307531407,-4.88948133453,-9.09195876752,-6.49314589865,-8.2884672061,-7.90805422496,43.1602717504
off_to_on,-8.92868391329,-7.12310901353,-7.8061040427,-5.62112390025,-8.1648194134,-7.52945087673,-10.6364343322,-9.94394329524,-5.33896153035,-9.45959245781,-6.6021340638,-8.06998106131,-7.87807020312,6.22273875827
off_to_on,-8.83575311193,-6.84035508714,-7.39961535516,-5.89096839392,-8.34749439463,-8.40127493601,-11.3353361911,-10.3744691229,-5.59080219124,-9.3445980709,-6.42710040471,-7.42032876933,-7.40524609907,-31.1587707618
off_to_on,-8.26643571623,-6.27930367198,-6.68115220855,-5.92225712094,-8.22006269655,-8.89517095354,-11.3841583541,-10.2292929864,-5.66173389658,-8.75260607046,-6.00453513402,-6.40441611551,-6.53151710692,-65.8316542998
off_to_on,-7.28263298909,-5.49253233151,-5.72889304173,-5.74453383883,-7.75967958997,-8.9302802666,-10.7463450633,-9.5039703753,-5.56998674872,-7.72108746855,-5.37893432304,-5.11349138155,-5.33020413998,-94.8394996925
off_to_on,-5.97380558225,-4.53716468178,-4.62520705811,-5.3918361536,-6.954151295,-8.45523826601,-9.4388454133,-8.23558120748,-5.33151539454,-6.31541725271,-4.59771668728,-3.6542242918,-3.89748102473,-115.721411683
off_to_on,-4.4471459421,-3.46945299914,-3.44777387416,-4.8974729392,-5.80652441727,-7.45593358577,-7.53245234717,-6.49969353659,-4.95762979722,-4.62268873552,-3.70687216298,-2.13654551208,-2.34176315515,-126.76975249
off_to_on,-2.81653820121,-2.34068905613,-2.26255335573,-4.2900403802,-4.33931293487,-5.96001234162,-5.14688479101,-4.40405632881,-4.45437868153,-2.74402571935,-2.74778503,-0.661850034409,-0.772402819497,-127.215726514
off_to_on,-1.19160551494,-1.19479311516,-1.11937945528,-3.59119858443,-2.59760014313,-4.03747744428,-2.44106687417,-2.07969997356,-3.82372422549,-0.786244548966,-1.75545478265,0.686939906847,0.710918261267,-117.31916185
off_to_on,0.331933833432,-0.0676232704433,-0.0505163143702,-2.81541913739,-0.650286204016,-1.79712085584,0.400425419763,0.329652102463,-3.06623613304,1.14627754699,-0.758108556455,1.85226166871,2.02688300494,-98.3489899833
off_to_on,1.67960414645,1.01224019421,0.927947579218,-1.97158182077,1.41109652681,0.621039407806,3.18337060915,2.6788308224,-2.18476934163,2.95876032953,0.222005502648,2.80501125501,3.11842236989,-72.4532007176
off_to_on,2.80253931719,2.02170237872,1.8124100167,-1.0659971499,3.47631817015,3.05671133011,5.72072433343,4.8320780088,-1.18841341873,4.57160199839,1.16700568938,3.54365158647,3.95530234953,-42.4300207786
off_to_on,3.67860835582,2.94094333956,2.60662632142,-0.106205637242,5.42311284666,5.34267740287,7.8485442803,6.67254676634,-0.0959405429957,5.92399839973,2.0613867805,4.08966795378,4.53337276513,-11.4241399768
off_to_on,4.31043052231,3.75138969787,3.31616093125,0.895212560059,7.12616482925,7.31925436334,9.43941422018,8.10965729204,1.06195766862,6.97545560042,2.89009790319,4.48018379277,4.87085269069,17.4185618506
off_to_on,4.72077088328,4.43437013059,3.94343461586,1.9175771861,8.4676521735,8.84841754459,10.4120498026,9.0837684881,2.24217608589,7.70528996631,3.63706739171,4.75889922573,5.00236549559,41.2984539404
off_to_on,4.94608343869,4.97077333777,4.48421761026,2.9304290208,9.34828451891,9.82613715474,10.7361973367,9.5679193351,3.39071082852,8.11042068052,4.28443551655,4.96669774875,4.97165966783,58.0711711895
off_to_on,5.02913418904,5.34179541953,4.92612572498,3.89363913832,9.69759314751,10.1916299636,10.432459614,9.56670133415,4.44613686786,8.20192266048,4.81260957258,5.13326630713,4.82404143968,66.4813045322
off_to_on,5.01167897632,5.5306271062,5.24930657808,4.75942451943,9.48220552216,9.93253616062,9.56724070213,9.11261230806,5.34469172055,8.00090918474,5.20110765411,5.27089867161,4.5995022058,66.2921808123
off_to_on,4.92809510508,5.52473281004,5.42911847365,5.4760824726,8.7109788766,9.08545687136,8.24353109732,8.26048225907,6.02634678205,7.53434611206,5.43003161387,5.37133142819,4.32736497217,58.2951931757
off_to_on,4.80069016441,5.31824778619,5.44026755183,5.99297985848,7.43617024073,7.73178659408,6.58869512652,7.08072854334,6.44107541282,6.83136304941,5.48192415737,5.40604271857,4.02302939268,44.1965017719
off_to_on,4.63716499559,4.91398770982,5.26163261961,6.26612750464,5.75025238499,5.98928963777,4.74072343551,5.6522727072,6.55447039275,5.92052722042,5.3437290354,5.32998252996,3.68710141175,26.3938492496
off_to_on,4.43042488412,4.32463039867,4.88090683485,6.2635656084,3.77849523931,4.00033961934,2.83454008181,4.05592708185,6.35193190303,4.82839466364,5.00858656223,5.08825821655,3.30688983305,7.66986150861
off_to_on,4.16064903298,3.57277840745,4.2982335474,5.96979686089,1.66795534287,1.91810902776,0.989891750731,2.36893886684,5.84083099669,3.57946684226,4.47725019432,4.62492305921,2.85997352561,-9.16121106991
off_to_on,3.79927476526,2.68981512858,3.52819808759,5.38862747283,-0.426018233762,-0.107784243406,-0.697896153875,0.661177434776,5.05032546126,2.19747819783,3.7589883004,3.89275067765,2.31931741636,-21.6102045557
off_to_on,3.31435427505,1.71368757476,2.59982415474,4.54399251544,-2.35430951526,-1.94462325156,-2.16340556276,-1.00680832755,4.02882476901,0.70774301897,2.87192023417,2.86275024621,1.65926135516,-27.829229876
off_to_on,2.6766137203,0.685945150834,1.55456266222,3.47861785732,-3.98797055275,-3.48752145369,-3.37245925919,-2.58391907316,2.8394211234,-0.859880000517,1.84280988219,1.53219581983,0.861631790524,-26.8479734589
off_to_on,1.86549323295,-0.351501061935,0.442594772207,2.25066512419,-5.2299752833,-4.66683320508,-4.31944435811,-4.02714748871,1.55387724521,-2.46796957385,0.706389715958,-0.0698999383746,-0.078768729756,-18.7003261157
off_to_on,0.874469615034,-1.35938516719,-0.681956371737,0.928775315363,-6.02343791304,-5.45138067125,-5.02127875548,-5.29928229953,0.245948528042,-4.06909187647,-0.495692586741,-1.88066365411,-1.14996278055,-4.42496146666
off_to_on,-0.284948118911,-2.30339355861,-1.7661437923,-0.413867631138,-6.35535547956,-5.84734478497,-5.50909230151,-6.36636113523,-1.01510923858,-5.60452218243,-1.71622355986,-3.80502902482,-2.32042338653,14.0609366802
off_to_on,-1.58102036727,-3.15544243321,-2.7628487459,-1.70571828176,-6.25547529661,-5.89319010811,-5.8189670406,-7.19559436302,-2.17004486452,-7.00464202035,-2.90402008822,-5.72122988228,-3.53887804376,34.199795291
off_to_on,-2.96167049501,-3.89379659605,-3.63427265138,-2.8825534005,-5.79048639491,-5.65145910297,-5.98317085931,-7.75440261466,-3.17349146846,-8.19133966356,-4.00576289875,-7.48974694092,-4.73643936269,53.1145857289
off_to_on,-4.35657068973,-4.50212952822,-4.35379427295,-3.89201159746,-5.05431107884,-5.19862107009,-6.02321300394,-8.0110230678,-3.99583502073,-9.08250247914,-4.96809018918,-8.9649646119,-5.83099107699,67.9730577396
off_to_on,-5.68132221434,-4.96783978625,-4.90601595112,-4.69652611383,-4.15575126982,-4.61435084037,-5.94576042788,-7.9368653079,-4.62298760347,-9.5984099276,-5.73998427935,-10.0084912683,-6.73354106937,76.3501853747
off_to_on,-6.84344348595,-5.28009887433,-5.28514818519,-5.27442888597,-3.20505989462,-3.97161954551,-5.74201775283,-7.51047256914,-5.05428689995,-9.66954628529,-6.27546272674,-10.5028892298,-7.35605213373,76.5437866501
off_to_on,-7.74971206179,-5.42817840483,-5.49217804336,-5.61926532593,-2.3011174297,-3.32880632693,-5.39064828339,-6.72261421113,-5.29900710197,-9.24508795569,-6.53653015123,-10.3644677775,-7.62009035859,67.8039659425
off_to_on,-8.31427074867,-5.40057191745,-5.53148206843,-5.73760186,-1.52078302197,-2.72471198009,-4.86377003098,-5.58175066236,-5.37214921681,-8.30111829021,-6.49626426933,-9.55382278476,-7.46550427767,50.4476438269
off_to_on,-8.46681267165,-5.18528971865,-5.40764036502,-5.64579717878,-0.911673831012,-2.17692041096,-4.13507452918,-4.11892043012,-5.2902544355,-6.84751656942,-6.14181344533,-8.0829597654,-6.85827901383,25.8436453278
off_to_on,-8.16011320972,-4.77148294014,-5.12316714498,-5.36631752721,-0.489149116315,-1.68347287213,-3.18875714567,-2.39103813165,-5.06794312385,-4.9324824681,-5.47699328052,-6.01810379472,-5.79671092329,-3.73018079893
off_to_on,-7.37618490153,-4.15228131374,-4.6776991199,-4.92419313851,-0.237703104089,-1.22736046404,-2.0277700353,-0.481684773683,-4.71573232222,-2.6438056397,-4.52410851886,-3.47766154198,-4.31512898127,-35.3405629079
off_to_on,-6.1303993486,-3.32845425068,-4.06890439562,-4.3441384153,-0.11638177917,-0.782965856794,-0.679943873493,1.50128200683,-4.23945106585,-0.106268846427,-3.32461406989,-0.625231043472,-2.48455320296,-65.7323131864
off_to_on,-4.47304915624,-2.31227621659,-3.295037021,-3.64870777667,-0.0673142726906,-0.323346479686,0.799225425653,3.43159065209,-3.64129262018,2.52503823949,-1.93827931689,2.34197984466,-0.409923934673,-91.7012658824
off_to_on,-2.48800980913,-1.13083949569,-2.35872326524,-2.85765840414,-0.026060682387,0.172820429339,2.32789110791,5.17371476308,-2.92225992552,5.07525613009,-0.440637579701,5.20850446476,1.776154439,-110.461604537
off_to_on,-0.28839701301,0.171958312207,-1.27128410732,-1.98847340658,0.0677234543957,0.71570870469,3.8034666454,6.59465221497,-2.08551926993,7.36342211397,1.08131948897,7.75850211286,3.92285948881,-119.963589231
off_to_on,1.99061611425,1.53540574279,-0.0567255200382,-1.05779873454,0.26079552153,1.30105063745,5.11210120407,7.57718764363,-1.14001488344,9.21809959122,2.53502352257,9.79461673177,5.87312856429,-119.124179677
off_to_on,4.20137742423,2.88435720348,1.24550135843,-0.0833953104476,0.579279835177,1.90952944361,6.14098889222,8.03315099206,-0.103638857171,10.4934561251,3.82937601381,11.1560545489,7.47717883066,-107.944087438
off_to_on,6.19502048437,4.13407146642,2.57974205309,0.913873262073,1.02495180383,2.50887559994,6.79199853551,7.91500457438,0.994694470749,11.0840806708,4.88233860758,11.734090215,8.6063210113,-87.4989341714
off_to_on,7.83348696476,5.19719437866,3.87588607614,1.9084965462,1.57523544412,3.05826314601,6.99481753411,7.22412297671,2.11456113913,10.9368256392,5.62829289783,11.4833535103,9.16567217234,-59.8076221396
off_to_on,9.00123238125,5.99219900572,5.05374947697,2.8696158286,2.18675711288,3.5142497548,6.71775000177,6.01438917847,3.2053790476,10.0581629541,6.02433010076,10.4275708044,9.10437060377,-27.5957832539
off_to_on,9.61549354298,6.45229742448,6.02979883749,3.76141950337,2.80179721878,3.83727475062,5.97451490262,4.39020081897,4.20956690861,8.5159469846,6.0546731311,8.65891962674,8.42205416761,6.01557161904
off_to_on,9.63406258776,6.53366506618,6.72551560967,4.54470354951,3.35659109324,3.99765583834,4.82583800088,2.49861585137,5.0671956568,6.43504629084,5.73258879333,6.33076346869,7.17068035841,37.8578117293
off_to_on,9.05969681536,6.22180656719,7.07637463029,5.17946874783,3.79020404562,3.98011791115,3.37527128772,0.516093509878,5.72157657086,3.98698125439,5.09940482476,3.64421163688,5.45121879801,65.0571215287
off_to_on,7.94058564424,5.53505403687,7.04022361336,5.62824999838,4.05267280131,3.78613054149,1.75942539978,-1.36898714598,6.12506924063,1.3744083091,4.22057790769,0.829626129909,3.40529175785,85.3317609316
off_to_on,6.36667167487,4.52451082042,6.60383777953,5.85974447223,4.11126598055,3.43368635911,0.133565619389,-2.97622129515,6.24433566298,-1.18806325239,3.17912368975,-1.8752024268,1.20241583128,97.2110255081
off_to_on,4.46204517505,3.2701972933,5.78659620184,5.85224376867,3.9540414298,2.95456505297,-1.3458045273,-4.15323830254,6.06432309844,-3.49473426409,2.06706940625,-4.24803971459,-0.97596165215,100.153365317
off_to_on,2.37405440482,1.87366069777,4.64056643862,5.59638941416,3.59031554436,2.38953296501,-2.53926296128,-4.79350658363,5.59041977479,-5.36908481856,0.975873709672,-6.10395121476,-2.95400549542,94.5541136245
off_to_on,0.260148328819,0.447807123222,3.2467477665,5.09685774236,3.04814089606,1.78226284248,-3.34136092549,-4.84959175161,4.84847028103,-6.6811538813,-0.0130672261249,-7.3134289162,-4.57872714839,81.6469646728
off_to_on,-1.72625392906,-0.894872704212,1.70774660122,4.37272514271,2.36933979384,1.17296950019,-3.69383872283,-4.34001150896,3.88262570598,-7.35999243776,-0.836674251091,-7.81482751215,-5.73497716904,63.3159762024
off_to_on,-3.44942960017,-2.05424501797,0.13766507907,3.45644489999,1.60299488711,0.592810802414,-3.59330609535,-3.34853245469,2.75129479677,-7.3996736969,-1.45616627375,-7.61959552216,-6.35645098641,41.8449053216
off_to_on,-4.8031334449,-2.95312717441,-1.34960022778,2.39155448176,0.798501515279,0.0599894363006,-3.09218309828,-2.01564480497,1.52171402415,-6.85807197138,-1.85999666753,-6.80955306198,-6.43137705242,19.6369533608
off_to_on,-5.71925257982,-3.54515282984,-2.65219205774,1.22939875405,-0.000688234675433,-0.421774836274,-2.29254014967,-0.522923643461,0.263830036204,-5.84847365236,-2.06335122792,-5.52636133878,-6.00215383567,-1.06013744796
off_to_on,-6.17242353328,-3.81885716492,-3.69073933502,0.0252756882395,-0.761653629963,-0.862110927576,-1.33339976218,0.928084331435,-0.955737229781,-4.52495521793,-2.10425782506,-3.95424765423,-5.15891510556,-18.3912673318
off_to_on,-6.18014431166,-3.79741788807,-4.41604916603,-1.16553028594,-1.46425553215,-1.28034174777,-0.372945621867,2.1400462104,-2.07891808021,-3.06324338544,-2.03680935222,-2.29788194886,-4.02774433741,-31.067557887
off_to_on,-5.79842242677,-3.53406536779,-4.81302424748,-2.29137294029,-2.10078708959,-1.69987178361,0.432193273521,2.94421003497,-3.06000951796,-1.63935772535,-1.92239785322,-0.757938700244,-2.75493328345,-38.4598192259
off_to_on,-5.11351124724,-3.10376359548,-4.9002856823,-3.30714884484,-2.67320825714,-2.14152241686,0.947957486263,3.22192717069,-3.86771099277,-0.40864435291,-1.82014161547,0.492768509845,-1.48919568408,-40.6063243351
off_to_on,-4.23073853422,-2.5922790309,-4.72556361161,-4.17623157931,-3.18855849497,-2.61692939007,1.08142109999,2.9205519692,-4.48527299719,0.512207691992,-1.77781527713,1.32968178667,-0.364030877536,-38.1403028422
off_to_on,-3.26176527671,-2.08412167657,-4.35750105423,-4.87134292318,-3.65345366972,-3.12315567681,0.794392542861,2.0615571075,-4.90892569328,1.0579251287,-1.82454304557,1.69087492026,0.51756184651,-32.1522086546
off_to_on,-2.31178625178,-1.65100680266,-3.87501618339,-5.3744303927,-4.06873593082,-3.63953085563,0.11011887469,0.739620188893,-5.14499391142,1.22058689412,-1.96628903316,1.5835446343,1.09409856445,-24.008938481
off_to_on,-1.46817223165,-1.34241982242,-3.35571194147,-5.67576125789,-4.42533277621,-4.12742140674,-0.887987074484,-0.887454128763,-5.20627442916,1.04800449918,-2.18480368986,1.08169295711,1.35097561049,-15.1560048458
off_to_on,-0.791857106909,-1.17957696127,-2.86495793896,-5.77254120454,-4.70219456355,-4.53320712096,-2.06565661738,-2.61695085003,-5.10832738138,0.634785811769,-2.44021052002,0.315167864951,1.31953625447,-6.92889812991
off_to_on,-0.312415169242,-1.15359915813,-2.4471759441,-5.66740698753,-4.86684647354,-4.79424870216,-3.25411502157,-4.22551102933,-4.86630652068,0.107279071957,-2.67690739417,-0.548664824471,1.07002253265,-0.396699856795
off_to_on,-0.0272995832359,-1.228122076,-2.12054789,-5.36712208733,-4.87866245509,-4.84715317394,-4.27152064231,-5.49653521115,-4.49282923261,-0.395592152445,-2.83198310707,-1.32836783121,0.69941512648,3.74493331115
off_to_on,0.0948164340113,-1.34593532809,-1.87587694682,-4.88172787966,-4.69451124439,-4.63724959915,-4.94682265187,-6.24734261415,-3.99718779058,-0.743033011394,-2.84498022483,-1.8540295549,0.315859978117,5.22204457328
off_to_on,0.107170382291,-1.43866930189,-1.67973647766,-4.22428449308,-4.27600954479,-4.12793996535,-5.14298132287,-6.35266156178,-3.38596069482,-0.831825147674,-2.6676242313,-1.99169111321,0.0218542709255,4.17094979055
off_to_on,0.0755234962358,-1.43811152176,-1.48142343271,-3.41119624461,-3.59731051423,-3.30853082541,-4.77650340939,-5.761425077,-2.66483570414,-0.601868217213,-2.27211959636,-1.66335189854,-0.101453453152,1.07405279802
off_to_on,0.0675647651087,-1.28750029677,-1.22268071776,-2.46298031665,-2.65220665426,-2.1992955419,-3.83065534274,-4.50464342316,-1.84124323243,-0.0456680720687,-1.65679203024,-0.859799909645,-0.00663503265546,-3.34376986481
off_to_on,0.142537635067,-0.951146578098,-0.848747168334,-1.40522741958,-1.45936135415,-0.852850253407,-2.36048287242,-2.69322650509,-0.927253352096,0.789576516723,-0.848211080089,0.355612572494,0.312737254613,-8.24077675569
off_to_on,0.342453780491,-0.420976346994,-0.319093253107,-0.269438357259,-0.0647013670668,0.648593717423,-0.488793137164,-0.50589490951,0.057865798134,1.80764465017,0.100589014897,1.85297994829,0.820962555088,-12.7870724559
off_to_on,0.686011856385,0.280968399833,0.383764525025,0.906587965602,1.45962564773,2.19997754512,1.60658705788,1.83141421182,1.08598747385,2.87602367562,1.11562633104,3.45109592718,1.44543304081,-16.2787402228
off_to_on,1.1659487938,1.10444583379,1.24871125123,2.07908931716,3.01985125758,3.68345593712,3.71282552659,4.07213760815,2.11978850997,3.84402741351,2.11053081933,4.94016214721,2.08749972136,-18.2232182514
off_to_on,1.75007167885,1.97708167526,2.23462351949,3.19957037493,4.50836079716,4.98059988883,5.60695382581,5.97837341443,3.11395419099,4.56387066246,2.99701015127,6.10912898581,2.6374593009,-18.3868869667
off_to_on,2.3857160671,2.8137179607,3.2733928414,4.21696386322,5.81379426098,5.98523440278,7.08250821433,7.34919589497,4.01790222169,4.91182947059,3.69579935612,6.77415356408,2.9915242712,-16.8017912164
off_to_on,3.00692075438,3.52769585686,4.2770402667,5.0806064809,6.83227072447,6.61527048477,7.97458745786,8.04443094581,4.7797577333,4.80656356515,4.14658336681,6.80441785167,3.06831787344,-13.7343073235
off_to_on,3.54326144978,4.04244427879,5.14799294902,5.74377147796,7.47834198166,6.82198158786,8.18013481175,8.00089397218,5.35110365018,4.22202330985,4.3155065154,6.14180159797,2.82246043169,-9.62357645788
off_to_on,3.92909259349,4.30170352087,5.79113716629,6.16738974582,7.69428260733,6.59548222311,7.67083190501,7.23905382527,5.69189211812,3.19306738877,4.19920642578,4.81163018549,2.25318723315,-5.00104265076
off_to_on,4.11193165293,4.2769157419,6.12600234825,6.32353105785,7.45651988898,5.96565153717,6.49691870257,5.85931831771,5.77485460891,1.8128881386,3.82478819959,2.92283173508,1.40661443861,-0.404093498467
off_to_on,4.05888209594,3.97073263964,6.09740416921,6.19821683809,6.77837136506,4.99834218775,4.78140747089,4.0284771369,5.58879851204,0.22245004782,3.24572204751,0.657201537123,0.371158207249,3.70346969336
off_to_on,3.76030330512,3.41616366732,5.68308523658,5.79319670008,5.70873886551,3.78734276833,2.70538962123,1.95810971069,5.14031932341,-1.40675654053,2.5342237438,-1.75109147048,-0.733409139608,6.99340593111
off_to_on,3.23035032423,2.67153120293,4.89730866699,5.12643494182,4.32693776063,2.44313281443,0.486280845954,-0.122200235782,4.45366899252,-2.89441061136,1.77118030106,-4.04330278596,-1.77185142254,9.31002954473
off_to_on,2.50446181809,1.81201693224,3.78992253346,4.23120425638,2.73434333386,1.07990250468,-1.64823947594,-1.99334310621,3.56877111477,-4.07462784992,1.03504030713,-5.96774050343,-2.6121462428,10.6788387124
off_to_on,1.63430425022,0.91908439269,2.44104056989,3.1538507243,1.0439415616,-0.197457459048,-3.4872851985,-3.47315975019,2.53762526824,-4.81766785954,0.391246626608,-7.31116920038,-3.14432920957,11.2875380225
off_to_on,0.681022009534,0.0693711580616,0.952086409036,1.9504531278,-0.630877692202,-1.30469105618,-4.86138524523,-4.43751579447,1.41955865958,-5.04711875503,-0.116276400112,-7.9258839148,-3.29679504563,11.4438994709
off_to_on,-0.292151252721,-0.675286235728,-0.565561073904,0.682728576249,-2.18688505883,-2.18636899511,-5.66156558189,-4.83331955188,0.27593171011,-4.75017448189,-0.470351884739,-7.74884373048,-3.04764073082,11.517671983
off_to_on,-1.22682304612,-1.27521219284,-2.00277445877,-0.586382166978,-3.53966679962,-2.81990990317,-5.85051932383,-4.68192417485,-0.835036043448,-3.97953204058,-0.681728256761,-6.81024052101,-2.42928319579,11.8753183902
off_to_on,-2.07494207563,-1.71655934612,-3.26410411452,-1.79699275463,-4.62941026434,-3.21498674282,-5.46453517975,-4.07265157647,-1.86269017956,-2.84656076286,-0.78601665129,-5.23023228036,-1.52549961096,12.8166489535
off_to_on,-2.8021651677,-2.01077536169,-4.2769398406,-2.89599196572,-5.42329186598,-3.40852007629,-4.60606788264,-3.14749896892,-2.76711286602,-1.50658212904,-0.836810649514,-3.20411702404,-0.461097690781,14.5215365095
off_to_on,-3.38875865427,-2.1900106573,-4.99728098282,-3.83987523061,-5.91443368986,-3.45607636077,-3.42805775014,-2.0792598338,-3.52073504973,-0.138184196101,-0.895970909381,-0.977757951271,0.614520879152,17.0130930413
off_to_on,-3.82811424896,-2.29923980764,-5.4115005278,-4.59648260414,-6.11787695808,-3.42098989962,-2.11217743972,-1.04615173256,-4.10831847064,1.08067075033,-1.02248381187,1.18361322784,1.54773901819,20.141305835
off_to_on,-4.12334929339,-2.3863870508,-5.53407906888,-5.14558547625,-6.06442040497,-3.36284028318,-0.843960157554,-0.206478001325,-4.52547552986,1.99652075892,-1.2615341026,3.02917086989,2.20226375995,23.5885460671
off_to_on,-4.28276733575,-2.49207045292,-5.40186540092,-5.47840880111,-5.7934318636,-3.32699822559,0.21185751275,0.323198279362,-4.77610119796,2.50100730507,-1.63543107042,4.35441581362,2.47880898589,26.8959138184
off_to_on,-4.31512916555,-2.64065834414,-5.06590643217,-5.59629779653,-5.34582625209,-3.33678949079,0.932512497984,0.483412813627,-4.86923389658,2.54536984863,-2.13779289782,5.02701050467,2.33008880726,29.5073318249
off_to_on,-4.22569887383,-2.83415022786,-4.58220946339,-5.50882193514,-4.75830364525,-3.38944158961,1.25214915989,0.27865988619,-4.81592101094,2.14680486397,-2.73195442989,5.00306904075,1.76887932451,30.8268004471
off_to_on,-4.01388121269,-3.04997606187,-4.00290918713,-5.23164502986,-4.05967608054,-3.4564252109,1.16861656418,-0.225081419234,-4.62663184961,1.38575888751,-3.3539789758,4.33168783884,0.86782770708,30.2833231556
off_to_on,-3.67297792092,-3.24321213816,-3.36919628669,-4.78447629458,-3.26972488768,-3.48816005796,0.741351811037,-0.911686144036,-4.30964303637,0.394460603253,-3.9200052855,3.14706034391,-0.249182921795,27.3976574681
off_to_on,-3.19220650546,-3.35302583713,-2.70704422126,-4.1893589573,-2.40058347706,-3.42241406436,0.0807843827965,-1.63338867903,-3.8706380652,-0.661796776933,-4.33703697408,1.64918261855,-1.42312099038,21.8451327821
off_to_on,-2.56070571454,-3.31248738825,-2.02629620047,-3.46946219031,-1.46020415274,-3.19517714641,-0.669159497816,-2.23376716858,-3.31354354463,-1.60810047981,-4.51577124494,0.0757021211528,-2.48128281319,13.5091758113
off_to_on,-1.77286481448,-3.06032655361,-1.32311895141,-2.64843490282,-0.457110044404,-2.75241414706,-1.3529518985,-2.57190926883,-2.64240429257,-2.28489291385,-4.38373969878,-1.33132107025,-3.26128705374,2.52078597604
off_to_on,-0.834022523369,-2.55285285908,-0.585279041907,-1.75027396006,0.594589381136,-2.06095084024,-1.8266813662,-2.54431131197,-1.86391266013,-2.57103532382,-3.8969439589,-2.35925154413,-3.63429307912,-10.7200575123
off_to_on,0.234563524768,-1.77415836064,0.200764261154,-0.7995710266,1.67099359723,-1.11684437797,-1.97936456832,-2.10139260811,-0.99008363321,-2.40174579304,-3.04832834658,-2.85470590264,-3.52417661084,-25.5442051443
off_to_on,1.39254552921,-0.742903268975,1.04225740916,0.178055897704,2.73596581705,0.0500771424404,-1.74940896654,-1.25626900186,-0.0405258999019,-1.77886656248,-1.87182198239,-2.7452656419,-2.91988061112,-41.036467015
off_to_on,2.57997270124,0.485572807188,1.93344511805,1.15556098344,3.74111095714,1.37629815127,-1.13397082697,-0.0845181306322,0.956193103862,-0.771941056052,-0.441252504728,-2.05003686829,-1.87904271346,-56.0828768226
off_to_on,3.71993504923,1.82242653115,2.85103268432,2.10429658667,4.62843970585,2.76947410867,-0.189943591413,1.28506842657,1.9624602227,0.490174541105,1.13589302572,-0.877507512196,-0.522167862511,-69.441304204
off_to_on,4.72439548852,3.15362880337,3.75276237696,2.99421426852,5.33552742708,4.11754937305,0.973530031187,2.68748902022,2.93298742457,1.83614480831,2.72919835908,0.58913179032,0.982090418645,-79.8327038993
off_to_on,5.5027379861,4.35251901256,4.57956192688,3.79451589261,5.80253988795,5.30101718992,2.2099615721,3.94394835459,3.81759486283,3.0752432243,4.1992719898,2.11732547553,2.43873177856,-86.0481011566
off_to_on,5.97209305626,5.29503503533,5.26115487447,4.4747482014,5.98014762744,6.20675342193,3.3557581022,4.88658212614,4.56513667008,4.02362032285,5.41321445643,3.45779632557,3.65246383894,-87.0641226182
off_to_on,6.06814565792,5.87560865922,5.72445827443,5.00625716044,5.8371438769,6.74161827512,4.25299465568,5.38205479875,5.12811187103,4.53020222639,6.259669255,4.38010394081,4.45452744125,-82.1577509717
off_to_on,5.75494343587,6.02154128391,5.90361919601,5.36385791684,5.36655287246,6.84403006057,4.77156874353,5.35073981465,5.46737940228,4.49867213713,6.66156207742,4.70627430552,4.7266231926,-71.0093438103
off_to_on,5.03224171839,5.70380685922,5.75023115628,5.52754094236,4.58917499291,6.49197077741,4.82767722786,4.77879036008,5.55635676649,3.90247072517,6.58491749003,4.33785325524,4.41858415244,-53.7821738179
off_to_on,3.93915348438,4.94265649646,5.24217495351,5.48402851374,3.55384287868,5.70634952838,4.39606300278,3.72137884808,5.38413289975,2.79065446023,6.04263882261,3.27256433811,3.55722003889,-31.1671458588
off_to_on,2.5532946937,3.8070679661,4.38966390628,5.22801669625,2.33411322441,4.54926180952,3.51433332656,2.2965904987,4.95706036717,1.28365515083,5.09277973383,1.6081047016,2.24490674316,-4.38315238824
off_to_on,0.985176633639,2.40790386312,3.2374255263,4.76298049253,1.02162767663,3.11735588883,2.27873566396,0.670734601169,4.29859048657,-0.440670764323,3.83153903039,-0.467685856159,0.647860527448,24.8731958343
off_to_on,-0.631775868983,0.885501930284,1.86247216555,4.1014746865,-0.283131308976,1.53115912794,0.831942184653,-0.962989079308,3.44734835699,-2.16900823362,2.38188051232,-2.69922310845,-1.0245636591,54.5301258782
off_to_on,-2.15459357202,-0.606800198413,0.367528710546,3.2649197406,-1.48156115361,-0.0782604698888,-0.655518112369,-2.40962202632,2.45367885612,-3.67977805664,0.879228530098,-4.79538073372,-2.54696584577,82.2916481499
off_to_on,-3.44602924603,-1.92111626016,-1.12919241456,2.28291118339,-2.48775653634,-1.58358942447,-2.00767780229,-3.49800880452,1.37509532276,-4.7720429926,-0.543953929994,-6.46738011428,-3.70788542276,105.827044949
off_to_on,-4.38990652916,-2.9330384016,-2.50664026507,1.19212503752,-3.23798388726,-2.87471298152,-3.06637643003,-4.10335734767,0.271200859148,-5.29234024385,-1.772779616,-7.46743150893,-4.33871402053,122.983435262
off_to_on,-4.90464108158,-3.5568532845,-3.65439442326,0.0349074981199,-3.69751822965,-3.86964498752,-3.71219823786,-4.16376697876,-0.801291563048,-5.15588607161,-2.72195153526,-7.62301871826,-4.33763913316,132.00143674
off_to_on,-4.9531792507,-3.75590099728,-4.48519440728,-1.14236498915,-3.86388029797,-4.52164515704,-3.88028038128,-3.68850249042,-1.79284694986,-4.3593002144,-3.34374840972,-6.86222298301,-3.68530933261,131.711277414
off_to_on,-4.54799250867,-3.54665503028,-4.94485913938,-2.29108429898,-3.76598819693,-4.82175790479,-3.56886245649,-2.75689825006,-2.66422689268,-2.98307918838,-3.63109436532,-5.22659874668,-2.44995256302,121.68646361
off_to_on,-3.75035094616,-2.99592732792,-5.018250967,-3.3623179138,-3.45929220494,-4.79663091627,-2.83942548576,-1.50802755026,-3.3881425562,-1.1833665628,-3.61547413452,-2.86970006944,-0.781037927637,102.334606221
off_to_on,-2.6638031019,-2.21151788854,-4.73045549214,-4.30879346547,-3.0175158743,-4.50209988428,-1.80839743511,-0.122499847632,-3.94936348832,0.826048421867,-3.36012164082,-0.0412050710521,1.107929257,74.9102305042
off_to_on,-1.42252160547,-1.32750871201,-4.14298597994,-5.08693746455,-2.52210251941,-4.01357196606,-0.631530253478,1.20121258728,-4.34342563425,2.79930658587,-2.94950721781,2.94154537612,2.96544782494,41.4419630421
off_to_on,-0.175838070524,-0.486126306373,-3.34549053814,-5.65893855273,-2.05079499785,-3.41463115847,0.516971086575,2.27280439107,-4.57427495965,4.48844862221,-2.47659985321,5.73113471838,4.53367363131,4.5756709279
off_to_on,0.929202654265,0.181434446322,-2.44404779257,-5.99478298323,-1.66691009325,-2.78547368378,1.46779376721,2.93511469194,-4.65131898912,5.67402648021,-2.02962957149,7.99212076489,5.58168050375,-32.6550929766
off_to_on,1.76515882665,0.572684548058,-1.54759710822,-6.07417472909,-1.41078581557,-2.19274011556,2.07924245965,3.08480305401,-4.58641817051,6.19251541816,-1.68009316791,9.44228188989,5.93605995987,-67.1107924365
off_to_on,2.23925562831,0.627666982362,-0.754297878886,-5.88821203201,-1.294590042,-1.68205492712,2.25634349821,2.68606018998,-4.39132493001,5.95709045596,-1.47353689244,9.88786631115,5.50488060489,-95.8518108411
off_to_on,2.30433224213,0.337098668309,-0.139614302242,-5.44065653439,-1.30122094775,-1.27415481721,1.96381669401,1.77561947396,-4.07597603295,4.96917316434,-1.42424530291,9.24839276826,4.29183859472,-116.436063483
off_to_on,1.96430783364,-0.256250603296,0.252322518255,-4.74861149635,-1.38746640453,-0.964949349703,1.23122244339,0.458480727519,-3.64788068568,3.31932233654,-1.51442423803,7.56786254406,2.39865754039,-127.174910889
off_to_on,1.27347968238,-1.06312022982,0.412979477582,-3.84243176954,-1.49099892255,-0.729289662582,0.149627600104,-1.10503559769,-3.11264905117,1.17738161805,-1.69786217995,5.01095306493,0.01528092738,-127.317028299
off_to_on,0.329734904488,-1.95951761114,0.368820925335,-2.7647264373,-1.54024696772,-0.527704099602,-1.13975306245,-2.71917790236,-2.47550481829,-1.22686546784,-1.907468913,1.84464970048,-2.60105026204,-117.136790445
off_to_on,-0.737483489548,-2.80311085826,0.176015523627,-1.56838634819,-1.46577744042,-0.31496522758,-2.46344009811,-4.17700553782,-1.74345261787,-3.63011896742,-2.06559941816,-1.59240911826,-5.15532867044,-97.9138315421
off_to_on,-1.78296357667,-3.45208764423,-0.0887423932102,-0.313668026085,-1.21160470862,-0.0491332552555,-3.63776197842,-5.28587878274,-0.927653215546,-5.76580666372,-2.09573581682,-4.92908087287,-7.34932016374,-71.8026457488
off_to_on,-2.66331182571,-3.78400148905,-0.339974703244,0.935518506021,-0.744839904473,0.300297440702,-4.49226053109,-5.89098945137,-0.0455146212922,-7.39447012586,-1.93395998616,-7.80454481197,-8.91687713256,-41.6039822759
off_to_on,-3.25417862441,-3.71214917574,-0.496076765701,2.11585348933,-0.0623110338802,0.746342340766,-4.89143019145,-5.89403747731,0.877957770295,-8.33066109578,-1.53871645981,-9.90958148785,-9.65569581882,-10.461782659
off_to_on,-3.46502689339,-3.19737229381,-0.491149130737,3.16901881822,0.806809707149,1.2814088737,-4.75204103099,-5.26483544183,1.8098997943,-8.46321661123,-0.897624051615,-11.021339502,-9.45164180606,18.4810322238
off_to_on,-3.24968101545,-2.25380105621,-0.284411823021,4.04584916951,1.80279584942,1.87750596198,-4.05389705499,-4.04456587594,2.71059745878,-7.76665988874,-0.0305053179502,-11.0275001032,-8.29270804529,42.4287837977
off_to_on,-2.61144520711,-0.947871434831,0.134024166368,4.70978116567,2.84139977908,2.48966952988,-2.84275048678,-2.34049509108,3.53575018199,-6.3026100876,1.01169294077,-9.93712587331,-6.27097157654,59.2408847338
off_to_on,-1.60227750001,0.609165243455,0.741724797729,5.13920343833,3.82337931746,3.06202246939,-1.22511118141,-0.313018076328,4.23977370844,-4.21132622616,2.15188594937,-7.87716950309,-3.57240808237,67.6646017257
off_to_on,-0.316254985373,2.27417893013,1.48692329658,5.3284134333,4.64629358161,3.53551569493,0.644277802644,1.84316691323,4.77975901021,-1.6946977529,3.2950570326,-5.07540108729,-0.455914607901,67.464291395
off_to_on,1.12173046666,3.88879898562,2.29540550274,5.28703909178,5.21703520833,3.85617456472,2.58061668589,3.92129263269,5.11958977611,1.00702252328,4.33861654524,-1.83215839089,2.77580977114,59.43064523
off_to_on,2.57053993203,5.29757341065,3.08024199723,5.03796758313,5.46346421617,3.98263048281,4.39052168592,5.72537908915,5.23368013024,3.64178623369,5.18361590717,1.51537238064,5.80992998779,45.2677586052
off_to_on,3.88875337424,6.36533412401,3.75295909662,4.61401502071,5.34362661584,3.89185272714,5.89408256552,7.09096557835,5.10983227756,5.9723940837,5.74546042691,4.63183507266,8.35761423243,27.3706860171
off_to_on,4.95005916716,6.99163030895,4.23458967698,4.05374329559,4.85136099108,3.58228606931,6.94479428265,7.90135870077,4.75082515366,7.80013905426,5.96287789121,7.22061764285,10.184613091,8.51970773102
off_to_on,5.65624069179,7.12054818203,4.46511850574,3.39695628927,4.01757390629,3.07399909769,7.44499898896,8.0977032647,4.17451313983,8.9828921086,5.80416240242,9.05466415664,11.1347866424,-8.47192014824
off_to_on,5.94631228045,6.74490084359,4.41011881216,2.68046615533,2.90703444143,2.40589509372,7.35511274377,7.68203067304,3.4124133686,9.44588930803,5.2700838013,9.99776494527,11.1440486926,-21.1138147071
off_to_on,5.80090897081,5.90454870081,4.06382083415,1.93469805769,1.61112199302,1.63046511996,6.69574882057,6.71334927938,2.50696142771,9.1844682972,4.39327946653,10.014220096,10.2434444173,-27.5541038397
off_to_on,5.24168093645,4.67938898116,3.4483900652,1.18159687394,0.237481316877,0.806909323617,5.54277126476,5.29769196879,1.50778870582,8.25902888458,3.23437026523,9.16630123591,8.55144359571,-26.8155974928
off_to_on,4.3260942438,3.17822468791,2.60974182183,0.434122300028,-1.10207403871,-0.00633157824329,4.01619591327,3.57372043379,0.46749502961,6.78342177797,1.87541232286,7.60047684326,6.2568385263,-18.9227457389
off_to_on,3.13860685747,1.52519964981,1.61069853079,-0.302608636759,-2.30386398341,-0.758535736264,2.26458800966,1.69592353842,-0.562559307819,4.90868563763,0.411567797598,5.52471814703,3.59471882813,-4.90296221691
off_to_on,1.77959871458,-0.154291983898,0.522637787461,-1.02871972552,-3.28330586589,-1.41215837303,0.447096291714,-0.182403855361,-1.53594372605,2.80447381305,-1.05797686646,3.18019865685,0.81872418681,13.3386036019
off_to_on,0.353637302901,-1.74636750124,-0.583064190986,-1.74593367541,-3.98320107289,-1.94604749017,-1.28454162955,-1.92435688576,-2.41392782665,0.640600465694,-2.43880735071,0.811225766384,-1.82692924955,33.2560122316
off_to_on,-1.04136407965,-3.15854530638,-1.64253584716,-2.45348961981,-4.37838178156,-2.35603058974,-2.80180230524,-3.42114181068,-3.16708153317,-1.42909981494,-3.64887258624,-1.36275094017,-4.13231313653,51.9823564705
off_to_on,-2.32277658641,-4.32573201534,-2.60483975258,-3.1443188796,-4.47625036332,-2.65288992581,-4.0111639572,-4.59925184394,-3.77563636887,-3.27891186229,-4.62417126533,-3.16970140135,-5.94078105947,66.6931323217
off_to_on,-3.42876581212,-5.21190874125,-3.43469420799,-3.80217718559,-4.3132889908,-2.8581363299,-4.86066895948,-5.42270129272,-4.22872390062,-4.8183840339,-5.32212160478,-4.4996958087,-7.16022874218,74.9682116468
off_to_on,-4.32028884318,-5.80777297646,-4.1123251484,-4.40032526975,-3.94813871932,-2.99831498462,-5.34079431798,-5.890593602,-4.52276619245,-5.99425058064,-5.722513868,-5.31042888937,-7.765844269,75.1074503087
off_to_on,-4.97972929626,-6.1251722253,-4.63076890071,-4.90214759928,-3.45227709104,-3.09878431373,-5.47993050388,-6.03087894598,-4.6594023808,-6.78764093185,-5.82623924533,-5.6235926811,-7.79469940335,66.3605679716
off_to_on,-5.40681211999,-6.18958725069,-4.99136271302,-5.26382554279,-2.89960645804,-3.17797299259,-5.33545884059,-5.89157367709,-4.64337943619,-7.20768380464,-5.652228967,-5.51331262325,-7.33354964516,49.0424659139
off_to_on,-5.61280780389,-6.03212931542,-5.19844525263,-5.43887275733,-2.35636796537,-3.24303322582,-4.98194227173,-5.5309232047,-4.48080841895,-7.28300210216,-5.23319788394,-5.08884263865,-6.50198789399,24.5192845192
off_to_on,-5.61423023365,-5.68248380867,-5.25439929858,-5.38404048613,-1.87270958804,-3.2875863402,-4.49824166049,-5.00797935133,-4.17809578016,-7.05273007141,-4.61085399059,-4.47434579779,-5.43354353761,-4.93353923141
off_to_on,-5.42723028,-5.16397537832,-5.15608707877,-5.06585321782,-1.47697726699,-3.2919342912,-3.95541054666,-4.37485183022,-3.74171832688,-6.55856454634,-3.83120989983,-3.788799735,-4.25739310838,-36.384183469
off_to_on,-5.06369457241,-4.49149416295,-4.89346862964,-4.46687981885,-1.17340497747,-3.22573667815,-3.40701162531,-3.67152661677,-3.17884376431,-5.8390219812,-2.94052696235,-3.12885152437,-3.08306032027,-66.5776913455
off_to_on,-4.52971033551,-3.67248203237,-4.4507966715,-3.5908094674,-0.943408014841,-3.05278259306,-2.88307725529,-2.92368533966,-2.49863352212,-4.92657756916,-1.98226000538,-2.55685503065,-1.98989109675,-92.3091961363
off_to_on,-3.8266099544,-2.71061960004,-3.8103109154,-2.46549721326,-0.750198109306,-2.73717367675,-2.38836960102,-2.14348108587,-1.71392775387,-3.84779684504,-0.995178677808,-2.09545400573,-1.02229060415,-110.79209151
off_to_on,-2.95433435216,-1.61136797815,-2.95788558834,-1.14336413599,-0.546003292556,-2.25002328449,-1.90496563269,-1.33279615399,-0.84292626583,-2.62602489499,-0.0126495437396,-1.72905940225,-0.190825461805,-119.977059855
off_to_on,-1.91642682987,-0.388180267386,-1.88969197671,0.301142951587,-0.280845261053,-1.57569524921,-1.39858513507,-0.488182924758,0.0895420627343,-1.28575734562,0.937102143823,-1.4115567349,0.521547706053,-118.78425245
off_to_on,-0.725655428052,0.931940732068,-0.618687596054,1.77694771901,0.0883577596227,-0.716663645768,-0.827576211646,0.393492718107,1.05152106406,0.142455127222,1.83005048135,-1.0787094546,1.14955120994,-107.221873903
off_to_on,0.590888853661,2.30477903204,0.820321176516,3.18412318135,0.58961431311,0.30373864681,-0.153135452609,1.30971125352,2.00445016115,1.61778505926,2.64510631293,-0.663112123087,1.73381680037,-86.378528963
off_to_on,1.98833430075,3.66808538072,2.36815980049,4.4232359503,1.22971790322,1.44112876755,0.650792834797,2.24814694345,2.90480303601,3.08666587912,3.3628930148,-0.109267059555,2.30928802985,-58.2921320332
off_to_on,3.40310823075,4.94409597052,3.94210379569,5.40518914995,1.99096667594,2.63254279967,1.58941260383,3.18434847313,3.70676009815,4.4828470578,3.96486515831,0.613564743646,2.89565142662,-25.7130060439
off_to_on,4.75508080169,6.04533965312,5.44036355832,6.06038075708,2.8311903215,3.80131567849,2.64196512126,4.08158683894,4.3656620331,5.73028249725,4.43297952926,1.50267880491,3.49123765049,8.20883349213
off_to_on,5.95283240164,6.88313093648,6.75002349204,6.34603178465,3.68710189171,4.86381144586,3.76038126344,4.89287042693,4.84185367699,6.74867471039,4.75001035912,2.51867892825,4.07122824103,40.2737966455
off_to_on,6.90161000123,7.37767316119,7.75768494194,6.25073101663,4.48057259373,5.73721343305,4.87194982482,5.56481989536,5.10444405527,7.4610318777,4.90047961054,3.58810932001,4.5903046691,67.5783256246
off_to_on,7.51309068712,7.46837758302,8.36160799708,5.79556887945,5.12706864037,6.34746436041,5.88571802645,6.04285561374,5.13449336887,7.80222977484,4.87206642937,4.61154906121,4.98918964143,87.8158079969
off_to_on,7.71573822198,7.12289122097,8.48384675139,5.03165226646,5.54523333827,6.63644888762,6.70185445671,6.27700502328,4.92719440853,7.72736161636,4.65728120097,5.4759761091,5.20395508465,99.4992258186
off_to_on,7.46437252064,6.34344000855,8.0807751326,4.03425038916,5.66647248103,6.56763025471,7.22282945313,6.22759697302,4.49273685079,7.21863696111,4.25514736154,6.06962500968,5.17658575785,102.082494369
off_to_on,6.74760024262,5.1694206962,7.15052638142,2.89425781811,5.44341701087,6.12956676689,7.36504660076,5.87016913136,3.85571089807,6.28975795596,3.67263054704,6.29724544591,4.86514005852,95.9704457805
off_to_on,5.5919772296,3.67566961848,5.7362071533,1.70801512012,4.85628621677,5.33700929612,7.06951317779,5.19905350288,3.05309737006,4.98703074613,2.92558651871,6.09365178491,4.25195192647,82.4211823876
off_to_on,4.06216221398,1.96642790866,3.9242547445,0.566750100297,3.91643395031,4.22957727544,6.31026550873,4.22929517702,2.13107676209,3.38691125364,2.0390588489,5.43372804865,3.34864482712,63.3573088328
off_to_on,2.25682398784,0.165625058886,1.83791581699,-0.453039127776,2.66669389663,2.86828686881,5.09954419097,2.99676823312,1.1410428283,1.5901712064,1.04683408449,4.33756933952,2.19722408389,41.1127819369
off_to_on,0.300612279405,-1.59537235386,-0.373545701235,-1.29705497555,1.17850530245,1.33042552526,3.48910356373,1.55654957339,0.135304631198,-0.286669880659,-0.00975534895502,2.870119332,0.867098710534,18.1486060083
off_to_on,-1.66697972618,-3.19102990122,-2.54874194088,-1.93759986086,-0.453846147187,-0.29659336292,1.56748788014,-0.0202278200665,-0.837009379487,-2.12163505422,-1.08371238189,1.13540467801,-0.551530060341,-3.22731517189
off_to_on,-3.50461777909,-4.51425566064,-4.52956984775,-2.37438453517,-2.12123623104,-1.92171547331,-0.546442355037,-1.65071071195,-1.73337464247,-3.79807052222,-2.12480765583,-0.73383252322,-1.95697414536,-21.103252758
off_to_on,-5.08249490724,-5.48674977762,-6.17633779992,-2.63170380041,-3.70910463017,-3.45643423956,-2.71304919004,-3.24546370219,-2.52025899027,-5.21463908154,-3.08238328033,-2.58973690944,-3.24676941933,-34.1431029538
off_to_on,-6.29450685643,-6.0657917373,-7.38083574746,-2.75242507188,-5.10728236851,-4.82016689011,-4.78352836841,-4.71401626615,-3.1742715403,-6.29338160591,-3.90832180756,-4.28444783403,-4.32835179457,-41.6850043804
off_to_on,-7.06782003937,-6.24664756018,-8.07583084185,-2.78966439493,-6.21926891392,-5.94447154125,-6.61241443427,-5.97045479432,-3.68204928967,-6.98498920835,-4.55996722301,-5.68486605189,-5.1283175839,-43.7528966514
off_to_on,-7.3687461183,-6.06037721099,-8.23992562054,-2.79733676367,-6.97008108594,-6.77594897783,-8.06975144254,-6.93874438804,-4.03903835866,-7.27082531755,-5.00279437078,-6.68536051281,-5.59913944918,-40.9859307387
off_to_on,-7.20430547937,-5.56744936759,-7.89730788483,-2.82091923616,-7.31197947766,-7.27785191165,-9.05178297162,-7.55751722868,-4.24747715828,-7.16168234836,-5.21264564275,-7.21704112888,-5.7226093676,-34.5004985063
off_to_on,-6.61940549826,-4.84813659434,-7.11256980476,-2.88973440922,-7.22762238792,-7.43056678342,-9.48921095799,-7.7841077752,-4.31398773163,-6.69368588139,-5.17738504955,-7.25272509404,-5.50976307547,-25.7070304001
off_to_on,-5.69010492159,-3.99108807545,-5.98139039451,-3.01185128856,-6.7304723688,-7.23122089154,-9.35235297391,-7.59764430357,-4.24721508697,-5.92210866366,-4.89785671982,-6.80730632158,-4.99753216024,-16.1078068603
off_to_on,-4.51390971784,-3.08169924617,-4.61837715482,-3.17233822362,-5.86255568407,-6.69269381727,-8.6528557878,-7.00102308879,-4.05591854488,-4.9140791759,-4.38807527891,-5.93381648469,-4.24279826708,-7.10250479508
off_to_on,-3.19838594049,-2.19188717463,-3.14368278425,-3.33513726107,-4.68992209636,-5.84228094874,-7.44196141293,-6.02160396009,-3.74782063099,-3.74123725539,-3.67461833691,-4.71596440626,-3.31482942458,0.17478559627
off_to_on,-1.84953834242,-1.37264046838,-1.67011064487,-3.44832440069,-3.29634864566,-4.72018229392,-5.8056351429,-4.71048622725,-3.32937407129,-2.47329866651,-2.79523607583,-3.25829695709,-2.28722302071,4.96917949875
off_to_on,-0.561371566482,-0.65027915294,-0.292288678728,-3.45204502086,-1.77596082275,-3.37789240699,-3.85712448554,-3.14026500882,-2.80643921204,-1.17326197137,-1.79673938588,-1.67530208267,-1.23045116004,6.95910456611
off_to_on,0.592167227774,-0.0267976212536,0.920851386994,-3.28803364182,-0.225500188738,-1.87647064692,-1.72770349928,-1.40123979636,-2.1856993405,0.105334654224,-0.732275337763,-0.080763822335,-0.205916394698,6.2492571476
off_to_on,1.56203493522,0.515944959882,1.92955275186,-2.90939485023,1.26305059907,-0.284597199035,0.443541227334,0.403846498608,-1.47650590596,1.31906742084,0.341854907842,1.42150172678,0.737883067043,3.30886128667
off_to_on,2.32536522763,1.0089884933,2.72251776839,-2.28927009489,2.60885880738,1.32371396286,2.52000922926,2.16632319151,-0.69276086665,2.43350408776,1.36963859551,2.74471071879,1.56685515706,-1.13168335333
off_to_on,2.88330067537,1.48723290404,3.31243058645,-1.42715094687,3.7471598493,2.87186019298,4.37715463756,3.77899385273,0.145577246174,3.42089608288,2.29882375695,3.82354063022,2.26063943707,-6.20828750615
off_to_on,3.25597441153,1.98009158592,3.72865526771,-0.351905235642,4.63238799018,4.28390758673,5.91063095347,5.14390676172,1.01172995109,4.25744203677,3.08417142956,4.6158829217,2.81023797509,-11.0555925254
off_to_on,3.47558688292,2.50336078532,4.00840032196,0.878983192651,5.23939652874,5.48831744824,7.04248459521,6.17985532369,1.87233684292,4.92090546344,3.6902369228,5.10222528802,3.21465474636,-14.9261073415
off_to_on,3.57873091702,3.05362907635,4.18779780098,2.18395654449,5.56283472774,6.42198219435,7.72506139848,6.82890420547,2.68880169872,5.38925604886,4.09345116788,5.28322355327,3.47733480385,-17.2811982352
off_to_on,3.59915413784,3.60615481783,4.29428799352,3.4651976595,5.61492001126,7.03429779406,7.94248949115,7.06124703261,3.41968015133,5.64077235315,4.28331913331,5.17615666901,3.6031420537,-17.8441590631
off_to_on,3.56201250207,4.11660531658,4.34144281676,4.6187705435,5.42198124123,7.29091209171,7.70979282902,6.87779965422,4.02387461394,5.65573365435,4.26262091557,4.81096475935,3.59643732729,-16.6115938502
off_to_on,3.48038751816,4.52645840654,4.32694420573,5.54582959886,5.02024103606,7.17674510598,7.06985943519,6.31011916302,4.46426553681,5.41949251976,4.04658760965,4.22646417063,3.46055207134,-13.8253709884
off_to_on,3.35445782932,4.77130273305,4.23392229617,6.16349760211,4.45134530626,6.69789081384,6.08862775947,5.41749917211,4.7113238509,4.92641399575,3.66112041721,3.46714637653,3.19864635432,-9.91263272339
off_to_on,3.17329178682,4.7908202672,4.03532867913,6.41405605915,3.75813448239,5.8820832219,4.84895760473,4.28139925364,4.74623092012,4.18394386301,3.14021719906,2.58074136307,2.81564721959,-5.4051133432
off_to_on,2.91882443439,4.53896006266,3.7005505021,6.27131415177,2.98108625406,4.77753622738,3.44371567973,2.99768365406,4.56308292761,3.21596622326,2.52285417069,1.61650581912,2.32073527016,-0.850934824981
off_to_on,2.57125834685,3.99275649584,3.20312975716,5.74339246073,2.15575170685,3.45013160988,1.96862933373,1.66742875672,4.16986941215,2.06464984683,1.84963043301,0.62402248258,1.72972253684,3.26800135248
off_to_on,2.11492842101,3.15841676651,2.52828711305,4.87162363398,1.31136741034,1.97911072266,0.515446637609,0.387268353038,3.58807436647,0.790161149766,1.15951041001,-0.347801466131,1.06666406706,6.60175254603
off_to_on,1.54362214658,2.07367678005,1.67898307147,3.72577031556,0.470670425328,0.451598181365,-0.834110440663,-0.759654069269,2.85092975638,-0.532084707104,0.486988584048,-1.25185841766,0.364169114332,8.97316489832
off_to_on,0.864452578601,0.805947761159,0.679473745975,2.39622359203,-0.349211471952,-1.04357409798,-2.01319609551,-1.7110877381,2.0005289935,-1.8165969158,-0.140048487186,-2.04433207155,-0.337895695789,10.3898192399
off_to_on,0.0996219732735,-0.553627375592,-0.424300987039,0.984211404132,-1.13505822891,-2.42218654233,-2.97319918315,-2.43055981777,1.08415588894,-2.97498472876,-0.701571443377,-2.68666012175,-0.995327599224,11.0273812151
off_to_on,-0.714248838466,-1.89950471915,-1.56768040919,-0.408731488465,-1.87541001088,-3.61051645186,-3.68544266816,-2.90915876276,0.150281531159,-3.92437145753,-1.185685445,-3.14789452976,-1.56384302549,11.1885125388
off_to_on,-1.52916891099,-3.12326635109,-2.67327460893,-1.69072904795,-2.55839309736,-4.55025374447,-4.14119344983,-3.16400647991,-0.755286335347,-4.59603497774,-1.58797175616,-3.40721248804,-2.00410696196,11.2444893015
off_to_on,-2.29077916871,-4.12583182689,-3.65920439882,-2.78778430544,-3.16993704718,-5.20202091785,-4.35008859308,-3.23362650774,-1.59265349599,-4.94315186132,-1.91004498653,-3.45619751853,-2.28679032566,11.5684680222
off_to_on,-2.94458395926,-4.82873377449,-4.44846564648,-3.64934857274,-3.69274254392,-5.54722365906,-4.33720968091,-3.17081802609,-2.33014023952,-4.94656933061,-2.15757281284,-3.30044596402,-2.3968410225,12.4698228355
off_to_on,-3.44250062384,-5.182956448,-4.97811526659,-4.25071926533,-4.10624939464,-5.58813789814,-4.13914141069,-3.03397854248,-2.94543050992,-4.6177334341,-2.3380673849,-2.96007652882,-2.33621901016,14.1382217213
off_to_on,-3.74876660171,-5.17416575049,-5.20698716172,-4.59218681042,-4.38770512703,-5.34632084486,-3.79942447099,-2.87803342775,-3.4255374532,-3.99823911045,-2.45877796228,-2.46883106298,-2.12453729509,16.6043487054
off_to_on,-3.84433905728,-4.82365206575,-5.12084500554,-4.69528479279,-4.51426476528,-4.85959491675,-3.36384918918,-2.74619472136,-3.76572327204,-3.15589419269,-2.52498933558,-1.87163900182,-1.79734289551,19.72175057
off_to_on,-3.72914618516,-4.18489286837,-4.73423533811,-4.59686465598,-4.46588382964,-4.17797582397,-2.87603167481,-2.66367155352,-3.96765456376,-2.17764716634,-2.53896334426,-1.22074753874,-1.40212126279,23.1715713984
off_to_on,-3.42186763045,-3.33623735585,-4.08876668932,-4.34196838073,-4.22862282479,-3.35898740086,-2.37366834887,-2.63419962208,-4.0371701352,-1.16015420394,-2.49966049911,-0.570757288947,-0.99246123311,26.4892977811
off_to_on,-2.95728570283,-2.37073628067,-3.24804112287,-3.9765785428,-3.79788404783,-2.46282201117,-1.88578218625,-2.63987898182,-3.9820730905,-0.199094532022,-2.40325944986,0.0268916135989,-0.621120081687,29.1103641344
off_to_on,-2.38160475565,-1.38451397134,-2.28993137109,-3.54127540273,-3.18106709793,-1.54777042735,-1.43116301283,-2.64435771623,-3.81032863209,0.621463691922,-2.24437085823,0.529302204574,-0.332931038716,30.4297530682
off_to_on,-1.74643047083,-0.465254947887,-1.29726268857,-3.06663786764,-2.39916699597,-0.666269635595,-1.0180762858,-2.59893517358,-3.52895934469,1.23832151699,-2.01773669392,0.906651868038,-0.158564245657,29.8696514951
off_to_on,-1.10229053923,0.317668053013,-0.348171795309,-2.57092187462,-1.48694782041,0.138183860494,-0.64518340524,-2.45074671589,-3.14379560413,1.61585867763,-1.72013153338,1.14522091205,-0.110071811694,26.9487716201
off_to_on,-0.492635828354,0.920155414936,0.492553698603,-2.06018331549,-0.491494595569,0.833117278851,-0.303495617051,-2.15189060319,-2.66008171347,1.74933271625,-1.35215016052,1.24844072519,-0.178925868216,21.3470281077
off_to_on,0.0508212348255,1.32659266174,1.18000625021,-1.53063799095,0.530843174885,1.39812632762,0.0209144296507,-1.66821041818,-2.08378331615,1.66433540052,-0.919580575067,1.23573962033,-0.336924296322,12.9597547444
off_to_on,0.510783760553,1.54901482708,1.69272650924,-0.972722702586,1.51887864036,1.82493110888,0.343784615607,-0.986475956889,-1.42331299766,1.41246550725,-0.434121392633,1.13926772492,-0.539938568608,1.93642402916
off_to_on,0.884720521406,1.62249697501,2.0329063448,-0.376085600218,2.41194075444,2.11655270952,0.679486523655,-0.1189097648,-0.691308987717,1.06376542664,0.0867011769302,0.998888812011,-0.734069134519,-11.3001891646
off_to_on,1.18290133068,1.59756707285,2.22330771456,0.265378322965,3.15554973951,2.2857547446,1.03815441582,0.895641223959,0.0939205430501,0.69688934306,0.620443299567,0.856090607079,-0.863415646039,-26.0573270796
off_to_on,1.42448154689,1.53083673565,2.30144407462,0.949306701588,3.7067257169,2.35290812447,1.42342508257,1.99413707731,0.907634222333,0.388266876526,1.14138424026,0.747644612655,-0.878415355311,-41.3996914633
off_to_on,1.63229587853,1.47526682516,2.31195275193,1.6621719241,4.03824634339,2.34343856512,1.83101533258,3.09513733416,1.71882377598,0.201658470664,1.62269290375,0.699911985901,-0.743592210443,-56.2011747933
off_to_on,1.82721848848,1.47149989386,2.29833047323,2.37855911458,4.14126962544,2.28501392552,2.24826720058,4.10725305067,2.49141796423,0.179449800123,2.03883689495,0.724629779418,-0.443610345667,-69.2193557985
off_to_on,2.0230142481,1.54150134459,2.29527643375,3.06255724552,4.02592527872,2.20463009313,2.65468766586,4.93919215249,3.18647086102,0.336808511203,2.3679146778,0.816826815333,0.0132655159131,-79.1893307902
off_to_on,2.22253429649,1.68538658705,2.32277918318,3.67107185845,3.71973060175,2.12576417689,3.02341134909,5.51011287832,3.76512357968,0.659457339838,2.59360299613,0.955233794174,0.594860812096,-84.931401357
off_to_on,2.41590771798,1.8818276069,2.38281242646,4.15857537696,3.26397271033,2.06578179578,3.32343110383,5.75895745729,4.19199889765,1.1053517476,2.70646920258,1.10520634078,1.24806717129,-85.4650888136
off_to_on,2.58107910535,2.09190067974,2.45911101929,4.48259734693,2.70847937668,2.03380587166,3.52237956614,5.65157728822,4.43860655132,1.61004874913,2.7044926509,1.22382078925,1.90478798404,-80.1201258294
off_to_on,2.68668284223,2.26573469599,2.52003962255,4.60915192026,2.10543548658,2.02926810939,3.58960798866,5.18476141766,4.48631607382,2.0950817975,2.5927562277,1.266481766,2.49012477004,-68.6337764564
off_to_on,2.69688149477,2.35091854495,2.52410909705,4.5173164547,1.50305549938,2.04135976617,3.49929695108,4.38669878903,4.32849761559,2.4782751427,2.38239029964,1.19414472062,2.9317574717,-51.2233690404
off_to_on,2.57748115152,2.30138242175,2.42730541399,4.20230782204,0.93996831301,2.04956449388,3.23334371767,3.31388167567,3.97153322537,2.6846882007,2.08895798029,0.980140843779,3.16929356911,-28.6235706352
off_to_on,2.30241763496,2.08541446054,2.19112812107,3.67662937068,0.441097772872,2.02538561378,2.78379803354,2.04492513146,3.43454682882,2.65680575859,1.73054605522,0.615615117776,3.16234813433,-2.07987151439
off_to_on,1.85961757773,1.69161560461,1.79012777532,2.96914557768,0.0156344914317,1.93527183374,2.15465620899,0.672169366114,2.74786935907,2.36269069727,1.32585839099,0.112749957124,2.89627215736,26.7069795226
off_to_on,1.25529254034,1.13190881462,1.21779864029,2.12223963623,-0.34258579244,1.74460549785,1.3628671253,-0.707805610566,1.95042160063,1.80107700255,0.892593208306,-0.494773112213,2.38474885148,55.6863955419
off_to_on,0.515917302718,0.441155949823,0.489913819673,1.1874769084,-0.652319353748,1.42246029697,0.438449485999,-2.00352581471,1.08633713548,1.00276654993,0.446324874847,-1.15425995366,1.66888598447,82.6087532872
off_to_on,-0.312549972545,-0.326567844813,-0.355248854905,0.220395338979,-0.940137250131,0.946682048195,-0.576334551948,-3.13667942544,0.201241172654,0.028152689347,1.48229395167e-05,-1.79923066753,0.812890883587,105.211529534
off_to_on,-1.16826937639,-1.10450898305,-1.25990233334,-0.724855055325,-1.23431297917,0.308721818499,-1.62875805742,-4.04796992834,-0.661365138901,-1.03883202515,-0.43583941624,-2.35680570225,-0.103138714433,121.42552943
off_to_on,-1.97960784435,-1.82164526568,-2.1526240044,-1.60031001308,-1.55827796626,-0.482419291644,-2.65832074909,-4.70021100593,-1.46319527206,-2.09961698046,-0.852524121393,-2.75636863933,-0.992400598591,129.581867587
off_to_on,-2.67301703016,-2.41177438665,-2.95635718596,-2.36782620354,-1.92464976803,-1.39776874615,-3.60026106254,-5.07853120819,-2.17341154616,-3.05168381134,-1.24210231836,-2.93843455982,-1.77139137172,128.598041901
off_to_on,-3.18172688976,-2.82199735547,-3.59748821961,-3.00115242188,-2.33079773957,-2.38802554302,-4.38973849662,-5.18798014658,-2.76980476557,-3.79978883734,-1.59634516869,-2.8626032831,-2.36947032687,118.121422392
off_to_on,-3.45413220214,-3.01941028853,-4.01479170333,-3.4862866223,-2.75672798358,-3.38562508009,-4.96647237567,-5.0491881815,-3.23887810818,-4.2664190328,-1.90588177339,-2.51357302567,-2.73679565011,98.6110459086
off_to_on,-3.46074949143,-2.99508333025,-4.167048412,-3.82023258115,-3.16576358232,-4.3093231826,-5.27955773996,-4.69297497944,-3.57495154852,-4.40029734883,-2.15981147879,-1.90441941512,-2.84966743963,71.3437323188
off_to_on,-3.19877399639,-2.76479845939,-4.03831674238,-4.00850609068,-3.50810595973,-5.07108557727,-5.2921181807,-4.15489417832,-3.77853741971,-4.18200446646,-2.3459411191,-1.07667676346,-2.71265674479,38.3378446083
off_to_on,-2.69355228859,-2.36648057456,-3.64015326224,-4.0619133235,-3.72694117126,-5.58474454119,-4.98540828577,-3.47063081108,-3.85432921754,-3.62613687615,-2.4516945873,-0.0971490777562,-2.35731836414,2.19680231285
off_to_on,-1.99666942757,-1.85472148345,-3.01048642735,-3.99320837876,-3.76636032125,-5.77559017123,-4.3619558209,-2.67294961266,-3.8091814836,-2.77982928455,-2.46561204308,0.948223748735,-1.83772046096,-34.1162406522
off_to_on,-1.18078033031,-1.29319795718,-2.20929265919,-3.81422215284,-3.58005415612,-5.58984438067,-3.44734660983,-1.79056352419,-3.65043427133,-1.71788183971,-2.37923248805,1.9627651344,-1.22341827419,-67.5524476703
off_to_on,-0.331736801815,-0.746066821421,-1.31164441503,-3.53394524651,-3.13956641664,-5.00286023523,-2.29031186439,-0.848907582324,-3.38485621199,-0.535100624207,-2.18905772448,2.84878149764,-0.590801556554,-95.2730244311
off_to_on,0.461081210205,-0.269544207396,-0.39903865946,-3.15786287754,-2.44087991765,-4.02492438877,-0.960882669273,0.127572268985,-3.01835886168,0.663257615438,-1.89824559588,3.51751243515,-0.0139189799658,-114.935358988
do_nothing,1.11507642534,0.0951721580363,0.449873520931,-2.68861035433,-1.50827250606,-2.7037257739,0.453472465327,1.11231037841,-2.55649142105,1.77187670926,-1.51768699496,3.89821182337,0.444090748841,-124.937587111
do_nothing,1.56413292363,0.326689261138,1.16797613597,-2.12778074056,-0.394701617894,-1.12287879619,1.853622697,2.0735690227,-2.00558192768,2.69550620804,-1.06618685334,3.94538319156,0.737949861014,-124.592657593
do_nothing,1.7665065657,0.425305091357,1.70671520021,-1.47850976484,0.821582377002,0.603676871064,3.13614905113,2.97234474777,-1.37427121694,3.35779953197,-0.569587208088,3.64342785755,0.844805503784,-114.209690094
do_nothing,1.70992067737,0.411804502142,2.04062258098,-0.748319526664,2.04398943573,2.34108379436,4.20179638413,3.76199775845,-0.675108208318,3.70803126454,-0.0588247434694,3.00827761741,0.765966168434,-95.0701681623
do_nothing,1.41321543504,0.323410050836,2.16884231786,0.0483552898361,3.16740572072,3.9459721122,4.96430148629,4.39008509579,0.0741483083685,3.72512389655,0.432916441571,2.08593254361,0.525737845545,-69.2982454148
do_nothing,0.924316980944,0.207524650818,2.11356787058,0.888498090931,4.08974355825,5.28062575439,5.35876955357,4.80249107968,0.84984138467,3.4187201517,0.873639514967,0.948163548737,0.167644229388,-39.6368045743
do_nothing,0.314739690073,0.114195636624,1.91570258774,1.74011145602,4.72380903417,6.22737210116,5.34872264808,4.94951750882,1.62257322896,2.82734730473,1.2361203229,-0.31407246788,-0.251384466171,-9.15238833592
do_nothing,-0.32874411717,0.0883850199735,1.62840606532,2.56330684983,5.00796439544,6.70153207786,4.93098914422,4.79319038302,2.35831261025,2.01400044162,1.5011456324,-1.59875184461,-0.668061832648,19.0987506933
do_nothing,-0.914290810158,0.16312990413,1.30944043839,3.31286677249,4.91415865722,6.66134460232,4.13774883112,4.31472705667,3.02040895697,1.05969515112,1.65991655623,-2.8015812452,-1.02014840504,42.4056909011
do_nothing,-1.35583113404,0.354524491036,1.01335234111,3.94202595485,4.45219232855,6.11356074894,3.03528838143,3.52094353995,3.57232425375,0.0556889768646,1.71521419516,-3.82461830899,-1.25334504042,58.7000546546
do_nothing,-1.58330346553,0.659176597414,0.784506253635,4.40701498403,3.66953728097,5.11386381892,1.71933754811,2.44840120525,3.98077305555,-0.904861969529,1.68107550964,-4.58395888282,-1.32694337314,66.7800583954
do_nothing,-1.55108312186,1.05443004473,0.651830947409,4.67177208414,2.64659340567,3.76186135338,0.307217283588,1.16430376771,4.21888353823,-1.73505643329,1.58092612086,-5.01590383411,-1.21770941383,66.4340697911
do_nothing,-1.24363815897,1.50125323878,0.625878503322,4.71217828641,1.48785666613,2.19104400317,-1.07260223505,-0.236461473191,4.26897065111,-2.3615354704,1.44433642623,-5.08123091078,-0.92173053282,58.4479033946
do_nothing,-0.677776428926,1.94932983743,0.698464544188,4.51921627972,0.310018961955,0.554733000566,-2.29260661401,-1.6382369079,4.12454995542,-2.73035674645,1.30277686616,-4.76741923968,-0.454216922455,44.4938595959
do_nothing,0.0987475138182,2.34360019846,0.844806430082,4.10058776437,-0.771556089651,-0.990438942237,-3.23882964088,-2.91499795225,3.79131254952,-2.81106762879,1.18491607907,-4.08887552882,0.152519643254,26.9138310777
do_nothing,1.01207418697,2.63133021048,1.02775176323,3.48052857934,-1.65629574663,-2.3016205197,-3.82262558729,-3.94324231807,3.28691440207,-2.59875917951,1.11210524493,-3.08536849578,0.852512584764,8.42188621173
do_nothing,1.96994761331,2.76874730435,1.20343541693,2.69780519578,-2.27011029192,-3.26539390413,-3.99032332661,-4.61592474632,2.63958812156,-2.11404795524,1.09470501202,-1.81897812635,1.5905157307,-8.23807770247
do_nothing,2.87139602696,2.72638198847,1.32755070404,1.80212440406,-2.57380867215,-3.81009886575,-3.72962353915,-4.8557321358,1.88573916081,-1.40108003911,1.12983156769,-0.369906957444,2.30678850145,-20.6380731307
do_nothing,3.61729105421,2.4924677752,1.3613850747,0.849403711666,-2.56713696089,-3.91330972611,-3.07190034613,-4.62594802364,1.06681934148,-0.523775068781,1.20093227885,1.1685098944,2.94182147019,-26.9727324198
do_nothing,4.12062479903,2.07404750964,1.27685171219,-0.10349837123,-2.28789594674,-3.60351370718,-2.08998226599,-3.93734592715,0.225859554057,0.439375125721,1.27936818032,2.69530424582,3.4406334271,-26.2889456859
do_nothing,4.31541287239,1.49576423458,1.05992828646,-1.00392719072,-1.80623026097,-2.95573898593,-0.891471604731,-2.84996363718,-0.595921977029,1.40156721543,1.32791010304,4.10765084023,3.75639900003,-18.6095487408
do_nothing,4.16332152987,0.796630923582,0.712162655129,-1.80781605138,-1.21481260881,-2.08162561105,0.391837590659,-1.46919928124,-1.36204375717,2.27457145001,1.30578361925,5.30673814923,3.85329480094,-4.93505102899
do_nothing,3.65740071837,0.0253308038716,0.250184088072,-2.48279248313,-0.616188381028,-1.11512761304,1.61742376757,0.0636369380147,-2.04290405189,2.97577692295,1.17466308379,6.20357971568,3.70855879541,12.877610858
do_nothing,2.82264400121,-0.765235835662,-0.296573020365,-3.0096798505,-0.108924891218,-0.195589887402,2.64700420545,1.5854724744,-2.61695035184,3.43492159276,0.904851047156,6.72460601649,3.31382587537,32.3450496632
do_nothing,1.71344832992,-1.52339073972,-0.889505002503,-3.38230047795,0.225626321434,0.549714913508,3.36140769737,2.92884947193,-3.07082718294,3.60003884452,0.480811795444,6.81683816111,2.67582559942,50.6682860776
do_nothing,0.408369638003,-2.20339759302,-1.48526099876,-3.60572750349,0.334219754002,1.02142317822,3.67371843926,3.94058713605,-3.39860047568,3.44218054319,-0.09473013198,6.45238299112,1.81650902965,65.0864199956
do_nothing,-0.997171492942,-2.76891910668,-2.04032388434,-3.69334628302,0.198828263832,1.16031769905,3.53920377505,4.49954966313,-3.60028313209,2.9585294574,-0.798765410455,5.6319219985,0.772622849942,73.2295151702
do_nothing,-2.39941182344,-3.19489860864,-2.51516150664,-3.66324139731,-0.160958844617,0.954437904902,2.96086192038,4.53136982544,-3.67997451571,2.17359538703,-1.58844646561,4.38681626104,-0.405310865849,73.4269821525
do_nothing,-3.69510778839,-3.46781526498,-2.87747931262,-3.53450028934,-0.690568980653,0.44017776522,1.98989182962,4.01827925337,-3.64396389873,1.13830136078,-2.40409798271,2.77943900316,-1.65470061285,64.9330797419
do_nothing,-4.78988796386,-3.5845130426,-3.10428243082,-3.32400964904,-1.30776558163,-0.302755716572,0.720944666954,3.00273649725,-3.49912983151,-0.0730923988071,-3.17455651289,0.901394927364,-2.9033887946,48.0412862762
do_nothing,-5.6053714008,-3.5500054408,-3.18265900164,-3.04421975925,-1.91369173373,-1.16187393941,-0.717398757795,1.58425948501,-3.25189780631,-1.36811424666,-3.82429579866,-1.1305986884,-4.0730412094,24.0729525918
do_nothing,-6.08451917333,-3.37478176734,-3.10939410635,-2.70218180026,-2.4061869729,-2.00658375347,-2.17593614224,-0.0903272436728,-2.90790911428,-2.64296671981,-4.28154654986,-3.18121102413,-5.08344037706,-4.75887740257
do_nothing,-6.19491455729,-3.07217051874,-2.8896849061,-2.29995038896,-2.69362928145,-2.70514262601,-3.50051057094,-1.84222789137,-2.47242204707,-3.79070752053,-4.48646622977,-5.10518189872,-5.85758624614,-35.5942498262
do_nothing,-5.92990081893,-2.65625076291,-2.53532972211,-1.83622120447,-2.70748886695,-3.14174065889,-4.54832974925,-3.47990930272,-1.95133340923,-4.71010840267,-4.39837810486,-6.75773054434,-6.32736549933,-65.2501717558
do_nothing,-5.30771621282,-2.14065775768,-2.06279439856,-1.30887523286,-2.41195416595,-3.23155036823,-5.20314549783,-4.82006485313,-1.35259456904,-5.31446267794,-4.00118636826,-8.00596799299,-6.43940280329,-90.5844792386
do_nothing,-4.36893113376,-1.53843105912,-1.49151800152,-0.71795668231,-1.80937941386,-2.93185370151,-5.38762146405,-5.70791374392,-0.687719739298,-5.5395594018,-3.30627627203,-8.7403749021,-6.16058071929,-108.855926536
do_nothing,-3.17259868683,-0.862836522512,-0.842717911523,-0.0685422306799,-0.940854161793,-2.24786500051,-5.07153017339,-6.03450275855,0.0269432085402,-5.3500621148,-2.35250036774,-8.88526949017,-5.48263611237,-118.037475449
do_nothing,-1.79157312871,-0.128894489928,-0.138812269609,0.627025344368,0.118165945371,-1.23255141213,-4.27489084744,-5.74901986177,0.769482975726,-4.7436284577,-1.20319754316,-8.40716287295,-4.42523137433,-117.045814524
do_nothing,-0.307435834152,0.644801909847,0.596578007955,1.34796912575,1.26658639635,0.0194809335805,-3.06573179252,-4.86470989194,1.51246392464,-3.75228126106,0.0594533433792,-7.31999902451,-3.03697125344,-105.860672259
do_nothing,1.19459166212,1.43446778105,1.33822689969,2.06524244795,2.38961936021,1.38321583251,-1.55276811139,-3.45773021746,2.22384786423,-2.44077944349,1.34212414301,-5.6865055128,-1.39399144233,-85.5211348678
do_nothing,2.63045587155,2.21018268387,2.05878218977,2.7430884794,3.37240441975,2.71811421022,0.126144688278,-1.65910648207,2.86877746326,-0.902016919276,2.54920863562,-3.61522331221,0.404028608925,-58.001190487
do_nothing,3.92160559824,2.93599964666,2.72845239393,3.34184381759,4.11356482096,3.88475985679,1.81845503485,0.359255147614,3.41206482993,0.750228546181,3.59187517571,-1.25320704002,2.24030271322,-25.9812034918
do_nothing,4.99874448166,3.57131718355,3.31520843296,3.82164334594,4.53699303144,4.76117075079,3.37262437935,2.40286876704,3.82111345866,2.39059906297,4.39629032016,1.22515471601,3.98941105779,7.45582123592
do_nothing,5.80495926242,4.07351468412,3.78572425824,4.14654291869,4.60041490813,5.25676131578,4.65335414341,4.27518013779,4.0689239906,3.89269015341,4.91011605657,3.63230924421,5.52713104151,39.1659628491
do_nothing,6.29821695057,4.40163247366,4.10714881903,4.28850723313,4.29972182916,5.32227639381,5.55467452313,5.79797010745,4.13680595455,5.13984410163,5.10660487549,5.78344286856,6.74074293969,66.2832691633
do_nothing,6.45323017886,4.52068427736,4.24964213929,4.23072218425,3.6686232277,4.9545623623,6.00952089385,6.8293921703,4.01644334924,6.03518385534,4.98591728618,7.51261497623,7.53881397613,86.5164551947
do_nothing,6.26267266706,4.40605257712,4.18944718217,3.96978151718,2.77378122926,4.19571987333,5.994859499,7.27771057786,3.71103806064,6.50992592384,4.57362575243,8.68753220748,7.85946209211,98.3703249945
do_nothing,5.73769699228,4.04735865625,3.91213367068,3.51645246366,1.70616300194,3.12690488797,5.53195930438,7.10934779034,3.23537068887,6.52917192972,3.91670323647,9.22145886191,7.67621585345,101.268940472
do_nothing,4.90767840403,3.45122930288,3.41556361351,2.89492065895,0.569809854835,1.8577146869,4.68197517967,6.35053944183,2.61475662536,6.0946272667,3.07758089776,9.08101795131,7.0008103454,95.5701548627
do_nothing,3.81909475435,2.64249813655,2.7121072404,2.14062167018,-0.53048363678,0.512626796262,3.5375398548,5.08264420429,1.88301618094,5.24400494868,2.12706249374,8.28904252897,5.88256678373,82.4745483124
do_nothing,2.53346445135,1.66356548463,1.82968886286,1.29695439441,-1.50099682019,-0.78371510518,2.21149503378,3.43187309784,1.07970099974,4.04720875653,1.13697899664,6.92214531486,4.40436040441,63.8443413158
do_nothing,1.12430746617,0.571870518037,0.811360439038,0.411313252556,-2.26895278946,-1.92049089603,0.82417579908,1.55480295926,0.246907464063,2.59971423883,0.173446985988,5.1032288435,2.67554433269,41.9579798594
do_nothing,-0.326831656687,-0.564329490305,-0.286728390997,-0.469048232313,-2.78927559827,-2.81225584682,-0.509233308085,-0.378545655375,-0.573950791843,1.01384224935,-0.708534706531,2.9896942967,0.822522434363,19.2326078622
do_nothing,-1.73516211606,-1.67145927578,-1.39889425879,-1.30080972612,-3.04752982646,-3.40672356558,-1.68983474359,-2.20209727715,-1.34504979872,-0.591183424609,-1.46863263343,0.758562052919,-1.02208810162,-2.05110532281
do_nothing,-3.0179809756,-2.67682573565,-2.45474571724,-2.04759284612,-3.05886497986,-3.68799287096,-2.64346451053,-3.76965934504,-2.03444014551,-2.09940639748,-2.08262573994,-1.40996275224,-2.73062347466,-19.9894326261
do_nothing,-4.10021408252,-3.51484820641,-3.38482218714,-2.6818808629,-2.86331895264,-3.67505919691,-3.32565340903,-4.96776491781,-2.61750780523,-3.40756103035,-2.5417960917,-3.34879817084,-4.19077182479,-33.2350266803
do_nothing,-4.91973444939,-4.13264495351,-4.12647360424,-3.18571639058,-2.51829926969,-3.41607626089,-3.72277546477,-5.72422809241,-3.07753209341,-4.43289177683,-2.85057381152,-4.91852589998,-5.31421383095,-41.0979853834
do_nothing,-5.43198781537,-4.49438354051,-4.62935411478,-3.55022825996,-2.08939781653,-2.97937233254,-3.84954307485,-6.01178616195,-3.4053902563,-5.11871740855,-3.02295449528,-6.01874608524,-6.04273201458,-43.561862083
do_nothing,-5.61346543298,-4.58395692645,-4.85992782266,-3.77420622377,-1.64086316543,-2.44260776502,-3.74345230662,-5.84680787854,-3.59857242186,-5.43735562058,-3.0783308704,-6.59520504915,-6.35131183389,-41.2188265966
do_nothing,-5.46363112435,-4.4057512484,-4.80448564242,-3.86206787885,-1.2270375232,-1.8816400116,-3.45712747912,-5.28361541104,-3.65975425982,-5.39031717036,-3.03740642709,-6.64213843175,-6.24809582492,-35.1379018412
do_nothing,-5.00503090146,-3.9834964806,-4.47033692648,-3.82162818506,-0.885871649357,-1.36062170862,-3.04972084881,-4.4054311634,-3.59521613951,-5.0059636852,-2.91878812826,-6.19980429335,-5.77138962075,-26.6875676256
do_nothing,-4.28147856114,-3.35740697689,-3.88504622936,-3.6620798432,-0.635293501817,-0.924609816763,-2.57856932752,-3.31326887703,-3.41339198076,-4.33506654531,-2.73670266958,-5.34769729642,-4.98421496104,-17.3382251089
do_nothing,-3.35440229851,-2.57999748591,-3.09380730277,-3.3925249718,-0.472776122644,-0.59555059737,-2.09219570034,-2.11421324,-3.12378081537,-3.44487963867,-2.50007188373,-4.19437597504,-3.96712611244,-8.47069666339
do_nothing,-2.29763330634,-1.71108039608,-2.15525442154,-3.02127762262,-0.37798961526,-0.371989308781,-1.62548792874,-0.910470415058,-2.73636858687,-2.41243013756,-2.21295072811,-2.86515114194,-2.81013005708,-1.21422183433
do_nothing,-1.19109330712,-0.812499920604,-1.13617896794,-2.55600342903,-0.317995311932,-0.232310222448,-1.19753585261,0.209655575903,-2.26160148287,-1.31773433169,-1.87611110213,-1.48904245503,-1.60456880841,3.66813432328
do_nothing,-0.113971025018,0.0568625244825,-0.10572633352,-2.0046025733,-0.254104898431,-0.140818719081,-0.812201316117,1.17805778952,-1.71084266015,-0.237567292598,-1.4893788747,-0.186400409433,-0.43574007319,5.83621359729
do_nothing,0.861950764289,0.845361389539,0.870317243791,-1.37660147563,-0.149326367773,-0.05560047483,-0.461102056097,1.95001191062,-1.09714935265,0.759726774914,-1.05422483752,0.941577739211,0.62313116973,5.36947921303
do_nothing,1.67815712932,1.51181730204,1.73457811678,-0.684719931804,0.0247247057907,0.0631176733337,-0.128355792843,2.50430348918,-0.436142280249,1.61807752047,-0.576086768561,1.82050829348,1.51517457238,2.70951558928
do_nothing,2.2938677461,2.02753557828,2.44202516481,0.0537603106321,0.282455328611,0.245400273246,0.203796651013,2.84073171387,0.25328564041,2.29607060485,-0.0659605945685,2.40711251402,2.20225127389,-1.43927945969
do_nothing,2.68866902286,2.37709550824,2.96246791817,0.816175893154,0.621221736375,0.505956453735,0.549462755966,2.97571284004,0.948655124872,2.76793038556,0.459067665536,2.69001216188,2.66549115895,-6.23393673089
do_nothing,2.86306894459,2.55802293145,3.28149684628,1.57447729189,1.02095826426,0.841215319485,0.914585223189,2.93686767675,1.62415458829,3.02330130074,0.976493077317,2.6873003541,2.9042384918,-10.8233328783
do_nothing,2.83695835562,2.57955139986,3.39992377146,2.29617441737,1.44651872334,1.2294928829,1.29417848681,2.75749976719,2.25154459033,3.06610956168,1.46020427784,2.44148914874,2.93377531865,-14.4667830568
do_nothing,2.64619140021,2.46072502782,3.33194208905,2.94621034541,1.85235511055,1.63414631333,1.67175687301,2.47176199431,2.8016863516,2.9128117465,1.88318068408,2.0126618874,2.78224376694,-16.6259152958
do_nothing,2.33770201217,2.22809952764,3.10234644065,3.48958335148,2.18883591216,2.00916582657,2.02104292231,2.1110950791,3.2465599224,2.59030812426,2.22066419012,1.47076168536,2.48717345927,-17.0197913179
do_nothing,1.9637281448,1.91326510217,2.74321724724,3.89440427992,2.40928909789,2.30630094016,2.30968123256,1.70224092591,3.56154702407,2.13372926,2.45330633003,0.887925859945,2.09195205552,-15.6390591147
do_nothing,1.57580243335,1.55035955252,2.29048304901,4.13498940171,2.47676980037,2.48260520224,2.50436330233,1.26683332561,3.72769512913,1.58421382829,2.56978170925,0.331644887279,1.64247621678,-12.7208427373
do_nothing,1.21917724227,1.1736785217,1.78072744871,4.19456270897,2.36960732979,2.5072396593,2.57653882421,0.822294795517,3.73366263684,0.986705247532,2.56842877893,-0.140687098844,1.18411127629,-8.69128340351
do_nothing,0.928283369855,0.815437918741,1.24851951288,4.06718100601,2.08496894373,2.36650320698,2.50778244752,0.383561638189,3.57707326598,0.387725081232,2.45761942694,-0.485517165014,0.758993878325,-4.08649218672
do_nothing,0.723684573109,0.503713187052,0.724433791966,3.75859486538,1.63995997484,2.06633575024,2.29391841869,-0.0349518693694,3.26507735551,-0.166952349361,2.25474848346,-0.675116177677,0.403651027475,0.535254522963
do_nothing,0.610802441771,0.260577077393,0.233807961018,3.28590373408,1.07012028546,1.63192479254,1.94717507761,-0.417741883637,2.81401862076,-0.634789054326,1.98394471122,-0.697961309366,0.146891412959,4.67708575121
do_nothing,0.580471895185,0.100480658031,-0.203819116254,2.676032207,0.425527881746,1.1044800527,1.4959238488,-0.747445672206,2.24822223172,-0.979147288197,1.67280450162,-0.557836309861,0.00795073267376,7.97149538427
do_nothing,0.611173433499,0.0289632211541,-0.574723590007,1.96322092915,-0.234965555675,0.535660204577,0.98191364808,-1.00521710458,1.59803649207,-1.17205241209,1.34860802681,-0.272043336154,-0.0050675091129,10.2243306634
do_nothing,0.672600322536,0.0418219863562,-0.870642610264,1.1858641228,-0.850606255256,-0.0195198486814,0.455291039472,-1.17230943304,0.897358635568,-1.19687596954,1.03457052204,0.130884935909,0.10366191716,11.4303431479
do_nothing,0.730079205565,0.124905899064,-1.08822768957,0.383114900493,-1.36582645639,-0.510252627581,-0.0319555692079,-1.2326745299,0.180940788057,-1.05066345227,0.74669363386,0.613657718306,0.317141140032,11.7600034353
do_nothing,0.749286537231,0.254703902819,-1.22845108032,-0.408294627387,-1.73664895957,-0.896858697226,-0.433224045373,-1.17616251234,-0.518204629213,-0.745763369378,0.491709984555,1.13268623505,0.605835962213,11.5211424531
do_nothing,0.700697495027,0.3998654023,-1.29605516242,-1.15661313817,-1.93561580805,-1.15604752568,-0.714153056714,-1.00174541368,-1.17100307037,-0.31039510295,0.266467122291,1.64046791923,0.929019861211,11.1020550961
do_nothing,0.563266238195,0.523714636951,-1.29906941005,-1.83670749303,-1.95465544698,-1.28374629445,-0.858061975408,-0.720120354652,-1.75388679697,0.21216424847,0.0588947546866,2.08794773005,1.23733831601,10.9046605223
do_nothing,0.326955593154,0.587705298234,-1.24835916218,-2.430624067,-1.80557769124,-1.29507974139,-0.869091096006,-0.355084937267,-2.24959789505,0.765985590145,-0.149530221847,2.42698308002,1.47663586304,11.2770167649
do_nothing,-0.00610732648371,0.555619677878,-1.15712831011,-2.92709157803,-1.51819091737,-1.2214986691,-0.772446999096,0.0567819276884,-2.64720213662,1.2865310256,-0.380130385246,2.61305145947,1.59292053993,12.4539781402
do_nothing,-0.421897396936,0.398168110883,-1.04028323911,-3.32015022606,-1.13633064597,-1.10546884891,-0.611545398638,0.468374513914,-2.94140400824,1.70617209636,-0.652682017798,2.60828639375,1.53814729253,14.5132597964
do_nothing,-0.896057719669,0.0975143161877,-0.913581394824,-3.6072289586,-0.712335912399,-0.99348666689,-0.442277962713,0.826209970281,-3.13134986265,1.96079893546,-0.980994148422,2.38481619059,1.27631300543,17.351938794
do_nothing,-1.39650112452,-0.348833922526,-0.792531934091,-3.78707764616,-0.300680327536,-0.928432908451,-0.325051437329,1.07613688332,-3.21917149729,1.99693173434,-1.36906733916,1.92823173405,0.789204069166,20.68582787
do_nothing,-1.88668291185,-0.925349373553,-0.691079587243,-3.85797993485,0.048459317804,-0.942377357539,-0.315597843267,1.16999775064,-3.20854704419,1.77859115413,-1.80843390456,1.24085416112,0.0810541171642,24.0715498679
do_nothing,-2.32913456018,-1.59754554093,-0.62017339472,-3.8166216949,0.294937393745,-1.05089068172,-0.455782395565,1.0724396537,-3.10353667903,1.29310777034,-2.27714236993,0.344344592213,-0.818620977043,26.9488042525
do_nothing,-2.68885695568,-2.31314846539,-0.586384696815,-3.65787626265,0.413031657437,-1.24971484243,-0.765705043454,0.766966657045,-2.90789087992,0.555072381979,-2.74064165398,-0.718871509003,-1.85462891755,28.6984511729
do_nothing,-2.93623001823,-3.00553744271,-0.590779605998,-3.37560792973,0.394034608402,-1.51431818599,-1.23828645754,0.260346000366,-2.62493852142,-0.392242955402,-3.15457154553,-1.8858784639,-2.94854760893,28.7107439344
do_nothing,-3.04919142786,-3.59934059683,-0.628259338412,-2.96441365863,0.246816265731,-1.80246201997,-1.83725726947,-0.415378393189,-2.25805537013,-1.4784351161,-3.46920841358,-3.07564542743,-4.00410920807,26.4573286334
do_nothing,-3.01455415671,-4.01777966264,-0.687551662449,-2.42204794042,-0.00362446938028,-2.05948732609,-2.49906046649,-1.2037601116,-1.81160739639,-2.610625307,-3.63508322879,-4.19370073022,-4.9152621341,21.5604453082
do_nothing,-2.82845254149,-4.19108547335,-0.751969276084,-1.7521348161,-0.319374483559,-2.22565085766,-3.1386804311,-2.02787381424,-1.29217443511,-3.68099889378,-3.60911431167,-5.13902573782,-5.57628633277,13.8530194175
do_nothing,-2.49601245501,-4.06509176181,-0.800953749853,-0.966687513469,-0.654156347183,-2.24455090593,-3.65889081769,-2.7970744854,-0.709802131497,-4.57664895649,-3.36050388397,-5.81277001436,-5.89301190007,3.42393517374
do_nothing,-2.03041888606,-3.60899569395,-0.812310076631,-0.0879448781004,-0.958658802984,-2.07152331522,-3.96193520163,-3.4160081749,-0.0790129806294,-5.19082335756,-2.87564905036,-6.128075019,-5.79395415143,-9.3563340792
do_nothing,-1.45159528759,-2.82127464005,-0.764923935037,0.850900819179,-1.18604066269,-1.68087872175,-3.96228362068,-3.79497201275,0.580666424332,-5.43443935169,-2.16141544283,-6.02003135601,-5.24006951304,-23.8334300668
do_nothing,-0.784711030883,-1.73288100225,-0.641659731422,1.80637508917,-1.2970197849,-1.07099280011,-3.5988970662,-3.86049835566,1.24483878746,-5.24661320556,-1.24630401074,-5.45463041029,-4.23188210304,-39.0924555379
do_nothing,-0.058700131937,-0.407094080367,-0.432078804652,2.72689484011,-1.26404055257,-0.266532618664,-2.84541373403,-3.56494190949,1.88511104629,-4.60297728596,-0.179285852768,-4.43554072393,-2.81293757955,-54.0076154129
do_nothing,0.695084602264,1.06423407655,-0.134605826381,3.55633465658,-1.07414267964,0.682533035524,-1.71685443526,-2.89389644242,2.47068027818,-3.52072930467,0.973644035203,-3.00766227496,-1.06889463973,-67.3168761603
do_nothing,1.44402974903,2.56788268184,0.242187247561,4.2386670514,-0.730311985867,1.70508221457,-0.271813223599,-1.87045873766,2.97048984641,-2.05966532427,2.13487037302,-1.25668718379,0.877969254216,-77.7181928915
do_nothing,2.15524984339,3.9793300875,0.679418754507,4.72318373532,-0.251259578282,2.71569025319,1.39038797537,-0.555673546022,3.35572288883,-0.318859672101,3.22195939184,0.695699184738,2.87853465299,-83.9815371653
do_nothing,2.79647972555,5.17471435041,1.14896389464,4.96969155412,0.33026915279,3.62338639997,3.13750562208,0.955099437226,3.60234010051,1.57087342426,4.15513097156,2.70084987375,4.77007203694,-85.0686796082
do_nothing,3.3369739531,6.04342754068,1.61570281115,4.95304224878,0.970425236761,4.34128603826,4.81645927449,2.53970290357,3.69334987368,3.4581237979,4.86459218385,4.59577177074,6.39164651468,-80.2506972433
do_nothing,3.74851554256,6.49993729217,2.04074540823,4.66640676226,1.6181027726,4.79596498079,6.26846968028,4.05994410781,3.62052432042,5.18459504154,5.29693933206,6.21819116915,7.60008833107,-69.2117956362
do_nothing,4.00660444951,6.49344834738,2.38529075111,4.12283756458,2.21932464032,4.93548179523,7.34561638544,5.37457592955,3.38534099387,6.60001644006,5.41994595776,7.42255497961,8.28477564132,-52.1275808047
do_nothing,4.09183925647,6.01420887545,2.61468166052,3.35486002916,2.72177649429,4.73512776616,7.92695978916,6.35319002067,2.99902765768,7.57671554218,5.22524442095,8.09523320807,8.37953463074,-29.7066607161
do_nothing,3.99143395544,5.09561474099,2.70217320253,2.41207062109,3.07911857099,4.20026674585,7.93237020669,6.88957471556,2.48170204935,8.02230288636,4.72865416869,8.16716860035,7.87022801292,-3.18657220969
do_nothing,3.70073893607,3.81173211958,2.63195488833,1.35696416967,3.25475169295,3.36598048766,7.33242744684,6.91310888764,1.8607136055,7.88909029907,3.96817976125,7.62241499435,6.79705199092,25.7214700579
do_nothing,3.22457559163,2.27039032597,2.40104944162,0.25943204937,3.22477853936,2.293613093,6.15317544762,6.39694090428,1.16839298506,7.17919520703,2.99996270931,6.50140462234,5.25114539398,54.9398004636
do_nothing,2.57816007611,0.602527449565,2.01984601048,-0.809461843147,2.97997550171,1.06466346307,4.4750893059,5.36202124474,0.439483893399,5.94474003366,1.89269157422,4.89834681876,3.3657654399,82.1787759259
do_nothing,1.78739276099,-1.05106580875,1.51119512951,-1.78373203825,2.52666743674,-0.227235652179,2.42626893479,3.87648376014,-0.291439249296,4.28308657834,0.72112875534,2.95282345208,1.30292404875,105.127983722
do_nothing,0.888329633841,-2.55412442254,0.908173794087,-2.60805413279,1.88647254992,-1.48532208517,0.170535914145,2.05035707974,-0.992278275854,2.32758904622,-0.44051697761,0.836330992505,-0.763072698236,121.668324541
do_nothing,-0.0742720697921,-3.78876980644,0.250796894969,-3.24207207979,1.09495466237,-2.6186883764,-2.10830206929,0.0260803983917,-1.63520743042,0.23484236856,-1.52466189752,-1.26485979162,-2.66335200488,130.084939643
do_nothing,-1.04933763717,-4.66725232382,-0.417917282732,-3.66298721652,0.199283937637,-3.55028900656,-4.22431269319,-2.03425784857,-2.19780845659,-1.83021376468,-2.47525516927,-3.16867854711,-4.25146483857,129.258637155
do_nothing,-1.98267289969,-5.14021207384,-1.05604311119,-3.86620378145,-0.744935723743,-4.2231708054,-6.00747710301,-3.96369322915,-2.66349719772,-3.70974593783,-3.25108675033,-4.71594881256,-5.41770158317,118.813540824
do_nothing,-2.82074430971,-5.20050404534,-1.62650966,-3.86404747518,-1.67746448023,-4.60436818766,-7.31994114368,-5.60569413606,-3.02129891295,-5.26739746498,-3.82727454632,-5.78666684804,-6.09909775575,99.2014057609
do_nothing,-3.51471084263,-4.88216665768,-2.10008897752,-3.68280731055,-2.53759983746,-4.68619768897,-8.06873175406,-6.82847676199,-3.26512004198,-6.40008404985,-4.19494136509,-6.31197449497,-6.28400089972,71.7083697451
do_nothing,-4.02431398368,-4.25470326872,-2.45728563562,-3.3585459399,-3.26844476211,-4.48499227751,-8.21360890794,-7.53690644655,-3.39272714653,-7.04603240392,-4.35930953597,-6.28041361452,-6.01071971781,38.3774371328
do_nothing,-4.32121448502,-3.41342008055,-2.68895982224,-2.93225502947,-3.82097276183,-4.03759769307,-7.76929296282,-7.68082444956,-3.40467022419,-7.18832406462,-4.336617395,-5.73771126007,-5.36049104018,1.84899689405
do_nothing,-4.39139841822,-2.4670476776,-2.79569347793,-2.4449844059,-4.15759235261,-3.39617850517,-6.80195801206,-7.2590173082,-3.30337432392,-6.8537295466,-4.15037639189,-4.78011022647,-4.44569056895,-34.8688333087
do_nothing,-4.23635882521,-1.52420448714,-2.78608076114,-1.93354209276,-4.25493449821,-2.62202754631,-5.42053459537,-6.31850063915,-3.09257340246,-6.10715577819,-3.82752824566,-3.54203496039,-3.39479236167,-68.6794107005
do_nothing,-3.87288452172,-0.680395081368,-2.67426596785,-1.42725397469,-4.10563081645,-1.77912698713,-3.76394128561,-4.9492702154,-2.7771823612,-5.04251760677,-3.39502626521,-2.17957069768,-2.33597546646,-96.6986663012
do_nothing,-3.33143982653,-0.00715578761459,-2.47714383085,-0.946103950558,-3.71891759298,-0.928172669005,-1.98579606518,-3.27512822816,-2.3636102192,-3.77122378496,-2.87726155559,-0.851746120872,-1.38143245885,-116.546238489
do_nothing,-2.65327947172,0.455326315772,-2.21166615291,-0.500372975491,-3.11998807096,-0.121656604994,-0.238395746467,-1.44157378787,-1.86042470484,-2.40969504417,-2.29459993849,0.298120214026,-0.614332044207,-126.594110613
do_nothing,-1.8865912472,0.701251202392,-1.89266149808,-0.0916872135499,-2.34811714652,0.599574067725,1.34222946935,0.397984722783,-1.27920136675,-1.06738189563,-1.6631119034,1.15875887001,-0.0800375735307,-126.143406304
do_nothing,-1.08207561455,0.757598290573,-1.53147743481,0.2847996855,-1.45368972925,1.20807405035,2.64857574437,2.09630704124,-0.635341326822,0.163379554675,-0.995391771545,1.66301346355,0.217371507845,-115.506876417
do_nothing,-0.288440840841,0.678176672175,-1.1356126879,0.637502926896,-0.494365861213,1.68988176251,3.61001120209,3.52531607576,0.0513707000204,1.21462384148,-0.302199117421,1.79420565106,0.312917548502,-95.9845467247
do_nothing,0.451695719865,0.534200822062,-0.709341205234,0.975267605606,0.469299263628,2.0431312041,4.19649421601,4.58679495151,0.756669958594,2.04648164748,0.405462781369,1.58609336284,0.27325981729,-69.7319170587
do_nothing,1.10505728749,0.40270883603,-0.255166671181,1.30448213543,1.37840464155,2.27555240205,4.41753205882,5.21984500562,1.45231661149,2.64720313076,1.11427480939,1.11651954064,0.185011826715,-39.5326308155
do_nothing,1.64976766344,0.354415492048,0.22419083902,1.62686478634,2.18002453437,2.40131503203,4.31681978117,5.40452272207,2.10725360819,3.02978126168,1.80697066212,0.495639980318,0.140454890901,-8.49914219838
do_nothing,2.07602553244,0.442657068301,0.723663813179,1.93822114647,2.83092192679,2.43770139193,3.96349182608,5.16147572414,2.68936766338,3.22589235049,2.46150727785,-0.149704994792,0.222600911029,20.2658843452
do_nothing,2.3853658243,0.694930110325,1.23397801317,2.22831166343,3.3003332156,2.40206357981,3.44127327492,4.54779922301,3.16770475282,3.27817518638,3.05127114408,-0.693436381195,0.491640957366,44.0091432752
do_nothing,2.58865277285,1.10817244952,1.74044394561,2.48179842414,3.57159586451,2.30943445565,2.83699460286,3.64969321814,3.51491055571,3.23202718416,3.54639252819,-1.02725041578,0.97463225015,60.627832943
do_nothing,2.70310252329,1.64842843587,2.22268074853,2.68008403243,3.64250851664,2.17103749052,2.22991832473,2.5727825779,3.70961585924,3.12808935539,3.91606543814,-1.07503014483,1.65984747104,68.8966533674
do_nothing,2.74874833471,2.25494864242,2.65541102502,2.80373480329,3.5244424295,1.99379524198,1.68312825621,1.4311424826,3.73847536199,2.996427619,4.13160913259,-0.80284187677,2.49659211501,68.5930636971
do_nothing,2.74482411207,2.84817585496,3.01029762456,2.83511131697,3.24034903568,1.78078938129,1.23788593139,0.336138465549,3.59759808239,2.85312282046,4.16987998179,-0.223292354556,3.40056829167,60.5049163205
do_nothing,2.7065444419,3.34054371098,3.2586266007,2.76081921259,2.82191608667,1.53249514758,0.91141582147,-0.613855904629,3.29317505701,2.6995998701,4.01656838755,0.606235923931,4.2641223808,46.3185124409
do_nothing,2.6427014775,3.64863210432,3.37449977438,2.57364043287,2.30620156518,1.24851479875,0.698103963992,-1.34194736958,2.84120594216,2.52461263582,3.66890512892,1.59115709801,4.97005702211,28.3995862728
do_nothing,2.55438858439,3.70503569114,3.33810701306,2.27369993822,1.73211166751,0.929478352017,0.57364808938,-1.79872633894,2.26633700361,2.30841396677,3.13735718571,2.61200084891,5.40720233883,9.49292593708
do_nothing,2.43501190892,3.46833393012,3.1386170803,1.86874847922,1.13708313331,0.578770420022,0.501339306346,-1.96536991457,1.59993306044,2.02833311625,2.44600822871,3.53981690086,5.48569215787,-7.62340089519
do_nothing,2.2715830017,2.92979914083,2.77626217755,1.37357771206,0.554283143857,0.203778323842,0.43942958816,-1.85372430294,0.877599614045,1.66479747386,1.63147898083,4.25262941295,5.14991244103,-20.4872730157
do_nothing,2.04711959006,2.1159102526,2.26329057236,0.808708467508,0.0105593386445,-0.183567272051,0.348469644259,-1.50353070795,0.136435453214,1.20679582955,0.740426873877,4.65080284458,4.38737963296,-27.2623851381
do_nothing,1.74383833076,1.08629684988,1.6236101143,0.198587665948,-0.474730158474,-0.567082683654,0.197589847406,-0.977206371209,-0.587678333887,0.655889449785,-0.17415123337,4.66936075609,3.23232890072,-26.9703910544
do_nothing,1.3467205333,-0.0726535368032,0.891121771626,-0.43041905322,-0.889987316045,-0.927454961347,-0.0310775540316,-0.352783425761,-1.26246294379,0.0281170092203,-1.05742940924,4.28573411115,1.76347806838,-19.616213318
do_nothing,0.846981756259,-1.25771354324,0.106921128166,-1.05194941829,-1.23082973316,-1.24407975087,-0.340312259046,0.28426945927,-1.86106461617,-0.646526585459,-1.85757780483,3.52204463948,0.096192175272,-6.19039902383
do_nothing,0.244984392946,-2.36097714428,-0.68429888982,-1.6412362834,-1.49889951043,-1.49738620119,-0.718160653951,0.849568188398,-2.36316483023,-1.32697888857,-2.5303513714,2.44176488449,-1.62999436465,11.4524766768
do_nothing,-0.447802916886,-3.28268114341,-1.43820156597,-2.17620604277,-1.70024857333,-1.67134139573,-1.14047158452,1.26792282911,-2.75532918549,-1.96594019451,-3.04290729335,1.14133936135,-3.26693318968,30.8249803358
do_nothing,-1.20808273534,-3.94301481653,-2.11462659949,-2.63802491291,-1.84354422199,-1.75578385094,-1.57504856446,1.48036212875,-3.03065035412,-2.51591729298,-3.37640107368,-0.261999340024,-4.67452746965,49.119484363
do_nothing,-2.00138103131,-4.29137924891,-2.68080924597,-3.01114219257,-1.93832563332,-1.74823646453,-1.98665090439,1.44952745994,-3.18783160386,-2.93556000403,-3.52705454446,-1.64451591925,-5.73639607447,63.5639617691
do_nothing,-2.7840511176,-4.31189694411,-3.11361851956,-3.2829724617,-1.9935006014,-1.65489541741,-2.34200052367,1.1630507611,-3.22992250916,-3.19531536986,-3.50557344915,-2.89042622945,-6.37255948255,71.7769946178
do_nothing,-3.50644979106,-4.02447130939,-3.40057563008,-3.44342059712,-2.01621113534,-1.49057942323,-2.61400854421,0.634707547758,-3.16294876334,-3.28151668557,-3.33499463306,-3.90462472726,-6.54756534932,72.0779819142
do_nothing,-4.1169725015,-3.48128777244,-3.53958756575,-3.48447395106,-2.01112801809,-1.27754498539,-2.78461213386,-0.0966853023924,-2.99467004808,-3.19825085525,-3.04723764935,-4.62208605434,-6.27307432477,63.7139248936
do_nothing,-4.56653868072,-2.75925415455,-3.53751185725,-3.40006159495,-1.98016969253,-1.04321531055,-2.84587608211,-0.970488628732,-2.73365612566,-2.96667552989,-2.67879775125,-5.01284875268,-5.60465662779,46.9743859604
do_nothing,-4.81307061984,-1.94941623655,-3.40783067776,-3.18631531844,-1.92258982245,-0.817017408764,-2.799321518,-1.90928927597,-2.3887995067,-2.62183968757,-2.26612565851,-5.08213439442,-4.63330938042,23.179983642
do_nothing,-4.82551337751,-1.14478298245,-3.16783192427,-2.8422721886,-1.83534721348,-0.626656162543,-2.65374665298,-2.82536674945,-1.96929516278,-2.20744191788,-1.84127962088,-4.86584612452,-3.47289210259,-5.45462997773
do_nothing,-4.58699669689,-0.428201196323,-2.83575439669,-2.37095021576,-1.71366380493,-0.494258375359,-2.42205390778,-3.62807479467,-1.485028011,-1.76928338093,-1.42840115729,-4.42232923796,-2.24520110801,-36.0669203293
do_nothing,-4.09683465076,0.138095966797,-2.42834503604,-1.78062595516,-1.5516889434,-0.432878718506,-2.11775563394,-4.23157522335,-0.947231572629,-1.34838857814,-1.04146084503,-3.82177394367,-1.0646930247,-65.4719973409
do_nothing,-3.37118214497,0.519875985255,-1.95919985485,-1.08606420975,-1.34321493525,-0.443861853029,-1.75187285825,-4.56233706862,-0.369228449717,-0.97484278915,-0.683557187712,-3.13492887139,-0.0248851264086,-90.5281478907
do_nothing,-2.44230427215,0.714259334504,-1.43812800304,-0.309410505345,-1.0824210699,-0.515495349045,-1.33086216106,-4.56582574785,0.232956744142,-0.66331621416,-0.347850045659,-2.42283549181,0.811795713905,-108.498314438
do_nothing,-1.35654898394,0.748617625483,-0.871609908024,0.519534090436,-0.764651127358,-0.62326789654,-0.856017936902,-4.21185447154,0.840305625666,-0.411019571797,-0.0199956634756,-1.72908624346,1.41943711246,-117.364251353
do_nothing,-0.171231150156,0.675204131617,-0.26424054643,1.36387723204,-0.387244117711,-0.731875762651,-0.324530724827,-3.49815284051,1.43098021055,-0.198493552914,0.318249727806,-1.07568610563,1.80872308559,-116.056212717
do_nothing,1.04927467711,0.562283511793,0.379115633753,2.18115725551,0.049566175443,-0.798913760493,0.267920784541,-2.45182317052,1.98103352526,0.00677796667931,0.684750582877,-0.463022491943,2.02180038023,-104.571656777
do_nothing,2.23788187256,0.48300353286,1.05085620807,2.92580836772,0.541691954211,-0.779967358407,0.92345790162,-1.12849929135,2.46563927402,0.244365662542,1.0926283583,0.126193192732,2.12277480408,-83.9702087953
do_nothing,3.32921341671,0.503559320548,1.73832246204,3.55241019087,1.08022351336,-0.634615993408,1.63781699703,0.390811458103,2.86073540612,0.553313793141,1.5464284994,0.719763029736,2.18528102364,-56.2472435312
do_nothing,4.2637521505,0.672298773529,2.42209138871,4.01942863733,1.65055513246,-0.332691141308,2.39647401803,2.00504426424,3.14490257134,0.964062018849,2.03937770135,1.34686666596,2.27896453409,-24.1030220969
do_nothing,4.99142516521,1.01129318441,3.07526459941,4.2930522438,2.23175681023,0.139969093453,3.17187531302,3.60021438309,3.30125012809,1.49107617739,2.55216233075,2.02850688666,2.45685339743,9.36346352477
