label,COUNTER,INTERPOLATED,AF3,F7,F3,FC5,T7,P7,O1,O2,P8,T8,FC6,F4,F8,AF4,RAW_CQ,GYROX,GYROY,MARKER,SYNC,TIME_STAMP_s,TIME_STAMP_ms,CQ_AF3,CQ_F7,CQ_F3,CQ_FC5,CQ_T7,CQ_P7,CQ_O1,CQ_O2,CQ_P8,CQ_T8,CQ_FC6,CQ_F4,CQ_F8,CQ_AF4,CQ_CMS,CQ_DRL
off_to_on,4135.51536778,4134.9622352,4095.76131383,4134.44019795,4135.52095454,4131.17918169,4134.50606181,4140.41528888,4136.86138595,4122.26748622,4106.38942112,4132.83412898,4127.03841759,147.230401519
off_to_on,4135.50378237,4135.38725719,4095.63473757,4134.44784377,4135.26921654,4131.68237079,4134.38307192,4140.61967061,4136.84673197,4122.59715082,4106.49107722,4133.33659463,4127.66351487,162.659809738
off_to_on,4135.43489412,4135.7898208,4095.50115639,4134.44299667,4135.00198276,4132.15074371,4134.17878638,4140.70919822,4136.83608006,4122.90786956,4106.565153,4133.77250467,4128.23124685,181.932803564
off_to_on,4135.32465372,4136.17636017,4095.3733858,4134.42623379,4134.73473367,4132.58710522,4133.90534612,4140.69687157,4136.8296945,4123.2028462,4106.61585,4134.14415207,4128.74414218,205.230528774
off_to_on,4135.19038863,4136.55389546,4095.263335,4134.39859997,4134.48281195,4132.99524249,4133.57664721,4140.59805287,4136.82769235,4123.48613562,4106.64809113,4134.45657022,4129.20668009,232.5911976
off_to_on,4135.05023127,4136.92978515,4095.18162132,4134.36159455,4134.26090047,4133.37974508,4133.20797864,4140.43000465,4136.8300418,4123.76248186,4106.66735216,4134.71735583,4129.62505919,263.904454362
off_to_on,4134.92254492,4137.3114803,4095.13726709,4134.31714165,4134.08253978,4133.74581115,4132.81562753,4140.21139159,4136.83656568,4124.03714549,4106.67948598,4134.93642224,4130.00692393,298.911283646
off_to_on,4134.8253645,4137.70628672,4095.13748583,4134.26754406,4133.95970005,4134.09904654,4132.41646226,4139.96176069,4136.84695011,4124.31572552,4106.69054447,4135.12568924,4130.36105882,337.209492502
off_to_on,4134.77586829,4138.12114063,4095.18756076,4134.21542122,4133.90242057,4134.44526342,4132.02750471,4139.70101489,4136.86075782,4124.60398166,4106.70660295,4135.29871805,4130.69706091,378.264587513
off_to_on,4134.78989458,4138.56240289,4095.29081412,4134.16363294,4133.91852619,4134.79028472,4131.66550356,4139.44889498,4136.87744577,4124.9076619,4106.73359114,4135.47030097,4131.02500152,421.425662787
off_to_on,4134.88151513,4139.03567583,4095.44866216,4134.11519077,4134.01342779,4135.13975981,4131.34652002,4139.2244841,4136.89638645,4125.23234079,4106.7771345,4135.65601725,4131.35508765,465.945724507
off_to_on,4135.0626752,4139.5456465,4095.66074712,4134.0731601,4134.19000985,4135.49899581,4131.08553714,4139.04574764,4136.91689199,4125.58327221,4106.84240908,4135.87176695,4131.69733317,511.005710709
off_to_on,4135.34290654,4140.0959586,4095.9251345,4134.04055614,4134.44860548,4135.87280771,4130.89610231,4138.92911963,4136.93824031,4125.96526006,4106.93401234,4136.13329538,4132.06124864,555.741327149
off_to_on,4135.72911766,4140.68911443,4096.23856165,4134.02023758,4134.78705601,4136.26538949,4130.79001128,4138.88914442,4136.95970221,4126.38254804,4107.05585191,4136.45571968,4132.45555682,599.271715014
off_to_on,4136.22546274,4141.32640698,4096.59672221,4134.01480182,4135.20084965,4136.68020785,4130.77704019,4138.93817994,4136.98056838,4126.83872882,4107.2110536,4136.85306906,4132.88793965,640.728898301
off_to_on,4136.83328859,4142.00788162,4096.99457032,4134.02648557,4135.68333139,4137.11991943,4130.86473075,4139.08616677,4137.00017524,4127.33667182,4107.40188936,4137.33784959,4133.3648205,679.286932051
off_to_on,4137.55115706,4142.73232626,4097.42662879,4134.05707472,4136.22597449,4137.58631273,4131.05823271,4139.34046516,4137.01792854,4127.87846824,4107.62972595,4137.92064375,4133.8911851,714.189687551
off_to_on,4138.37493851,4143.49728879,4097.88728609,4134.10782693,4136.81870248,4138.08027531,4131.36020703,4139.7057606,4137.03332389,4128.46539217,4107.89499416,4138.60975512,4134.47044307,744.776264495
off_to_on,4139.29797088,4144.29912025,4098.37106863,4134.17941006,4137.45024992,4138.60178685,4131.77079189,4140.1840375,4137.04596341,4129.09787626,4108.19717902,4139.41090741,4135.1043316,770.503111245
off_to_on,4140.3112774,4145.13304244,4098.87287702,4134.27185909,4138.10854958,4139.14993819,4132.28763271,4140.77461911,4137.05556784,4129.77550112,4108.53483042,4140.32700696,4135.79286214,790.962060788
off_to_on,4141.40383539,4145.99323852,4099.38817707,4134.38455351,4138.78113365,4139.72297592,4132.90597576,4141.47427084,4137.06198383,4130.49699751,4108.90559408,4141.3579767,4136.53431046,805.893645931
off_to_on,4142.56288737,4146.87296506,4099.91313915,4134.51621658,4139.45553639,4140.31837121,4133.61882307,4142.27736292,4137.06518604,4131.26026106,4109.30626206,4142.50066852,4137.32525016,815.195234966
off_to_on,4143.77428506,4147.76468396,4100.44472237,4134.66493722,4140.11968611,4140.93291052,4134.41714482,4143.17608711,4137.06527419,4132.06237906,4109.73284202,4143.74885878,4138.16062915,818.923722023
off_to_on,4145.02285628,4148.6602119,4100.98070256,4134.82821424,4140.76227452,4141.56280475,4135.29014305,4144.16072102,4137.06246522,4132.89966913,4110.18064401,4145.09332987,4139.03388758,817.29270892
off_to_on,4146.29278469,4149.55088504,4101.51964609,4135.00302222,4141.37309317,4142.20381285,4136.22555876,4145.2199323,4137.05708094,4133.76772903,4110.64438334,4146.52203772,4139.93711496,810.664319051
off_to_on,4147.56799236,4150.42773639,4102.06083416,4135.18589682,4141.94332722,4142.85137544,4137.21001283,4146.34111426,4137.04953185,4134.66149738,4111.11829747,4148.02036294,4140.86124352,799.535979382
off_to_on,4148.83251588,4151.28168284,4102.60414461,4135.37303694,4142.46579868,4143.50075391,4138.22937052,4147.51074385,4137.04029768,4135.57532504,4111.59627471,4149.57144085,4141.79627347,784.522687103
off_to_on,4150.07086707,4152.10371852,4103.1499,4135.56042002,4142.93515267,4144.1471704,4139.26911877,4148.71475232,4137.02990577,4136.50305693,4112.0719919,4151.15656258,4142.7315254,766.335438039
off_to_on,4151.26837022,4152.88511032,4103.69869216,4135.74392661,4143.347982,4144.78594494,4140.31474598,4149.93889909,4137.01890792,4137.43812397,4112.53905813,4152.7556369,4143.65591305,745.756628003
off_to_on,4152.41146872,4153.61759097,4104.25119384,4135.91946943,4143.70288751,4145.41262627,4141.35211384,4151.1691391,4137.00785685,4138.37364449,4112.99116111,4154.34769976,4144.55822931,723.613339522
off_to_on,4153.48799455,4154.29354486,4104.80796863,4136.08312262,4144.00047366,4146.02311404,4142.36781195,4152.39197395,4136.99728324,4139.30253415,4113.42221269,4155.91145632,4145.42743679,700.749491813
off_to_on,4154.48739539,4154.90618149,4105.36928991,4136.23124632,4144.24328082,4146.61377033,4143.34948667,4153.59477814,4136.98767415,4140.21762302,4113.82649033,4157.42583901,4146.2529544,677.997861323
off_to_on,4155.40091461,4155.44969143,4105.9349791,4136.36060234,4144.43565765,4147.18151893,4144.28613665,4154.76609213,4136.97945384,4141.11177835,4114.19877094,4158.87056419,4147.02493109,656.152972203
off_to_on,4156.22172094,4155.91938013,4106.50427186,4136.46845681,4144.58357906,4147.72393078,4145.16836893,4155.89587522,4136.97296749,4141.978031,4114.53445417,4160.22666991,4147.73449811,635.945809994
off_to_on,4156.94498606,4156.31177535,4107.07571998,4136.55266617,4144.69441663,4148.23929377,4145.98860957,4156.97571217,4136.96846871,4142.80970341,4114.82967225,4161.47701783,4148.37399213,618.021230429
off_to_on,4157.56790999,4156.6247051,4107.64713447,4136.61174344,4144.7766699,4148.72666524,4146.74126397,4157.9989688,4136.96611104,4143.60053671,4115.08138364,4162.60674383,4148.93714274,602.918824767
off_to_on,4158.0896957,4156.85734417,4108.21557376,4136.64490246,4144.83966807,4149.18590562,4147.42282262,4158.96089284,4136.96594383,4144.34481446,4115.28744826,4163.60364335,4149.41921913,591.05786793
off_to_on,4158.51147644,4157.01022832,4108.7773786,4136.65207839,4144.89325248,4149.61769185,4148.03190921,4159.85865822,4136.96791253,4145.03748051,4115.44668219,4164.45847964,4149.81713222,582.726818437
off_to_on,4158.83620026,4157.08523619,4109.32825331,4136.63392394,4144.94745055,4150.02350977,4148.56926914,4160.69135207,4136.97186333,4145.67424776,4115.55888989,4165.16520556,4150.12949004,578.077663711
off_to_on,4159.06847802,4157.08554004,4109.86339075,4136.59178127,4145.01215223,4150.40562446,4149.0376978,4161.45990552,4136.97755183,4146.25169496,4115.62487261,4165.7210924,4150.35660562,577.125217353
off_to_on,4159.21440189,4157.01552732,4110.37763637,4136.52763083,4145.09679917,4150.76702791,4149.44190935,4162.16697077,4136.98465541,4146.76734869,4115.64641224,4166.12676244,4150.50045851,579.751284084
off_to_on,4159.2813419,4156.880696,4110.86568519,4136.44401908,4145.21009615,4151.11136331,4149.7883486,4162.81674834,4136.99278854,4147.21974789,4115.6262304,4166.3861256,4150.56461278,585.713421614
off_to_on,4159.27772801,4156.68752681,4111.32230315,4136.34396779,4145.35975322,4151.44282645,4150.08495065,4163.41477016,4137.00152057,4147.60848896,4115.56792352,4166.50622365,4150.55409515,594.657857016
off_to_on,4159.21282504,4156.44333624,4111.74256353,4136.23086838,4145.55226558,4151.76604573,4150.34085497,4163.96764542,4137.010395,4147.93424961,4115.47587538,4166.49698838,4150.47523852,606.1359699
off_to_on,4159.09650672,4156.15611431,4112.12208746,4136.10836515,4145.7927368,4152.08594393,4150.56608267,4164.48277761,4137.01894965,4148.19879047,4115.35514895,4166.37092304,4150.33549633,619.62364129
off_to_on,4158.93903475,4155.83435161,4112.45727738,4135.98023162,4146.08474959,4152.40758586,4150.77118727,4164.9680621,4137.02673665,4148.40493365,4115.21136067,4166.1427186,4150.14323421,634.54268448
off_to_on,4158.75084687,4155.48685973,4112.74553181,4135.85024443,4146.43028596,4152.73601703,4150.96689101,4165.4315744,4137.03334158,4148.55651812,4115.05054025,4165.82881775,4149.90750539,650.283519574
off_to_on,4158.54235684,4155.12258905,4112.98543038,4135.72205931,4146.8296973,4153.07609882,4151.16371882,4165.88125926,4137.03840101,4148.65833186,4114.87897974,4165.4469408,4149.63781617,666.22822942
off_to_on,4158.32376775,4154.75044675,4113.17687838,4135.5990934,4147.28172286,4153.43234534,4151.3716419,4166.32463054,4137.04161756,4148.71602029,4114.7030759,4165.01558688,4149.34388664,681.773145197
off_to_on,4158.10489883,4154.37911738,4113.32120199,4135.48441811,4147.78355386,4153.80876718,4151.59974183,4166.76849108,4137.04277216,4148.73597031,4114.52916946,4164.55352381,4149.03541125,696.350154249
off_to_on,4157.89502502,4154.01688789,4113.42118651,4135.38066596,4148.33093886,4154.20872633,4151.8559044,4167.2186802,4137.04173283,4148.72516962,4114.36338535,4164.07927888,4148.72182304,709.445995502
off_to_on,4157.70272842,4153.67147878,4113.48105293,4135.28995463,4148.91832509,4154.6348061,4152.14655163,4167.67985594,4137.03845996,4148.69104139,4114.21147764,4163.6106426,4148.41206533,720.618903361
off_to_on,4157.53576075,4153.34988359,4113.5063706,4135.21383053,4149.53902992,4155.08869989,4152.47641927,4168.1553175,4137.0330077,4148.64125608,4114.07868322,4163.16419704,4148.11437503,729.512073426
off_to_on,4157.40091735,4153.05821952,4113.50390736,4135.1532337,4150.18543644,4155.57112276,4152.84838638,4168.64687308,4137.02552184,4148.58352369,4113.9695881,4162.75488021,4147.83608246,735.863544645
off_to_on,4157.30392455,4152.80159331,4113.48142208,4135.10848502,4150.84920712,4156.08174965,4153.26336289,4169.1547571,4137.01623413,4148.52537188,4113.8880104,4162.39559834,4147.58343369,739.512216782
off_to_on,4157.24934362,4152.58398711,4113.44740766,4135.07929588,4151.52150963,4156.61918437,4153.72024012,4169.67760043,4137.00545361,4148.47391742,4113.83690377,4162.09689732,4147.36144163,740.399848992
off_to_on,4157.24049553,4152.40817005,4113.41079575,4135.0647998,4152.19324902,4157.18096243,4154.215908,4170.21245632,4136.99355506,4148.43564008,4113.81828496,4161.86670447,4147.17377279,738.569017955
off_to_on,4157.27941087,4152.27564069,4113.38063611,4135.06360462,4152.85530065,4157.76359059,4154.74534167,4170.75488361,4136.98096526,4148.4161693,4113.83318861,4161.71014991,4147.02267577,734.157152991
off_to_on,4157.36680883,4152.1866049,4113.36576489,4135.07386313,4153.49873846,4158.36262487,4155.30175786,4171.2990874,4136.96814736,4148.42009407,4113.88165139,4161.62947469,4146.90895597,727.386906893
off_to_on,4157.50210851,4152.13999232,4113.37447645,4135.09335958,4154.11505374,4158.97278661,4155.87683877,4171.8381149,4136.95558395,4148.45080592,4113.96272686,4161.62403003,4146.83199903,718.55325851
off_to_on,4157.68347404,4152.1335131,4113.41421307,4135.11960853,4154.69635968,4159.58811445,4156.46101773,4172.36410194,4136.94375951,4148.5103836,4114.07453092,4161.69036871,4146.78984355,708.007869712
off_to_on,4157.90789402,4152.16375492,4113.49128606,4135.14996268,4155.23557732,4160.20214714,4157.04381804,4172.86856297,4136.93314268,4148.5995265,4114.21431725,4161.8224271,4146.7793015,696.141329074
off_to_on,4158.17129364,4152.2263185,4113.61064019,4135.18172547,4155.72659908,4160.80813081,4157.61423328,4173.34271507,4136.92416909,4148.71754182,4114.37858074,4162.01179268,4146.79612266,683.364001895
off_to_on,4158.46867672,4152.31598794,4113.77567148,4135.21226441,4156.16442607,4161.39924269,4158.16113534,4173.77782447,4136.91722534,4148.86238751,4114.56318602,4162.24804902,4146.83519758,670.086266559
off_to_on,4158.79429302,4152.42693035,4113.98810546,4135.2391208,4156.54527586,4161.96882215,4158.67369423,4174.16556225,4136.91263473,4149.0307705,4114.76351716,4162.51918698,4146.89079141,656.698947347
off_to_on,4159.14182511,4152.55291798,4114.24794094,4135.26011179,4156.8666574,4162.51059919,4159.14179289,4174.49835478,4136.91064532,4149.21829667,4114.97464327,4162.81206818,4146.95679939,643.554751718
off_to_on,4159.50458795,4152.68756435,4114.55346053,4135.27342086,4157.12741005,4163.01890932,4159.55641981,4174.76971395,4136.9114209,4149.41966686,4115.19149429,4163.11292483,4147.02701386,630.951485094
off_to_on,4159.87573345,4152.82456549,4114.90130701,4135.27767341,4157.32770445,4163.48888433,4159.9100229,4174.97453252,4136.9150352,4149.62891083,4115.40904011,4163.40787837,4147.09539169,619.117749381
off_to_on,4160.24845219,4152.95793624,4115.2866211,4135.27199475,4157.46900372,4163.9166089,4160.19680917,4175.10933106,4136.92146978,4149.83964921,4115.62246638,4163.68345843,4147.1563108,608.201734942
off_to_on,4160.61616442,4153.082232,4115.70323398,4135.25604832,4157.55398521,4164.29923502,4160.41297727,4175.17244468,4136.93061585,4150.04537213,4115.82733977,4163.92710336,4147.2048047,598.263593426
off_to_on,4160.9726933,4153.19274654,4116.14390565,4135.23005277,4157.58642448,4164.63504843,4160.55687245,4175.16414024,4136.94227983,4150.23972246,4116.01975636,4164.12762466,4147.23676495,589.271735241
off_to_on,4161.31241405,4153.285678,4116.60059886,4135.19477755,4157.57104473,4164.92348383,4160.62905765,4175.08665831,4136.95619293,4150.41677201,4116.1964674,4164.27561886,4147.24910318,581.10323661
off_to_on,4161.63037445,4153.3582564,4117.06477689,4135.15151699,4157.51333696,4165.16508859,4160.63229831,4174.94417739,4136.97202408,4150.57127921,4116.35497792,4164.36381284,4147.23986639,573.548373337
off_to_on,4161.9223834,4153.40882814,4117.52771332,4135.10204417,4157.41935714,4165.36143716,4160.57146262,4174.74270222,4136.98939593,4150.69891816,4116.49361479,4164.3873307,4147.20830143,566.319128548
off_to_on,4162.18506593,4153.43689443,4117.98080118,4135.04854593,4157.29550821,4165.5150008,4160.4533418,4174.48988036,4137.00790295,4150.79646923,4116.61156215,4164.34387282,4147.15486644,559.061356916
off_to_on,4162.41588414,4153.44310242,4118.41584908,4134.9935416,4157.1483151,4165.62897891,4160.28639823,4174.1947548,4137.02713096,4150.86196321,4116.70886294,4164.23380029,4147.08118913,551.370134842
off_to_on,4162.61312464,4153.4291894,4118.82535244,4134.93978807,4156.98420148,4165.70709996,4160.08045107,4173.86746205,4137.04667674,4150.89477205,4116.78638676,4164.06012084,4146.98997376,542.807691365
off_to_on,4162.77585426,4153.3978821,4119.20272911,4134.89017472,4156.80927649,4165.75340115,4159.84631189,4173.51888771,4137.06616682,4150.8956418,4116.84576554,4163.8283756,4146.88486046,532.923203623
off_to_on,4162.90384713,4153.35275479,4119.54251036,4134.84761192,4156.62913943,4165.77199674,4159.59538355,4173.16029252,4137.08527434,4150.866665,4116.88929959,4163.54642922,4146.77024255,521.273658306
off_to_on,4162.99748742,4153.29805133,4119.84048071,4134.81491713,4156.44870912,4165.76684511,4159.33923765,4172.80292271,4137.1037329,4150.81119263,4116.91983805,4163.22416956,4146.65104905,507.444930155
off_to_on,4163.05765343,4153.23847835,4120.09376251,4134.79470286,4156.27208321,4165.74152447,4159.08918593,4172.45761855,4137.12134678,4150.73368792,4116.94063856,4162.87312665,4146.53250162,491.072212304
off_to_on,4163.08558928,4153.17897775,4120.30084389,4134.78927066,4156.10243113,4165.69902661,4158.85586198,4172.13443463,4137.13799681,4150.63952768,4116.95521228,4162.50602435,4146.41985674,471.858951974
off_to_on,4163.08277163,4153.12448855,4120.46155139,4134.80051514,4155.94192277,4165.64157725,4158.64882908,4171.84228504,4137.1536416,4150.53475936,4116.96716114,4162.13628136,4146.31814545,449.593498007
off_to_on,4163.05077892,4153.07970846,4120.57697136,4134.82984166,4155.79169373,4165.57049081,4158.47622864,4171.58862552,4137.16831412,4150.42582482,4116.98001476,4161.77748126,4146.23192358,424.162751879
off_to_on,4162.9911709,4153.04886645,4120.6493262,4134.87810072,4155.65184689,4165.48606547,4158.34448138,4171.37918303,4137.1821137,4150.31926366,4116.99707434,4161.44283311,4146.1650451,395.562227844
off_to_on,4162.905386,4153.03551689,4120.68181368,4134.94554185,4155.52148898,4165.38752293,4158.25805064,4171.21774146,4137.19519401,4150.22141041,4117.02127033,4161.1446456,4146.12047046,363.902066105
off_to_on,4162.79466267,4153.04236528,4120.67841897,4135.03178861,4155.39880015,4165.27299559,4158.21927456,4171.1059903,4137.20774754,4150.1381005,4117.05503981,4160.89383738,4146.1001199,329.408699928
off_to_on,4162.65998964,4153.07113391,4120.64370964,4135.13583623,4155.28113393,4165.13956243,4158.22827191,4171.04344131,4137.21998751,4150.07439957,4117.10022845,4160.69950476,4146.1047793,292.422047052
off_to_on,4162.50208808,4153.12247376,4120.58262444,4135.25607211,4155.16514425,4164.98333428,4158.28292388,4171.02741639,4137.23212813,4150.03436954,4117.15802066,4160.56856544,4146.13406316,253.388270943
off_to_on,4162.3214269,4153.19592685,4120.50026616,4135.39031871,4155.04693636,4164.79958778,4158.37893301,4171.05310808,4137.24436414,4150.02088286,4117.22890013,4160.50549336,4146.18643567,212.84833126
off_to_on,4162.11827012,4153.28994069,4120.40170826,4135.5358975,4154.92223731,4164.58294639,4158.50995805,4171.11371219,4137.25685103,4150.03549419,4117.31264172,4160.5121558,4146.25928804,171.422708595
off_to_on,4161.89275267,4153.40193365,4120.29182317,4135.68971152,4154.78658179,4164.32760476,4158.66782232,4171.20063038,4137.26968671,4150.07837584,4117.40833408,4160.58775935,4146.34906686,129.792839419
off_to_on,4161.64497875,4153.52840747,4120.17513853,4135.84834378,4154.6355075,4164.02759043,4158.84279059,4171.30373818,4137.2828962,4150.14832046,4117.51443133,4160.72890664,4146.45144555,88.6799273547
off_to_on,4161.37513461,4153.66510007,4120.05572495,4136.00816779,4154.46475423,4163.67705476,4159.02390691,4171.41171188,4137.29641999,4150.24281047,4117.62883055,4160.92976016,4146.56152882,48.8219012398
off_to_on,4161.08360621,4153.80717041,4119.93711717,4136.16546641,4154.27045988,4163.27058277,4159.19938278,4171.51240489,4137.31010749,4150.35815079,4117.74897081,4161.18230525,4146.67407808,10.9493649143
off_to_on,4160.77109221,4153.94940551,4119.82226805,4136.3165545,4154.04934655,4162.80350975,4159.35702301,4171.59326211,4137.32371576,4150.48965774,4117.87194871,4161.47669951,4146.78374569,-24.2385745866
off_to_on,4160.43870267,4154.08643944,4119.71353376,4136.45790113,4153.79889005,4162.27223209,4159.48467443,4171.64175905,4137.33691434,4150.63189474,4117.99464452,4161.80169274,4146.88530577,-56.0977063091
off_to_on,4160.08803494,4154.21297384,4119.61268687,4136.58624664,4153.5174663,4161.67449914,4159.57068241,4171.64585112,4137.34929574,4150.77894315,4118.11385311,4162.14509838,4146.97387036,-84.0604750716
off_to_on,4159.72122011,4154.32399005,4119.52095328,4136.69871046,4153.20446936,4161.00967314,4159.60433909,4171.59441784,4137.36039144,4150.92469504,4118.22641371,4162.49429562,4147.04508117,-107.655294654
off_to_on,4159.3409352,4154.41494364,4119.43906813,4136.79288538,4152.86039632,4160.27894528,4159.57630775,4171.47768655,4137.36969256,4151.06315418,4118.32933297,4162.83674049,4147.09526883,-126.522696829
off_to_on,4158.9503787,4154.4819336,4119.36734556,4136.8669149,4152.48689554,4159.48549693,4159.47900804,4171.28762071,4137.3766741,4151.18873118,4118.4198963,4163.16046445,4147.12157389,-140.427710269
off_to_on,4158.55320968,4154.52184,4119.305757,4136.91955055,4152.08677596,4158.63459713,4159.30694858,4171.01825909,4137.38082167,4151.29651994,4118.49576325,4163.45454055,4147.12202652,-149.267990347
off_to_on,4158.15345253,4154.53242527,4119.25401278,4136.95018715,4151.66397603,4157.73362962,4159.05699491,4170.66599372,4137.38165915,4151.38254332,4118.55504352,4163.70949879,4147.09558368,-153.077359264
off_to_on,4157.75537173,4154.51239632,4119.21164202,4136.95887483,4151.22349244,4156.7920452,4158.72856257,4170.22977642,4137.37877597,4151.44395757,4118.59635097,4163.91767499,4147.04212467,-152.024566586
off_to_on,4157.36332288,4154.46142586,4119.17806636,4136.94630763,4150.77127009,4155.82123791,4158.32372763,4169.71124594,4137.37185255,4151.47920656,4118.61883409,4164.07348054,4146.96240772,-146.407245306
off_to_on,4156.98158762,4154.38013396,4119.15266394,4136.91378954,4150.31405621,4154.83434636,4157.84724924,4169.11476994,4137.3606826,4151.48811933,4118.62218239,4164.17358342,4146.8579919,-136.641215807
off_to_on,4156.61420115,4154.27003233,4119.13482101,4136.86317965,4149.85922271,4153.84598497,4157.30650223,4168.44739921,4137.34519101,4151.47194712,4118.60660963,4164.21699558,4146.73113026,-123.245469926
off_to_on,4156.26478206,4154.13343597,4119.12396979,4136.79681888,4149.41456251,4152.87191256,4156.71132103,4167.71873422,4137.32544647,4151.43333917,4118.57281607,4164.20506516,4146.58464134,-106.823336712
off_to_on,4155.93637408,4153.97334783,4119.1196125,4136.71744132,4148.98806654,4151.92864917,4156.07375907,4166.94070693,4137.30166796,4151.376259,4118.52193291,4164.1413766,4146.42176705,-88.0404813843
off_to_on,4155.63130928,4153.7933234,4119.12133207,4136.62807377,4148.58768914,4151.03305321,4155.40777063,4166.12728326,4137.27422475,4151.3058454,4118.45545288,4164.03156472,4146.24602467,-67.6005174286
off_to_on,4155.35110115,4153.59732211,4119.12879145,4136.53192759,4148.22110997,4150.20187229,4154.72882419,4165.29409395,4137.2436297,4151.22822433,4118.37515167,4163.88305236,4146.0610604,-46.2191169729
off_to_on,4155.09637456,4153.38955275,4119.14172335,4136.432287,4147.89550037,4149.45128117,4154.05345818,4164.45800345,4137.21052601,4151.15027947,4118.28300486,4163.70472345,4145.87051095,-24.5975804488
off_to_on,4154.86683764,4153.17431927,4119.15991302,4136.33239846,4147.61730202,4148.79642024,4153.39879224,4163.6366285,4137.17566781,4151.07939053,4118.18110537,4163.50654534,4145.6778788,-3.39686508982
off_to_on,4154.66129834,4152.95587333,4119.18317658,4136.23536512,4147.39202533,4148.25094877,4152.78200832,4162.84782018,4137.1398954,4151.02314912,4118.0715857,4163.29915586,4145.4864252,16.7869300027
off_to_on,4154.47772634,4152.73827852,4119.21133776,4136.14405027,4147.22407458,4147.82662624,4152.21981685,4162.10912393,4137.10410587,4150.98906213,4117.95654889,4163.09343081,4145.29908387,35.4446662353
off_to_on,4154.31335772,4152.5252907,4119.2442053,4136.06099275,4147.1166056,4147.53293497,4151.72792403,4161.4372335,4137.06922053,4150.98425264,4117.83801069,4162.90004789,4145.11839623,52.172980417
off_to_on,4154.16483757,4152.3202569,4119.28155305,4135.98833691,4147.07142077,4147.37675555,4151.32051546,4160.84745465,4137.03615027,4151.01516721,4117.71785457,4162.72906187,4144.94646791,66.6890558941
off_to_on,4154.02839285,4152.12603443,4119.32310379,4135.92777883,4147.08890437,4147.36210526,4151.00977191,4160.35319488,4137.00576049,4151.08729822,4117.59780017,4162.58950483,4144.78494449,78.8407440654
off_to_on,4153.90002614,4151.94493034,4119.36851752,4135.8805299,4147.16799999,4147.48994833,4150.80543229,4159.9654951,4136.97883719,4151.20492884,4117.47938463,4162.48902359,4144.63500349,88.6116053537
off_to_on,4153.77571971,4151.77866085,4119.41738416,4135.84729821,4147.30623042,4147.75808474,4150.71441783,4159.69261827,4136.95605589,4151.37090782,4117.36395564,4162.43356545,4144.49735941,96.1206326094
off_to_on,4153.65163876,4151.62833013,4119.46922043,4135.82828775,4147.4997585,4148.16112242,4150.74053059,4159.5397092,4136.93795485,4151.58646097,4117.25267442,4162.42712153,4144.37227847,101.616626656
off_to_on,4153.52432304,4151.49442695,4119.52347036,4135.82321468,4147.74348677,4148.69053538,4150.88423716,4159.50853775,4136.92491396,4151.85104572,4117.14652616,4162.47153581,4144.25960013,105.467403667
off_to_on,4153.39085699,4151.37683788,4119.57950907,4135.83133951,4148.03119198,4149.33480787,4151.14254704,4159.59733648,4136.9171403,4152.16225461,4117.04633595,4162.56638576,4144.15876299,108.144217269
off_to_on,4153.24901012,4151.27487514,4119.63664923,4135.85151348,4148.35568982,4150.07966249,4151.50899262,4159.80074106,4136.91466113,4152.51577252,4116.9527872,4162.70893844,4144.06883299,110.201967724
off_to_on,4153.09734096,4151.18731701,4119.69414979,4135.88223694,4148.70902379,4150.9083678,4151.97371467,4160.109839,4136.91732457,4152.90539101,4116.86644039,4162.89418354,4143.98853226,112.255940083
off_to_on,4152.93525918,4151.11245841,4119.75122619,4135.92172692,4149.0826713,4151.80211837,4152.52365372,4160.51232814,4136.92480811,4153.32308116,4116.78774924,4163.11494203,4143.91626689,114.955954615
off_to_on,4152.76304173,4151.04816843,4119.80706056,4135.96799117,4149.46775877,4152.74047754,4153.14284333,4160.99278249,4136.93663443,4153.75912401,4116.71707205,4163.36204601,4143.85015194,118.958918723
off_to_on,4152.58179995,4150.9919511,4119.86081018,4136.01890579,4149.85527691,4153.70187026,4153.81279728,4161.53301837,4136.95219398,4154.2022955,4116.65467589,4163.62458246,4143.78803184,124.900836865
off_to_on,4152.39339605,4150.9410055,4119.91161189,4136.07229357,4150.23628745,4154.6641109,4154.51297816,4162.11254946,4136.9707733,4154.64009945,4116.60073218,4163.89019021,4143.72749432,133.369362495
off_to_on,4152.20030918,4150.89228113,4119.95858024,4136.12600059,4150.60211241,4155.60494803,4155.22133126,4162.70911538,4136.99158774,4155.05904046,4116.55530217,4164.14539772,4143.66587632,144.877961122
off_to_on,4152.00545329,4150.84252498,4120.00079761,4136.17796879,4150.94449826,4156.50260689,4155.91486428,4163.29926557,4137.01381728,4155.44492624,4116.51831207,4164.37598701,4143.60026079,159.84269536
off_to_on,4151.81195166,4150.78831754,4120.03729479,4136.22630224,4151.25574812,4157.33630929,4156.57025206,4163.85897773,4137.03664372,4155.78318836,4116.48951783,4164.5673693,4143.52746438,178.562544673
off_to_on,4151.6228746,4150.72609524,4120.06702151,4136.2693256,4151.52881719,4158.0867517,4157.16444425,4164.36428976,4137.05928776,4156.05920986,4116.46846063,4164.70495767,4143.44401681,201.20403995
off_to_on,4151.44094991,4150.65215837,4120.08880694,4136.305633,4151.75736851,4158.73652402,4157.67525458,4164.79192372,4137.0810443,4156.25864857,4116.45441492,4164.77452358,4143.34613377,227.790829949
off_to_on,4151.26825736,4150.56266433,4120.10131137,4136.33412635,4151.93578908,4159.27045483,4158.08191147,4165.1198817,4137.10131468,4156.36774568,4116.44633157,4164.76252545,4143.22968609,258.198607867
off_to_on,4151.10592036,4150.4536076,4120.10297106,4136.35404204,4152.05916834,4159.67587237,4158.36555203,4165.32799501,4137.11963439,4156.37361023,4116.44277937,4164.65640033,4143.09016901,292.155620665
off_to_on,4150.95380969,4150.32078928,4120.09193932,4136.36496563,4152.12324398,4159.94277523,4158.50964505,4165.39841068,4137.13569525,4156.26447222,4116.44188884,4164.44481166,4142.92267571,329.24877083
off_to_on,4150.81027445,4150.15978041,4120.0660276,4136.36683429,4152.1243217,4160.06391086,4158.50033193,4165.31600226,4137.14936123,4156.02989866,4116.44130256,4164.11784918,4142.72188013,368.935107137
off_to_on,4150.67191618,4149.96588437,4120.02265123,4136.35992728,4152.05917731,4160.03476473,4158.32667912,4165.06869507,4137.16067703,4155.66096935,4116.43813668,4163.66717919,4142.48203401,410.55829444
off_to_on,4150.53342107,4149.73410493,4119.9587848,4136.344845,4151.92495071,4159.85346644,4157.98083945,4164.64769949,4137.1698691,4155.15041081,4116.42895796,4163.08614581,4142.19698349,453.369461868
off_to_on,4150.38746452,4149.45912707,4119.87093265,4136.32247774,4151.71904167,4159.52062276,4157.45812384,4164.04764965,4137.17733877,4154.49268951,4116.40978126,4162.36982653,4141.86021039,496.551663032
off_to_on,4150.22469985,4149.13531806,4119.75511956,4136.29396533,4151.43901712,4159.0390902,4156.75698938,4163.26664861,4137.18364747,4153.68406741,4116.37609147,4161.51504725,4141.46490326,539.247045958
off_to_on,4150.03384055,4148.7567558,4119.60690689,4136.26064935,4151.08253961,4158.41370179,4155.87895293,4162.30622509,4137.18949432,4152.72262508,4116.32289402,4160.52036402,4141.00406274,580.585728083
off_to_on,4149.80184186,4148.31729034,4119.42143786,4136.22401977,4150.64732504,4157.65096426,4154.82844227,4161.17120973,4137.19568678,4151.60825899,4116.24479634,4159.38602019,4140.4706444,619.71530791
off_to_on,4149.51418353,4147.81064274,4119.1935154,4136.1856579,4150.13113651,4156.75874234,4153.61259767,4159.86954142,4137.20310526,4150.34266036,4116.13612182,4158.11388806,4139.85774053,655.829923569
off_to_on,4149.15525067,4147.23054322,4118.91771362,4136.14717754,4149.53181887,4155.74594612,4152.24103702,4158.41201535,4137.21266273,4148.92928274,4115.99105555,4156.70740405,4139.1588001,688.197788985
off_to_on,4148.70880477,4146.5709081,4118.58852306,4136.11016646,4148.84737606,4154.62223664,4150.72559695,4156.81198552,4137.22526112,4147.37330494,4115.80381972,4155.17150564,4138.36788341,716.186197917
off_to_on,4148.15853234,4145.8260528,4118.20052752,4136.07612996,4148.07609058,4153.39776262,4149.08006152,4155.08503476,4137.24174574,4145.68159486,4115.56887473,4153.5125764,4137.4799453,739.283083625
off_to_on,4147.48865423,4144.99093559,4117.74860907,4136.04643843,4147.21668232,4152.08293886,4147.3198881,4153.24862497,4137.26285999,4143.86267769,4115.28114019,4151.7384038,4136.49113832,757.114354888
off_to_on,4146.6845755,4144.06142477,4117.22817574,4136.02228041,4146.26850109,4150.68827359,4145.46193756,4151.32173865,4137.28920195,4141.92670981,4114.93622844,4149.85815104,4135.39912414,769.456390816
off_to_on,4145.73355236,4143.03457952,4116.63540498,4136.00462248,4145.23174521,4149.22424909,4143.52421358,4149.32452136,4137.32118494,4139.88545691,4114.53068159,4147.88234172,4134.20337959,776.243259522
off_to_on,4144.62535039,4141.9089325,4115.96749426,4135.99417709,4144.10769608,4147.70125606,4141.52561349,4147.27793227,4137.35900407,4137.75227233,4114.06220198,4145.82285273,4132.90548178,777.568423282
off_to_on,4143.35286726,4140.684761,4115.22290897,4135.99137896,4142.89895677,4146.12957901,4139.48569188,4145.20340881,4137.40261022,4135.54206941,4113.52986545,4143.69290851,4131.50935627,773.680899183
off_to_on,4141.9126927,4139.36433235,4114.40161701,4135.9963709,4141.60968114,4144.51942661,4137.42443647,4143.12254928,4137.45169317,4133.27128037,4112.93430658,4141.5070682,4130.02147244,764.976050274
off_to_on,4140.30558008,4137.95210953,4113.50529898,4136.008999,4140.24577908,4142.88099851,4135.36205518,4141.05681604,4137.50567465,4130.95779326,4112.27786597,4139.28119633,4128.45097181,751.981378413
off_to_on,4138.53680546,4136.45490378,4112.53752309,4136.02881755,4138.81508346,4141.22457796,4133.31877203,4139.02726015,4137.56371204,4128.62085892,4111.56469022,4137.03240789,4126.80971748,735.337870284
off_to_on,4136.61639359,4134.88196234,4111.5038743,4136.0551032,4137.32746485,4139.56063841,4131.31462908,4137.05426673,4137.62471287,4126.28096022,4110.80077718,4134.77897943,4125.11225552,715.777607264
off_to_on,4134.55919344,4133.24498135,4110.41202803,4136.08687822,4135.79488148,4137.89995097,4129.36929088,4135.15731928,4137.68735983,4123.95963716,4109.99396077,4132.54021863,4123.37568253,694.098480934
off_to_on,4132.38479138,4131.55803628,4109.27176026,4136.12294185,4134.23135413,4136.25367948,4127.50184754,4133.35477988,4137.7501456,4121.67926272,4109.15383192,4130.33628662,4121.61941686,671.136952676
off_to_on,4130.1172557,4129.83742534,4108.09488746,4136.16190904,4132.65285838,4134.63344952,4125.73061202,4131.66368219,4137.81141676,4119.46276627,4108.29159512,4128.18796947,4119.86487474,647.739856176
off_to_on,4127.78471263,4128.10142499,4106.89513258,4136.20225546,4131.07712995,4133.05137883,4124.07290871,4130.09953391,4137.86942508,4117.33330453,4107.41986231,4126.11639775,4118.13505686,624.736265307
off_to_on,4125.41876124,4126.36996067,4105.68791603,4136.24236731,4129.52338307,4131.52005905,4122.54485105,4128.67612683,4137.92238501,4115.31388242,4106.55238909,4124.14271645,4116.45405454,602.910435131
off_to_on,4123.05374144,4124.6641995,4104.4900739,4136.28059474,4128.01194577,4130.05248134,4121.16110887,4127.40535374,4137.96853513,4113.42692977,4105.70376024,4122.2877099,4114.8464886,582.97677019
off_to_on,4120.72587624,4123.00607594,4103.31950911,4136.31530711,4126.56382073,4128.66190298,4119.93466806,4126.29703364,4138.00620172,4111.69384256,4104.88903366,4120.57138963,4113.33689707,565.557685758
off_to_on,4118.47231572,4121.41776464,4102.19478441,4136.34494858,4125.20018407,4127.36165533,4118.876588,4125.35874825,4138.03386191,4110.13450066,4104.1233537,4119.01255604,4111.94909058,551.165110416
off_to_on,4116.33011481,4119.92111773,4101.13466916,4136.36809219,4123.94183834,4126.16489819,4117.99576448,4124.59569493,4138.05020431,4108.76677651,4103.42154594,4117.62834731,4110.70549687,540.18623626
off_to_on,4114.33518095,4118.53708616,4100.15765434,4136.38349053,4122.80863875,4125.08432892,4117.29870773,4124.01056209,4138.05418435,4107.60605173,4102.79770656,4116.43379119,4109.62651695,532.873959229
off_to_on,4112.52122922,4117.28514521,4099.28145202,4136.39012112,4121.8189141,4124.13185821,4116.78934646,4123.60343443,4138.04507227,4106.66475961,4102.26479987,4115.44137665,4108.72991603,529.342271873
off_to_on,4110.91878291,4116.18274511,4098.52249666,4136.3872249,4120.98890494,4123.31826683,4116.46886871,4123.37173525,4138.02249155,4105.95197199,4101.83427762,4114.66066245,4108.03027144,529.566681732
off_to_on,4109.55425581,4115.24480625,4097.89546623,4136.3743363,4120.33224144,4122.6528583,4116.33560952,4123.31021258,4137.9864459,4105.47304801,4101.51573255,4114.09793905,4107.53849812,533.389537424
off_to_on,4108.44914935,4114.48327732,4097.41284067,4136.35130392,4119.85948197,4122.14312262,4116.38499321,4123.41097385,4137.93733351,4105.22936075,4101.31659804,4113.75595859,4107.26146955,540.529958709
off_to_on,4107.6193925,4113.90677177,4097.08451439,4136.31830112,4119.57773087,4121.79442466,4116.60953584,4123.66357246,4137.87594759,4105.21811506,4101.24190342,4113.63374534,4107.20174858,550.597896299
off_to_on,4107.07484697,4113.52029509,4096.91747702,4136.27582621,4119.49035023,4121.60973054,4116.99891125,4124.05514766,4137.80346274,4105.43226704,4101.29409339,4113.72649595,4107.35743907,563.11170303
off_to_on,4106.81899384,4113.32507212,4096.91557464,4136.22469218,4119.59677728,4121.5893837,4117.54008197,4124.57061752,4137.72140734,4105.8605523,4101.47291752,4114.02557578,4107.72216474,577.518486292
off_to_on,4106.84881122,4113.31847999,4097.07936049,4136.16600647,4119.89245481,4121.73094178,4118.21749423,4125.19292363,4137.63162263,4106.48762665,4101.77539372,4114.51861465,4108.28517764,593.216430633
off_to_on,4107.15484596,4113.49408895,4097.40604084,4136.10114106,4120.3688781,4122.02908347,4119.01333453,4125.90332431,4137.53620972,4107.29431901,4102.19584751,4115.18970189,4109.03159406,609.578227002
off_to_on,4107.72147554,4113.84180976,4097.88951882,4136.03169419,4121.01375774,4122.47559242,4119.90784323,4126.68173193,4137.43746623,4108.2579926,4102.72602612,4116.01967726,4109.94275151,625.974723519
off_to_on,4108.52735006,4114.34814286,4098.52053488,4135.95944458,4121.81129345,4123.05942273,4120.87967894,4127.50708864,4137.33781473,4109.35300679,4103.35528456,4116.98651143,4110.99667599,641.797926069
off_to_on,4109.54599814,4114.99652126,4099.28689954,4135.88629979,4122.74255041,4123.76684727,4121.90632607,4128.35777323,4137.23972548,4110.55126868,4104.07083836,4118.0657664,4112.16864564,656.482524774
off_to_on,4110.74657563,4115.76773637,4100.17381069,4135.81424025,4123.78592613,4124.58168715,4122.96453631,4129.21203113,4137.14563627,4111.82286045,4104.85807574,4119.23112439,4113.43183298,669.525199281
off_to_on,4112.09473194,4116.64043339,4101.16424495,4135.74526079,4124.91769263,4125.48561689,4124.03079399,4130.04841816,4137.05787222,4113.13672625,4105.70092001,4120.45497178,4114.75800634,680.501056568
off_to_on,4113.55356582,4117.59166103,4102.23941024,4135.68131128,4126.11259666,4126.45853768,4125.08179455,4130.84624814,4136.97856852,4114.46140058,4106.58223176,4121.70902352,4116.11826886,689.076673503
off_to_on,4115.08463986,4118.59745897,4103.3792449,4135.62423844,4127.34449892,4127.47900835,4126.09492492,4131.58603402,4136.90959898,4115.76575838,4107.48423878,4122.96497237,4117.4838125,695.019344579
off_to_on,4116.64902225,4119.63346512,4104.56294711,4135.57573007,4128.58703234,4128.52472273,4127.04873475,4132.24991136,4136.85251306,4117.01976578,4108.38898092,4124.19514606,4118.82666382,698.202266648
off_to_on,4118.20832363,4120.67552462,4105.76951756,4135.53726375,4129.81425976,4129.57302064,4127.92338714,4132.822033,4136.80848376,4118.19520959,4109.27875646,4125.37315461,4120.12039805,698.605526469
off_to_on,4119.7256975,4121.70028248,4106.97829785,4135.51006091,4131.00131124,4130.60141922,4128.70107797,4133.28892304,4136.77826832,4119.26638321,4110.13655637,4126.47450941,4121.34079878,696.312896256
off_to_on,4121.16677439,4122.6857423,4108.16948731,4135.49504791,4132.12498257,4131.58814977,4129.36641255,4133.63977855,4136.76218334,4120.21070688,4110.94647279,4127.47719508,4122.46644193,691.504587357
off_to_on,4122.50050199,4123.61177437,4109.32462129,4135.492825,4133.1642773,4132.51268453,4129.90672893,4133.86670798,4136.76009506,4121.00926138,4111.69406946,4128.3621753,4123.47918493,684.446258608
off_to_on,4123.69986704,4124.46055831,4110.42699597,4135.50364416,4134.10087692,4133.35623696,4130.3123574,4133.96489592,4136.77142555,4121.64721627,4112.36670252,4129.11381531,4124.36454494,675.474717099
off_to_on,4124.74247966,4125.21694756,4111.46202625,4135.52739644,4134.91952594,4134.10221928,4130.57680662,4133.93268635,4136.79517432,4122.1141374,4112.95378271,4129.7202059,4125.11195466,664.980878299
off_to_on,4125.61100559,4125.86874644,4112.41752673,4135.56360936,4135.60832181,4134.73664184,4130.69686866,4133.77157848,4136.82995466,4122.40416306,4113.44697197,4130.1733778,4125.71488933,653.390663244
off_to_on,4126.29343791,4126.40689375,4113.28390867,4135.61145438,4136.1589028,4135.24844067,4130.67263745,4133.48613324,4136.87404355,4122.51604367,4113.84031048,4130.46939987,4126.17086398,641.144597324
off_to_on,4126.78320542,4126.82555041,4114.0542891,4135.66976438,4136.56653064,4135.62972233,4130.50743893,4133.08379188,4136.92544308,4122.45304544,4114.1302725,4130.60835911,4126.48130552,628.676933491
off_to_on,4127.0791205,4127.12209171,4114.7245119,4135.73706072,4136.83006839,4135.87591835,4130.2076742,4132.57461203,4136.98195127,4122.22272355,4114.31575225,4130.59422538,4126.65130857,616.395149187
off_to_on,4127.18517439,4127.29700803,4115.29308365,4135.81158903,4136.95185732,4135.98584456,4129.78258065,4131.97092976,4137.04123969,4121.83657512,4114.39798318,4130.43460749,4126.6892883,604.660659038
off_to_on,4127.11019287,4127.35372082,4115.76103045,4135.89136283,4136.93749927,4135.96166345,4129.24391887,4131.28695936,4137.10093495,4121.30958602,4114.38039607,4130.14041153,4126.60654644,593.771543991
off_to_on,4126.86736908,4127.29832285,4116.13168426,4135.97421389,4136.79555384,4135.80875074,4128.60559578,4130.53834552,4137.15870117,4120.65968903,4114.26842346,4129.72541469,4126.41676906,583.948023127
off_to_on,4126.47369325,4127.13925394,4116.41040974,4136.05784796,4136.53716186,4135.53547029,4127.8832368,4129.74168516,4137.21232044,4119.90715293,4114.06925894,4129.20577002,4126.13547589,575.32128956
off_to_on,4125.94930148,4126.88692432,4116.60428391,4136.13990433,4136.17560862,4135.15286488,4127.09372088,4128.91403853,4137.25976823,4119.0739233,4113.79158113,4128.59945865,4125.77944136,567.926200434
off_to_on,4125.31676675,4126.55329905,4116.72174205,4136.21801772,4135.72584243,4134.67427286,4126.25469276,4128.07244993,4137.29928129,4118.18293649,4113.44525204,4127.92570641,4125.36610664,561.698158282
off_to_on,4124.60035537,4126.15145738,4116.77220367,4136.28988057,4135.2039648,4134.11488341,4125.38406677,4127.23349861,4137.32941533,4117.25742771,4113.04100003,4127.20438202,4124.91300163,556.474352973
off_to_on,4123.8252721,4125.69514114,4116.76569255,4136.35330406,4134.62670918,4133.49124485,4124.49953609,4126.41289914,4137.34909078,4116.32025394,4112.59009698,4126.45539396,4124.43719381,551.999356975
off_to_on,4123.01691615,4125.19830657,4116.71246449,4136.40627619,4134.01092523,4132.82074246,4123.61810159,4125.62516822,4137.35762488,4115.39325131,4112.104039,4125.69810308,4123.95478003,547.934888858
off_to_on,4122.20016948,4124.67469339,4116.62265569,4136.44701534,4133.37308485,4132.12106358,4122.75563377,4124.88337176,4137.35474913,4114.49664559,4111.59423954,4124.95076788,4123.48043552,543.873388249
off_to_on,4121.39873741,4124.13742488,4116.50596389,4136.47401794,4132.72882515,4131.40966757,4121.92648064,4124.1989621,4137.34061169,4113.64853274,4111.07174308,4124.2300393,4123.02703285,539.354886883
off_to_on,4120.63455939,4123.59865137,4116.37137259,4136.48609929,4132.09254152,4130.70327798,4121.14313257,4123.58170985,4137.31576473,4112.86444496,4110.54696676,4123.55052089,4122.60534139,533.886521534
off_to_on,4119.92730492,4123.06924821,4116.22692676,4136.48242658,4131.47704213,4130.01741259,4120.41595362,4123.03972979,4137.28113748,4112.15701444,4110.02947635,4122.92440884,4122.22381593,526.963921369
off_to_on,4119.29396636,4122.55857683,4116.07956617,4136.46254346,4130.89327239,4129.36596574,4119.75298646,4122.57959517,4137.23799601,4111.53574417,4109.52780149,4122.3612241,4121.88847943,518.093619216
off_to_on,4118.7485569,4122.0743155,4115.93501938,4136.42638578,4130.35011584,4128.76085543,4119.15983578,4122.20652925,4137.18789158,4111.00689124,4109.04929402,4121.8676452,4121.60290208,506.815587101
off_to_on,4118.30191784,4121.62236308,4115.7977592,4136.37428824,4129.85427514,4128.2117452,4118.63963252,4121.92465888,4137.13259948,4110.57346403,4108.60003148,4121.44744736,4121.36827492,492.72498315
off_to_on,4117.96163574,4121.20681653,4115.67101724,4136.30698175,4129.41023414,4127.72584838,4118.19307882,4121.73731099,4137.07405076,4110.23533053,4108.18476606,4121.10154877,4121.1835725,475.492220351
off_to_on,4117.73206542,4120.83001972,4115.55685267,4136.22558195,4129.02029929,4127.30781897,4117.81857117,4121.64733032,4137.01425951,4109.98943135,4107.80691803,4120.82816091,4121.04579543,454.880526836
off_to_on,4117.61445152,4120.49267838,4115.45626813,4136.13156891,4128.68471605,4126.9597309,4117.51239725,4121.65739537,4136.95524843,4109.83008675,4107.46861071,4120.62303529,4120.95028054,430.760260012
off_to_on,4117.60713838,4120.19403355,4115.36936399,4136.02675866,4128.40185398,4126.68114455,4117.26899983,4121.77030962,4136.8989754,4109.74938387,4107.17074306,4120.4797951,4120.89106331,403.119359384
off_to_on,4117.70585552,4119.93208409,4115.29552084,4135.91326685,4128.16845199,4126.46925744,4117.08129894,4121.98924613,4136.8472638,4109.73762742,4106.91309464,4120.39033661,4120.86127599,372.069470413
off_to_on,4117.90406406,4119.70384714,4115.23359962,4135.79346506,4127.97991342,4126.31913351,4116.94106183,4122.31792585,4136.80173902,4109.78383491,4106.69445695,4120.34528277,4120.85356321,337.847438377
off_to_on,4118.19334814,4119.50564405,4115.18214817,4135.6699302,4127.83063885,4126.22400302,4116.83930792,4122.76071383,4136.76377347,4109.87625625,4106.51278427,4120.33446923,4120.86049684,300.812050334
off_to_on,4118.56383452,4119.33339822,4115.13960337,4135.54538769,4127.71438348,4126.17562273,4116.76673454,4123.32262134,4136.73444183,4110.00289696,4106.36535704,4120.34744173,4120.87497197,261.436087777
off_to_on,4119.00462364,4119.18293143,4115.10447858,4135.4226493,4127.62462485,4126.16468436,4116.71414834,4124.00920801,4136.71448813,4110.15202466,4106.24895046,4120.37394388,4120.89056726,220.293935151
off_to_on,4119.50421677,4119.05024561,4115.07552757,4135.30454668,4127.55492722,4126.18125723,4116.67288693,4124.82638335,4136.70430548,4110.31263995,4106.16000192,4120.40437542,4120.90185517,178.045162802
off_to_on,4120.05092478,4118.93177845,4115.05187781,4135.19386187,4127.49928879,4126.21525009,4116.63521575,4125.78011308,4136.70392907,4110.47489516,4106.09477122,4120.43020322,4120.90465045,135.414660321
off_to_on,4120.63324673,4118.8246233,4115.03312832,4135.09325636,4127.45245928,4126.25687615,4116.59468603,4126.87604146,4136.71304226,4110.63044735,4106.04948885,4120.44431011,4120.89618898,93.1700314976
off_to_on,4121.24020821,4118.72670541,4115.01940936,4135.00520041,4127.41021631,4126.29710462,4116.54644066,4128.11904548,4136.73099544,4110.77273501,4106.02048849,4120.44126983,4120.87523217,52.0970698566
off_to_on,4121.86165229,4118.63690938,4115.01140358,4134.9319044,4127.36959055,4126.32808153,4116.48745657,4129.51274139,4136.75683647,4110.89717119,4106.00432111,4120.41753958,4120.84209608,12.9742099181
off_to_on,4122.48847844,4118.55515484,4115.01033055,4134.87525441,4127.32903128,4126.34350287,4116.41671336,4131.05896721,4136.78935161,4111.00124912,4105.99784897,4120.37156566,4120.79860729,-23.4531090315
off_to_on,4123.11282713,4118.48242,4115.01789852,4134.83675408,4127.28850636,4126.33892395,4116.33528085,4132.75726748,4136.82711501,4111.08455985,4105.99831911,4120.30380141,4120.74799173,-56.4972242928
off_to_on,4123.72821033,4118.4207154,4115.03622883,4134.81747486,4127.24953273,4126.31199118,4116.24632058,4134.60440828,4136.86854488,4111.14872557,4106.00341688,4120.21664122,4120.69470526,-85.5512644735
off_to_on,4124.32959003,4118.37301215,4115.0677601,4134.81801659,4127.21513714,4126.26258626,4116.15500085,4136.59395168,4136.91196421,4111.19725539,4106.01130115,4120.11427781,4120.64421805,-110.10955103
off_to_on,4124.91340899,4118.34313064,4115.11513973,4134.83848041,4127.18974925,4126.19287641,4116.06832821,4138.71591752,4136.9556636,4111.23533383,4106.02062328,4120.00249389,4120.60276596,-129.78463573
off_to_on,4125.47757899,4118.33559726,4115.18111078,4134.87845523,4127.17903309,4126.10726868,4115.9949026,4140.95655895,4136.99796402,4111.26955455,4106.03053252,4119.88840128,4120.57708329,-144.320342222
off_to_on,4126.02143343,4118.35547738,4115.26840205,4134.93701891,4127.18966478,4126.01227027,4115.94460648,4143.2982739,4137.03727712,4111.30761418,4106.0406702,4119.7801433,4120.57413146,-153.600315023
off_to_on,4126.54565133,4118.40819343,4115.37962832,4135.0127548,4127.22906765,4125.916261,4115.92824194,4145.71967044,4137.07216095,4111.35798236,4106.05115546,4119.68657667,4120.60083762,-157.651726223
off_to_on,4127.05216041,4118.49933719,4115.51720672,4135.10378348,4127.30511721,4125.82918837,4115.95713244,4148.19579781,4137.1013692,4111.42956443,4106.06256471,4119.61694964,4120.66385555,-156.643949691
off_to_on,4127.54402649,4118.63448441,4115.6832934,4135.2078093,4127.42582974,4125.76219899,4116.0427073,4150.69854824,4137.12389229,4111.53137285,4106.07590669,4119.58059174,4120.76935942,-150.882186514
off_to_on,4128.0253357,4118.81901969,4115.87974327,4135.32218065,4127.59904865,4125.72722261,4116.19608789,4153.1972265,4137.13898885,4111.67222172,4106.09259423,4119.58662901,4120.92287786,-140.796211337
off_to_on,4128.50107466,4119.05797844,4116.10809374,4135.44396238,4127.83214214,4125.73652662,4116.4276933,4155.65927615,4137.14620692,4111.86045665,4106.11441329,4119.6437363,4121.12917331,-126.92459732
off_to_on,4128.97701243,4119.35591149,4116.3695718,4135.57001824,4128.13172465,4125.80225977,4116.74688246,4158.05114346,4137.14539396,4112.10373034,4106.14348944,4119.75993553,4121.39216898,-109.894953889
off_to_on,4129.45958638,4119.71677685,4116.66512234,4135.69710111,4128.50341331,4125.93600426,4117.1616477,4160.33925295,4137.13669588,4112.4088312,4106.18225154,4119.94244622,4121.71492331,-90.4008671212
off_to_on,4129.95579263,4120.1438614,4116.99545408,4135.82194789,4128.95162869,4126.14835549,4117.67837238,4162.49106229,4137.12054508,4112.78156978,4106.23339242,4120.19759141,4122.09964906,-69.1763649279
off_to_on,4130.47308025,4120.63973359,4117.36109834,4135.94137608,4129.47944731,4126.44854735,4118.30166205,4164.47615906,4137.09763837,4113.22672458,4106.29982608,4120.53075918,4122.54777265,-46.9688364614
off_to_on,4131.01924683,4121.20622646,4117.76247513,4136.05237856,4130.08851028,4126.84413862,4119.03425465,4166.26735772,4137.06890571,4113.74804541,4106.38464066,4120.94641669,4123.06002658,-24.5114106381
off_to_on,4131.60233154,4121.84444805,4118.19996023,4136.15221338,4130.77898987,4127.34077231,4119.87701116,4167.8417527,4137.03547109,4114.34830926,4106.49104691,4121.44817025,4123.63656653,-2.49583416763
off_to_on,4132.23050108,4122.55481497,4118.67394663,4136.23848541,4131.54961256,4127.94201568,4120.8289834,4169.18168249,4136.99860733,4115.02942028,4106.62232115,4122.03886219,4124.2771029,18.4531177568
off_to_on,4132.91192339,4123.33710291,4119.1848943,4136.3092168,4132.39773487,4128.64928434,4121.88755151,4170.27556099,4136.95968629,4115.79254299,4106.78174263,4122.72069254,4124.981036,37.8007129144
off_to_on,4133.65462484,4124.19050759,4119.73336252,4136.36290416,4133.31946524,4129.46184947,4123.0486196,4171.11853537,4136.92012678,4116.6382554,4106.97252463,4123.49535231,4125.74758391,55.1219173118
off_to_on,4134.46632725,4125.11370904,4120.32002034,4136.39856028,4134.30982399,4130.37692336,4124.30685519,4171.71293494,4136.88134186,4117.56670825,4107.19773939,4124.3641544,4126.57589248,70.1168597995
off_to_on,4135.35426225,4126.10493222,4120.94563207,4136.41573917,4135.36293101,4131.38981461,4125.65595552,4172.06848235,4136.84468761,4118.57777582,4107.46023733,4125.32814843,4127.46511833,82.6214874315
off_to_on,4136.32496245,4127.16199751,4121.61101575,4136.41454391,4136.47221035,4132.49414159,4127.0889232,4172.20224691,4136.81141522,4119.67118481,4107.76256117,4126.38820699,4128.41447693,92.61297314
off_to_on,4137.38403096,4128.28235567,4122.31697463,4136.39561718,4137.63060035,4133.68209063,4128.59833367,4172.13832935,4136.78262807,4120.84660918,4108.10685648,4127.54507233,4129.42325043,100.209635625
off_to_on,4138.53589322,4129.46310302,4123.06420296,4136.36011503,4138.83075846,4134.9447039,4130.17657789,4171.90727779,4136.75924524,4122.10372109,4108.49478022,4128.79935493,4130.49075193,105.665341856
off_to_on,4139.78353738,4130.7009744,4123.853169,4136.30966503,4140.06525034,4136.27218142,4131.81606644,4171.54524555,4136.74197267,4123.44219103,4108.92740941,4130.15147815,4131.61624593,109.358576358
off_to_on,4141.12825134,4131.99231293,4124.68397945,4136.24631043,4141.3267143,4137.65418154,4133.50938375,4171.09291187,4136.73128291,4124.86163362,4109.40515255,4131.601566,4132.79882707,111.776568304
off_to_on,4142.56936634,4133.33301746,4125.55623076,4136.17244228,4142.60799364,4139.08010524,4135.24938516,4170.59419729,4136.72740381,4126.36149885,4109.92766646,4133.14927461,4134.03726194,113.495059749
off_to_on,4144.10401854,4134.71847032,4126.46885393,4136.09072214,4143.90223141,4140.53935185,4137.02923305,4170.09481445,4136.73031666,4127.94091226,4110.49378166,4134.79357119,4135.32980092,115.154470207
off_to_on,4145.72694131,4136.14344998,4127.41996049,4136.00399791,4145.20292493,4142.02153638,4138.84237254,4169.64070345,4136.73976322,4129.59847091,4111.10143944,4136.53246868,4136.67396971,117.433356579
off_to_on,4147.43030152,4137.60203486,4128.40669794,4135.91521569,4146.50393925,4143.51666109,4140.68245038,4169.27640681,4136.75526155,4131.33200541,4111.747644,4138.36272803,4138.06635192,121.02017574
off_to_on,4149.20359238,4139.08750547,4129.42512323,4135.82733071,4147.79948109,4145.0152364,4142.54318392,4169.04344323,4136.77612953,4133.13832142,4112.42843293,4140.27954349,4139.50237581,126.584426093
off_to_on,4151.03359444,4140.59225264,4130.47010252,4135.74321998,4149.08403689,4146.50834851,4144.41818935,4168.97874091,4136.80151517,4135.01293587,4113.13886905,4142.27622925,4140.97611894,134.748273023
off_to_on,4152.90441385,4142.10770015,4131.5352444,4135.6655994,4150.35228028,4147.98767373,4146.30078039,4169.11318968,4136.83043231,4136.9498247,4113.87305631,4144.34392687,4142.48014419,146.059749564
off_to_on,4154.79760452,4143.62424915,4132.61287298,4135.59694762,4151.59895591,4149.44544276,4148.18375021,4169.47036822,4136.86180034,4138.94119859,4114.62418136,4146.47135354,4144.00537977,160.968566547
off_to_on,4156.69237819,4145.1312524,4133.69404574,4135.53943876,4152.8187481,4150.87436124,4150.05915078,4170.06549669,4136.89448625,4140.97732309,4115.38458204,4148.64461063,4145.54105434,179.805468728
off_to_on,4158.56590283,4146.61702497,4134.76861947,4135.49488536,4154.0061441,4152.26749581,4151.91808503,4170.90465817,4136.92734744,4143.04639802,4116.14584288,4150.8470705,4147.07469663,202.765940585
off_to_on,4160.39368701,4148.06889735,4135.82536619,4135.46469303,4155.15530232,4153.61813725,4153.75052742,4171.98432308,4136.95927367,4145.13450873,4116.89891699,4153.05935717,4148.59220612,229.898902067
off_to_on,4162.15004434,4149.47331505,4136.85213851,4135.44982738,4156.25993665,4154.91965381,4155.54518797,4173.29120049,4136.98922658,4147.22565915,4117.63427303,4155.25943279,4150.07799859,261.100845332
off_to_on,4163.80862874,4150.81598701,4137.83608231,4135.45079377,4157.31322699,4156.16534838,4157.28943294,4174.80242779,4137.01627543,4149.3018928,4118.34206453,4157.42279816,4151.51522689,296.115656362
off_to_on,4165.34302844,4152.08208322,4138.76389226,4135.46763005,4158.3077656,4157.34833262,4158.96927361,4176.48609848,4137.03962769,4151.34350464,4119.01231857,4159.52281083,4152.88607426,334.540150171
off_to_on,4166.72740337,4153.25647975,4139.62210418,4135.49991224,4159.2355466,4158.46143037,4160.56943208,4178.30211488,4137.05865366,4153.32934309,4119.63513961,4161.53112023,4154.17211477,375.835132851
off_to_on,4167.9371489,4154.32404777,4140.39741649,4135.54677286,4160.08800449,4159.49712061,4162.07349019,4180.20334096,4137.07290424,4155.23719775,4120.20092402,4163.41821406,4155.35473225,419.341594479
off_to_on,4168.94956664,4155.26998048,4141.07703166,4135.60693158,4160.85610496,4160.44752816,4163.46412359,4182.13701918,4137.08212137,4157.04426457,4120.70057987,4165.15406535,4156.4155866,464.301442758
off_to_on,4169.74452266,4156.08015056,4141.64900777,4135.6787372,4161.53048901,4161.3044675,4164.72341935,4184.04640507,4137.08624105,4158.72767675,4121.12574656,4166.708865,4157.33711353,509.882017184
off_to_on,4170.30507218,4156.74148864,4142.10260929,4135.76021984,4162.10166868,4162.0595425,4165.83327154,4185.87256573,4137.08538898,4160.26508639,4121.46900827,4168.05382006,4158.10304252,555.203483536
off_to_on,4170.61803027,4157.24237206,4142.42864616,4135.84915163,4162.56026987,4162.70430209,4166.77584593,4187.55628234,4137.07986916,4161.63527949,4121.72409563,4169.16199463,4158.69891605,599.368101924
off_to_on,4170.6744682,4157.57301165,4142.61978958,4135.94311433,4162.89731523,4163.23044884,4167.53410145,4189.03999272,4137.07014617,4162.81880489,4121.88606964,4170.00916671,4159.11259231,641.490293148
off_to_on,4170.47011606,4157.72582305,4142.67085325,4136.03957142,4163.10453768,4163.63009473,4168.09235214,4190.26970815,4137.05682197,4163.79859519,4121.95148212,4170.5746714,4159.33471284,680.726401872
off_to_on,4170.00565393,4157.69576791,4142.5790288,4136.13594271,4163.17471286,4163.89605478,4168.43684973,4191.19683812,4137.04060825,4164.5605565,4121.91850711,4170.84219879,4159.35911586,716.303071104
off_to_on,4169.2868763,4157.48065017,4142.34406493,4136.2296791,4163.10199691,4164.0221661,4168.5563642,4191.77985944,4137.02229544,4165.09410348,4121.78703772,4170.80051392,4159.18317724,747.543198273
off_to_on,4168.32471765,4157.08135312,4141.96838138,4136.31833512,4162.88225507,4164.00361754,4168.44273801,4191.98577082,4137.00271983,4165.39261685,4121.55874412,4170.44406707,4158.80806275,773.888536837
off_to_on,4167.13513197,4156.50200446,4141.45711071,4136.39963732,4162.5133656,4163.83727366,4168.09138956,4191.79128173,4136.98273001,4165.45380306,4121.23708914,4169.77346549,4158.23887857,794.918136813
off_to_on,4165.73882378,4155.75005927,4140.81806358,4136.47154631,4161.99548477,4163.52197676,4167.50174265,4191.1836934,4136.96315385,4165.27993905,4120.82729931,4168.7957817,4157.4847107,810.361977059
off_to_on,4164.1608345,4154.83629331,4140.06161603,4136.53231067,4161.3312591,4163.0588115,4166.67756046,4190.16144081,4136.94476754,4164.87798888,4120.33629039,4167.52467928,4156.55854803,820.109323456
off_to_on,4162.42999336,4153.77470273,4139.20052033,4136.58051128,4160.52597318,4162.45131784,4165.62716576,4188.73427594,4136.92826746,4164.25958388,4119.77254783,4165.98034325,4155.47708809,824.211543894
off_to_on,4160.57824698,4152.58230885,4138.24964346,4136.61509462,4159.58762327,4161.70563966,4164.36353301,4186.92308501,4136.91424622,4163.44086252,4119.14596398,4164.18920897,4154.26042831,822.87931731
off_to_on,4158.63988683,4151.27886973,4137.22564001,4136.63539442,4158.52690944,4160.83059829,4162.90424229,4184.75934497,4136.90317339,4162.44217054,4118.46763511,4162.18349023,4152.93164917,816.474381325
off_to_on,4156.65069724,4149.8865033,4136.14656848,4136.6411412,4157.35714181,4159.83768271,4161.27128935,4182.28423622,4136.89538174,4161.28762686,4117.74962246,4160.00051386,4151.51629921,805.496161796
off_to_on,4154.64705019,4148.42922966,4135.03146207,4136.63245967,4156.09405979,4158.74095094,4159.49075086,4179.54744005,4136.89105917,4160.00456457,4117.00468286,4157.68187525,4150.04179504,790.563810901
off_to_on,4152.66497493,4146.93244358,4133.89986663,4136.60985447,4154.75556605,4157.55684056,4157.59230797,4176.60565953,4136.89024664,4158.62286126,4116.24597549,4155.27243566,4148.53675273,772.394343288
off_to_on,4150.73923164,4145.42233025,4132.77135951,4136.57418518,4153.36138024,4156.30388961,4155.60863675,4173.52091201,4136.89284183,4157.17417686,4115.48675232,4152.81918848,4147.03026936,751.77769567
off_to_on,4148.90241814,4143.92524013,4131.66506368,4136.52663154,4151.93262028,4155.00237316,4153.57467875,4170.35864917,4136.89860836,4155.69112081,4114.7400408,4150.37002704,4145.55117578,729.549637656
off_to_on,4147.18413754,4142.46704009,4130.59917158,4136.46865035,4150.49132184,4153.67386374,4151.52680988,4167.18576685,4136.90718992,4154.20637335,4114.01832739,4147.97245091,4144.12728227,706.56352754
off_to_on,4145.61025303,4141.07245924,4129.59049267,4136.40192531,4149.05990897,4152.34072717,4149.5019301,4164.06857021,4136.91812875,4152.75178786,4113.33325121,4145.67225115,4142.78463963,683.661936142
off_to_on,4144.20225295,4139.76444876,4128.65403818,4136.32831158,4147.66063103,4151.02556691,4147.53649975,4161.07076154,4136.93088739,4151.35750239,4112.69531647,4143.51221682,4141.54683782,661.649153171
off_to_on,4142.97674575,4138.56357483,4127.80265516,4136.24977662,4146.31498238,4149.75063273,4145.66555146,4158.25151725,4136.94487298,4150.05108925,4112.11363203,4141.53090609,4140.43436341,641.265543206
off_to_on,4141.9451001,4137.48746349,4127.04672068,4136.16833916,4145.04312288,4148.5372112,4143.9217092,4155.66371759,4136.95946295,4148.85677065,4111.59568608,4139.76152409,4139.46403588,623.164635333
off_to_on,4141.11324097,4136.55031577,4126.39390515,4136.08600813,4143.86331806,4147.40501797,4142.33424756,4153.35238773,4136.97403098,4147.79472703,4111.1471626,4138.23094733,4138.64854044,607.893717886
off_to_on,4140.4816077,4135.76250984,4125.8490121,4136.00472326,4142.79141823,4146.37161295,4140.92822482,4151.35340177,4136.9879724,4146.88052217,4110.77180528,4136.95893063,4137.99607303,595.878572101
off_to_on,4140.04527487,4135.13030548,4125.4138994,4135.92629919,4141.84039512,4145.45186014,4139.72372256,4149.69249238,4137.00072776,4146.12466607,4110.47133352,4135.95752706,4137.51011004,587.412818581
off_to_on,4139.79423166,4134.65566328,4125.08748448,4135.85237451,4141.0199537,4144.65745353,4138.73522181,4148.38459846,4137.01180405,4145.53233248,4110.24541343,4135.2307445,4137.18931218,582.652172043
off_to_on,4139.71380997,4134.33618759,4124.86583365,4135.78436744,4140.33623452,4143.99652892,4137.97114156,4147.43357152,4137.02079255,4145.103243,4110.09168553,4134.77445465,4137.02756807,581.613710076
off_to_on,4139.7852466,4134.16519808,4124.74233247,4135.72343928,4139.79161959,4143.47337916,4137.43355929,4146.83224865,4137.02738297,4144.83172371,4110.00584897,4134.57656074,4137.01417849,584.180068187
off_to_on,4139.98635988,4134.13193056,4124.70793195,4135.67046676,4139.38465125,4143.08828647,4137.11812604,4146.56288667,4137.03137325,4144.70693422,4109.98180077,4134.61742143,4137.13417818,590.108284777
off_to_on,4140.29231764,4134.22186285,4124.75146203,4135.626024,4139.11006937,4142.8374804,4137.01418152,4146.59793901,4137.0326752,4144.71326294,4110.01182642,4134.87051876,4137.36878743,599.042846558
off_to_on,4140.67646971,4134.41715748,4124.86000244,4135.59037461,4138.95896806,4142.71322493,4137.10506723,4146.90114511,4137.03131558,4144.83087687,4110.08683709,4135.30334952,4137.69598204,610.532338412
off_to_on,4141.11121642,4134.69720821,4125.01929834,4135.5634739,4138.91906827,4142.70403284,4137.36862917,4147.42889137,4137.02743323,4145.03640904,4110.19664688,4135.87851153,4138.09116613,624.048987902
off_to_on,4141.5688837,4135.03927382,4125.21420729,4135.54498125,4138.97509874,4142.79500091,4137.77789477,4148.13179386,4137.02127226,4145.30376165,4110.3302825,4136.55494937,4138.52792876,639.010311606
off_to_on,4142.02257538,4135.41917932,4125.42916319,4135.53428186,4139.1092735,4142.96825514,4138.30190274,4148.95644554,4137.01317204,4145.60499943,4110.47631647,4137.28931838,4138.97886234,654.802015884
off_to_on,4142.44697536,4135.81206207,4125.6486425,4135.53051709,4139.30185073,4143.20349168,4138.90665924,4149.84726585,4137.00355436,4145.91130377,4110.62321399,4138.03742186,4139.41641767,670.801280673
off_to_on,4142.81907411,4136.19313901,4125.85761835,4135.53262217,4139.5317545,4143.47859558,4139.55618937,4150.74838749,4136.99290847,4146.19395655,4110.7596834,4138.75567321,4139.81376913,686.39956577
off_to_on,4143.11879774,4136.53846992,4126.04198909,4135.53936996,4139.77723893,4143.77031753,4140.21365054,4151.60551529,4136.98177449,4146.42532115,4110.87501934,4139.4025343,4140.1456621,701.024123929
off_to_on,4143.3295219,4136.82569244,4126.18896875,4135.54941891,4140.01657303,4144.05498713,4140.84247197,4152.36769416,4136.9707258,4146.57978783,4110.95942807,4139.93988151,4140.38921519,714.157478664
off_to_on,4143.43845733,4137.03470534,4126.28742877,4135.5613639,4140.22872412,4144.30924028,4141.40748492,4152.98892719,4136.96035084,4146.63465208,4111.00432482,4140.3342536,4140.52465049,725.354221379
off_to_on,4143.43689854,4137.14827852,4126.32818197,4135.57378782,4140.39401794,4144.51073821,4141.87600798,4153.4295913,4136.95123495,4146.57089594,4111.00259339,4140.55793886,4140.5359275,734.254596114
off_to_on,4143.32033151,4137.15257029,4126.30420144,4135.58531239,4140.49475448,4144.63885585,4142.21885386,4153.65760551,4136.94394246,4146.37384535,4110.94879962,4140.5898637,4140.41125845,740.594463184
off_to_on,4143.0884005,4137.03753503,4126.21076886,4135.5946464,4140.51575985,4144.67531837,4142.41122572,4153.64931601,4136.93899961,4146.03367994,4110.83935119,4140.416251,4140.14348656,744.211358949
off_to_on,4142.74473827,4136.79720747,4126.04554878,4135.60062982,4140.44485697,4144.60476643,4142.43347501,4153.39007269,4136.93687853,4145.54577609,4110.67259797,4140.03102344,4139.73031237,745.046497688
off_to_on,4142.29666833,4136.42985379,4125.80858715,4135.60227233,4140.27324002,4144.41523265,4142.2716962,4152.87448268,4136.93798271,4144.91086924,4110.44886866,4139.43593613,4139.17435863,743.142695969
off_to_on,4141.75479114,4135.93798403,4125.50223503,4135.59878491,4139.99574083,4144.09851406,4141.91813934,4152.10633801,4136.9426342,4144.13502812,4110.17044194,4138.64043262,4138.48306972,738.638340435
off_to_on,4141.13247024,4135.32822479,4125.13100042,4135.58960346,4139.61097814,4143.65042813,4141.37142661,4151.09822604,4136.95106275,4143.22943987,4109.84145242,4137.66122869,4137.66844781,731.757662616
off_to_on,4140.44523693,4134.61105575,4124.70133321,4135.57440358,4139.12138435,4143.07094311,4140.63656487,4149.87084215,4136.96339726,4142.21001201,4109.46773409,4136.5216384,4136.74663339,722.797722743
off_to_on,4139.71013458,4133.80041788,4124.22135052,4135.55310602,4138.53310799,4142.36417704,4139.7247521,4148.45203405,4136.97965967,4141.09680362,4109.056606,4135.25066612,4135.73734353,712.112631941
off_to_on,4138.94502624,4132.91320595,4123.70051158,4135.52587256,4137.8557943,4141.5382643,4138.65298218,4146.87561629,4136.9997614,4139.91330456,4108.61660694,4133.88189754,4134.66318654,700.095652307
off_to_on,4138.16789001,4131.9686625,4123.14925318,4135.49309272,4137.10225021,4140.60509281,4137.44345962,4145.1800011,4137.02350259,4138.68558725,4108.15718821,4132.45223005,4133.54887629,687.15990177
off_to_on,4137.39612748,4130.98769391,4122.57859835,4135.45536185,4136.28800403,4139.57991964,4136.12284305,4143.40669809,4137.05057411,4137.44136104,4107.68837492,4131.00048932,4132.42037384,673.7184508
off_to_on,4136.64590974,4129.99213283,4121.99975189,4135.41345208,4135.43077394,4138.48087752,4134.72134353,4141.59873953,4137.08056247,4136.2089631,4107.22040842,4129.56598323,4131.30398682,660.164627576
off_to_on,4135.9315845,4129.00397299,4121.42369698,4135.36827736,4134.54986278,4137.32838917,4133.27170919,4139.79909023,4137.11295743,4135.01632274,4106.76338306,4128.18704647,4130.22545886,646.853345335
off_to_on,4135.26516552,4128.04460427,4120.86080747,4135.32085469,4133.66549956,4136.14450961,4131.80813216,4138.04910056,4137.14716241,4133.88993726,4106.32689102,4126.89962974,4129.20908199,634.084229576
off_to_on,4134.65592277,4127.13407564,4120.32048964,4135.27226324,4132.79814994,4134.95221895,4130.3651158,4136.38705845,4137.18250739,4132.85389746,4105.91968876,4125.73598584,4128.27686401,622.08725475
off_to_on,4134.11008782,4126.29041287,4119.81086649,4135.2236033,4131.9678191,4133.77468932,4128.97634098,4134.84689109,4137.21826406,4131.92899925,4105.54939774,4124.72350088,4127.44778091,611.011502254
off_to_on,4133.63068469,4125.52901512,4119.33851588,4135.17595675,4131.1933706,4132.63455024,4127.67356976,4133.45706069,4137.25366304,4131.13197441,4105.22225027,4123.88371364,4126.73714069,600.917527758
off_to_on,4133.21749186,4124.86215179,4118.90827223,4135.13035069,4130.49188438,4131.55317658,4126.48562253,4132.23969008,4137.2879126,4130.47486954,4104.94288959,4123.23155846,4126.15608085,591.773680971
off_to_on,4132.8671363,4124.29857692,4118.52309889,4135.08772557,4129.87807618,4130.55002265,4125.43746237,4131.20994489,4137.32021861,4129.96459644,4104.7142307,4122.77485902,4125.71121663,583.456560744
off_to_on,4132.57331581,4123.84327438,4118.1840363,4135.04890881,4129.36379856,4129.6420247,4124.54941625,4130.37568923,4137.34980507,4129.60267157,4104.53738606,4122.51409135,4125.4044519,575.75561938
off_to_on,4132.32714066,4123.49734233,4117.8902281,4135.01459478,4128.95764147,4128.84309196,4123.83655833,4129.73742136,4137.37593491,4129.3851553,4104.41165778,4122.44242411,4125.23295866,568.381759243
off_to_on,4132.11758134,4123.25801993,4117.63902413,4134.9853313,4128.6646466,4128.16370318,4123.30827517,4129.28848574,4137.3979303,4129.30279428,4104.33459549,4122.54603405,4125.18932488,560.97959911
off_to_on,4131.93200456,4123.11885429,4117.42615658,4134.96151284,4128.48614605,4127.61062185,4122.96802629,4129.01554743,4137.41519215,4129.34136261,4104.30211666,4122.80468401,4125.26186395,553.142934219
off_to_on,4131.75677656,4123.07000031,4117.24598186,4134.94337997,4128.41973129,4127.18673912,4122.81330696,4128.89930535,4137.42721824,4129.48218992,4104.30868417,4123.19254081,4125.43507375,544.432778934
off_to_on,4131.57790978,4123.09864156,4117.09177881,4134.93102415,4128.45935393,4126.89104889,4122.83581308,4128.91541202,4137.43361952,4129.70285768,4104.34753399,4123.6792019,4125.69022773,534.397270051
off_to_on,4131.38172725,4123.18951622,4116.95609076,4134.92439727,4128.59555486,4126.71875497,4123.02180084,4129.03556024,4137.43413421,4129.97803863,4104.41094416,4124.23089184,4126.00607646,522.592626635
off_to_on,4131.15551779,4123.32552767,4116.83109733,4134.92332461,4128.81581397,4126.66150495,4123.35262649,4129.22869111,4137.42863921,4130.28044879,4104.49053506,4124.81178318,4126.35963385,508.604312415
off_to_on,4130.88815514,4123.4884167,4116.70900019,4134.92752031,4129.10500749,4126.70774074,4123.80544493,4129.46227423,4137.41715854,4130.58187688,4104.57758954,4125.3853916,4126.72701932,492.067531256
off_to_on,4130.57065552,4123.65946956,4116.58240617,4134.93660422,4129.44595674,4126.84315138,4124.3540398,4129.70360886,4137.39986839,4130.85425264,4104.66338119,4125.9159925,4127.08432515,472.686205887
off_to_on,4130.19664994,4123.82023509,4116.44469142,4134.95011906,4129.82004782,4127.05121026,4124.96975395,4129.92109524,4137.37709842,4131.07071417,4104.73949863,4126.37000518,4127.40847785,450.249644068
off_to_on,4129.76275102,4123.95322397,4116.29033055,4134.96754709,4130.20789981,4127.31377634,4125.6224862,4130.0854282,4137.34932913,4131.20663417,4104.79815443,4126.71729251,4127.67806241,424.646182759
off_to_on,4129.26879765,4124.04256349,4116.11517635,4134.98832581,4130.59005652,4127.61173644,4126.28171933,4130.17066913,4137.31718498,4131.24056626,4104.83246792,4126.93232614,4127.87408008,395.873215988
off_to_on,4128.71796575,4124.07458338,4115.91667733,4135.01186218,4130.94767637,4127.92566499,4126.9175434,4130.15515816,4137.28142332,4131.15507516,4104.83671213,4126.99517235,4127.9806123,364.043151627
off_to_on,4128.11673884,4124.03831077,4115.69402305,4135.0375455,4131.26319471,4128.23647661,4127.50163952,4130.02223536,4137.24291898,4130.9374185,4104.80651652,4126.89226028,4127.98536677,329.385000333
off_to_on,4127.47473778,4123.9258565,4115.44821054,4135.06475898,4131.52093404,4128.52604818,4128.00819058,4129.76074736,4137.20264471,4130.58005339,4104.73901883,4126.61690225,4127.88008636,292.241470433
off_to_on,4126.80441491,4123.73267926,4115.18202824,4135.09289031,4131.70763946,4128.77778848,4128.41468903,4129.36532484,4137.16164795,4130.0809478,4104.63296112,4126.16954615,4127.66080651,253.061618497
off_to_on,4126.12062322,4123.45771897,4114.89995783,4135.12134152,4131.8129199,4128.97713667,4128.7026158,4128.83642578,4137.1210241,4129.44368405,4104.48872759,4125.55774978,4127.32795293,212.389279866
off_to_on,4125.44007638,4123.10339602,4114.60799766,4135.14953867,4131.82957931,4129.11197432,4128.85796974,4128.18014857,4137.08188715,4128.67735022,4104.30832324,4124.79587884,4126.88627745,170.847669484
off_to_on,4124.78072038,4122.67547826,4114.31341509,4135.17694139,4131.75382676,4129.17294014,4128.87163282,4127.40782906,4137.04533836,4127.79622369,4104.09529517,4123.90454109,4126.34463632,129.120694496
off_to_on,4124.1610411,4122.18282345,4114.02443816,4135.20305291,4131.5853592,4129.15364023,4128.73956307,4126.53544376,4137.0124338,4126.81925987,4103.85459979,4122.90978065,4125.71562201,87.9316501557
off_to_on,4123.59933538,4121.63700962,4113.74990009,4135.22743033,4131.32731546,4129.05075148,4128.46281429,4125.58284979,4136.98415189,4125.76940736,4103.59242166,4121.8420661,4125.01506519,48.0200746998
off_to_on,4123.11297432,4121.05187021,4113.4988517,4135.24969529,4130.98610544,4128.86401945,4128.04738817,4124.57289806,4136.96136189,4124.67277769,4103.31595123,4120.7351145,4124.2614287,10.1176127892
off_to_on,4122.71768854,4120.44295449,4113.28015888,4135.26954465,4130.57112283,4128.59615656,4127.5039304,4123.53046049,4136.94479438,4123.5577036,4103.03312996,4119.62459961,4123.47511897,-25.0762218486
off_to_on,4122.42690439,4119.82693607,4113.10210255,4135.28676084,4130.09435457,4128.25264948,4126.8472866,4122.48141372,4136.93501499,4122.45372366,4102.75237257,4118.54679692,4122.67774334,-56.9174873536
off_to_on,4122.25115849,4119.22099442,4112.97199867,4135.30122121,4129.569904,4127.84148766,4126.09593785,4121.45162195,4136.93240219,4121.39053303,4102.4822765,4117.53721992,4121.89134264,-84.8395891019
off_to_on,4122.19761497,4118.64219446,4112.89585509,4135.31290581,4129.01344774,4127.37282653,4125.27133827,4120.46595972,4136.93713025,4120.39694129,4102.23132926,4116.62930171,4121.13762895,-108.372581587
off_to_on,4122.26970614,4118.10688868,4112.87808022,4135.32190294,4128.44164893,4126.85860083,4124.39717975,4119.5474128,4136.94915802,4119.49987664,4102.00762405,4115.85317346,4120.43725704,-127.159279251
off_to_on,4122.46691273,4117.63016509,4112.92125688,4135.32841185,4127.87155088,4126.31210421,4123.4986105,4118.71629098,4136.96822417,4118.72347374,4101.81859391,4115.23458704,4119.80915589,-140.967571408
off_to_on,4122.78469487,4117.2253617,4113.02599174,4135.33274217,4127.31997565,4125.74755167,4122.60143545,4117.98958135,4136.99384939,4118.08827853,4101.67077372,4114.79402274,4119.26994407,-149.698464307
off_to_on,4123.21457928,4116.90366558,4113.19084832,4135.33530962,4126.80295131,4125.17964139,4121.73132576,4117.38046389,4137.02534557,4117.61059846,4101.5695984,4114.5460157,4118.83344856,-153.389512536
off_to_on,4123.74440195,4116.67381017,4113.41236749,4135.33662794,4126.33519015,4124.62313134,4120.9130643,4116.89800379,4137.061832,4117.3020205,4101.51924419,4114.49872502,4118.51034242,-152.213453227
off_to_on,4124.35869904,4116.54187995,4113.68517603,4135.33729688,4125.92963699,4124.09244483,4120.16985124,4116.54702691,4137.10225823,4117.16911214,4101.52251805,4114.65375923,4118.30791113,-146.472021197
off_to_on,4125.03923309,4116.51122681,4114.00217967,4135.33798622,4125.59710393,4123.60131726,4119.52269097,4116.328177,4137.14543292,4117.21331332,4101.58079833,4115.00626114,4118.22995189,-136.585098351
off_to_on,4125.76563598,4116.58249711,4114.35483367,4135.33941603,4125.34600335,4123.16249395,4118.98987799,4116.23814547,4137.19005802,4117.43101896,4101.6940277,4115.545244,4118.27680505,-123.075526735
off_to_on,4126.51614578,4116.75376424,4114.73348052,4135.34233343,4125.18218741,4122.78748611,4118.58659486,4116.27005765,4137.23476718,4117.81384497,4101.8607573,4116.25416138,4118.44551132,-106.55008106
off_to_on,4127.26841033,4117.02075693,4115.12774146,4135.34748632,4125.1088971,4122.48638893,4118.32463063,4116.41399332,4137.27816709,4118.34906296,4102.07823903,4117.11168366,4118.73008419,-87.6772471744
off_to_on,4128.00032769,4117.37716946,4115.52694611,4135.35559489,4125.12681975,4122.26776289,4118.21222327,4116.65761405,4137.3188806,4119.0201828,4102.342561,4118.09264606,4119.12188199,-67.1625864757
off_to_on,4128.69089104,4117.81503681,4115.9205823,4135.36732169,4125.23424888,4122.1385758,4118.25402398,4116.98686606,4137.35559,4119.80765635,4102.64881957,4119.16912615,4119.61006071,-45.7225788498
off_to_on,4129.32100521,4118.3251552,4116.29874739,4135.38324132,4125.42733592,4122.10420048,4118.45117661,4117.38672431,4137.38707918,4120.68967136,4102.99132016,4120.31160427,4120.18208539,-24.0579191872
off_to_on,4129.87424218,4118.89752747,4116.65258168,4135.40381107,4125.70041914,4122.16846003,4118.80150066,4117.84194273,4137.41227297,4121.64300188,4103.36379785,4121.49015714,4120.82427657,-2.82728513243
off_to_on,4130.33750454,4119.5218118,4116.97466508,4135.4293436,4126.04641159,4122.33371097,4119.29976344,4118.33777547,4137.43027251,4122.64387988,4103.75964841,4122.67563503,4121.52236761,17.3774069246
off_to_on,4130.70156925,4120.18775342,4117.25935923,4135.4599834,4126.45722773,4122.60095394,4119.93802443,4118.86063651,4137.4403853,4123.66885303,4104.17216012,4123.84077362,4122.26204881,36.0532828624
off_to_on,4130.961488,4120.88558003,4117.50307983,4135.4956881,4126.92422715,4122.96996157,4120.70603362,4119.39866869,4137.44214875,4124.69559506,4104.59473722,4124.96119619,4123.02947622,52.8054363188
off_to_on,4131.11682648,4121.60634456,4117.70448621,4135.53621621,4127.43865393,4123.43941441,4121.59166597,4119.94219848,4137.43534651,4125.70363829,4105.02110646,4126.01626701,4123.81172517,67.3617266509
off_to_on,4131.17173072,4122.34220206,4117.86457943,4135.58112218,4127.9920511,4124.0070367,4122.58137381,4120.48405906,4137.42001686,4126.6750024,4105.44549937,4126.9897642,4124.59717205,79.5828310386
off_to_on,4131.13481537,4123.08661063,4117.98670306,4135.62975979,4128.57663152,4124.66972448,4123.66064002,4121.01977068,4137.39645294,4127.59469812,4105.862804,4127.87034867,4125.37579174,89.4671116733
off_to_on,4131.01887523,4123.83445002,4118.07644513,4135.68129419,4129.18558859,4125.42365968,4124.81441552,4121.54757351,4137.36519474,4128.45109047,4106.26868134,4128.65181412,4126.13936149,97.1500574361
off_to_on,4130.84042858,4124.58205486,4118.14144314,4135.7347228,4129.8133337,4126.26440426,4126.02752561,4122.06831511,4137.32701313,4129.23611207,4106.65964316,4129.33311249,4126.88156683,102.89827095
off_to_on,4130.61910794,4125.32716422,4118.19109827,4135.78890457,4130.45565052,4127.18697074,4127.28503273,4122.585201,4137.28288655,4129.94532352,4107.03308972,4129.91815909,4127.59800973,107.098187255
off_to_on,4130.37692055,4126.06879341,4118.23620917,4135.8425967,4131.10976112,4128.18586708,4128.57254592,4123.10342368,4137.23397103,4130.57782536,4107.387308,4130.41543155,4128.28612432,110.239919166
off_to_on,4130.13740716,4126.80703841,4118.2885394,4135.89449752,4131.7743031,4129.25511687,4129.87647169,4123.62969181,4137.18156445,4131.13603244,4107.72143306,4130.83738601,4128.94501026,112.896818669
off_to_on,4129.92473222,4127.54282677,4118.36033593,4135.94329365,4132.44922198,4130.38825856,4131.18420506,4124.17168634,4137.12706632,4131.62532755,4108.03537671,4131.19972131,4129.57519805,115.701517359
off_to_on,4129.7627418,4128.27763156,4118.46381873,4135.98770955,4133.13558758,4131.57833003,4132.48426287,4124.73747429,4137.07193419,4132.05361532,4108.32972926,4131.52052802,4130.17836293,119.319354023
do_nothing,4129.67402761,4129.01316667,4118.61066283,4136.02655721,4133.8353471,4132.81784671,4133.76636459,4125.33491211,4137.01763829,4132.43080081,4108.60564103,4131.8193626,4130.75700638,124.420206405
do_nothing,4129.67903515,4129.75108276,4118.81149538,4136.0587837,4134.55103051,4134.0987825,4135.02146809,4125.97107064,4136.96561572,4132.7682194,4108.86469094,4132.11628938,4131.31412525,131.649812964
do_nothing,4129.79525304,4130.49268283,4119.07542967,4136.08351473,4135.28542615,4135.41256305,4136.2417693,4126.65171173,4136.91722584,4133.07804533,4109.10875015,4132.43093311,4131.85288857,141.601697914
do_nothing,4130.03651766,4131.23867514,4119.40965728,4136.10009204,4136.04124536,4136.75008026,4137.42067626,4127.38084414,4136.87370825,4133.37270667,4109.3398482,4132.78158376,4132.37634156,154.790797066
do_nothing,4130.41246277,4131.98897927,4119.81911678,4136.10810336,4136.82079508,4138.10173553,4138.55276762,4128.16038137,4136.83614496,4133.66433279,4109.56004904,4133.18439186,4132.88715427,171.629821876
do_nothing,4130.92813844,4132.74259751,4120.30625462,4136.10740346,4137.62567663,4139.45751701,4139.63374504,4128.9899192,4136.80542782,4133.96425789,4109.771343,4133.65268838,4133.38742942,192.409297442
do_nothing,4131.5838159,4133.49756025,4120.87088949,4136.09812553,4138.45652701,4140.80711335,4140.66038711,4129.86664369,4136.78223263,4134.28260083,4109.97555961,4134.19645672,4133.87858033,217.282072776
do_nothing,4132.37498705,4134.25094962,4121.51018698,4136.08068213,4139.31281663,4142.14006442,4141.63051052,4130.785374,4136.7670004,4134.62793647,4110.17430457,4134.82197661,4134.36128486,246.252933173
do_nothing,4133.29255864,4134.99900075,4122.21874629,4136.05575579,4140.19271467,4143.44594708,4142.54294202,4131.73873713,4136.75992675,4135.00706868,4110.36892272,4135.53165162,4134.83551654,279.173749986
do_nothing,4134.32323274,4135.73727587,4122.98879618,4136.02427924,4141.09303001,4144.71459229,4143.39750269,4132.71746579,4136.76095944,4135.42490973,4110.56048692,4136.32402282,4135.30064894,315.744390703
do_nothing,4135.45005733,4136.46090204,4123.81049214,4135.98740623,4142.0092316,4145.93632757,4144.19500337,4133.7108039,4136.76980425,4135.88446507,4110.74981171,4137.19396279,4135.75562501,355.519392129
do_nothing,4136.6531238,4137.16485938,4124.67230248,4135.94647378,4142.93554811,4147.10223663,4144.9372482,4134.70699974,4136.78593897,4136.38691748,4110.93748857,4138.13303619,4136.19917892,397.920179682
do_nothing,4137.91038124,4137.84430349,4125.56146668,4135.90295746,4143.86514242,4148.20442582,4145.62704096,4135.69386158,4136.80863505,4136.9317999,4111.12393864,4139.13000572,4136.63009522,442.252403189
do_nothing,4139.19853243,4138.49490292,4126.46450583,4135.8584216,4144.79035218,4149.2362856,4146.26818791,4136.65934813,4136.83698618,4137.51724189,4111.30947758,4140.17145579,4137.04748696,487.727763073
do_nothing,4140.49397259,4139.11317129,4127.36776248,4135.81446648,4145.70298423,4150.1927339,4146.86548938,4137.59216369,4136.86994278,4138.14027111,4111.49438664,4141.24250133,4137.4510734,533.489529749
do_nothing,4141.77373033,4139.69677382,4128.25794599,4135.77267481,4146.59464756,4151.07042777,4147.42471219,4138.48232748,4136.90635135,4138.79714936,4111.67898365,4142.32754572,4137.84143758,578.640819434
do_nothing,4143.01637051,4140.24478907,4129.12265946,4135.73455977,4147.45710756,4151.86793009,4147.9525352,4139.32168758,4136.94499707,4139.48372172,4111.8636881,4143.41105101,4138.22024506,622.27458493
do_nothing,4144.20282117,4140.75790921,4129.9508855,4135.70151693,4148.28264326,4152.58581982,4148.45646205,4140.10435289,4136.98464835,4140.19575779,4112.04907509,4144.47828392,4138.59040756,663.504214892
do_nothing,4145.3170899,4141.2385649,4130.73341019,4135.67478173,4149.06438907,4153.22673635,4148.94469695,4140.82702047,4137.0241015,4140.92926568,4112.23591378,4145.51600342,4138.95617784,701.493613644
do_nothing,4146.34684053,4141.69096427,4131.46316702,4135.65539417,4149.79664341,4153.79535188,4149.42598203,4141.48918024,4137.06222387,4141.68076117,4112.425187,4146.5130585,4139.32316516,735.485655773
do_nothing,4147.28380635,4142.12103927,4132.13548644,4135.64417178,4150.47512812,4154.2982683,4149.90939649,4142.09318514,4137.09799392,4142.44747709,4112.61808977,4147.46086943,4139.69826469,764.827972734
do_nothing,4148.12402334,4142.53629739,4132.74824015,4135.64169141,4151.09718468,4154.74383832,4150.40412001,4142.64418002,4137.13053664,4143.22750166,4112.81600543,4148.35377133,4140.08949802,788.995130475
do_nothing,4148.86787399,4142.94558087,4133.30187416,4135.64828015,4151.66189645,4155.14191352,4150.91916488,4143.14988987,4137.15915307,4144.01983822,4113.02045952,4149.18920504,4140.50576667,807.606395151
do_nothing,4149.51994056,4143.35874061,4133.79932913,4135.66401519,4152.17012948,4155.50352473,4151.46308258,4143.62027378,4137.18334277,4144.82438294,4113.23305262,4149.96774789,4140.95652509,820.438452312
do_nothing,4150.0886743,4143.78623572,4134.2458514,4135.68873215,4152.62448848,4155.84050338,4152.04365243,4144.06705821,4137.20281851,4145.64182141,4113.45537454,4150.6929835,4141.45138361,827.432634977
do_nothing,4150.58589511,4144.23867371,4134.64870272,4135.72204116,4153.02918893,4156.16505465,4152.66756119,4144.50316825,4137.21751252,4146.47344919,4113.68890329,4151.37121754,4141.99965625,828.696421055
do_nothing,4151.02614304,4144.72630969,4135.0167809,4135.76334974,4153.38985009,4156.48929575,4153.34008437,4144.9420811,4137.22757429,4147.32092599,4113.93489332,4152.01105337,4142.60987142,824.499174272
do_nothing,4151.42590967,4145.25852545,4135.36016799,4135.81189121,4153.71321791,4156.82477551,4154.06478138,4145.39713038,4137.23335982,4148.18597664,4114.19425844,4152.62284769,4143.28926649,815.262316427
do_nothing,4151.80278257,4145.84331105,4135.68962536,4135.86675752,4154.00683031,4157.18199316,4154.84321828,4145.88079289,4137.23541301,4149.07005563,4114.46745539,4153.21807253,4144.04328953,801.544322364
do_nothing,4152.17454036,4146.48677281,4136.01605789,4135.92693468,4154.27864019,4157.56993685,4155.67473237,4146.4039913,4137.23443972,4149.97399445,4114.75437452,4153.808614,4144.87513202,784.021115646
do_nothing,4152.55823877,4147.19269121,4136.34997093,4135.99133971,4154.53661416,4157.99566242,4156.55625299,4146.9754461,4137.23127573,4150.89765213,4115.05424416,4154.40604153,4145.78531716,763.46260724
do_nothing,4152.96932828,4147.9621511,4136.70094415,4136.05885732,4154.78832557,4158.46393249,4157.48219122,4147.60110836,4137.22684975,4151.83959036,4115.36555464,4155.02088335,4146.77136658,740.706254921
do_nothing,4153.42084352,4148.79326451,4137.07714586,4136.12837525,4155.04056144,4158.97693388,4158.44440959,4148.28370126,4137.22214301,4152.79679382,4115.68600778,4155.66194322,4147.82756675,716.628621131
do_nothing,4153.92270084,4149.68100254,4137.48490981,4136.19881695,4155.29896195,4159.53408875,4159.43228012,4149.02239418,4137.21814704,4153.76445491,4116.01249654,4156.33569252,4148.94485231,692.115968803
do_nothing,4154.48113654,4150.61714894,4137.92839353,4136.26917071,4155.56771046,4160.13197112,4160.43283528,4149.81262711,4137.21582122,4154.73583933,4116.34111841,4157.04576774,4150.11081965,668.03495802
do_nothing,4155.0983116,4151.5903827,4138.40933413,4136.33851452,4155.84928949,4160.76433597,4161.43101263,4150.64609652,4137.21605181,4155.70224522,4116.66722494,4157.79259879,4151.30987821,645.204490369
do_nothing,4155.77210161,4152.5864916,4138.92691282,4136.40603582,4156.14431556,4161.42226331,4162.40998927,4151.51090665,4137.21961418,4156.65306421,4116.98550798,4158.57318777,4152.52354149,624.369691688
do_nothing,4156.49608201,4153.58871298,4139.4777348,4136.471046,4156.45146195,4162.09441508,4163.3515988,4152.39188277,4137.22713945,4157.57594793,4117.29012141,4159.3810504,4153.73085355,606.178931259
do_nothing,4157.25971018,4154.57819223,4140.0559258,4136.53298918,4156.76747447,4162.76739748,4164.23681958,4153.27103648,4137.23908708,4158.45707846,4117.57483578,4160.20632533,4154.90894047,591.164652587
do_nothing,4158.04869701,4155.53454404,4140.65334152,4136.59144562,4157.08728092,4163.42621757,4165.04631999,4154.12816645,4137.25572435,4159.28153606,4117.83322079,4161.03604812,4156.03367047,579.728642919
do_nothing,4158.84555235,4156.43649742,4141.25988081,4136.64612979,4157.40419032,4164.05481772,4165.76104347,4154.94157218,4137.27711351,4160.03375244,4118.05884989,4161.85457992,4157.08040098,572.132198477
do_nothing,4159.63028116,4157.2626015,4141.86388928,4136.696884,4157.71017365,4164.63666856,4166.36281399,4155.6888536,4137.30310715,4160.69803389,4118.24551907,4162.64417355,4158.0247866,568.49145437
do_nothing,4160.3812008,4157.99196675,4142.45263599,4136.74366814,4157.99621398,4165.15539796,4166.83494153,4156.3477655,4137.33335177,4161.25913477,4118.38747186,4163.38565402,4158.84361891,568.777949606
do_nothing,4161.07584493,4158.60501441,4143.01284294,4136.78654667,4158.25271081,4165.59543192,4167.16280676,4156.89709365,4137.36729968,4161.70285925,4118.47962139,4164.05918556,4159.51566681,572.824296777
do_nothing,4161.69191617,4159.08420649,4143.53124504,4136.82567367,4158.46992148,4165.94262314,4167.33440489,4157.31751836,4137.40422841,4162.01666708,4118.5177607,4164.6450936,4160.0224853,580.334631794
do_nothing,4162.20824842,4159.4147288,4143.99515729,4136.86127712,4158.63842118,4166.1848431,4167.34082923,4157.59243209,4137.44326712,4162.19025854,4118.4987527,4165.12470783,4160.34916137,590.899342567
do_nothing,4162.60573953,4159.58510183,4144.39302614,4136.89364309,4158.74956229,4166.31251494,4167.17667715,4157.70867853,4137.48342875,4162.21611371,4118.42069201,4165.48119218,4160.48496715,604.013427667
do_nothing,4162.86821681,4159.58769608,4144.71494263,4136.92310062,4158.79591409,4166.31906587,4166.84036267,4157.65718397,4137.52364683,4162.08996265,4118.28303213,4165.70032793,4160.42389416,619.097722114
do_nothing,4162.98320082,4159.41913244,4144.95309684,4136.95000771,4158.77166422,4166.20128114,4166.33432332,4157.43345533,4137.56281539,4161.81116525,4118.08667298,4165.7712184,4160.1650464,635.522145304
do_nothing,4162.94253754,4159.08055198,4145.10215556,4136.97473882,4158.6729653,4165.9595448,4165.66511168,4157.03792429,4137.59983042,4161.38298282,4117.8340052,4165.68688659,4159.71287509,652.630073182
do_nothing,4162.74287425,4158.57774428,4145.15954841,4136.9976739,4158.49821191,4165.59795758,4164.84336627,4156.47612295,4137.6336314,4160.81272683,4117.52890939,4165.44474145,4159.07724363,669.762915851
do_nothing,4162.38596088,4157.92112872,4145.125651,4137.01918894,4158.24823622,4165.12432603,4163.88365989,4155.75868222,4137.66324114,4160.11177529,4117.17670965,4165.04689328,4158.27331737,686.283997413
do_nothing,4161.87876506,4157.12558783,4145.00385808,4137.03964797,4157.92641305,4164.55002212,4162.80422793,4154.90115103,4137.68780256,4159.29545166,4116.78408256,4164.50030469,4157.32127923,701.600886094
do_nothing,4161.23339636,4156.21015684,4144.80054359,4137.05939625,4157.53866909,4163.88971678,4161.62658329,4153.92364095,4137.70661089,4158.38276656,4116.35892366,4163.81676941,4156.2458778,715.185404363
do_nothing,4160.46684197,4155.19757809,4144.52490886,4137.07875425,4157.09339423,4163.16099572,4160.37502854,4152.8503076,4137.71914023,4157.3960273,4115.91017516,4163.01271763,4155.0758207,726.590654672
do_nothing,4159.6005232,4154.11373285,4144.18872434,4137.09801233,4156.60125683,4162.38386986,4159.07607908,4151.7086858,4137.72506334,4156.3603249,4115.44761948,4162.10885214,4153.8430301,735.464520287
do_nothing,4158.65968779,4152.98696699,4143.80597423,4137.11742546,4156.07492812,4161.58019654,4157.75781405,4150.52890044,4137.72426409,4155.30291221,4114.98164423,4161.12962534,4152.58178211,741.559234269
do_nothing,4157.6726583,4151.84732953,4143.39241633,4137.13720786,4155.52872439,4160.77303045,4156.44917337,4149.34277926,4137.71684205,4154.25249042,4114.5229851,4160.10257155,4151.32775463,744.736746361
do_nothing,4156.66996118,4150.72574557,4142.96507259,4137.15752717,4154.97817851,4159.98592586,4155.17922061,4148.18289643,4137.70310911,4153.23842343,4114.08245368,4159.05751341,4150.11701091,744.969756643
do_nothing,4155.68336441,4149.65314653,4142.54166748,4137.17849821,4154.43955513,4159.24221338,4153.97639243,4147.08157837,4137.68357835,4152.28990223,4113.67065783,4158.02566472,4148.98494805,742.338429075
do_nothing,4154.74485529,4148.65958263,4142.14003371,4137.20017623,4153.92932667,4158.56427557,4152.86775527,4146.06990434,4137.65894562,4151.43508302,4113.29772204,4157.03865608,4147.9652409,737.022947282
do_nothing,4153.88559183,4147.77334352,4141.77750578,4137.22254991,4153.46362902,4157.97284607,4151.87829029,4145.17673511,4137.63006459,4150.70022502,4112.97301593,4156.12751325,4147.08881308,729.292225105
do_nothing,4153.13486302,4147.02011369,4141.47032308,4137.24553434,4153.05771695,4157.48635579,4151.03022702,4144.42780216,4137.59791614,4150.10885513,4112.70489868,4155.32162137,4146.38286687,719.489228525
do_nothing,4152.51909327,4146.42218932,4141.2330638,4137.26896448,4152.72543968,4157.12034844,4150.34244516,4143.84488859,4137.56357355,4149.68098702,4112.50048706,4154.64771003,4145.87000341,708.013496827
do_nothing,4152.06092567,4145.99778192,4141.07813038,4137.29258965,4152.47875656,4156.88698482,4149.8299623,4143.44512976,4137.52816446,4149.43242212,4112.36545426,4154.12889489,4145.56746253,695.301562754
do_nothing,4151.7784164,4145.76043204,4141.01530536,4137.31606958,4152.32731141,4156.79465261,4149.50352278,4143.24045811,4137.49283145,4149.37415753,4112.30386569,4153.7838106,4145.48650912,681.806058351
do_nothing,4151.68436946,4145.7185538,4141.05139434,4137.3389729,4152.27808208,4156.84769444,4149.36930041,4143.23721162,4137.4586923,4149.5119241,4112.31805726,4153.62586814,4145.631989,667.974350697
do_nothing,4151.7858366,4145.87512701,4141.18996966,4137.36077852,4152.33511911,4157.0462638,4149.42872473,4143.43592051,4137.42680178,4149.84587396,4112.40856013,4153.66266627,4146.0020731,654.227576576
do_nothing,4152.08380183,4146.22754981,4141.43122497,4137.38088067,4152.49938443,4157.38631435,4149.67843758,4143.83128121,4137.39811608,4150.37043299,4112.57407512,4153.89558288,4146.58820296,640.940935419
do_nothing,4152.57306432,4146.76765951,4141.77194679,4137.39859808,4152.76869725,4157.85972426,4150.11038368,4144.41232037,4137.37346135,4151.07432847,4112.81149811,4154.31956615,4147.37524461,628.426055453
do_nothing,4153.24232636,4147.4819242,4142.20560504,4137.41318758,4153.13779047,4158.4545529,4150.71203466,4145.16274554,4137.35350733,4151.94079651,4113.11599611,4154.92313949,4148.34185067,616.916170024
do_nothing,4154.07448625,4148.3518021,4142.72256022,4137.42386238,4153.59847646,4159.15542239,4151.466742,4146.06147184,4137.33874703,4152.94796808,4113.48113234,4155.68862652,4149.4610237,606.554732369
do_nothing,4155.04712831,4149.3542599,4143.31038054,4137.4298148,4154.13991658,4159.94401199,4152.3542093,4147.08330798,4137.32948312,4154.06942616,4113.89903686,4156.59259461,4150.70086689,597.387961766
do_nothing,4156.13319574,4150.46243592,4143.95425868,4137.43024305,4154.7489846,4160.79964893,4153.35107041,4148.19977863,4137.3258214,4155.27492057,4114.36061821,4157.6065075,4152.0255015,589.361657321
do_nothing,4157.301825,4151.64642907,4144.63751377,4137.42438154,4155.41071024,4161.69997573,4154.43155567,4149.38005537,4137.32767147,4156.53122127,4114.85581017,4158.69756924,4153.39612472,582.322443948
do_nothing,4158.51931563,4152.87418992,4145.34216142,4137.41153354,4156.10878603,4162.62167079,4155.56822526,4150.59196387,4137.3347545,4157.80308567,4115.37384648,4159.829735,4154.77217607,576.023435243
do_nothing,4159.75020393,4154.11248718,4146.0495321,4137.39110492,4156.82611788,4163.54119687,4156.7327459,4151.80303218,4137.34661766,4159.0543112,4115.90355586,4160.96485766,4156.11257719,570.1341174
do_nothing,4160.95840586,4155.32791973,4146.74091646,4137.36263773,4157.54539806,4164.43555052,4157.89668575,4152.98154306,4137.36265452,4160.24884126,4116.43366888,4162.06393429,4157.37700669,564.254084449
do_nothing,4162.10839191,4156.48794307,4147.39821534,4137.32584185,4158.24967853,4165.28298555,4159.03230169,4154.09755351,4137.38213062,4161.35189035,4116.95312814,4163.08841229,4158.52717095,557.930095017
do_nothing,4163.16635521,4157.56187788,4148.00457182,4137.28062342,4158.92292277,4166.06368444,4160.1132939,4155.12384526,4137.40421309,4162.33105281,4117.4513931,4164.00151195,4159.52803105,550.675781332
do_nothing,4164.10133406,4158.52186839,4148.54496316,4137.22710845,4159.55051512,4166.7603535,4161.11550328,4156.03677263,4137.42800331,4163.15735867,4117.91873095,4164.76951999,4160.34894708,541.993227911
do_nothing,4164.88625052,4159.34375919,4149.00673135,4137.1656604,4160.11970885,4167.35872031,4162.01752939,4156.81697726,4137.45257101,4163.80624093,4118.34648483,4165.36300779,4160.96470264,531.395555205
do_nothing,4165.49882812,4160.00786025,4149.38003252,4137.09689043,4160.61999633,4167.84791553,4162.80124906,4157.44994378,4137.47698893,4164.25837936,4118.7273112,4165.75792871,4161.35637548,518.429595742
do_nothing,4165.92235514,4160.49957289,4149.65818788,4137.02165951,4161.04338871,4168.22072592,4163.45222014,4157.92637658,4137.50036641,4164.50038936,4119.05537812,4165.93655115,4161.51202383,502.697739172
do_nothing,4166.14626401,4160.80985314,4149.83792159,4136.94107162,4161.38459581,4168.47371115,4163.95995927,4158.24238437,4137.52188083,4164.52532767,4119.32651731,4165.88818807,4161.42716296,483.87804856
do_nothing,4166.16650377,4160.93549372,4149.91947513,4136.85645784,4161.64110204,4168.60718226,4164.31808756,4158.39946666,4137.54080575,4164.33299246,4119.53832376,4165.60969008,4161.10501261,461.741812353
do_nothing,4165.98568931,4160.8792125,4149.90659223,4136.76935122,4161.81313769,4168.62504553,4164.52434325,4158.40430362,4137.55653483,4163.93000154,4119.69019817,4165.105677,4160.55650261,436.167792277
do_nothing,4165.61301973,4160.64954162,4149.80637323,4136.68145284,4161.90354971,4168.53452034,4164.58046488,4158.26835842,4137.56860059,4163.3296402,4119.78332973,4164.38849234,4159.80003244,407.152553116
do_nothing,4165.06396627,4160.26051926,4149.62900323,4136.5945897,4161.91757968,4168.34574456,4164.49195384,4158.00730837,4137.57668761,4162.55147825,4119.82061908,4163.47787557,4158.86098815,374.81641097
do_nothing,4164.35973944,4159.73119313,4149.38736315,4136.51066545,4161.86256022,4168.07128519,4164.26772896,4157.64032808,4137.58063965,4161.62076485,4119.80654347,4162.40035798,4157.771029,339.404706104
do_nothing,4163.52655263,4159.08495208,4149.09653761,4136.431605,4161.74754443,4167.72557577,4163.91969001,4157.18925378,4137.58046068,4160.56761851,4119.74696899,4161.18839936,4156.56716362,301.28428817
do_nothing,4162.59470764,4158.34870886,4148.77323741,4136.3592949,4161.58288498,4167.32430432,4163.46221013,4156.67766294,4137.57630983,4159.42603835,4119.64891698,4159.87929401,4155.29064401,260.935288175
do_nothing,4161.59753386,4157.55196291,4148.43515841,4136.29552122,4161.37978102,4166.8837773,4162.91157915,4156.12990645,4137.56849075,4158.23277067,4119.52029373,4158.51388478,4153.9857122,218.938435644
do_nothing,4160.57021855,4156.72577617,4148.10030046,4136.24190718,4161.1498118,4166.42028506,4162.28542065,4155.57013251,4137.55743571,4157.02607059,4119.36959432,4157.13513209,4152.69824031,175.95835371
do_nothing,4159.54856988,4155.9016982,4147.78627245,4136.1998531,4160.90447539,4165.9494938,4161.60210489,4155.02134114,4137.54368537,4155.84440322,4119.20559187,4155.7865913,4151.47430825,132.72342254
do_nothing,4158.56775703,4155.11067813,4147.50960935,4136.17048097,4160.65475052,4165.4858871,4160.88017793,4154.50450587,4137.52786498,4154.72513069,4119.03702421,4154.51085546,4150.35876556,90.0029362573
do_nothing,4157.66107219,4154.38200139,4147.28512724,4136.15458597,4160.41069722,4165.04227699,4160.13782504,4154.03779603,4137.51065803,4153.70323207,4118.8722891,4153.34802167,4149.39382399,48.5823852352
do_nothing,4156.85875835,4153.74228754,4147.12534051,4136.15259714,4160.18111032,4164.62940089,4159.39238291,4153.63592749,4137.49277843,4152.81010179,4118.71915873,4152.33423823,4148.61772614,9.2377701363
do_nothing,4156.18694385,4153.2145833,4147.03996304,4136.16454872,4159.97323663,4164.25561617,4158.65991224,4153.30966439,4137.47494231,4152.07246913,4118.58452298,4151.50038587,4148.0635324,-27.2901065123
do_nothing,4155.6667212,4152.81758144,4147.03551201,4136.19006366,4159.79256422,4163.92670048,4157.95483877,4153.06548729,4137.45784056,4151.51147641,4118.47416952,4150.87094137,4147.7580647,-60.3204224292
do_nothing,4155.31340275,4152.56499207,4147.11502944,4136.22834982,4159.64268892,4163.64576201,4157.2896683,4152.90543667,4137.44211301,4151.14194854,4118.39260723,4150.46306501,4147.72104039,-89.2552761433
do_nothing,4155.13598045,4152.46508845,4147.27793246,4136.27820951,4159.52526057,4163.41326007,4156.67477814,4152.82713437,4137.42832542,4150.97187981,4118.34293839,4150.28594594,4147.96442437,-113.599939102
do_nothing,4155.13681017,4152.52044348,4147.51999897,4136.33806197,4159.44000845,4163.22713251,4156.11828587,4152.82397863,4137.41694981,4151.00215709,4118.32678324,4150.34043047,4148.49202086,-132.979671214
do_nothing,4155.31153376,4152.7278673,4147.83349044,4136.40597844,4159.38484256,4163.0830231,4155.62599381,4152.88550305,4137.4083491,4151.22653063,4118.3442592,4150.61894878,4149.29931947,-147.1524739
do_nothing,4155.64924401,4153.0785494,4148.20740912,4136.4797288,4159.35602509,4162.97459868,4155.20140668,4152.99788369,4137.40276629,4151.63183549,4118.3940153,4151.10574538,4150.37360225,-156.017292695
do_nothing,4156.13288939,4153.55840219,4148.62788186,4136.55683846,4159.34840441,4162.89394339,4154.84581817,4153.14457389,4137.40031855,4152.19845805,4118.47332087,4151.77740782,4151.69431057,-159.617330943
do_nothing,4156.73990701,4154.14859587,4149.07865836,4136.63465399,4159.35570151,4162.83201434,4154.55846082,4153.30704161,4137.40099646,4152.90103371,4118.57820552,4152.60367842,4153.23366286,-158.138297563
do_nothing,4157.44306366,4154.82626775,4149.54170744,4136.71041559,4159.37083742,4162.77914083,4154.33671206,4153.46558103,4137.40466802,4153.70935385,4118.703646,4153.54852321,4154.95750599,-151.901587152
do_nothing,4158.21147696,4155.56538239,4149.9978906,4136.7813345,4159.38628806,4162.72554731,4154.17634741,4153.60016696,4137.41108745,4154.58945215,4118.84379359,4154.57142296,4156.826375,-141.352577361
do_nothing,4159.01178085,4156.33771259,4150.42768912,4136.84467326,4159.39445207,4162.66187916,4154.07183005,4153.69131904,4137.41990805,4155.50483302,4118.9922338,4155.62884181,4158.79672813,-127.0444166
do_nothing,4159.80939353,4157.11390603,4150.81195799,4136.89782654,4159.3880166,4162.57970992,4154.01662465,4153.72094203,4137.43069871,4156.41779825,4119.14226853,4156.67582125,4160.82231682,-109.617851176
do_nothing,4160.56984083,4157.86459832,4151.13267827,4136.93840057,4159.36030581,4162.47200906,4154.00352221,4153.67310882,4137.44296322,4157.29082288,4119.28720932,4157.66764105,4162.85564466,-89.7777956703
do_nothing,4161.26008452,4158.56153054,4151.37367901,4136.96428868,4159.30559775,4162.33355052,4154.0249629,4153.53475515,4137.45616161,4158.08792857,4119.42066989,4158.5614849,4164.84946546,-68.2674814075
do_nothing,4161.84980414,4159.17862856,4151.52130028,4136.97374115,4159.21939632,4162.16124431,4154.07334431,4153.29625853,4137.46973256,4158.77600137,4119.53684546,4159.31804694,4166.75826806,-45.8411236402
do_nothing,4162.31258163,4159.6930021,4151.56497039,4136.96542711,4159.09864749,4161.95437681,4154.14130356,4152.95187836,4137.48311614,4159.32600271,4119.63076719,4159.90301655,4168.53969573,-23.2361218564
do_nothing,4162.62694161,4160.08582435,4151.49767378,4136.93848657,4158.94189116,4161.71474896,4154.22196353,4152.50004006,4137.49577579,4159.71402578,4119.69852059,4160.28838303,4170.15584987,-1.14584118834
do_nothing,4162.77720549,4160.34305724,4151.31628965,4136.8925706,4158.7493438,4161.44670633,4154.30913573,4151.94345251,4137.50721881,4159.92215566,4119.73741854,4160.45350812,4171.57443221,19.8059866208
do_nothing,4162.75412485,4160.45599339,4151.02178678,4136.82786805,4158.52290919,4161.15705856,4154.39747453,4151.28905497,4137.51701462,4159.93909922,4119.74612108,4160.38592334,4172.76968522,39.0882549309
do_nothing,4162.55526777,4160.42159282,4150.61926487,4136.74511759,4158.26611831,4160.85489043,4154.48257999,4150.54779691,4137.52481005,4159.76056023,4119.72469686,4160.08181974,4173.72309835,56.2819687374
do_nothing,4162.18514169,4160.24260034,4150.11783926,4136.64560401,4157.9840017,4160.55127075,4154.56104916,4149.73426074,4137.53034119,4159.38934501,4119.67462297,4159.54620955,4174.42385617,71.0954553177
do_nothing,4161.65504678,4159.92743889,4149.53037157,4136.53113858,4157.68290086,4160.2588695,4154.63047848,4148.86614418,4137.53344144,4158.83519562,4119.59872329,4158.79275268,4174.86901464,83.3746873969
do_nothing,4160.98266482,4159.48988334,4148.8730555,4136.40402345,4157.37022738,4159.99149785,4154.68942249,4147.96362448,4137.53404546,4158.11435829,4119.50104786,4157.84325453,4175.06340266,93.108290633
do_nothing,4160.19139923,4158.94852811,4148.16487267,4136.2670007,4157.05418098,4159.7635889,4154.73731662,4147.04863152,4137.53218911,4157.24890618,4119.38669886,4156.72685479,4175.01925648,100.427008494
do_nothing,4159.30949231,4158.32607101,4147.4269391,4136.12318731,4156.7434391,4159.58964016,4154.77437332,4146.14406027,4137.52800531,4156.26584578,4119.26161109,4155.47893962,4174.7556055,105.597610591
do_nothing,4158.36895494,4157.64844286,4146.68176722,4135.97599763,4156.44683211,4159.48364066,4154.80146199,4145.27295548,4137.52171627,4155.19604464,4119.13229691,4154.13982044,4174.2974366,109.011446267
do_nothing,4157.40435182,4156.94381864,4145.952472,4135.82905545,4156.17301838,4159.45850632,4154.81998258,4144.45770166,4137.51362231,4154.0730257,4119.00556708,4152.7532321,4173.67467258,111.168053409
do_nothing,4156.45149108,4156.24155062,4145.26195217,4135.68609809,4155.93017311,4159.52554693,4154.8317427,4143.71925098,4137.50408797,4152.93167827,4118.88823983,4151.36471014,4172.92100636,112.654425356
do_nothing,4155.54607087,4155.57106642,4144.63207825,4135.55087522,4155.72570423,4159.69398663,4154.83884628,4143.07641911,4137.49352584,4151.80693858,4118.78685083,4150.01991147,4172.07263724,114.120710442
do_nothing,4154.72233672,4154.96077576,4144.08291923,4135.42704518,4155.56600675,4159.97055783,4154.84360048,4142.54527588,4137.48237902,4150.73249322,4118.70737686,4148.76294402,4171.16695782,116.253261501
do_nothing,4154.0118027,4154.43702835,4143.63203758,4135.31807174,4155.4562656,4160.35918518,4154.84844492,4142.13865285,4137.47110272,4149.73955662,4118.65498479,4147.63477015,4170.24124091,119.746059233
do_nothing,4153.44208637,4154.02316279,4143.29387975,4135.22712444,4155.4003142,4160.8607722,4154.85590482,4141.8657846,4137.46014587,4148.85576942,4118.63381637,4146.67174428,4169.33137388,125.271599879
do_nothing,4153.03590261,4153.73868181,4143.07928523,4135.15698517,4155.40055333,4161.4730986,4154.86856722,4141.73209438,4137.44993354,4148.1042587,4118.64681763,4145.90433961,4168.47068515,133.452363158
do_nothing,4152.81025445,4153.59858374,4142.99513227,4135.10996407,4155.45793202,4162.19083198,4154.88907768,4141.73912885,4137.44085057,4147.50289388,4118.6956194,4145.35611059,4167.68890252,144.833959251
do_nothing,4152.77585109,4153.61287345,4143.04413298,4135.08782744,4155.57198912,4163.0056529,4154.9201538,4141.88464071,4137.43322738,4147.06376374,4118.78047344,4145.0429285,4167.01127757,159.860992579
do_nothing,4152.93677433,4153.78626882,4143.22478459,4135.09173994,4155.74095184,4163.90648899,4154.96461104,4142.16281203,4137.42732819,4146.79289086,4118.90024631,4144.97251658,4166.45790304,178.856578276
do_nothing,4153.29040467,4154.11811119,4143.53147759,4135.12222337,4155.96188524,4164.87984948,4155.02539561,4142.56460557,4137.42334217,4146.69019014,4119.05247053,4145.14429942,4166.0432425,202.006310217
do_nothing,4153.82760809,4154.60248035,4143.9547554,4135.17913351,4156.23088482,4165.91024795,4155.1056183,4143.07822628,4137.42137783,4146.74966801,4119.23345018,4145.54956894,4165.77588304,229.347312022
do_nothing,4154.53317379,4155.22850656,4144.48171433,4135.26165601,4156.54330243,4166.98069747,4155.20858319,4143.6896709,4137.42146069,4146.95984938,4119.4384162,4146.17195667,4165.658513,260.762809467
do_nothing,4155.38648315,4155.98086482,4145.09652728,4135.36832183,4156.89399514,4168.07325947,4155.33780479,4144.38334097,4137.42353435,4147.30441055,4119.66172419,4146.98819042,4165.68811832,295.982452316
do_nothing,4156.36238087,4156.84042926,4145.78106982,4135.49704206,4157.27758535,4169.1696257,4155.49700862,4145.14269253,4137.42746477,4147.76298825,4119.89708645,4147.96910231,4165.8563827,334.588395741
do_nothing,4157.43221147,4157.78506021,4146.51562382,4135.64516121,4157.68872096,4170.25171156,4155.6901106,4145.95089523,4137.43304749,4148.31212836,4120.13782825,4149.08084607,4166.15027001,376.026933992
do_nothing,4158.56497793,4158.79049119,4147.27963084,4135.80952753,4158.12232401,4171.30223888,4155.92117266,4146.79147407,4137.44001755,4148.92633306,4120.37715736,4150.28627362,4166.55276075,419.625268636
do_nothing,4159.72857472,4159.83128014,4148.05246599,4135.98657848,4158.57381705,4172.30528708,4156.19433346,4147.64890828,4137.44806147,4149.57916175,4120.60843571,4151.54641538,4167.04370964,464.612799151
do_nothing,4160.89104499,4160.88178661,4148.81420231,4136.17243856,4159.03931755,4173.24679319,4156.51371494,4148.50916458,4137.45683095,4150.24434017,4120.82544177,4152.82200543,4167.60078803,510.146154148
do_nothing,4162.02181121,4161.91713654,4149.54633628,4136.36302681,4159.51579168,4174.11498323,4156.88330687,4149.36014518,4137.46595759,4150.89683257,4121.02261314,4154.07499114,4168.20047223,555.33704281
do_nothing,4163.09283027,4162.91413681,4150.23244681,4136.55417051,4160.00116111,4174.90072049,4157.3068326,4150.19203435,4137.47506803,4151.51383406,4121.1952597,4155.26996864,4168.81903868,599.281901796
do_nothing,4164.07962762,4163.85210515,4150.85876282,4136.74172174,4160.49435791,4175.59775913,4157.787601,4150.99753234,4137.48379894,4152.07564485,4121.33973933,4156.3754891,4169.43352759,641.092247235
do_nothing,4164.96217083,4164.71358445,4151.41461883,4136.921673,4160.99532536,4176.2028953,4158.3283511,4151.77197016,4137.49181128,4152.56639396,4121.45358983,4157.36518708,4170.02263949,679.924618672
do_nothing,4165.72555005,4165.48491661,4151.89278227,4137.09026836,4161.50496445,4176.71601186,4158.93109717,4152.51330475,4137.49880317,4152.97458747,4121.53561332,4158.21869045,4170.56753319,715.009021743
do_nothing,4166.3604419,4166.15665666,4152.28964246,4137.24410633,4162.02502896,4177.14001664,4159.59698279,4153.22199934,4137.50452104,4153.29346433,4121.58591097,4158.92228109,4171.0524985,745.674836437
do_nothing,4166.86334289,4166.72381571,4152.60525682,4137.38023118,4162.55797427,4177.48067843,4160.32615232,4153.90079902,4137.50876859,4153.52115134,4121.60586849,4159.46928646,4171.46548334,771.373255813
do_nothing,4167.23656913,4167.18592818,4152.84325617,4137.49620969,4163.10676746,4177.74636829,4161.11764804,4154.55441585,4137.51141318,4153.6606177,4121.59809465,4159.86019333,4171.79846126,791.695453922
do_nothing,4167.48802846,4167.54694651,4153.01061678,4137.59019077,4163.67466852,4177.94771733,4161.96934052,4155.1891415,4137.51238962,4153.71943768,4121.56631724,4160.10248663,4172.04763209,806.385845208
do_nothing,4167.63078079,4167.81497309,4153.11731226,4137.660946,4164.2649936,4178.09720508,4162.87789842,4155.81240824,4137.51170115,4153.70937743,4121.51524236,4160.21022636,4172.21345502,815.349982856
do_nothing,4167.68241022,4168.0018452,4153.1758624,4137.70789006,4164.88087264,4178.20869486,4163.83880261,4156.43232059,4137.50941763,4153.64582834,4121.45038417,4160.20338536,4172.30051935,818.656843597
do_nothing,4167.6642392,4168.12259385,4153.20079999,4137.73108055,4165.52501416,4178.29693498,4164.84640764,4157.05718055,4137.50567115,4153.54711421,4121.37787307,4160.10697877,4172.31726341,816.535455448
do_nothing,4167.60042028,4168.19480179,4153.20807889,4137.73119746,4166.19948924,4178.37704493,4165.89405142,4157.69502879,4137.50064932,4153.43370392,4121.30425041,4159.95002321,4172.27555727,809.366034145
do_nothing,4167.516944,4168.23788836,4153.21444797,4137.70950347,4166.90554622,4178.46400545,4166.97421198,4158.35322264,4137.49458635,4153.32736348,4121.23625802,4159.76436875,4172.19016883,797.665993834
do_nothing,4167.44060331,4168.2723506,4153.23681561,4137.66778671,4167.64346532,4178.57217015,4168.07870746,4159.03806931,4137.48775265,4153.25028273,4121.18063043,4159.58345057,4172.0781362,782.071381242
do_nothing,4167.39795486,4168.31899018,4153.29162873,4137.60828834,4168.41246035,4178.71481418,4169.19893211,4159.75452849,4137.48044311,4153.22421117,4121.14389678,4159.4410081,4171.95807174,763.314444791
do_nothing,4167.41431588,4168.39815436,4153.39428849,4137.5336176,4169.21063163,4178.90373331,4170.32611849,4160.50599461,4137.47296475,4153.26963533,4121.13219846,4159.36981947,4171.84942415,742.198184598
do_nothing,4167.51283226,4168.5290174,4153.55862184,4137.44665759,4170.03497139,4179.14890385,4171.45161282,4161.29416352,4137.46562415,4153.4050268,4121.15112734,4159.40049662,4171.77172576,719.568829463
do_nothing,4167.71364915,4168.72892556,4153.79642533,4137.35046522,4170.88141946,4179.45821061,4172.56714918,4162.11898409,4137.45871529,4153.64618578,4121.20558782,4159.56038252,4171.7438516,696.287250092
do_nothing,4168.0332101,4169.01282503,4154.11709344,4137.24816896,4171.74496433,4179.83724683,4173.66510741,4162.97869094,4137.45250821,4154.00570012,4121.29968468,4159.87258645,4171.78331512,673.200343641
do_nothing,4168.48370532,4169.39278818,4154.52734041,4137.14286814,4172.61978239,4180.28918742,4174.73874022,4163.86991055,4137.44723909,4154.49253394,4121.43663721,4160.35518719,4171.90562355,651.113412227
do_nothing,4169.07268298,4169.87764882,4155.03102041,4137.03753738,4173.49940613,4180.81473393,4175.78235609,4164.78783026,4137.44310204,4155.11175417,4121.61871878,4161.02062583,4172.12371225,630.764506487
do_nothing,4169.80283136,4170.47275275,4155.62904761,4136.93493964,4174.37691132,4181.41212755,4176.79144688,4165.72641643,4137.440243,4155.86439729,4121.84721995,4161.87530294,4172.44747399,612.801617961
do_nothing,4170.6719327,4171.17982525,4156.31941361,4136.83755053,4175.24511262,4182.07722441,4177.76275135,4166.67866731,4137.43875586,4156.74747296,4122.12243267,4162.91938614,4172.88339501,597.763487272
do_nothing,4171.67298341,4171.99695321,4157.09729699,4136.7474965,4176.09675714,4182.8036261,4178.69425024,4167.63688527,4137.43868087,4157.75409685,4122.44365287,4164.14682736,4173.43430571,586.064653507
do_nothing,4172.79446984,4172.9186761,4157.95525656,4136.66650838,4176.92470712,4183.58285841,4179.58509222,4168.5929544,4137.44000532,4158.87374097,4122.80919893,4165.54558195,4174.0992503,577.985206843
do_nothing,4174.02078406,4173.93617741,4158.88349791,4136.59589176,4177.72210358,4184.40459093,4180.43545441,4169.53861042,4137.44266623,4160.09258724,4123.21644372,4167.0980165,4174.87347615,573.665525224
do_nothing,4175.33275998,4175.03756584,4159.87020113,4136.53651443,4178.48250518,4185.25689075,4181.24634512,4170.46569208,4137.44655492,4161.39396739,4123.66185827,4168.78148628,4175.7485404,573.106083829
do_nothing,4176.70830713,4176.20823391,4160.90189641,4136.48881098,4179.19999794,4186.12650391,4182.01935911,4171.36636469,4137.45152312,4162.7588712,4124.14106582,4170.56905907,4176.71252852,576.172230838
do_nothing,4178.1231169,4177.43127991,4161.96387323,4136.45280359,4179.86927376,4186.99915823,4182.75639826,4172.2333086,4137.45739032,4164.16650386,4124.64890503,4172.43035761,4177.75037601,582.603633059
do_nothing,4179.55141527,4178.68797818,4163.0406089,4136.42813772,4180.48567742,4187.85988154,4183.45937183,4173.05986735,4137.46395202,4165.59487263,4125.17950196,4174.33248978,4178.84428237,592.027920989
do_nothing,4180.96673573,4179.95828259,4164.11620205,4136.41413048,4181.04522343,4188.69332843,4184.12989076,4173.84015187,4137.47098864,4167.02138338,4125.72635044,4176.2410334,4179.97420347,603.977916114
do_nothing,4182.34268715,4181.22134805,4165.17479767,4136.40982919,4181.54458553,4189.48410829,4184.76897091,4174.56909897,4137.47827453,4168.42342861,4126.28240093,4178.12104225,4181.11840709,617.911709759
do_nothing,4183.65369331,4182.45605593,4166.20099147,4136.4140773,4181.98106285,4190.2171075,4185.37675955,4175.24248466,4137.48558707,4169.77895022,4126.84015834,4179.93804032,4182.25407525,633.234781029
do_nothing,4184.87568288,4183.64153049,4167.18020282,4136.42558441,4182.35252746,4190.87779912,4185.95229923,4175.85689527,4137.49271516,4171.06696299,4127.39178926,4181.65897386,4183.35793588,649.323288927
do_nothing,4185.98671215,4184.75763455,4168.09900759,4136.44299732,4182.65735941,4191.45253504,4186.4933418,4176.40966154,4137.49946713,4172.26802705,4127.92923958,4183.25309352,4184.40690649,665.547652929
do_nothing,4186.9675058,4185.78543451,4168.9454243,4136.46496877,4182.89437549,4191.92881634,4186.99622415,4176.89876309,4137.50567754,4173.36466058,4128.44436286,4184.69274322,4185.37873221,681.295550911
do_nothing,4187.80190441,4186.70762591,4169.70914868,4136.49022092,4183.06275869,4192.29553916,4187.45581465,4177.32271207,4137.51121277,4174.3416864,4128.92905962,4185.95403677,4186.25260139,695.993512426
do_nothing,4188.47721062,4187.50891239,4170.38173416,4136.51760091,4183.16199483,4192.54321393,4187.86553745,4177.68042605,4137.51597508,4175.18650855,4129.37542714,4187.01740748,4187.0097222,709.126363285
do_nothing,4188.98442838,4188.17633161,4170.95671669,4136.54612612,4183.19182276,4192.66415654,4188.21747811,4177.97110041,4137.51990511,4175.88931636,4129.77591815,4187.86802029,4187.6338446,720.253878494
do_nothing,4189.31839247,4188.69952222,4171.42968394,4136.57501744,4183.15220331,4192.65265018,4188.50257137,4178.19408995,4137.5229827,4176.44321529,4130.12350589,4188.49603918,4188.11171262,729.024118636
do_nothing,4189.47778834,4189.07092709,4171.79829,4136.60371936,4183.04331083,4192.50507676,4188.71086728,4178.3488085,4137.52522606,4176.84428437,4130.41185164,4188.89674693,4188.43343311,735.183051698
do_nothing,4189.4650649,4189.28592872,4172.06221777,4136.63190633,4182.86554934,4192.22001658,4188.83186906,4178.43465378,4137.52668927,4177.09156169,4130.63547009,4189.07051786,4188.59274931,738.580191821
do_nothing,4189.28624614,4189.34291419,4172.22309261,4136.65947556,4182.61959316,4191.79831427,4188.85493179,4178.45096291,4137.52745831,4177.1869606,4130.78988697,4189.02264872,4188.58720984,739.170118029
do_nothing,4188.95064972,4189.24326837,4172.28435168,4136.68652678,4182.30644971,4191.24310886,4188.76970842,4178.3970024,4137.52764585,4177.13512099,4130.87178339,4188.76305685,4188.41822708,737.009872553
do_nothing,4188.47052352,4188.99129574,4172.25107439,4136.71333044,4181.92754027,4190.5598257,4188.56662675,4178.27199439,4137.52738496,4176.94320141,4130.87912092,4188.30585858,4188.09102218,732.252380201
do_nothing,4187.8606133,4188.59407338,4172.12978026,4136.74028601,4181.4847926,4189.75612779,4188.23737899,4178.07517903,4137.52682198,4176.62061939,4130.81124205,4187.6688448,4187.61445823,725.136173452
do_nothing,4187.13767636,4188.06123957,4171.92820107,4136.76787286,4180.98073808,4188.84182491,4187.77540466,4177.80591104,4137.52610908,4176.17874865,4130.66894137,4186.87287304,4187.00076699,715.97184597
do_nothing,4186.31995744,4187.40472464,4171.65503469,4136.7965961,4180.41860548,4187.82873922,4187.17634679,4177.46378669,4137.52539655,4175.63058335,4130.45450346,4185.94119871,4186.26517904,705.12578351
do_nothing,4185.42664375,4186.6384322,4171.31968806,4136.82693066,4179.80240296,4186.73052713,4186.43846214,4177.04879607,4137.52482542,4174.99038019,4130.17170502,4184.89876878,4185.42547059,693.001829447
do_nothing,4184.47731608,4185.77788021,4170.93201679,4136.85926637,4179.13698097,4185.56245857,4185.56296692,4176.56149342,4137.5245205,4174.27328919,4129.82577935,4183.77150227,4184.501443,680.021627042
do_nothing,4183.49141286,4184.83981219,4170.50206888,4136.89385721,4178.42806872,4184.34115575,4184.55430124,4176.00317691,4137.52458443,4173.49498439,4129.42334249,4182.58558082,4183.514353,666.60443766
do_nothing,4182.48772306,4183.84178969,4170.03983936,4136.93077755,4177.68227831,4183.08429452,4183.42029725,4175.3760673,4137.52509274,4172.6713044,4128.9722815,4181.36677188,4182.48631318,653.147260249
