label,COUNTER,INTERPOLATED,AF3,F7,F3,FC5,T7,P7,O1,O2,P8,T8,FC6,F4,F8,AF4,RAW_CQ,GYROX,GYROY,MARKER,SYNC,TIME_STAMP_s,TIME_STAMP_ms,CQ_AF3,CQ_F7,CQ_F3,CQ_FC5,CQ_T7,CQ_P7,CQ_O1,CQ_O2,CQ_P8,CQ_T8,CQ_FC6,CQ_F4,CQ_F8,CQ_AF4,CQ_CMS,CQ_DRL
off_to_on,4177.71464449,4163.68926831,4169.42203506,4135.21435702,4138.49545009,4145.29201532,4129.47056572,4134.82948486,4137.0390498,4140.08486779,4123.85284736,4151.09335755,4157.67995236,664.447218049
off_to_on,4177.89556806,4162.36801094,4168.94833445,4135.22325115,4137.69520491,4144.10513042,4127.37054493,4132.88343441,4137.05074032,4139.49805473,4123.95926837,4150.56250233,4157.62459554,638.94983615
off_to_on,4177.75972465,4160.9214886,4168.21214178,4135.23655587,4136.91000349,4142.82687815,4125.23922227,4131.01948392,4137.05937998,4138.78061821,4123.99080403,4149.9296811,4157.30133688,613.845066575
off_to_on,4177.29768543,4159.35870731,4167.21998995,4135.25476696,4136.15762572,4141.47693838,4123.122393,4129.26724398,4137.06477369,4137.93186383,4123.94537341,4149.19254116,4156.69689971,589.970718401
off_to_on,4176.5056658,4157.6892524,4165.98314772,4135.27816502,4135.4551273,4140.07739141,4121.0654476,4127.65493073,4137.06685104,4136.95304947,4123.82270908,4148.3490913,4155.80348559,568.099093342
off_to_on,4175.3859048,4155.9233569,4164.51753559,4135.30679827,4134.81839269,4138.65236199,4119.11227635,4126.20890806,4137.0656647,4135.84776476,4123.62439812,4147.39816502,4154.6193904,548.912125372
off_to_on,4173.94690666,4154.07199414,4162.84352929,4135.34047586,4134.26171358,4137.22757264,4117.3042088,4124.95325028,4137.06138455,4134.62224019,4123.35386718,4146.33988222,4153.14944046,532.980035412
off_to_on,4172.20353113,4152.14698595,4160.98565282,4135.37877184,4133.79740585,4135.82981468,4115.67901604,4123.90933069,4137.0542876,4133.28556528,4123.01631141,4145.17608387,4151.40522614,520.744244572
off_to_on,4170.17692304,4150.16111632,4158.97216582,4135.42103916,4133.43547725,4134.48634924,4114.27000222,4123.09544197,4137.04474448,4131.84979953,4122.61856909,4143.91071507,4149.40511782,512.505131918
off_to_on,4167.89427601,4148.12823971,4156.83455269,4135.46643299,4133.18335645,4133.22425384,4113.10520961,4122.5264549,4137.03320274,4130.32996419,4122.16894508,4142.55013442,4147.17405696,508.41504335
off_to_on,4165.38843006,4146.06337225,4154.60692364,4135.51394208,4133.04569269,4132.06973328,4112.2067592,4122.21352223,4137.02016793,4128.74390881,4121.67698836,4141.10333092,4144.74312338,508.476759853
off_to_on,4162.69730753,4143.98275459,4152.32534003,4135.56242662,4133.02423321,4131.0474163,4111.59034492,4122.16383535,4137.00618308,4127.11205234,4121.15323035,4139.58203373,4142.14888815,512.547420913
off_to_on,4159.86319641,4141.90387555,4150.02707878,4135.61066082,4133.11778338,4130.17966209,4111.26489609,4122.38044135,4136.99180737,4125.45700419,4120.60889208,4138.00070496,4139.43256956,520.347680508
off_to_on,4156.93189548,4139.8454471,4147.74985226,4135.65737821,4133.32225242,4129.48590168,4111.23241799,4122.86212776,4136.9775949,4123.80307659,4120.05556972,4136.37641062,4136.63901725,531.475663152
off_to_on,4153.95173997,4137.8273229,4145.53100199,4135.70131732,4133.63078463,4128.98203966,4111.4880156,4123.60338173,4136.96407416,4122.17570418,4119.5049086,4134.72857035,4133.81555622,545.425102131
off_to_on,4150.97253157,4135.87035514,4143.40668615,4135.74126567,4134.03397365,4128.67994041,4112.0201004,4124.59442937,4136.95172919,4120.60079127,4118.9682763,4133.07859174,4131.01072801,561.606891648
off_to_on,4148.04439985,4133.99618673,4141.41108118,4135.77610014,4134.52015408,4128.58702062,4112.81077512,4125.82135963,4136.94098285,4119.1040106,4118.45644558,4131.44940023,4128.27297048,579.373169859
off_to_on,4145.21662507,4132.22697831,4139.57561833,4135.80482187,4135.07576197,4128.70596696,4113.8363862,4127.26633555,4136.93218287,4117.71007975,4117.97929713,4129.86487979,4125.64928,598.042968979
off_to_on,4142.5364545,4130.58507218,4137.92827507,4135.82658453,4135.68575313,4129.03459296,4115.06822898,4128.9078937,4136.92559119,4116.44204237,4117.54555176,4128.34924372,4123.18390033,616.92842441
off_to_on,4140.04794536,4129.09259794,4136.49294046,4135.8407149,4136.33406609,4129.56584402,4116.47338586,4130.72133015,4136.92137676,4115.32058161,4117.16254014,4126.92635783,4120.91708173,635.360531824
off_to_on,4137.79086809,4127.77102758,4135.28887216,4135.84672542,4137.00411505,4130.28795329,4118.01567349,4132.67916854,4136.91961205,4114.36339199,4116.83601717,4125.619041,4118.88395176,652.713479474
off_to_on,4135.7997032,4126.64069123,4134.3302611,4135.84431866,4137.67929689,4131.18474488,4119.65667123,4134.75170284,4136.92027337,4113.58463412,4116.57002645,4124.44836975,4117.11353604,668.426657786
off_to_on,4134.1027633,4125.72026787,4133.62591738,4135.83338424,4138.3434955,4132.23607547,4121.3568005,4136.90760474,4136.92324469,4112.99449404,4116.36681877,4123.43301401,4115.62796268,682.023554421
off_to_on,4132.72146878,4125.02626798,4133.17908825,4135.81398901,4138.98156685,4133.41839974,4123.07642252,4139.11458261,4136.92832497,4112.59886536,4116.22682679,4122.58863072,4114.44187856,693.126875019
off_to_on,4131.66980224,4124.57252763,4132.98741541,4135.78636154,4139.57978815,4134.70544135,4124.7769207,4141.34007658,4136.93523836,4112.39916763,4116.14869641,4121.92734004,4113.56209869,701.469379759
off_to_on,4130.95396112,4124.36973451,4133.04303509,4135.75087206,4140.12625573,4136.06894719,4126.42173391,4143.55197197,4136.94364708,4112.39230948,4116.12937329,4121.45730553,4112.98750136,706.900086124
off_to_on,4130.57222198,4124.42500662,4133.33282023,4135.70800939,4140.61121789,4137.47949995,4127.97730769,4145.71931144,4136.95316619,4112.57079877,4116.16424116,4121.18243599,4112.70917367,709.385655813
off_to_on,4130.51502326,4124.74154325,4133.83875962,4135.65835604,4141.0273306,4138.9073617,4129.41393315,4147.81298542,4136.96337975,4112.92299679,4116.247307,4121.10222201,4112.7108025,709.006958698
off_to_on,4130.76526547,4125.31836565,4134.5384646,4135.60256325,4141.36982702,4140.32331979,4130.70644747,4149.80638073,4136.97385769,4113.43350782,4116.37142624,4121.21171526,4112.96929709,705.950987065
off_to_on,4131.29882111,4126.15016104,4135.40578939,4135.5413271,4141.63659449,4141.69950587,4131.83477538,4151.67596822,4136.98417279,4114.08368988,4116.52856007,4121.50165306,4113.455621,700.498472928
off_to_on,4132.08523917,4127.22723935,4136.41154724,4135.47536731,4141.82815673,4143.01016009,4132.78429729,4153.4018123,4136.99391697,4114.8522681,4116.71005542,4121.95872514,4114.13580284,693.007731855
off_to_on,4133.08862304,4128.53560717,4137.52430126,4135.40540972,4141.94756223,4144.23231445,4133.54603614,4154.96798761,4137.00271646,4115.71602776,4116.90693773,4122.56597386,4114.97208876,683.895410178
off_to_on,4134.26865509,4130.05715868,4138.71120611,4135.33217327,4142.00018416,4145.34637256,4134.11666124,4156.36289076,4137.01024516,4116.65056123,4117.11020571,4123.30331408,4115.9241946,673.614941369
off_to_on,4135.58173667,4131.76997911,4139.93887552,4135.25636208,4141.99344038,4146.33656691,4134.49831409,4157.57943836,4137.01623587,4117.63104157,4117.31111806,4124.14815453,4116.95061253,662.633615338
off_to_on,4136.98220887,4133.64875225,4141.17424975,4135.17866282,4141.93644514,4147.19127909,4134.69826691,4158.6151455,4137.02048885,4118.63299468,4117.50146192,4125.07609895,4118.00992575,651.409226523
off_to_on,4138.42361673,4135.66526001,4142.38543757,4135.09974703,4141.83960705,4147.90321418,4134.72843035,4159.47208273,4137.02287757,4119.63304262,4117.67379443,4126.06170199,4119.06208531,640.367289671
off_to_on,4139.85997851,4137.78895931,4143.54250866,4135.02027783,4141.71418965,4148.46942639,4134.60473207,4160.15671258,4137.02335153,4120.609592,4117.82164955,4127.07925265,4120.06960519,629.879794336
off_to_on,4141.24702183,4139.98761904,4144.61821408,4134.94092011,4141.5718523,4148.89119959,4134.34639155,4160.67961037,4137.021936,4121.54344337,4117.93970403,4128.10355697,4120.99863545,620.246410836
off_to_on,4142.54334984,4142.22799864,4145.5886155,4134.86235278,4141.42418974,4149.17379196,4133.97511997,4161.05507765,4137.01872886,4122.41830121,4118.0238982,4129.11069171,4121.81987911,611.678963511
off_to_on,4143.71150368,4144.47654919,4146.4336069,4134.78528173,4141.28228804,4149.3260589,4133.51427562,4161.30065982,4137.01389474,4123.22116813,4118.07150917,4130.07870253,4122.50932504,604.289855529
off_to_on,4144.71889103,4146.70011765,4147.13731621,4134.71045195,4141.15631378,4149.35997245,4132.98800602,4161.43658274,4137.00765678,4123.94261209,4118.08117588,4130.98822258,4123.04877702,598.084968318
off_to_on,4145.53855568,4148.86663468,4147.68837802,4134.63865734,4141.05515107,4149.29005814,4132.42040703,4161.48512515,4137.00028625,4124.57690023,4118.05287738,4131.82299056,4123.42616731,592.961374681
off_to_on,4146.1497683,4150.94576685,4148.08007207,4134.57074683,4140.98609891,4149.13277248,4131.83472735,4161.46994562,4136.9920907,4125.12199759,4117.98786694,4132.57025104,4123.63565092,588.710005295
off_to_on,4146.53842415,4152.9095141,4148.31032637,4134.5076255,4140.95463845,4148.9058448,4131.25264348,4161.41538292,4136.98340103,4125.57943377,4117.88856603,4133.22102342,4123.67748455,585.023201878
off_to_on,4146.69723991,4154.73273481,4148.38158735,4134.45024984,4140.96427653,4148.62760725,4130.69362656,4161.34574954,4136.97455791,4125.95404469,4117.75842302,4133.77023101,4123.55770207,581.50688551
off_to_on,4146.62574804,4156.3935834,4148.30056399,4134.39961637,4141.01646902,4148.31633593,4130.17441844,4161.28463764,4136.96589835,4126.25360184,4117.60174258,4134.21668729,4123.28760545,577.696873904
off_to_on,4146.33009407,4157.87384838,4148.07785719,4134.35674362,4141.11062416,4147.98962512,4129.70863022,4161.25425683,4136.95774271,4126.48834565,4117.42349271,4134.56294225,4122.88309667,573.078704984
off_to_on,4145.82264826,4159.15918323,4147.72748929,4134.32264768,4141.24418327,4147.66381519,4129.30647217,4161.27482236,4136.95038266,4126.67044397,4117.22909697,4134.81499833,4122.36388168,567.110173404
off_to_on,4145.12144947,4160.2392262,4147.26635218,4134.298312,4141.41277358,4147.35349268,4128.9746194,4161.36401133,4136.94407077,4126.81339953,4117.02422016,4134.98191051,4121.75258139,559.245667841
off_to_on,4144.24950329,4161.10760972,4146.71359476,4134.28465234,4141.61042525,4147.07107834,4128.71621252,4161.53650211,4136.93901169,4126.93143215,4116.81455543,4135.07529008,4121.07378694,548.961315089
off_to_on,4143.23396078,4161.76186403,4146.08997205,4134.28247843,4141.82984268,4146.82651482,4128.53098786,4161.80360959,4136.93535567,4127.03886174,4116.60562102,4135.10873469,4120.35309743,535.779895555
off_to_on,4142.10520622,4162.20322311,4145.41717843,4134.29245369,4142.06271825,4146.6270622,4128.41552727,4162.17302547,4136.93319418,4127.1495174,4116.40257363,4135.09720942,4119.61617683,519.294495529
off_to_on,4140.89588384,4162.43634422,4144.71718706,4134.31505521,4142.30007539,4146.47720456,4128.36361356,4162.64866966,4136.93255811,4127.2761954,4116.21004489,4135.05640455,4118.88786401,499.18990456
off_to_on,4139.63989408,4162.46895467,4144.01161553,4134.3505357,4142.53262722,4146.37866703,4128.36667447,4163.23065521,4136.93341827,4127.43018575,4116.03200607,4135.00209492,4118.19136557,475.260849717
off_to_on,4138.37138958,4162.31144121,4143.32113609,4134.39888942,4142.75113687,4146.33053835,4128.41429527,4163.91536622,4136.93568831,4127.62088301,4115.87166496,4134.9495246,4117.54755609,447.426279084
off_to_on,4137.1238004,4161.9763988,4142.66494613,4134.45982393,4142.94676611,4146.32949016,4128.4947778,4164.69564469,4136.93922972,4127.85549231,4115.73139711,4134.91283853,4116.97440451,415.739059645
off_to_on,4135.92891609,4161.47815613,4142.0603119,4134.53273925,4143.11139966,4146.37008043,4128.59572276,4165.56107916,4136.94385882,4128.13883743,4115.61271275,4134.90457962,4116.48653977,380.390633591
off_to_on,4134.81604937,4160.83229505,4141.52219528,4134.61671581,4143.23793372,4146.44512501,4128.70461134,4166.498385,4136.94935524,4128.47327312,4115.51625861,4134.93526729,4116.09496276,341.71037474
off_to_on,4133.81130286,4160.05518077,4141.06297021,4134.71051268,4143.32051863,4146.54611872,4128.80936323,4167.49186331,4136.95547164,4128.85869978,4115.44185293,4135.01306909,4115.80690627,300.159595316
off_to_on,4132.93695621,4159.16351771,4140.69223131,4134.81257654,4143.3547475,4146.66368609,4128.89884959,4168.52392301,4136.96194425,4129.29267436,4115.38855058,4135.14357342,4115.62583873,256.320364351
off_to_on,4132.21098663,4158.17394432,4140.41669426,4134.92106235,4143.33778491,4146.78804117,4128.96334125,4169.57564839,4136.9685037,4129.77060767,4115.35473406,4135.32966704,4115.55160246,210.879503979
off_to_on,4131.64673072,4157.10267723,4140.24018359,4135.0338654,4143.26843212,4146.90943668,4128.99487577,4170.62739255,4136.97488579,4130.28603483,4115.3382253,4135.57151634,4115.58067235,164.608320791
off_to_on,4131.25269073,4155.96521243,4140.16370117,4135.14866448,4143.14712788,4147.01858354,4128.98752979,4171.65937606,4136.98084179,4130.8309426,4115.33641275,4135.86664754,4115.70651666,118.338798539
off_to_on,4131.03248331,4154.77608799,4140.1855656,4135.26297544,4142.97588626,4147.1070237,4128.9375873,4172.65226982,4136.98614777,4131.39613546,4115.34638776,4136.21011653,4115.92003858,72.9371192341
off_to_on,4130.9849243,4153.54870964,4140.30161153,4135.37421363,4142.75817538,4147.16744136,4128.84359884,4173.58774149,4136.99061277,4131.97162066,4115.36508457,4136.59475582,4116.21007505,29.2754865002
off_to_on,4131.10423944,4152.29523747,4140.50543591,4135.4797638,4142.49874328,4147.19390121,4128.70633124,4174.44894668,4136.99408538,4132.54699242,4115.38941805,4137.01148332,4116.56392797,-11.7967061212
off_to_on,4131.38038802,4151.02652931,4140.78867869,4135.5770552,4142.20339899,4147.18200584,4128.52861229,4175.22094829,4136.99645861,4133.11179618,4115.41641401,4137.44965601,4116.96790332,-49.4812910328
off_to_on,4131.79948437,4149.75213466,4141.1413254,4135.66363946,4141.87875887,4147.12896864,4128.31507938,4175.89105108,4136.9976728,4133.65585606,4115.44332733,4137.8974515,4117.40783544,-83.0582691096
off_to_on,4132.34430067,4148.48033152,4141.55202068,4135.73726864,4141.53196942,4147.03360239,4128.0718458,4176.4490425,4136.99771668,4134.16955181,4115.46774396,4138.34226087,4117.86957639,-111.910275735
off_to_on,4132.99483362,4147.218198,4142.00838311,4135.79597042,4141.17041811,4146.89622734,4127.80610198,4176.88733487,4136.99662638,4134.64403513,4115.48766366,4138.77107782,4118.33943404,-135.543659877
off_to_on,4133.72891691,4145.97170983,4142.49731345,4135.83811753,4140.80144435,4146.71850691,4127.52567203,4177.20100895,4136.99448262,4135.07137938,4115.50156154,4139.17087091,4118.8045468,-153.605391142
off_to_on,4134.52286143,4144.74585502,4143.00529014,4135.8624883,4140.43206209,4146.50322245,4127.23854718,4177.3877623,4136.99140622,4135.44466097,4115.50842716,4139.52892759,4119.25318656,-165.895158751
off_to_on,4135.35210573,4143.54475665,4143.51864736,4135.86831556,4140.06870512,4146.2540022,4126.95241867,4177.44776985,4136.98755209,4135.75797483,4115.50778087,4139.83316166,4119.67498584,-172.372189182
off_to_on,4136.1918599,4142.37179574,4144.02383255,4135.85532153,4139.71700473,4145.97502135,4126.67423171,4177.38346711,4136.98310209,4136.00639023,4115.49966809,4140.07237801,4120.06108895,-173.156480908
off_to_on,4137.01772716,4141.22972676,4144.50764162,4135.82373669,4139.38160838,4145.67069156,4126.40978127,4177.19926866,4136.97825695,4136.18585685,4115.48463265,4140.23649163,4120.40423036,-168.524337481
off_to_on,4137.80628862,4140.12078032,4144.95743096,4135.77430155,4139.06604533,4145.34535763,4126.1633679,4176.90123733,4136.97322765,4136.29307326,4115.46367138,4140.31669975,4120.69874659,-158.898278762
off_to_on,4138.53563843,4139.0467487,4145.36130619,4135.70825068,4138.77264417,4145.00301805,4125.9375299,4176.49672088,4136.96822667,4136.32533219,4115.43817281,4140.30560857,4120.94053007,-144.831622385
off_to_on,4139.1858585,4138.00905209,4145.70828798,4135.62727928,4138.5025041,4144.64708401,4125.73286487,4175.99397422,4136.9634594,4136.28035725,4115.40984302,4140.19731697,4121.12693488,-126.988241149
off_to_on,4139.73942433,4137.00878507,4145.98845622,4135.53349316,4138.25552054,4144.28018912,4125.54795023,4175.40178578,4136.95911599,4136.1561455,4115.38062239,4139.98746114,4121.25664467,-106.118199246
off_to_on,4140.18153616,4136.04674444,4146.19307376,4135.42934379,4138.03046286,4143.9040593,4125.3793683,4174.72912532,4136.95536416,4135.95082942,4115.35259662,4139.6732246,4121.32951403,-83.0301385023
off_to_on,4140.50037211,4135.12344173,4146.3146919,4135.3175508,4137.82510008,4143.51944966,4125.22183724,4173.98482962,4136.95234295,4135.66256965,4115.32790587,4139.2533191,4121.34639423,-58.5614214642
off_to_on,4140.68726284,4134.23910509,4146.34723999,4135.20101472,4137.63636859,4143.12615151,4125.06844473,4173.17733953,4136.95015789,4135.28948872,4115.30865542,4138.72794237,4121.30895512,-33.5471401878
off_to_on,4140.73678956,4133.39367674,4146.28610117,4135.08272352,4137.46057418,4142.72306923,4124.91097705,4172.31450007,4136.94887761,4134.82965349,4115.29683151,4138.09871958,4121.21951443,-8.78916248804
off_to_on,4140.64680928,4132.58681266,4146.12817639,4134.96565655,4137.29361917,4142.30836316,4124.74033179,4171.40343089,4136.94853198,4134.28111234,4115.29422561,4137.36863503,4121.08088532,14.9735961769
off_to_on,4140.41841216,4131.81789116,4145.87193745,4134.85268968,4137.13124436,4141.87965084,4124.54699756,4170.450471,4136.94911194,4133.64198977,4115.30237006,4136.54196083,4120.89625132,37.0925196323
off_to_on,4140.05581666,4131.08603594,4145.51746906,4134.74650518,4136.96927453,4141.43425536,4124.32157991,4169.46119641,4136.95057081,4132.91063806,4115.32248742,4135.62418775,4120.66907556,57.0331803089
off_to_on,4139.56620763,4130.39015783,4145.06649851,4134.64950989,4136.80385578,4140.96948607,4124.05534897,4168.4405053,4136.95282715,4132.0858417,4115.35545517,4134.62196239,4120.40304844,74.3948175624
off_to_on,4138.95952247,4129.72901737,4144.52241026,4134.56376435,4136.63167363,4140.48293486,4123.74078176,4167.39276104,4136.95576892,4131.16706642,4115.40178679,4133.54303312,4120.10207463,88.924615909
off_to_on,4138.24818987,4129.10130833,4143.89024178,4134.49092552,4136.45014137,4139.97277032,4123.37207194,4166.32198066,4136.95925876,4130.15474185,4115.46162934,4132.39620557,4119.77029757,100.52619309
off_to_on,4137.44682545,4128.50575983,4143.17665613,4134.43220461,4136.25755037,4139.43801283,4122.9455807,4165.23205398,4136.96314019,4129.05056357,4115.53477746,4131.1913074,4119.41215646,109.261931434
off_to_on,4136.57188885,4127.94125349,4142.38988677,4134.38834119,4136.0531754,4138.8787752,4122.46020491,4164.12697738,4136.96724442,4127.85779928,4115.62070245,4129.93916055,4119.03246858,115.349025269
off_to_on,4135.64130701,4127.40695018,4141.5396507,4134.35959401,4135.83733089,4138.29645534,4121.9176428,4163.01108566,4136.97139749,4126.58158231,4115.71859499,4128.6515584,4118.6365277,119.14936463
off_to_on,4134.67406891,4126.90241999,4140.63702666,4134.34574829,4135.6113757,4137.69386967,4121.32254178,4161.88926564,4136.97542745,4125.22917498,4115.82741914,4127.34124349,4118.23020745,121.153620849
off_to_on,4133.68979784,4126.42776844,4139.69429632,4134.3461388,4135.37766631,4137.07531836,4120.68251799,4160.76713585,4136.97917126,4123.81018455,4115.94597486,4126.02187997,4117.82005794,121.96013071
off_to_on,4132.70830778,4125.98375073,4138.72474773,4134.3596873,4135.13946036,4136.44657612,4120.00804258,4159.65117839,4136.98248126,4122.33671425,4116.07296577,4124.70801345,4117.41338267,122.249383249
off_to_on,4131.74915167,4125.57186595,4137.74244135,4134.38495234,4134.90077459,4135.8148058,4119.31219503,4158.54881119,4136.98523073,4120.8234336,4116.20706871,4123.41500982,4117.01828364,122.755090838
off_to_on,4130.8311702,4125.19442317,4136.7619409,4134.42018916,4134.66620339,4135.18839562,4118.61028969,4157.46839219,4136.98731863,4119.28755421,4116.34700127,4122.15896489,4116.6436633,124.232966259
off_to_on,4129.97205104,4124.85457224,4135.79801318,4134.4634168,4134.44070612,4134.57672452,4117.91938746,4156.41915099,4136.98867304,4117.7487011,4116.49158365,4120.95657729,4116.29917417,127.428422289
off_to_on,4129.18790877,4124.55629361,4134.86530286,4134.51248989,4134.22937296,4133.98986409,4117.25771047,4155.4110477,4136.9892535,4116.2286741,4116.63979181,4119.82497918,4115.99510983,133.044456041
off_to_on,4128.49289658,4124.3043436,4133.97799042,4134.56517221,4134.03718022,4133.43822875,4116.64398255,4154.45456331,4136.9890519,4114.75109892,4116.79079904,4118.78152129,4115.74223447,141.710977315
off_to_on,4127.89886065,4124.10415355,4133.14944297,4134.6192096,4133.86874655,4132.93218884,4116.09672271,4153.5604299,4136.98809213,4113.34097295,4116.94400424,4117.84351187,4115.55155214,153.956788405
off_to_on,4127.41504793,4123.96168385,4132.39186874,4134.67239961,4133.72810189,4132.48166369,4115.63352122,4152.73931204,4136.98642841,4112.02411527,4117.09904578,4117.02791138,4115.43401999,170.185322003
off_to_on,4127.04787717,4123.88323632,4131.71598671,4134.72265592,4133.61848005,4132.09571321,4115.2703289,4152.00145323,4136.98414243,4110.82653522,4117.25580057,4116.35098833,4115.40021388,190.655098411
off_to_on,4126.80078163,4123.87523054,4131.13072342,4134.76806578,4133.54214546,4131.78214693,4115.0207901,4151.35630283,4136.98133946,4109.77373789,4117.41436881,4115.82794441,4115.45995772,215.465681103
off_to_on,4126.67413058,4123.94395225,4130.6429481,4134.80693914,4133.50026239,4131.54716925,4114.89564879,4150.81214033,4136.97814362,4108.88998847,4117.57504553,4115.47252,4115.62193103,244.549697942
off_to_on,4126.66523411,4124.09528359,4130.25725716,4134.83784845,4133.49281361,4131.39507744,4114.90225417,4150.375714,4136.97469241,4108.1975603,4117.7382808,4115.29659314,4115.89327162,277.671260365
off_to_on,4126.76843391,4124.33442658,4129.97581767,4134.85965866,4133.51857271,4131.32802703,4115.04418881,4150.05191162,4136.97113096,4107.71599327,4117.90463101,4115.30978651,4116.27919171,314.430864021
off_to_on,4126.97528002,4124.66563226,4129.79827813,4134.87154681,4133.57513222,4131.34587628,4115.32103691,4149.84347939,4136.96760598,4107.46138978,4118.07470374,4115.51909813,4116.78262621,354.276603876
off_to_on,4127.27479102,4125.09194872,4129.72175322,4134.8730116,4133.65898671,4131.44611805,4115.72830429,4149.7508038,4136.96425997,4107.44577536,4118.24909951,4115.92857163,4117.40393179,396.521294242
off_to_on,4127.6537923,4125.61500049,4129.74088652,4134.86387322,4133.76566759,4131.62390368,4116.2574951,4149.77176834,4136.96122586,4107.67654967,4118.42835297,4116.53902181,4118.1406537,440.36485698
off_to_on,4128.09732408,4126.23481152,4129.84799286,4134.84426436,4133.88992326,4131.87215937,4116.89634321,4149.90169398,4136.95862234,4108.15605117,4118.61287647,4117.34783005,4118.98737521,484.921138222
off_to_on,4128.58910768,4126.94968166,4130.03327841,4134.8146134,4134.02593631,4132.18179101,4117.62918996,4150.13336844,4136.95655026,4108.88125579,4118.80290857,4118.34882216,4119.93566137,529.248145414
off_to_on,4129.11205606,4127.75612444,4130.28513377,4134.77562104,4134.16756719,4132.54197002,4118.4374933,4150.45716572,4136.95509003,4109.84362548,4118.9984696,4119.53223834,4120.97410497,572.380568571
off_to_on,4129.64881244,4128.64887113,4130.59049219,4134.72823157,4134.30861319,4132.94048916,4119.30044827,4150.86125339,4136.95430027,4111.02911779,4119.19932641,4120.88480173,4122.08847837,613.363364839
off_to_on,4130.18229943,4129.62094304,4130.93524236,4134.67359996,4134.4430705,4133.36417498,4120.19569403,4151.33188093,4136.95421734,4112.41836227,4119.40496784,4122.3898883,4123.26199071,651.285147131
off_to_on,4130.69626036,4130.66379089,4131.30468312,4134.61305599,4134.56538757,4133.7993415,4121.10007925,4151.8537395,4136.95485569,4113.9870041,4119.61459221,4124.02779742,4124.47564596,685.310129079
off_to_on,4131.17577401,4131.76749711,4131.68400473,4134.54806641,4134.67069804,4134.23226831,4121.99045558,4152.41038003,4136.95620882,4115.70620904,4119.82710778,4125.77611825,4125.70869265,714.707438813
off_to_on,4131.60772408,4132.92103327,4132.05877997,4134.4801958,4134.75502286,4134.64968543,4122.84446792,4152.98467426,4136.95825029,4117.54331816,4120.04114628,4127.61018334,4126.93915239,738.876718376
off_to_on,4131.98120546,4134.11256225,4132.41544663,4134.41106707,4134.8154324,4135.03924676,4123.64131066,4153.55930192,4136.9609348,4119.46263446,4120.25508911,4129.50359669,4128.14440977,757.36906965
off_to_on,4132.28785115,4135.32977182,4132.74176227,4134.34232187,4134.85016159,4135.38997396,4124.36242119,4154.11724622,4136.96419889,4121.42631809,4120.46710517,4131.42882056,4129.30184324,769.902587836
off_to_on,4132.52206647,4136.56022535,4133.02721324,4134.27558182,4134.85867344,4135.69265347,4124.99208536,4154.64228023,4136.96796108,4123.39536285,4120.67519848,4133.35780282,4130.3894746,776.371932352
off_to_on,4132.68116066,4137.79171432,4133.26336096,4134.21241102,4134.84166883,4135.94017058,4125.51793398,4155.11942779,4136.97212144,4125.33062315,4120.87726353,4135.26262549,4131.38661327,776.851612001
off_to_on,4132.76537027,4139.01259807,4133.44411158,4134.15428057,4134.80104266,4136.12776738,4125.93131443,4155.53538375,4136.97656046,4127.19385889,4121.07114607,4137.11615456,4132.27447194,771.592897728
off_to_on,4132.7777729,4140.21211676,4133.56589766,4134.10253583,4134.73978897,4136.25321418,4126.22752698,4155.87888046,4136.98113735,4128.94876452,4121.25470686,4138.89267073,4133.03673106,761.014515201
off_to_on,4132.72409469,4141.38066482,4133.62776445,4134.058367,4134.66185978,4136.31688805,4126.40592036,4156.14098971,4136.98568791,4130.56194889,4121.42588593,4140.56846196,4133.66003136,745.687501368
off_to_on,4132.612419,4142.51001395,4133.63135693,4134.02278392,4134.57198441,4136.32175587,4126.46984671,4156.31535126,4136.99002221,4132.00383383,4121.58276478,4142.12235964,4134.13437645,726.314823242
off_to_on,4132.45280817,4143.59347716,4133.58080816,4133.99659552,4134.47545788,4136.27326335,4126.42648034,4156.39832198,4136.99392243,4133.24944237,4121.7236243,4143.53620296,4134.45343105,703.706545371
off_to_on,4132.2568537,4144.62600822,4133.48253318,4133.98039472,4134.37790805,4136.1791357,4126.28650925,4156.3890419,4136.99714109,4134.27905148,4121.84699619,4144.79521876,4134.61470451,678.751490224
off_to_on,4132.03717281,4145.60423396,4133.34493689,4133.9745492,4134.28505185,4136.04909821,4126.06371246,4156.28941618,4136.9994002,4135.07868925,4121.9517062,4145.88830747,4134.61961401,652.386457048
off_to_on,4131.80687161,4146.52641951,4133.17804684,4133.97919828,4134.20245087,4135.89452727,4125.77443934,4156.10401446,4137.00039151,4135.64046205,4122.036908,4146.80822891,4134.47342609,625.564143361
off_to_on,4131.57899601,4147.39236964,4132.99308485,4133.99425601,4134.13527631,4135.72804376,4125.43701039,4155.83989192,4136.99977831,4135.96270249,4122.10210675,4147.55168462,4134.18507956,599.220946745
off_to_on,4131.3659919,4148.2032713,4132.80199325,4134.01941995,4134.08809261,4135.56306151,4125.07106095,4155.50633827,4136.99719897,4136.04993495,4122.14717211,4148.11929633,4133.76689647,574.245814534
off_to_on,4131.17919564,4148.96148511,4132.61693314,4134.05418529,4134.06466822,4135.41330509,4124.69685081,4155.11456373,4136.99227243,4135.91266063,4122.17234069,4148.51548293,4133.23419179,551.45125603
off_to_on,4131.0283745,4149.67029569,4132.44977327,4134.09786337,4134.06782064,4135.29231237,4124.33456329,4154.67733225,4136.98460567,4135.56696992,4122.17820845,4148.74824151,4132.60479543,531.547536488
off_to_on,4130.92133441,4150.33363227,4132.31158847,4134.14960411,4134.09930148,4135.21293861,4124.00361711,4154.20855399,4136.97380319,4135.03399495,4122.1657137,4148.82884046,4131.89850332,515.120938967
off_to_on,4130.86360953,4150.95577247,4132.21218659,4134.20842143,4134.15972536,4135.18687908,4123.72201367,4153.72285009,4136.95947828,4134.33922021,4122.13611184,4148.77143498,4131.13647629,502.616818512
off_to_on,4130.85824504,4151.54104245,4132.15968177,4134.27322092,4134.24854507,4135.22422722,4123.50574077,4153.23510312,4136.94126589,4133.51167339,4122.09094298,4148.5926173,4130.3406071,494.327991687
off_to_on,4130.9056812,4152.0935274,4132.16013102,4134.34282866,4134.36407326,4135.33308395,4123.36825198,4152.76000749,4136.91883656,4132.58302237,4122.03199386,4148.31091561,4129.5328766,490.388808214
off_to_on,4131.00374336,4152.61680599,4132.21724879,4134.41602035,4134.50354975,4135.51923269,4123.32003816,4152.31163347,4136.89191119,4131.58660784,4121.96125554,4147.94625721,4128.73472063,490.775043975
off_to_on,4131.14773872,4153.11372222,4132.3322126,4134.49154959,4134.66325144,4135.78589189,4123.3683046,4151.90301851,4136.86027572,4130.55644306,4121.8808782,4147.51941259,4127.96642888,495.309539456
off_to_on,4131.33065678,4153.58620642,4132.5035692,4134.56817452,4134.83864035,4136.13355484,4123.51676383,4151.54579854,4136.82379548,4129.52621418,4121.79312468,4147.05143783,4127.24659614,503.673290016
off_to_on,4131.54346654,4154.03515519,4132.72724745,4134.64468225,4135.02454425,4136.55992258,4123.76555028,4151.24989119,4136.78242826,4128.52831398,4121.70032376,4146.56313234,4126.59164446,515.421482403
off_to_on,4131.77549959,4154.46037718,4132.99668015,4134.71991045,4135.21536282,4137.05993336,4124.11125929,4151.02324154,4136.73623559,4127.59294127,4121.60482475,4146.0745286,4126.01543202,530.003779331
off_to_on,4132.01490569,4154.86060872,4133.30303287,4134.79276599,4135.40529195,4137.62588816,4124.54710862,4150.87163981,4136.68539156,4126.74729552,4121.50895407,4145.6044291,4125.52896163,546.787996053
off_to_on,4132.24916415,4155.23360031,4133.63553414,4134.86224055,4135.58855744,4138.24766851,4125.063217,4150.79861759,4136.63018866,4126.0148929,4121.41497504,4145.17000431,4125.14019764,565.086198538
off_to_on,4132.46563252,4155.57627142,4133.98189691,4134.92742324,4135.75964926,4138.91303978,4125.64698948,4150.80542687,4136.5710401,4125.4150254,4121.32505137,4144.78646284,4124.85399599,584.182181361
off_to_on,4132.65211185,4155.88492778,4134.32881713,4134.98751052,4135.9135466,4139.6080294,4126.28359593,4150.89110204,4136.50847829,4124.96237889,4121.2412149,4144.46680254,4124.67214747,603.359251008
off_to_on,4132.7974066,4156.15553113,4134.66253128,4135.04181379,4136.04592438,4140.31736727,4126.95652499,4151.05260192,4136.44314927,4124.66681978,4121.16533779,4144.22164732,4124.59352924,621.927247619
off_to_on,4132.89185712,4156.38400865,4134.96941154,4135.08976493,4136.15333256,4141.02497345,4127.64819337,4151.28502527,4136.37580301,4124.53335274,4121.0991093,4144.05917105,4124.61435536,639.247787852
off_to_on,4132.9278231,4156.56658604,4135.23657463,4135.13092015,4136.23334059,4141.71447634,4128.34058787,4151.5818899,4136.30727962,4124.56224541,4121.04401682,4143.98510586,4124.7285125,654.756801748
off_to_on,4132.90009801,4156.70012622,4135.45247934,4135.16496247,4136.28464098,4142.36974391,4129.0159167,4151.93546287,4136.23849192,4124.74930884,4121.00133063,4144.00282883,4124.92796372,667.983560378
off_to_on,4132.80623661,4156.7824544,4135.60748719,4135.19170307,4136.30710773,4142.97540981,4129.65724651,4152.33712702,4136.17040447,4125.08631749,4120.97209194,4144.11351802,4125.20320078,678.565541718
off_to_on,4132.64678046,4156.8126503,4135.69436178,4135.21108153,4136.30180715,4143.51737639,4130.24910267,4152.7777676,4136.10400998,4125.56154736,4120.95710325,4144.31636655,4125.54372409,686.258652398
off_to_on,4132.42537003,4156.79128888,4135.70868374,4135.22316503,4136.27096081,4143.98327801,4130.77801212,4153.24816272,4136.04030357,4126.16040737,4120.95692061,4144.60884144,4125.93852867,690.942503525
off_to_on,4132.14873552,4156.72061311,4135.64916133,4135.22814643,4136.21786237,4144.36288866,4131.23297048,4153.73936071,4135.98025574,4126.86613621,4120.97184714,4144.98697254,4126.37657505,692.620621033
off_to_on,4131.82656313,4156.60462465,4135.51781986,4135.2263409,4136.146752,4144.64845989,4131.6058177,4154.24302841,4135.92478506,4127.66053454,4121.00192726,4145.44565566,4126.8472247,691.415651301
off_to_on,4131.47123746,4156.44908185,4135.3200575,4135.21818115,4136.06265342,4144.83497636,4131.89150916,4154.75175516,4135.8747313,4128.52470165,4121.04694137,4145.97895409,4127.34062164,687.559800707
off_to_on,4131.0974656,4156.26139877,4135.06456029,4135.20421086,4135.97118036,4144.92031898,4132.08827279,4155.25929911,4135.83083011,4129.43974594,4121.10640063,4146.58038291,4127.84800475,681.380921369
off_to_on,4130.72179265,4156.05044358,4134.76307438,4135.18507644,4135.87831996,4144.90532818,4132.19764604,4155.76076505,4135.79369019,4130.38744049,4121.17954185,4147.24316219,4128.36193885,673.284818747
off_to_on,4130.36202345,4155.82624051,4134.43003986,4135.16151685,4135.79020173,4144.79376416,4132.22439145,4156.25270653,4135.76377359,4131.35079821,4121.26532293,4147.96042765,4128.87645728,663.734502808
off_to_on,4130.03656958,4155.59958518,4134.08209689,4135.13435145,4135.71286132,4144.5921646,4132.17629352,4156.73314878,4135.74138015,4132.31454571,4121.36241948,4148.7253901,4129.38711339,653.227225886
off_to_on,4129.76374503,4155.381589,4133.7374809,4135.10446577,4135.6520086,4144.30960536,4132.06384428,4157.20153284,4135.72663659,4133.26548063,4121.46922375,4149.53143891,4129.89094368,642.270241361
off_to_on,4129.56103687,4155.18317339,4133.41532982,4135.07279507,4135.61280927,4143.95737315,4131.89982895,4157.65858518,4135.71949066,4134.19270373,4121.58384729,4150.37218866,4130.38634991,631.356272937
off_to_on,4129.44437996,4155.01453864,4133.13493065,4135.0403059,4135.59968842,4143.54856332,4131.69882719,4158.10612014,4135.71971078,4135.08772347,4121.70412895,4151.24147179,4130.87291221,620.939701609
off_to_on,4129.42746505,4154.88463445,4132.91493625,4135.00797578,4135.6161632,4143.09761807,4131.47664809,4158.54678554,4135.72689124,4135.94443699,4121.82764997,4152.1332836,4131.35114806,611.414454818
off_to_on,4129.52110918,4154.80065967,4132.7725847,4134.97677148,4135.66471034,4142.61982311,4131.24971966,4158.98376403,4135.74046279,4136.75899673,4121.95175756,4153.04168787,4131.82223417,603.094519936
off_to_on,4129.73271518,4154.76761804,4132.72295375,4134.94762634,4135.74667269,4142.13078119,4131.03445416,4159.42044416,4135.75970841,4137.52957626,4122.0735985,4153.96069359,4132.28770908,596.197904216
off_to_on,4130.06584374,4154.78795377,4132.77828148,4134.92141739,4135.86220748,4141.64588114,4130.8466114,4159.86007647,4135.78378385,4138.25605248,4122.19016346,4154.88411372,4132.74917388,590.834729177
off_to_on,4130.51991733,4154.8612876,4132.94738178,4134.89894278,4136.0102772,4141.1797793,4130.70068198,4160.30542998,4135.81174214,4138.93962381,4122.29834241,4155.80541785,4133.2080077,586.999984261
off_to_on,4131.09006986,4154.98426903,4133.2351789,4134.88090042,4136.18868227,4140.74590869,4130.6093118,4160.75846474,4135.84256141,4139.58238605,4122.39499101,4156.71758993,4133.66511272,584.571278891
off_to_on,4131.76715032,4155.1505549,4133.6423807,4134.8678686,4136.39413306,4140.35602912,4130.58278789,4161.22003495,4135.87517511,4140.18688827,4122.47700689,4157.61300224,4134.12070148,583.311731167
off_to_on,4132.53788255,4155.35091894,4134.16530398,4134.86028924,4136.62235726,4140.01983006,4130.62860345,4161.6896365,4135.90850347,4140.75569134,4122.54141456,4158.48331556,4134.5741367,582.877923504
off_to_on,4133.38517749,4155.57349054,4134.79586003,4134.85845451,4136.86823765,4139.74459674,4130.75111745,4162.16521065,4135.9414854,4141.29095107,4122.58545681,4159.31941483,4135.02383119,582.83264897
off_to_on,4134.28858915,4155.80411578,4135.52170241,4134.86249754,4137.12597428,4139.53494841,4130.95132104,4162.64301397,4135.97310955,4141.79404636,4122.60669002,4160.11138845,4135.46721291,582.661975343
off_to_on,4135.22490058,4156.02682863,4136.32653396,4134.8723877,4137.389265,4139.39265663,4131.22672041,4163.11756242,4136.00244358,4142.26527125,4122.60308075,4160.84855837,4135.90075743,581.79597512
off_to_on,4136.16882212,4156.22441555,4137.19056486,4134.8879311,4137.65149801,4139.31655028,4131.57134253,4163.58165539,4136.02866069,4142.70360681,4122.57310021,4161.51956622,4136.32008784,579.632316116
off_to_on,4137.09378055,4156.37905313,4138.09110846,4134.90877658,4137.90595034,4139.30251272,4131.97586734,4164.02648293,4136.05106245,4143.10658578,4122.5158136,4162.11251884,4136.72013903,575.561785337
off_to_on,4137.97277445,4156.47299497,4139.00329661,4134.93442758,4138.14598648,4139.34357477,4132.42788605,4164.44181654,4136.06909727,4143.47025855,4122.43096063,4162.61519394,4137.09538059,568.994733511
off_to_on,4138.77926844,4156.48928156,4139.90089148,4134.96425966,4138.36525163,4139.4301051,4132.91228054,4164.81628046,4136.08237382,4143.78926434,4122.31902365,4163.01530349,4137.4400895,559.387382536
off_to_on,4139.48809709,4156.41244571,4140.75716697,4134.99754335,4138.55785458,4139.55009675,4133.41171436,4165.13769615,4136.0906691,4144.05700615,4122.18127985,4163.30080988,4137.74866105,546.266935188
off_to_on,4140.07634799,4156.22918608,4141.54582964,4135.03347187,4138.71853533,4139.68954555,4133.90722064,4165.39348917,4136.09393085,4144.26592344,4122.01983409,4163.46028704,4138.01594424,529.254465829
off_to_on,4140.52419342,4155.92898197,4142.24194706,4135.07119266,4138.84281346,4139.83291238,4134.37886843,4165.57114441,4136.09227434,4144.40785114,4121.8376296,4163.48331618,4138.23758616,508.084651133
off_to_on,4140.81564066,4155.50462459,4142.82285006,4135.10984165,4138.92711357,4139.96365768,4134.80648535,4165.65869277,4136.08597368,4144.47444936,4121.63843393,4163.36090323,4138.41036841,482.621517827
off_to_on,4140.93917335,4154.95264221,4143.26897591,4135.14857871,4138.96886516,4140.06483207,4135.17041194,4165.64521107,4136.07544801,4144.45768442,4121.4267984,4163.08590303,4138.53251846,452.869535464
off_to_on,4140.88825884,4154.27360036,4143.56462015,4135.18662251,4138.96657479,4140.11970366,4135.45226121,4165.52131552,4136.06124321,4144.3503386,4121.2079898,4162.65343375,4138.60397875,418.979560264
off_to_on,4140.66170095,4153.47226233,4143.698568,4135.22328303,4138.91986938,4140.11240003,4135.6356556,4165.27962889,4136.04400966,4144.1465246,4120.98789374,4162.06126438,4138.62661801,381.2493341
off_to_on,4140.26382199,4152.55760016,4143.6645796,4135.25798986,4138.82951002,4140.02854123,4135.70691426,4164.91520167,4136.0244771,4143.84217941,4120.77289022,4161.31015783,4138.60437053,340.118452769
off_to_on,4139.7044634,4151.54265125,4143.46170849,4135.29031477,4138.69737622,4139.85583998,4135.65566395,4164.42586856,4136.00342727,4143.43551301,4120.56970285,4160.40415277,4138.54329174,296.157931646
off_to_on,4138.99880022,4150.44422136,4143.09443795,4135.31998749,4138.52642122,4139.58464597,4135.47534952,4163.81252347,4135.98166553,4142.92738793,4120.38522419,4159.35076782,4138.45152128,250.05470601
off_to_on,4138.16697088,4149.28243958,4142.57262636,4135.3469038,4138.32059944,4139.20841311,4135.16362234,4163.07929837,4135.95999236,4142.32160759,4120.22632122,4158.16111277,4138.33914781,202.591599729
off_to_on,4137.23353011,4148.08017643,4141.9112591,4135.37112547,4138.084768,4138.7240707,4134.72258882,4162.23363485,4135.93917575,4141.62509411,4120.09962554,4156.84989325,4138.21797406,154.623471738
off_to_on,4136.22673908,4146.86234186,4141.13001208,4135.39287215,4137.8245646,4138.13228258,4134.15890514,4161.28624019,4135.91992541,4140.84794006,4120.01131459,4155.435298,4138.10118517,107.050398156
off_to_on,4135.17771314,4145.65508503,4140.25263892,4135.4125054,4137.54626455,4137.43758114,4133.48370967,4160.25092465,4135.90286982,4140.00332349,4119.96689062,4153.93876182,4138.00292831,60.7888630403
off_to_on,4134.11945266,4144.48492282,4139.3062009,4135.43050588,4137.25662049,4136.64836717,4132.71239038,4159.14432133,4135.88853658,4139.10728187,4119.97096527,4152.3846023,4137.93781676,16.7420085365
off_to_on,4133.08578804,4143.37782853,4138.32016549,4135.44744459,4136.96268877,4135.77677163,4131.86419187,4157.98549578,4135.87733701,4138.17834695,4120.02705819,4150.79953417,4137.92037618,-24.2299676315
off_to_on,4132.1102744,4142.35831563,4137.3254055,4135.46394967,4136.6716476,4134.83838083,4130.96167352,4156.79545783,4135.86955522,4137.23705002,4120.13741865,4149.21207111,4137.96445471,-61.3381838102
off_to_on,4131.22507538,4141.44855407,4136.3531361,4135.48067032,4136.39061275,4133.85183299,4130.03003763,4155.59659381,4135.86534201,4136.30531383,4120.30287899,4147.65183107,4138.08262215,-93.8911775369
off_to_on,4130.45987791,4140.6675576,4135.43383162,4135.49823943,4136.12645736,4132.83829959,4129.09635214,4154.41204077,4135.86471377,4135.40575472,4120.52274823,4146.14876713,4138.28558516,-121.3177877
off_to_on,4129.8408801,4140.03047992,4134.5961656,4135.51723684,4135.88564218,4131.82087069,4128.18869748,4153.26502832,4135.86755616,4134.56092377,4120.79475318,4144.73235058,4138.58164696,-143.185984535
off_to_on,4129.38989263,4139.54805388,4133.86601784,4135.53815479,4135.67406234,4130.82386731,4127.33527058,4152.17821443,4135.87363247,4133.79252042,4121.11503253,4143.43073626,4138.97623946,-159.216968263
off_to_on,4129.12358972,4139.2262026,4133.26558915,4135.56136722,4135.49691558,4129.87210751,4126.56348029,4151.17304238,4135.8825961,4133.12061364,4121.47818757,4142.26994187,4139.47155361,-169.294032094
off_to_on,4129.05293998,4139.06584342,4132.81265977,4135.58710419,4135.35859592,4128.9901541,4125.8990687,4150.26914415,4135.89400675,4132.56290541,4121.87739051,4141.27307237,4140.06628956,-173.465872073
off_to_on,4129.18284016,4139.06289646,4132.52002069,4135.6154325,4135.26261521,4128.20157206,4125.36529096,4149.48381281,4135.90734953,4132.13406908,4122.30454926,4140.45961918,4140.75554308,-171.944213925
off_to_on,4129.51196655,4139.20849929,4132.39509911,4135.64624335,4135.21155422,4127.52822217,4124.98218322,4148.83156288,4135.92205619,4131.84519117,4122.75052452,4139.84486063,4141.53083788,-165.095809868
off_to_on,4130.03285007,4139.48941936,4132.43979124,4135.67924776,4135.20704326,4126.98961463,4124.7659441,4148.32379286,4135.93752779,4131.70334035,4123.20539299,4139.43938653,4142.38030635,-153.429038778
off_to_on,4130.73217222,4139.8886462,4132.65050642,4135.7139801,4135.24977164,4126.60234322,4124.72845028,4147.96855956,4135.95315782,4131.71128138,4123.65874819,4139.24876477,4143.28901438,-137.57552566
off_to_on,4131.59127,4140.38613751,4133.01841872,4135.74980997,4135.33952412,4126.37961719,4124.87692145,4147.77046924,4135.96835487,4131.86734625,4124.10002861,4139.27336285,4144.23941902,-118.267380032
off_to_on,4132.58683038,4140.95968641,4133.52991356,4135.78596228,4135.47524164,4126.33090419,4125.21374411,4147.73068523,4135.98256413,4132.16546757,4124.51886185,4139.50833112,4145.21194192,-96.3108260248
off_to_on,4133.69174708,4141.58587204,4134.16720939,4135.8215447,4135.65510326,4126.46169383,4125.73645762,4147.84704768,4135.99528697,4132.59537324,4124.90541235,4139.94374882,4146.18563619,-72.557143794
off_to_on,4134.87610686,4142.24105192,4134.90912773,4135.85558165,4135.87662546,4126.77338635,4126.43789978,4148.11429587,4136.00609775,4133.14293432,4125.25072007,4140.56492768,4147.13892046,-47.8719518614
off_to_on,4136.1082673,4142.90235332,4135.73197873,4135.88705337,4136.13677439,4127.26330636,4127.3065033,4148.5243803,4136.01465748,4133.79065233,4125.54701744,4141.35286286,4148.05035101,-23.1039321066
off_to_on,4137.35598473,4143.5486206,4136.61052538,4135.91493863,4136.4320865,4127.92483681,4128.326729,4149.06684794,4136.02072391,4134.51826685,4125.78801253,4142.28481543,4148.89940145,0.945865098571
off_to_on,4138.58754927,4144.1612779,4137.51898641,4135.93825943,4136.75879238,4128.74766473,4129.47961701,4149.72928257,4136.02415755,4135.30345987,4125.96912709,4143.33500684,4149.66721896,23.5530015273
off_to_on,4139.77288399,4144.72507067,4138.43203709,4135.95612579,4137.11293888,4129.71812721,4130.74343329,4150.49778022,4136.02492384,4136.12262989,4126.0876797,4144.47540161,4150.33732667,44.095830848
off_to_on,4140.88456754,4145.22865444,4139.3257683,4135.96777904,4137.49050468,4130.8196443,4132.09438608,4151.35743992,4136.02309118,4136.9517061,4126.14300598,4145.67655187,4150.89624371,62.0778822131
off_to_on,4141.89874299,4145.66500655,4140.17856651,4135.97263149,4137.88750503,4132.03322285,4133.50738454,4152.29284982,4136.01882517,4137.76697181,4126.13650964,4146.90847551,4151.33399731,77.1455829178
off_to_on,4142.79588073,4146.03164376,4140.97188177,4135.97030077,4138.30008192,4133.33801391,4134.95681146,4153.28855019,4136.01237943,4138.5458663,4126.07164101,4148.14153862,4151.64450559,89.1006205994
off_to_on,4143.5613692,4146.33063737,4141.69085601,4135.96063698,4138.72457678,4134.71190498,4136.41728204,4154.3294568,4136.00408322,4139.26773597,4125.95380204,4149.34731405,4151.8258155,97.9064414794
off_to_on,4144.18591427,4146.56842571,4142.32479003,4135.94374089,4139.15758374,4136.13212769,4137.86436304,4155.4012311,4135.99432663,4139.91450868,4125.79018,4150.49938861,4151.8801864,103.688600234
off_to_on,4144.66573553,4146.75543295,4142.86743464,4135.91997175,4139.59598274,4137.57586199,4139.27522941,4156.4905873,4135.98354391,4140.47126913,4125.58951484,4151.57409456,4151.81401666,106.728908446
off_to_on,4145.00255597,4146.90551083,4143.31709869,4135.88994362,4140.03695283,4139.02081853,4140.62923889,4157.58552986,4135.97219554,4140.9267174,4125.36180775,4152.55114356,4151.63761693,107.453563479
off_to_on,4145.20338944,4147.03522803,4143.67657434,4135.85450968,4140.47796724,4140.44578287,4141.90840919,4158.6755184,4135.96074982,4141.27349738,4125.11798101,4153.41414471,4151.36483969,106.415670951
off_to_on,4145.28013788,4147.16303773,4143.95288746,4135.81473445,4140.91677239,4141.83110659,4143.09778597,4159.75156024,4135.94966474,4141.50838636,4124.8695008,4154.15099235,4151.01257961,104.272792283
off_to_on,4145.24901717,4147.30835942,4144.15688747,4135.77185487,4141.3513539,4143.15913309,4144.18569413,4160.80623343,4135.9393707,4141.63234154,4124.62797635,4154.75411292,4150.60016417,101.760342996
off_to_on,4145.12983602,4147.49061356,4144.3026968,4135.72723147,4141.77989292,4144.4145479,4145.16386892,4161.83364606,4135.93025482,4141.65040383,4124.40474976,4155.2205648,4150.14865699,99.6618299201
off_to_on,4144.94515719,4147.72824951,4144.4070441,4135.68229183,4142.20071641,4145.58464668,4146.02746792,4162.82933943,4135.92264729,4141.57146389,4124.21049115,4155.55198935,4149.68009986,98.7770420693
off_to_on,4144.71937392,4148.03780681,4144.48850897,4135.63846873,4142.61224551,4146.6595167,4146.77496905,4163.79014491,4135.91681038,4141.40789942,4124.05481394,4155.7544159,4149.21672085,99.8893949487
off_to_on,4144.47773685,4148.43304877,4144.56670841,4135.59713581,4143.01294582,4147.63213045,4147.40796378,4164.71400521,4135.91293028,4141.17509692,4123.94592422,4155.83792812,4148.780137,103.733665909
off_to_on,4144.24536772,4148.92420451,4144.6614562,4135.55954362,4143.40128332,4148.49835242,4147.93085853,4165.59977142,4135.91111213,4140.89087455,4123.89031727,4155.81620348,4148.39057993,110.96534731
off_to_on,4144.04629547,4149.5173519,4144.79192714,4135.52675908,4143.77568915,4149.2568628,4148.35049908,4166.4469871,4135.9113783,4140.5748258,4123.89253214,4155.70594137,4148.06617147,122.132787372
off_to_on,4143.90254901,4150.21396838,4144.97585669,4135.49961134,4144.13453567,4149.90900361,4148.67573556,4167.25567021,4135.91366993,4140.24760593,4123.95497374,4155.52619891,4147.82227428,137.653187475
off_to_on,4143.83333756,4151.01066982,4145.2288047,4135.47864651,4144.4761261,4150.45855517,4148.91694638,4168.0261034,4135.91785145,4139.93018549,4124.07780891,4155.29765663,4147.67093971,157.793380939
off_to_on,4143.85434666,4151.89915028,4145.56350914,4135.46409372,4144.79869895,4150.91145227,4149.08554082,4168.75864239,4135.92371812,4139.64309655,4124.25894091,4155.04183884,4147.62047222,182.656137814
off_to_on,4143.97717352,4152.86632738,4145.98935192,4135.45584418,4145.10044808,4151.27545115,4149.19346006,4169.45355147,4135.93100579,4139.40569847,4124.49406362,4154.78031605,4147.6751259,212.172532285
off_to_on,4144.2089204,4153.89468962,4146.51195484,4135.45344444,4145.37955789,4151.55975969,4149.25269575,4170.11087358,4135.93940291,4139.23549008,4124.77679435,4154.53391796,4147.83494467,246.100681686
off_to_on,4144.55195993,4154.96283388,4147.13291808,4135.45610465,4145.63425216,4151.77464391,4149.27484381,4170.73034065,4135.94856387,4139.14749415,4125.09888103,4154.32198572,4148.09575283,284.030925446
off_to_on,4145.00388045,4156.04617351,4147.84970818,4135.46272181,4145.86285411,4151.93102481,4149.27070886,4171.31132768,4135.95812334,4139.15373759,4125.4504769,4154.16169081,4148.44929724,325.397268202
off_to_on,4145.55761459,4157.11779068,4148.65569625,4135.47191737,4146.06385444,4152.04007911,4149.249972,4171.8528518,4135.96771101,4139.26284739,4125.8204737,4154.06744545,4148.88353726,369.49467543
off_to_on,4146.20174881,4158.14940111,4149.54034129,4135.48208807,4146.2359839,4152.11285726,4149.22093188,4172.35361522,4135.97696604,4139.47977756,4126.19688173,4154.05042567,4149.38307307,415.501591267
off_to_on,4146.92100624,4159.11239472,4150.4895082,4135.49146797,4146.37828658,4152.15993097,4149.1903251,4172.81208841,4135.98555077,4139.80567669,4126.56724376,4154.11822411,4149.92969763,462.506852571
off_to_on,4147.69688877,4159.97891261,4151.48590529,4135.49819945,4146.49019012,4152.19108154,4149.16322869,4173.22662773,4135.99316319,4140.23790015,4126.91906812,4154.27464397,4150.50305293,509.540008655
off_to_on,4148.50845847,4160.72291866,4152.50962208,4135.50041051,4146.57156909,4152.21503764,4149.14304362,4173.59561964,4135.99954757,4140.7701643,4127.24026548,4154.51964002,4151.08136655,555.603930892
off_to_on,4149.33323197,4161.32122311,4153.53874497,4135.49629535,4146.6227978,4152.23926948,4149.13155502,4173.9176425,4136.0045031,4141.39283468,4127.51957332,4154.84940602,4151.64224098,599.708514823
off_to_on,4150.14815633,4161.75441669,4154.55002646,4135.48419534,4146.64478924,4152.26984275,4149.12906152,4174.19163607,4136.00789009,4142.09333409,4127.74695266,4155.25660223,4152.16346532,640.904240286
off_to_on,4150.93063091,4162.00767612,4155.51958264,4135.46267715,4146.63901723,4152.31133336,4149.1345637,4174.41706818,4136.00963362,4142.85665163,4127.91394192,4155.73071051,4152.62381774,678.314363674
off_to_on,4151.6595366,4162.07140686,4156.42359427,4135.43060491,4146.60751944,4152.36680074,4149.1459989,4174.594088,4136.00972461,4143.66592965,4128.01395461,4156.25849989,4153.00382719,711.164572593
off_to_on,4152.31623215,4161.94169452,4157.23898756,4135.3872035,4146.5528794,4152.43781467,4149.1605078,4174.72365539,4136.0082182,4144.50310228,4128.04250949,4156.82458071,4153.28646437,738.809033979
off_to_on,4152.88547655,4161.62054357,4157.94407284,4135.33211061,4146.47818612,4152.52452813,4149.17471693,4174.80763587,4136.00522978,4145.34955771,4127.99738402,4157.41202275,4153.45773503,760.751905874
off_to_on,4153.35623697,4161.11588951,4158.51912057,4135.26541524,4146.38697032,4152.62578703,4149.18502002,4174.84885167,4136.00092867,4146.18679545,4127.8786854,4158.00300976,4153.50715236,776.663555178
off_to_on,4153.72234455,4160.44137882,4158.94685739,4135.1876813,4146.28311701,4152.73926718,4149.1878419,4174.8510804,4135.99552996,4146.99705048,4127.68883613,4158.57950166,4153.42807,786.390924191
off_to_on,4153.9829643,4159.6159203,4159.21286785,4135.09995498,4146.17075519,4152.86162876,4149.17986936,4174.81899476,4135.98928472,4147.76385827,4127.43247466,4159.12387605,4153.21786295,789.961709606
off_to_on,4154.14285264,4158.66302084,4159.30589219,4135.00375528,4146.0541266,4152.98868014,4149.15823578,4174.75803957,4135.98246909,4148.47253794,4127.11627479,4159.61952196,4152.8779501,787.582247834
off_to_on,4154.21238363,4157.60992827,4159.21801496,4134.90104773,4145.93743691,4153.11554347,4149.1206499,4174.67424595,4135.97537275,4149.11057568,4126.74869079,4160.05136255,4152.41365892,779.629231744
off_to_on,4154.20733459,4156.48661278,4158.94474429,4134.79420143,4145.82469391,4153.23681627,4149.06546234,4174.57398603,4135.96828707,4149.66789569,4126.33963798,4160.40628728,4151.83393964,766.635609386
off_to_on,4154.14843156,4155.32462544,4158.48498553,4134.68593066,4145.71953848,4153.34672431,4148.9916682,4174.46367586,4135.96149366,4150.1370121,4125.90012092,4160.67347935,4151.15094259,749.271226488
off_to_on,4154.06066475,4154.15587792,4157.8409165,4134.57922213,4145.62507516,4153.43926207,4148.89884744,4174.3494376,4135.9552535,4150.51306016,4125.44182329,4160.84462892,4150.3794771,728.318961175
off_to_on,4153.97239431,4153.01139012,4157.01777489,4134.4772502,4145.54370978,4153.50831807,4148.78704873,4174.23673497,4135.94979731,4150.79371102,4124.97667469,4160.91402784,4149.53637466,704.64725506
off_to_on,4153.9142758,4151.92005374,4156.0235709,4134.38328201,4145.477002,4153.54778355,4148.65662543,4174.1299991,4135.94531727,4150.97897863,4124.51641048,4160.87854684,4148.63978237,679.180066346
off_to_on,4153.91804329,4150.90745878,4154.86874042,4134.30057579,4145.42554078,4153.55164448,4148.50803566,4174.03226322,4135.94196055,4151.07093282,4124.0721411,4160.73750148,4147.70841461,652.865353295
off_to_on,4154.01519541,4149.99482783,4153.56575596,4134.23227518,4145.38885018,4153.51405875,4148.34162074,4173.9448268,4135.93982485,4151.0733362,4123.65394668,4160.49241836,4146.76079287,626.643235615
off_to_on,4154.23563478,4149.19809896,4152.12871277,4134.18130313,4145.3653323,4153.42942195,4148.1573782,4173.86696924,4135.93895593,4150.9912264,4123.27051213,4160.14671739,4145.81450354,601.414976249
off_to_on,4154.60631516,4148.52719312,4150.57290763,4134.15025876,4145.35225293,4153.29242656,4147.95474608,4173.79573269,4135.93934729,4150.83046683,4122.92881638,4159.70532965,4144.88550284,578.013879785
off_to_on,4155.1499519,4147.98549583,4148.91442686,4134.14132063,4145.34577386,4153.09811933,4147.73241491,4173.72579107,4135.940942,4150.59729037,4122.63388764,4159.17427252,4143.9874965,557.179118305
off_to_on,4155.88385037,4147.56957593,4147.16975837,4134.15615967,4145.34103408,4152.84196125,4147.48818249,4173.64941864,4135.94363642,4150.29786062,4122.38863394,4158.56020562,4143.13141914,539.533372423
off_to_on,4156.81890429,4147.26915673,4145.35544097,4134.19586521,4145.33227993,4152.51989301,4147.21886424,4173.55656806,4135.94728566,4149.93787426,4122.19375596,4157.86999154,4142.32503549,525.565020285
off_to_on,4157.95881038,4147.06734671,4143.48776153,4134.26088684,4145.31304214,4152.12840744,4146.92026947,4173.43506269,4135.9517106,4149.52222671,4122.04774581,4157.11028505,4141.57268132,515.615430593
off_to_on,4159.29953842,4146.94112771,4141.582508,4134.35099486,4145.27635549,4151.66462922,4146.58725074,4173.27090379,4135.95670604,4149.05475983,4121.94697206,4156.28717252,4140.87515696,509.871726156
off_to_on,4160.82908683,4146.86209001,4139.65478312,4134.46526136,4145.21501512,4151.12640081,4146.2138298,4173.04868781,4135.96204964,4148.53810654,4121.88584852,4155.40588101,4140.22978077,508.365187197
off_to_on,4162.52754334,4146.7973942,4137.71888114,4134.6020634,4145.1218615,4150.51237303,4145.79339991,4172.75212451,4135.96751138,4147.9736421,4121.85708041,4154.47057277,4139.63060382,510.975261938
off_to_on,4164.36745851,4146.71093154,4135.78822651,4134.75910902,4144.99008475,4149.82209763,4145.31899995,4172.36464113,4135.97286301,4147.36154609,4121.85197905,4153.48423708,4139.06878028,517.43894922
off_to_on,4166.3145271,4146.56464596,4133.87537059,4134.93348599,4144.81353716,4149.05611834,4144.78365111,4171.87005268,4135.97788719,4146.70097268,4121.86083342,4152.44868576,4138.53308181,527.365118692
off_to_on,4168.32855881,4146.31997346,4131.99203894,4135.12173221,4144.58704155,4148.2160559,4144.18074246,4171.25327371,4135.98238596,4145.99032043,4121.87332446,4151.3646528,4138.0105364,540.253145639
off_to_on,4170.36470724,4145.93934844,4130.14921822,4135.31992596,4144.30668218,4147.30468166,4143.5044475,4170.5010421,4135.98618823,4145.22758573,4121.87896641,4150.23199216,4137.48716605,555.515072587
off_to_on,4172.37491374,4145.38772198,4128.35726973,4135.52379316,4143.97006453,4146.32597407,4142.75015019,4169.60262287,4135.98915591,4144.41077849,4121.86755828,4149.04996122,4136.94879132,572.500382549
off_to_on,4174.30951348,4144.63403453,4126.62605454,4135.72882826,4143.57653106,4145.28515279,4141.91485678,4168.55045812,4135.99118868,4143.53837402,4121.82962781,4147.81757243,4136.38186665,590.522386806
off_to_on,4176.11894321,4143.65258557,4124.96505508,4135.93042484,4143.12732116,4144.1886855,4140.99756952,4167.34072997,4135.99222703,4142.60977235,4121.75685073,4146.53399159,4135.77430809,608.885191475
off_to_on,4177.75548508,4142.42424482,4123.3834785,4136.12401147,4142.62566517,4143.04426364,4139.99959866,4165.97380581,4135.99225359,4141.6257357,4121.64242875,4145.19895815,4135.11627404,626.910206727
off_to_on,4179.17497845,4140.93745399,4121.89032844,4136.30518839,4142.07680486,4141.86074362,4138.92479217,4164.45453929,4135.9912928,4140.58877578,4121.4814112,4143.81320219,4134.40086146,643.961199864
off_to_on,4180.33843197,4139.1889751,4120.49443385,4136.46986048,4141.4879352,4140.64805097,4137.77966588,4162.79240642,4135.98940879,4139.50346492,4121.27094736,4142.37883182,4133.62468248,659.466969864
off_to_on,4181.21347161,4137.18434983,4119.20442641,4136.61436185,4140.86806573,4139.4170459,4136.57342104,4161.00146296,4135.98670183,4138.37664845,4121.01045883,4140.8996663,4132.78829116,672.940833513
off_to_on,4181.77556589,4134.93804498,4118.02866147,4136.735568,4140.22780279,4138.17934999,4135.31784171,4159.10011707,4135.98330333,4137.21754067,4120.70172453,4139.38149205,4131.89643643,683.996254298
off_to_on,4182.00897837,4132.47327073,4116.97508079,4136.83099155,4139.57905762,4136.94713513,4134.02706975,4157.110719,4135.97936979,4136.03769198,4120.34887432,4137.83222261,4130.95812443,692.358107161
off_to_on,4181.90740736,4129.82147105,4116.0510198,4136.89885821,4138.93468829,4135.73287703,4132.71726158,4155.05897804,4135.97507577,4134.850822,4119.95829067,4136.26194824,4129.98648221,697.869247611
off_to_on,4181.47428531,4127.02149856,4115.2629656,4136.93816048,4138.30808671,4134.54907796,4131.40613649,4152.97322469,4135.97060644,4133.6725202,4119.53842178,4134.68286652,4128.99842364,700.49223314
off_to_on,4180.72272343,4124.11849871,4114.61627578,4136.94868715,4137.71272495,4133.40796523,4130.11243187,4150.8835429,4135.96614977,4132.51982277,4119.09951275,4133.10909138,4128.01412711,700.306219852
off_to_on,4179.67510162,4121.16254024,4114.11487161,4136.93102757,4137.1616774,4132.32117449,4128.85528601,4148.82080357,4135.96188886,4131.41068089,4118.6532647,4131.55634389,4127.05634305,697.499224555
off_to_on,4178.3623176,4118.20703862,4113.76092192,4136.88655051,4136.66713743,4131.29942844,4127.65357257,4146.81563491,4135.95799463,4130.36334135,4118.2124345,4130.04153416,4126.14955705,692.356102544
off_to_on,4176.82272271,4115.30702832,4113.55453583,4136.81735812,4136.23994807,4130.35222313,4126.52521444,4144.89736908,4135.95461916,4129.39566548,4117.79039008,4128.5822497,4125.31904114,685.242742895
off_to_on,4175.10078416,4112.51734519,4113.4934834,4136.7262165,4135.88916605,4129.48753419,4125.4865063,4143.09300639,4135.95188994,4128.52441587,4117.40063774,4127.19617026,4124.58983138,676.58712143
off_to_on,4173.24552389,4109.89078471,4113.5729631,4136.61646502,4135.62167796,4128.71155581,4124.55147573,4141.42623872,4135.94990531,4127.76454303,4117.05633921,4125.90043377,4123.98567348,666.857970468
off_to_on,4171.30879318,4107.47630283,4113.7854336,4136.4919074,4135.44188503,4128.02848422,4123.73131197,4139.91657235,4135.94873109,4127.12850394,4116.76983587,4124.71098003,4123.52798003,656.541917951
off_to_on,4169.34344825,4105.31732525,4114.1205251,4136.35668812,4135.3514708,4127.4403567,4123.03388871,4138.57858649,4135.94839866,4126.62564396,4116.55219757,4123.64190077,4123.23484273,646.120011774
off_to_on,4167.40149649,4103.45022762,4114.56504304,4136.21515832,4135.34926247,4126.9469547,4122.46340337,4137.42135879,4135.94890445,4126.26167039,4116.41281212,4122.70482478,4123.12014108,636.044574444
off_to_on,4165.53228415,4101.9030436,4115.10307315,4136.07173591,4135.43119339,4126.54577738,4122.02015042,4136.44808257,4135.95021087,4126.03824293,4116.35903021,4121.90836643,4123.19278589,626.717326532
off_to_on,4163.78079475,4100.69445032,4115.7161934,4135.9307646,4135.59037011,4126.23208915,4121.7004411,4135.65589342,4135.95224855,4125.95270212,4116.39587839,4121.25766456,4123.45613167,618.469673979
off_to_on,4162.1861233,4099.83307086,4116.38379358,4135.79637683,4135.81724327,4125.99904239,4121.49667631,4135.0359156,4135.95491984,4125.9979517,4116.52585041,4120.75403577,4123.90758552,611.545975323
off_to_on,4160.78018394,4099.3171222,4117.08349882,4135.67236526,4136.09987814,4125.83787424,4121.39757335,4134.5735301,4135.95810341,4126.16250544,4116.74878444,4120.39476223,4124.53843295,606.090492779
off_to_on,4159.58669951,4099.13442468,4117.79168811,4135.56206726,4136.42431648,4125.73817347,4121.38854102,4134.24885799,4135.96165961,4126.43070232,4117.06183032,4120.17302856,4125.33389255,602.138589807
off_to_on,4158.6205099,4099.26277564,4118.48409421,4135.46826625,4136.77501788,4125.68821052,4121.4521907,4134.03744392,4135.96543654,4126.78308715,4117.45950806,4120.07801653,4126.27340196,599.612572768
off_to_on,4157.88722296,4099.67067635,4119.13646674,4135.39311317,4137.1353657,4125.67532002,4121.56896518,4133.91111633,4135.96927642,4127.19694694,4117.93385533,4120.09515943,4127.33112882,598.322391699
off_to_on,4157.38321809,4100.31838855,4119.72527643,4135.33807052,4137.48821979,4125.68632217,4121.7178615,4133.83899395,4135.97302213,4127.64698712,4118.47465856,4120.20655151,4128.47669131,597.971222474
off_to_on,4157.09599843,4101.15928377,4120.22843483,4135.30388039,4137.81649607,4125.70796739,4121.87721999,4133.78860228,4135.97652346,4128.10612577,4119.06975961,4120.39150113,4129.67606468,598.165757205
off_to_on,4157.00487376,4102.14143812,4120.62600211,4135.29055697,4138.10375221,4125.72738753,4122.02554814,4133.72705942,4135.97964312,4128.54637962,4119.70542718,4120.62721017,4130.89264289,598.430839627
off_to_on,4157.08194406,4103.20941578,4120.90085478,4135.29740306,4138.3347577,4125.73253688,4122.14234694,4133.62228788,4135.98226193,4128.93981099,4120.3667802,4120.88955677,4132.08841823,598.227905074
off_to_on,4157.2933424,4104.30617796,4121.03928631,4135.32304955,4138.49602759,4125.71260698,4122.20890604,4133.44420751,4135.9842833,4129.25950264,4121.03824847,4121.15395362,4133.22523705,596.97652766
off_to_on,4157.60068646,4105.37504995,4121.03151613,4135.365516,4138.57630004,4125.65840028,4122.20903603,4133.16586486,4135.98563663,4129.4805247,4121.70405478,4121.3962503,4134.26608591,594.078246997
off_to_on,4157.96268079,4106.36167717,4120.87208564,4135.4222899,4138.56693996,4125.56264944,4122.12970794,4132.7644563,4135.98627965,4129.58085815,4122.34870206,4121.59364549,4135.17636127,588.941748421
off_to_on,4158.33680698,4107.21590199,4120.5601245,4135.49042186,4138.46225378,4125.42027108,4121.96157456,4132.22220604,4135.98619951,4129.54223911,4122.95744901,4121.72557339,4135.9250752,581.008408556
off_to_on,4158.6810363,4107.89349563,4120.09947461,4135.56663322,4138.25970382,4125.22854498,4121.69935287,4131.52706551,4135.98541275,4129.35089122,4123.51675828,4121.77452871,4136.4859518,569.777194588
off_to_on,4158.95549955,4108.35768523,4119.49866507,4135.64743246,4137.96001403,4124.987213,4121.34205276,4130.67320727,4135.98396399,4128.9981167,4124.01470235,4121.72679643,4136.83837257,554.827922119
off_to_on,4159.12405142,4108.58042273,4118.77073618,4135.72923624,4137.56716349,4124.69849446,4120.89304311,4129.66129405,4135.98192363,4128.48072149,4124.44131387,4121.57305561,4136.9681345,535.841932266
off_to_on,4159.15567061,4108.5433518,4117.93291651,4135.80849123,4137.0882672,4124.36701808,4120.35995274,4128.49851171,4135.97938446,4127.80125614,4124.78886911,4121.30883077,4136.86799118,512.619341775
off_to_on,4159.02564404,4108.23843892,4117.00616153,4135.88179253,4136.53334811,4123.99967258,4119.7544096,4127.19836353,4135.9764575,4126.96806,4125.05209565,4120.93476934,4136.53795507,485.09214669
off_to_on,4158.71649081,4107.66824609,4116.01456735,4135.94599508,4135.91500772,4123.60538017,4119.09162789,4125.78023161,4135.97326721,4125.995103,4125.22829776,4120.45672981,4135.98534704,453.332615592
off_to_on,4158.21859215,4106.84583474,4114.98467682,4135.9983142,4135.2480064,4123.19479928,4118.38985764,4124.26871985,4135.96994621,4124.90162575,4125.31739545,4119.88567094,4135.22458819,417.556586622
off_to_on,4157.53050463,4105.7943029,4113.94469898,4136.03641224,4134.54876783,4122.77996437,4117.66971618,4122.69280044,4135.96662981,4123.71158567,4125.32187621,4119.23733997,4134.27673767,378.121476265
off_to_on,4156.65894607,4104.54596994,4112.92366516,4136.0584684,4133.83482481,4122.37387337,4116.95342512,4121.08479332,4135.96345051,4122.45292351,4125.24666096,4118.53176521,4133.16878986,335.519009786
off_to_on,4155.6184566,4103.14123598,4111.95054769,4136.06322998,4133.12422605,4121.99003464,4116.26397955,4119.47921373,4135.96053282,4121.15667156,4125.09888904,4117.79256627,4131.93275307,290.362885208
off_to_on,4154.43074967,4101.62715398,4111.05336811,4136.05004335,4132.43492486,4121.64198736,4115.62427922,4117.91152833,4135.95798837,4119.85593102,4124.88762989,4117.04610296,4130.60454086,243.371777026
off_to_on,4153.12378066,4100.05576355,4110.25832315,4136.01886432,4131.78417121,4121.34281054,4115.0562527,4116.41686373,4135.95591172,4118.58475184,4124.62353164,4116.32049127,4129.2227144,195.348264804
off_to_on,4151.73057132,4098.48224416,4109.5889563,4135.970248,4131.18792861,4121.10463719,4114.5800061,4115.02871339,4135.95437693,4117.37695287,4124.31841962,4115.64452087,4127.82712052,147.154428482
off_to_on,4150.28783884,4096.96295303,4109.06540276,4135.90531882,4130.66033614,4120.93819054,4114.21302705,4113.7776892,4135.95343499,4116.2649234,4123.98485932,4115.04651415,4126.45747476,99.6849806299
off_to_on,4148.83448557,4095.55341769,4108.70373336,4135.82572248,4130.21323483,4120.85235974,4113.96947303,4112.69036306,4135.95311226,4115.27844978,4123.63569989,4114.55317029,4125.15194157,53.838900991
off_to_on,4147.41001115,4094.30635604,4108.51542108,4135.73356189,4129.85577479,4120.8538316,4113.85957083,4111.78824138,4135.95340985,4114.4436113,4123.28361532,4114.1884404,4123.94576487,10.4905969874
off_to_on,4146.05291167,4093.26979591,4108.50694978,4135.63131981,4129.59411721,4120.94679344,4113.88915042,4111.08691168,4135.95430415,4113.78178884,4122.94066018,4113.97248024,4122.8700013,-29.5383667924
off_to_on,4144.79913053,4092.48536339,4108.67958102,4135.52177142,4129.43124165,4121.13272003,4114.05933222,4110.59539503,4135.95574818,4113.30882683,4122.61785688,4113.92072527,4121.950405,-65.5059473497
off_to_on,4143.68062356,4091.98680296,4109.02928957,4135.40789006,4129.36686531,4121.41025418,4114.36638165,4110.31573096,4135.95767399,4113.03438401,4122.32482964,4114.04312866,4121.20650758,-96.7737463861
off_to_on,4142.72409541,4091.79878441,4109.54687301,4135.29274975,4129.39747676,4121.77518651,4114.80173823,4110.24281284,4135.95999573,4112.96150148,4122.06949892,4114.34359717,4120.65092945,-122.827709067
off_to_on,4141.94995716,4091.93604073,4110.21823479,4135.17942792,4129.51648247,4122.22053569,4115.35222019,4110.36448255,4135.96261346,4113.08640817,4121.85784714,4114.81965199,4120.28895011,-143.294657071
off_to_on,4141.37154556,4092.40286919,4111.02483384,4135.07091164,4129.71445997,4122.73672649,4116.00039906,4110.66188286,4135.96541739,4113.39857523,4121.69376409,4115.46233328,4120.11835512,-157.95406711
off_to_on,4140.99463319,4093.1930138,4111.94428759,4134.97001059,4129.97950803,4123.31185953,4116.72513181,4111.11005671,4135.96829244,4113.88102104,4121.57897676,4116.25635747,4120.12956702,-166.744673758
off_to_on,4140.8172466,4094.28993317,4112.95110941,4134.87927931,4130.29768032,4123.93206393,4117.5022326,4111.67877247,4135.97112295,4114.51085958,4121.51306537,4117.18052688,4120.30605667,-169.765647754
off_to_on,4140.82979681,4095.66744328,4114.01755543,4134.80095113,4130.65348619,4124.58192108,4118.30526022,4112.33354572,4135.97379727,4115.26007568,4121.49356376,4118.20838084,4120.62502043,-167.272272982
off_to_on,4141.01551362,4097.29071046,4115.1145519,4134.73688528,4131.0304401,4125.24494564,4119.10639311,4113.03682032,4135.97621214,4116.0965017,4121.51613913,4119.30906832,4121.05829842,-159.666219769
off_to_on,4141.35116324,4099.1175573,4116.21267029,4134.68852821,4131.41163907,4125.9041077,4119.87736009,4113.74926526,4135.9782766,4116.98496261,4121.57484305,4120.44841262,4121.57349964,-147.48069422
off_to_on,4141.80801754,4101.10003228,4117.28311564,4134.65688956,4131.78034708,4126.54237847,4120.59039318,4114.43113983,4135.97991541,4117.88854954,4121.66242303,4121.59013128,4122.1352923,-131.360932062
off_to_on,4142.35303351,4103.18618409,4118.29869256,4134.64253263,4132.12056507,4127.14328074,4121.2191688,4115.04367755,4135.98107169,4118.7699763,4121.77068155,4122.69716722,4122.70681061,-112.040689299
off_to_on,4142.95019395,4105.32197324,4119.23471392,4134.64557848,4132.41756629,4127.69142509,4121.73970443,4115.55043943,4135.98170884,4119.59296938,4121.89086781,4123.73308162,4123.25112507,-90.315544312
off_to_on,4143.56195414,4107.45324813,4120.06981904,4134.66572259,4132.65837859,4128.17301246,4122.13118001,4115.91858817,4135.98181159,4120.32363951,4122.01408619,4124.6634556,4123.73271975,-67.0139555886
off_to_on,4144.15073642,4109.52770972,4120.78667139,4134.70226225,4132.83219736,4128.57628495,4122.37665643,4116.12003871,4135.98138616,4120.93178244,4122.13170473,4125.45724596,4124.11891958,-42.9671139522
off_to_on,4144.68041266,4111.49678969,4121.37251055,4134.75413277,4132.93071581,4128.89190777,4122.46366696,4116.13244428,4135.98045963,4121.39205854,4122.23574719,4126.08804073,4124.38121183,-18.9786887061
off_to_on,4145.11771591,4113.3173704,4121.81953848,4134.81995064,4132.94836245,4129.11326811,4122.38466208,4115.93998325,4135.97907841,4121.68500458,4122.3192527,4126.53516316,4124.49640958,4.2044104752
off_to_on,4145.43352575,4114.95328118,4122.12512622,4134.89806138,4132.88243903,4129.23668017,4122.13729321,4115.53391924,4135.97730603,4121.79783683,4122.3765886,4126.78457746,4124.44761071,25.9191554366
off_to_on,4145.6039766,4116.37651425,4122.29183377,4134.98659043,4132.73315613,4129.26148935,4121.72452629,4114.91291458,4135.97522031,4121.72501178,4122.40370369,4126.82955583,4124.2249131,45.6103708776
off_to_on,4145.61134618,4117.56811431,4122.32724243,4135.08349526,4132.50356752,4129.19007362,4121.15458182,4114.08308674,4135.97290991,4121.46851938,4122.39831178,4126.67107546,4123.82585589,62.8506277603
off_to_on,4145.4446902,4118.51870845,4122.24360591,4135.18661738,4132.19940806,4129.02774307,4120.44070352,4113.05780621,4135.9704707,4121.03789366,4122.35999819,4126.31792405,4123.25556709,77.3552757155
off_to_on,4145.1001998,4119.22865738,4122.0573332,4135.29373309,4131.82884321,4128.78254322,4119.60076365,4111.8572443,4135.96800172,4120.4499364,4122.29024507,4125.78650464,4122.52660923,88.9920098221
off_to_on,4144.58126981,4119.70782404,4121.78832285,4135.4026022,4131.40214093,4128.46496995,4118.65671856,4110.50768819,4135.96560127,4119.72816129,4122.19237489,4125.10034311,4121.65852745,97.7845726388
off_to_on,4143.89827773,4119.97497126,4121.45917366,4135.51101432,4130.93127914,4128.08760766,4117.63393304,4109.040649,4135.96336297,4118.90197747,4122.07141494,4124.2893141,4120.67711604,103.910414624
off_to_on,4143.06808515,4120.05681532,4121.09430209,4135.61683224,4130.42950396,4127.66470433,4116.56039686,4107.49179621,4135.96137217,4118.00564178,4121.93388873,4123.38861332,4119.61343162,107.692366597
off_to_on,4142.11328471,4119.98677627,4120.7189999,4135.71803227,4129.9108554,4127.21169913,4115.46586,4105.89975752,4135.95970274,4117.07701892,4121.78754341,4122.43751438,4118.50259134,109.584609746
off_to_on,4141.061226,4119.80347776,4120.35846825,4135.81274107,4129.38967839,4126.74471958,4114.38091606,4104.30482804,4135.95841435,4116.15619614,4121.64102478,4121.47795797,4117.3824037,110.153452274
off_to_on,4139.94286237,4119.54905885,4120.03686494,4135.8992689,4128.8801367,4126.28006568,4113.33606439,4102.74763493,4135.95755043,4115.28400496,4121.50351313,4120.55302768,4116.29188645,110.053625744
off_to_on,4138.79146708,4119.267367,4119.77640063,4135.97613883,4128.39574722,4125.83369853,4112.36078231,4101.2678046,4135.95713673,4114.50050646,4121.38433518,4119.70537155,4115.26973069,110.000990598
off_to_on,4137.64127219,4119.00210546,4119.59651786,4136.04211172,4127.94895004,4125.4207506,4111.48263764,4099.90267829,4135.95718069,4113.84349721,4121.29256754,4118.97563019,4114.35277209,110.742684219
off_to_on,4136.52608554,4118.79500919,4119.51318287,4136.09620659,4127.55072871,4125.0550736,4110.72647038,4098.68611917,4135.9576715,4113.3470922,4121.2366478,4118.40093109,4113.57452987,113.025850139
off_to_on,4135.47794153,4118.68412125,4119.53831565,4136.13771605,4127.21029221,4124.74883776,4110.11366895,4097.64744938,4135.95858091,4113.04043716,4121.22400862,4118.01350578,4112.96387048,117.566146892
off_to_on,4134.52583857,4118.70223613,4119.67937763,4136.16621651,4126.93482766,4124.51219465,4109.66156199,4096.81054955,4135.95986467,4112.94659746,4121.2607491,4117.83948063,4112.54384795,125.017247448
off_to_on,4133.69461135,4118.87556857,4119.93912998,4136.18157273,4126.72932947,4124.35301169,4109.38294187,4096.19314617,4135.96146463,4113.08166336,4121.35135628,4117.8978849,4112.33076489,135.942506666
off_to_on,4133.00397922,4119.22269612,4120.31556814,4136.18393651,4126.59650724,4124.27668413,4109.28573032,4095.80630433,4135.96331132,4113.45410309,4121.4984873,4118.1999111,4112.33348924,150.789895863
off_to_on,4132.46780391,4119.75381188,4120.80203132,4136.17373935,4126.53677173,4124.28602619,4109.37279149,4095.65413635,4135.96532692,4114.06438514,4121.70282032,4118.74845262,4112.55305086,169.871181038
off_to_on,4132.09358108,4120.47031121,4121.3874788,4136.15167888,4126.5482956,4124.38123988,4109.64189354,4095.73372937,4135.9674285,4114.90488111,4121.9629797,4119.53793316,4112.98253103,193.346159733
off_to_on,4131.88218073,4121.3647231,4122.05691921,4136.11869948,4126.6271433,4124.55995708,4110.08581505,4096.03528855,4135.96953142,4115.9600496,4122.27553774,4120.55443168,4113.60724664,221.212579409
off_to_on,4131.8278424,4122.4209837,4122.79197341,4136.07596715,4126.76746278,4124.81734821,4110.69258921,4096.5424865,4135.97155267,4117.20689209,4122.63509291,4121.77609608,4114.40521961,253.302145044
off_to_on,4131.91842168,4123.61503734,4123.57154788,4136.02483945,4126.96172992,4125.14628965,4111.44587544,4097.23300404,4135.9734142,4118.61566294,4123.03442096,4123.17382935,4115.34791268,289.28279134
off_to_on,4132.13587579,4124.91573832,4124.37259235,4135.96683108,4127.20103548,4125.53758191,4112.32544526,4098.07924234,4135.97504582,4120.15080771,4123.4646935,4124.71222299,4116.40120276,328.667155067
off_to_on,4132.45696773,4126.28601664,4125.17091362,4135.90357599,4127.47540366,4125.98021102,4113.30776683,4099.04918285,4135.97638785,4121.77209684,4123.91575571,4126.35070425,4117.5265556,370.826947173
off_to_on,4132.85416087,4127.68426112,4125.94201595,4135.83678698,4127.77413066,4126.46164578,4114.36667051,4100.10736688,4135.97739326,4123.43591532,4124.37645309,4128.04485631,4118.68235819,415.012701304
off_to_on,4133.29666955,4129.06586615,4126.66193868,4135.76821365,4128.08613194,4126.96816402,4115.47407555,4101.21596437,4135.97802928,4125.09666392,4124.83499545,4129.74786471,4119.82535982,460.378171612
off_to_on,4133.7516255,4130.38488241,4127.30806199,4135.6995997,4128.40028656,4127.48520089,4116.60075683,4102.3358981,4135.97827838,4126.70822386,4125.27934521,4131.41203925,4120.91216986,506.008476357
off_to_on,4134.18531581,4131.59570881,4127.85985344,4135.63264055,4128.70576784,4127.9977119,4117.71712938,4103.42798845,4135.97813866,4128.22543542,4125.69761607,4132.99035828,4121.90075846,550.950943763
off_to_on,4134.56444555,4132.65476183,4128.29953037,4135.5689423,4128.99234975,4128.49054376,4118.79402839,4104.4540831,4135.97762363,4129.60554044,4126.07846834,4134.43798195,4122.75190681,594.247517872
off_to_on,4134.85737678,4133.5220601,4128.61261608,4135.50998287,4129.25068037,4128.94880545,4119.80346282,4105.37813656,4135.97676129,4130.80954056,4126.41148679,4135.71368215,4123.43055611,634.967526062
off_to_on,4135.03529713,4134.1626658,4128.7883718,4135.4570764,4129.4725149,4129.35823302,4120.71932194,4106.16720699,4135.97559282,4131.80342525,4126.68752792,4136.78114038,4123.90700753,672.239598699
off_to_on,4135.07327391,4134.54793099,4128.82009135,4135.41134171,4129.65090332,4129.70554127,4121.51801601,4106.79234084,4135.97417058,4132.55922891,4126.89902478,4137.61006967,4124.15793186,705.281567441
off_to_on,4134.95115492,4134.65650479,4128.70525056,4135.3736758,4129.78032931,4129.9787555,4122.17903506,4107.22932029,4135.97255591,4133.05588199,4127.04023889,4138.17712396,4124.16715451,733.427250148
off_to_on,4134.65428345,4134.47506787,4128.44550957,4135.34473332,4129.85679966,4130.16751561,4122.68541259,4107.45925425,4135.97081642,4133.27982907,4127.10745113,4138.46656671,4123.92619043,756.149151326
off_to_on,4134.17400279,4133.99877117,4128.04657143,4135.32491283,4129.87788482,4130.26334463,4123.02408499,4107.46899941,4135.9690233,4133.22539518,4127.0990857,4138.47067957,4123.43451321,773.076263058
off_to_on,4133.50793409,4133.23136785,4127.51790603,4135.31435048,4129.84271338,4130.25987332,4123.18614067,4107.25140448,4135.96724833,4132.89489112,4127.01576374,4138.18990173,4122.69955246,784.0063383
off_to_on,4132.66002068,4132.18503893,4126.87235299,4135.3129215,4129.75192419,4130.15301377,4123.16695712,4106.80537697,4135.9655611,4132.29845752,4126.86028559,4137.63270021,4121.73642303,788.91221874
off_to_on,4131.64034109,4130.87992464,4126.12562131,4135.32024954,4129.60758104,4129.94107609,4122.96622682,4106.13577733,4135.9640263,4131.45365719,4126.63754334,4136.81518107,4120.56739984,787.942022488
off_to_on,4130.46470252,4129.34338471,4125.2957074,4135.33572368,4129.41305495,4129.62482429,4122.58787613,4105.25315086,4135.96270123,4130.38483386,4126.35436741,4135.76046063,4119.22116034,781.413224413
off_to_on,4129.15403477,4127.60902001,4124.40225548,4135.35852265,4129.17287971,4129.20746923,4122.03988402,4104.17331177,4135.96163374,4129.12226356,4126.01931322,4134.49782408,4117.73182557,769.800887496
off_to_on,4127.73361224,4125.71549677,4123.46588586,4135.3876454,4128.89258584,4128.69459846,4121.33400909,4102.91679753,4135.9608605,4127.70113152,4125.64239594,4133.06170536,4116.1378368,753.720518292
do_nothing,4126.23213771,4123.70522028,4122.50751712,4135.42194715,4128.57851862,4128.0940446,4120.48543528,4101.50821447,4135.96040582,4126.16037239,4125.23478283,4131.49052738,4114.48070986,733.906213159
do_nothing,4124.68072582,4121.62290944,4121.54770732,4135.46017955,4128.23764546,4127.41569583,4119.51234763,4099.97549748,4135.9602809,4124.54141532,4124.80845376,4129.82544534,4112.80371271,711.184927436
do_nothing,4123.11182737,4119.51412602,4120.60603816,4135.50103359,4127.87735802,4126.67125355,4118.43545044,4098.34910782,4135.96048373,4122.88687732,4124.37584161,4128.10903772,4111.15051286,686.447833617
do_nothing,4121.55813629,4117.423813,4119.70056349,4135.54318347,4127.50527452,4125.87394391,4117.27744099,4096.66119389,4135.96099937,4121.23924984,4123.94946435,4126.38399059,4109.56384192,660.619831692
do_nothing,4120.05152046,4115.39489495,4118.84734041,4135.58533002,4127.12904727,4125.03819066,4116.06245304,4094.9447399,4135.9618009,4119.63962245,4123.54156094,4124.69181994,4108.08422255,634.62832973
do_nothing,4118.622015,4113.46699011,4118.06005716,4135.62624188,4126.75618011,4124.17925799,4114.81548418,4093.2327267,4135.96285064,4118.12648616,4123.16374266,4123.07167442,4106.74879986,609.372424276
do_nothing,4117.29691288,4111.67527799,4117.34976727,4135.66479322,4126.39385986,4123.31287226,4113.56182156,4091.55732771,4135.96410193,4116.73465462,4122.82667071,4121.55925644,4105.59031412,585.693580443
do_nothing,4116.09998217,4110.04955911,4116.72473442,4135.69999655,4126.04880514,4122.4548325,4112.32647923,4089.94916064,4135.96550116,4115.49433638,4122.53976962,4120.18589413,4104.63624507,564.34884225
do_nothing,4115.05083321,4108.61353455,4116.19038773,4135.73102981,4125.72713501,4121.62061918,4111.13365922,4088.43661238,4135.96698998,4114.4303846,4122.31098452,4118.97778955,4103.90815017,545.987495587
do_nothing,4114.16445187,4107.38432353,4115.74938232,4135.75725656,4125.43425911,4120.82501106,4110.00624721,4087.04525117,4135.96850776,4113.56174315,4122.14658824,4117.95546119,4103.4212116,531.131964381
do_nothing,4113.45090827,4106.37222726,4115.40175631,4135.77823874,4125.17478997,4120.08171974,4108.96535195,4085.79733637,4135.96999402,4112.90110048,4122.05104273,4117.13339086,4103.18399813,520.16355483
do_nothing,4112.91524322,4105.58073804,4115.14517169,4135.79374154,4124.95247758,4119.40305169,4108.02989641,4084.71143281,4135.9713908,4112.45475493,4122.02691675,4116.51987763,4103.19844034,513.313481383
do_nothing,4112.55752876,4105.00678345,4114.97522452,4135.80373026,4124.77016609,4118.79960767,4107.21626785,4083.80213389,4135.97264489,4112.2226881,4122.07486038,4116.11709396,4103.46001069,510.659416414
do_nothing,4112.37309345,4104.64118746,4114.88580847,4135.80835914,4124.62977252,4118.28002963,4106.53803291,4083.07989481,4135.97370988,4112.19883616,4122.19363479,4115.92133309,4103.95809327,512.127606329
do_nothing,4112.35289822,4104.46932338,4114.86951498,4135.8079526,4124.53228684,4117.85080453,4106.00572266,4082.55097488,4135.97454777,4112.37154317,4122.38019433,4115.9234309,4104.67652274,517.500393718
do_nothing,4112.48404387,4104.47192727,4114.91805352,4135.80297968,4124.47779296,4117.51613354,4105.62669096,4082.21748527,4135.97513036,4112.7241751,4122.62981632,4116.10934045,4105.59426717,526.428782651
do_nothing,4112.75038727,4104.62603588,4115.0226756,4135.79402257,4124.46550906,4117.27787237,4105.40504829,4082.07753608,4135.97544014,4113.23586852,4122.93627292,4116.46083331,4106.68622555,538.449489821
do_nothing,4113.13324021,4104.90600962,4115.17458683,4135.78174089,4124.49384537,4117.13554576,4105.34167038,4082.12547403,4135.97547072,4113.88238386,4123.29203817,4116.95629759,4107.92410795,553.00575074
do_nothing,4113.61212214,4105.28459896,4115.36533218,4135.76683324,4124.56047689,4117.08643496,4105.43427943,4082.35219971,4135.97522689,4114.63703006,4123.68852246,4117.57160023,4109.2773649,569.471012203
do_nothing,4114.16553728,4105.73401253,4115.58714098,4135.74999794,4124.66242828,4117.12573426,4105.67759263,4082.7455508,4135.97472417,4115.47162544,4124.11632668,4118.28097953,4110.71413218,587.174548016
do_nothing,4114.77174663,4106.22694641,4115.83322017,4135.73189474,4124.79616788,4117.24676867,4106.06353094,4083.29073652,4135.97398797,4116.35745943,4124.56550757,4119.05793412,4112.20215896,605.427983308
do_nothing,4115.40950664,4106.73753673,4116.09798642,4135.71310939,4124.95770784,4117.44126277,4106.58147961,4083.97080773,4135.97305237,4117.26622111,4125.02584645,4119.87607694,4113.70968989,623.551699325
do_nothing,4116.05874821,4107.24220153,4116.3772305,4135.69412292,4125.14270751,4117.69964842,4107.21859155,4084.76714729,4135.97195861,4118.1708635,4125.48711366,4120.70992573,4115.20627592,640.90011503
do_nothing,4116.70117311,4107.72034341,4116.66820948,4135.67528719,4125.34657713,4118.01139802,4107.96012395,4085.65996695,4135.97075329,4119.04637652,4125.93932155,4121.53560623,4116.66349279,656.884906063
do_nothing,4117.32074842,4108.15489046,4116.96966505,4135.65680798,4125.56457949,4118.36537003,4108.78979885,4086.62879769,4135.96948642,4119.87044609,4126.37295983,4122.33144852,4118.05555114,670.995322776
do_nothing,4117.90408496,4108.53266083,4117.2817691,4135.63873661,4125.79192766,4118.75015401,4109.69017806,4087.65296249,4135.96820937,4120.62398224,4126.77920755,4123.07846298,4119.35978704,682.814900077
do_nothing,4118.44069058,4108.84454392,4117.6060002,4135.62097054,4126.02387722,4119.1544039,4110.64304336,4088.71202171,4135.96697279,4121.29150502,4127.15011741,4123.76068718,4120.55702689,692.034005319
do_nothing,4118.92309543,4109.08549952,4117.94495815,4135.60326286,4126.25581216,4119.56714931,4111.62977383,4089.7861834,4135.96582468,4121.86138317,4127.47876898,4124.36540175,4121.63182585,698.457839337
do_nothing,4119.3468514,4109.25438409,4118.30212577,4135.58524058,4126.48332386,4119.97807661,4112.63171364,4090.85667292,4135.96480848,4122.3259272,4127.75938878,4124.88321862,4122.57258367,702.009680767
do_nothing,4119.71041323,4109.35362,4118.68158968,4135.56643072,4126.70228311,4120.37777324,4113.63052502,4091.90605818,4135.96396151,4122.68134453,4127.98743626,4125.30805054,4123.3715458,702.729336618
do_nothing,4120.01491335,4109.3887301,4119.08773306,4135.5462933,4126.90890541,4120.75793087,4114.60852262,4092.91852913,4135.96331359,4122.9275698,4128.15965595,4125.63697536,4124.02470081,700.76692952
do_nothing,4120.2638463,4109.36776416,4119.52491452,4135.52425954,4127.09980981,4121.11150517,4115.54898645,4093.880131,4135.96288602,4123.06798717,4128.27409689,4125.87001164,4124.53158742,696.372314407
do_nothing,4120.46268128,4109.30064764,4119.99714758,4135.49977347,4127.27207173,4121.4328316,4116.4364506,4094.77895196,4135.96269095,4123.10906469,4128.33010134,4126.0098246,4124.89502542,689.880573444
do_nothing,4120.61842327,4109.19848475,4120.50779501,4135.47233483,4127.42326967,4121.71769794,4117.25696523,4095.60526575,4135.96273108,4123.05992176,4128.32826523,4126.06138234,4125.12078582,681.694182762
do_nothing,4120.73914361,4109.0728487,4121.0592909,4135.44154079,4127.5515256,4121.96337502,4117.9983288,4096.35163042,4135.96299974,4122.93185133,4128.27037316,4126.03158183,4125.21721538,672.262571488
do_nothing,4120.83350025,4108.93509064,4121.65290158,4135.40712433,4127.65553818,4122.16860702,4118.6502876,4097.0129442,4135.96348138,4122.73781782,4128.15931116,4125.92886373,4125.19483035,662.059896419
do_nothing,4120.91026694,4108.7956965,4122.28853373,4135.36898678,4127.73460782,4122.33356319,4119.20469982,4097.58645963,4135.96415235,4122.49195044,4127.99896049,4125.76283326,4125.06589348,651.561929119
do_nothing,4120.97788858,4108.66371785,4122.96459589,4135.32722231,4127.78865232,4122.4597529,4119.65566094,4098.07175699,4135.96498205,4122.20905006,4127.79407583,4125.54390268,4124.8439874,641.222992358
do_nothing,4121.04407854,4108.54629876,4123.67791735,4135.28213266,4127.81821132,4122.5499066,4119.99958816,4098.47067809,4135.96593423,4121.9041254,4127.55015133,4125.28296854,4124.54359559,631.453886914
do_nothing,4121.11547086,4108.4483159,4124.42372589,4135.23423048,4127.82443805,4122.60782592,4120.2352612,4098.78722168,4135.9669686,4121.59197194,4127.2732779,4124.99113364,4124.17970103,622.601717
do_nothing,4121.19733802,4108.37214393,4125.19568444,4135.1842308,4127.80907675,4122.63820729,4120.36381813,4099.02740185,4135.96804248,4121.2868034,4126.96999498,4124.67948024,4123.76741032,614.932453335
do_nothing,4121.29338177,4108.31755255,4125.98598438,4135.13303066,4127.77442461,4122.64644385,4120.38870465,4099.19907137,4135.96911253,4121.00194244,4126.64713973,4124.35889642,4123.32160902,608.616969525
do_nothing,4121.40560135,4108.28173563,4126.78549156,4135.08167761,4127.72327777,4122.63841214,4120.31557645,4099.31171197,4135.97013653,4120.74957309,4126.31169627,4124.03995389,4122.85665192,603.721153477
do_nothing,4121.53424028,4108.259467,4127.58393977,4135.03132857,4127.65886172,4122.62024975,4120.15215454,4099.37619367,4135.97107496,4120.54055408,4125.97064755,4123.73283107,4122.38608996,600.200536241
do_nothing,4121.67780999,4108.2433725,4128.37016473,4134.98320117,4127.58474712,4122.59813129,4119.90803447,4099.40450564,4135.97189255,4120.38428871,4125.63083171,4123.44727184,4121.92243387,597.899702
do_nothing,4121.8331854,4108.22430265,4129.13237104,4134.93852005,4127.50475288,4122.57804952,4119.59445192,4099.40946152,4135.97255956,4120.28864422,4125.29880524,4123.19256734,4121.47695376,596.556552092
do_nothing,4121.99576498,4108.1917868,4129.8584234,4134.89846086,4127.42283877,4122.56560903,4119.22400819,4099.40438251,4135.97305284,4120.25991134,4124.9807143,4122.97754607,4121.05951267,595.811300527
do_nothing,4122.15968592,4108.13454647,4130.53615314,4134.86409504,4127.34299078,4122.56583885,4118.81036109,4099.40276294,4135.97335665,4120.30279403,4124.68217627,4122.81055673,4120.6784324,595.219886375
do_nothing,4122.31808375,4108.04104443,4131.15367122,4134.83633808,4127.26910281,4122.58303023,4118.36788769,4099.41792408,4135.97346303,4120.42041929,4124.40817279,4122.69942981,4120.34039003,594.271307474
do_nothing,4122.46338544,4107.90004626,4131.6996796,4134.81590414,4127.20485888,4122.62060431,4117.91132708,4099.46266325,4135.97337205,4120.61435857,4124.16295611,4122.65140677,4120.05034451,592.40821753
do_nothing,4122.58762529,4107.70117243,4132.16377385,4134.80326908,4127.15362029,4122.68101355,4117.45541224,4099.54890692,4135.97309156,4120.88465439,4123.94997042,4122.67302975,4119.81149419,589.049991535
do_nothing,4122.68277307,4107.43542147,4132.53673102,4134.79864402,4127.11832199,4122.76567969,4117.01450121,4099.68737713,4135.97263674,4121.22984863,4123.77178977,4122.76998977,4119.62526714,583.617358235
do_nothing,4122.74106473,4107.095647,4132.8107777,4134.80196035,4127.10138234,4122.87496995,4116.60221842,4099.88728165,4135.97202937,4121.64701092,4123.63007435,4122.94693576,4119.49134686,575.557627467
do_nothing,4122.75532643,4106.67697456,4132.97983417,4134.81286675,4127.1046299,4123.00821264,4116.2311178,4100.15603835,4135.97129676,4122.13176791,4123.52554665,4123.20725084,4119.40773639,564.369507688
do_nothing,4122.71928378,4106.17714705,4133.03973139,4134.83073817,4127.12925073,4123.16375229,4115.91237892,4100.49904436,4135.97047062,4122.67833545,4123.45798883,4123.55280656,4119.37086323,549.626516303
do_nothing,4122.62784897,4105.59679094,4132.9883978,4134.85469578,4127.17575879,4123.33904379,4115.65554749,4100.91949982,4135.96958566,4123.27955713,4123.42626229,4123.98370855,4119.37572711,530.998032316
do_nothing,4122.47737877,4104.93959798,4132.82601343,4134.88363691,4127.24399121,4123.53078355,4115.46832959,4101.41829482,4135.96867818,4123.92695353,4123.42834998,4124.49804992,4119.41609125,508.267125686
do_nothing,4122.26589661,4104.21241973,4132.55512786,4134.9162735,4127.33312894,4123.73507442,4115.35644791,4101.99396616,4135.96778458,4124.61078742,4123.46142141,4125.09169051,4119.48471562,481.344417177
do_nothing,4121.99327207,4103.42527394,4132.18073868,4134.95117736,4127.44174221,4123.94761935,4115.32356576,4102.64272877,4135.96693995,4125.32015069,4123.52191961,4125.75808028,4119.57362898,450.277371864
do_nothing,4121.66135158,4102.59126362,4131.71032619,4134.98683044,4127.567859,4124.16393722,4115.37128202,4103.3585841,4135.96617667,4126.04307866,4123.6056688,4126.48814511,4119.67443346,415.254602875
do_nothing,4121.27403493,4101.72641113,4131.15384046,4135.02167821,4127.70905411,4124.37959262,4115.49919757,4104.13350508,4135.96552319,4126.76669704,4123.70800033,4127.2702512,4119.77863358,376.604952554
do_nothing,4120.83729368,4100.84941193,4130.52363704,4135.05418408,4127.86255534,4124.59043039,4115.70505071,4104.95769442,4135.96500304,4127.47740556,4123.82389415,4128.09026152,4119.8779801,334.791318572
do_nothing,4120.35912873,4099.98131424,4129.8343583,4135.08288272,4128.02536304,4124.7928047,4115.98491583,4105.81991006,4135.96463394,4128.16110087,4123.948132,4128.93169448,4119.96481762,290.399394659
do_nothing,4119.84946597,4099.14513211,4129.10275818,4135.10643061,4128.19437839,4124.98379248,4116.33345741,4106.70784823,4135.96442724,4128.80343927,4124.07545801,4129.77598995,4120.03242462,244.121691616
do_nothing,4119.31999036,4098.36540056,4128.34746891,4135.12365178,4128.36653573,4125.16138127,4116.74422829,4107.60857229,4135.96438765,4129.39013748,4124.20074184,4130.60288357,4120.07533346,196.737386545
do_nothing,4118.78392089,4097.66768127,4127.58870944,4135.13357742,4128.53893409,4125.32462296,4117.20999986,4108.50897291,4135.96451313,4129.90730701,4124.31913919,4131.39088391,4120.08961823,149.088709467
do_nothing,4118.25573062,4097.07802799,4126.84793699,4135.13547792,4128.70896282,4125.47374608,4117.72311008,4109.39624335,4135.96479516,4130.34181481,4124.42624417,4132.11784259,4120.07313833,102.054710698
do_nothing,4117.75081824,4096.62242112,4126.14744474,4135.12888649,4128.8744167,4125.61022132,4118.27581406,4110.25835211,4135.96521922,4130.68166042,4124.51822835,4132.76160133,4120.02572665,56.5233541025
do_nothing,4117.28513945,4096.32618141,4125.50991144,4135.11361342,4129.03359566,4125.73677668,4118.86062176,4111.08449389,4135.96576544,4130.91635722,4124.59196125,4133.30069562,4119.94931268,13.3629469875
do_nothing,4116.87480777,4096.21337349,4124.95791091,4135.08975093,4129.18538484,4125.85736086,4119.47060719,4111.86550019,4135.96640959,4131.03730363,4124.64510764,4133.71509005,4119.84797226,-26.6060557062
do_nothing,4116.53567608,4096.30621113,4124.51339173,4135.05766866,4129.32931123,4125.97705471,4120.09967526,4112.59419111,4135.96712403,4131.03812861,4124.67619784,4133.98691708,4119.72789808,-62.6378478189
do_nothing,4116.28291043,4096.62447622,4124.19713965,4135.01800011,4129.46557398,4126.1019328,4120.74277374,4113.26565214,4135.96787897,4130.91499524,4124.68466787,4134.10118879,4119.59728736,-94.0856954637
do_nothing,4116.13056804,4097.184965,4124.02823645,4134.9716209,4129.59504625,4126.23887818,4121.39604054,4113.87742147,4135.96864364,4130.6668464,4124.67086742,4134.04645043,4119.46614599,-120.423102436
do_nothing,4116.09119102,4098.00097444,4124.0235297,4134.91961986,4129.71924788,4126.39535528,4122.0568786,4114.42957714,4135.96938754,4130.29557744,4124.63603463,4133.81534543,4119.34601205,-141.260953725
do_nothing,4116.17542627,4099.08184251,4124.19712836,4134.86326391,4129.84028885,4126.57914717,4122.72395431,4114.9247172,4135.97008165,4129.80612291,4124.58223801,4133.40506363,4119.24960453,-156.360020883
do_nothing,4116.39168132,4100.43255466,4124.55993881,4134.80395848,4129.9607849,4126.7980643,4123.39711845,4115.36783133,4135.97069955,4129.20644672,4124.51228717,4132.8176485,4119.19040659,-165.638376925
do_nothing,4116.74582517,4102.05342865,4125.11925554,4134.74320469,4130.08374791,4127.05963324,4124.0772529,4115.76606754,4135.9712184,4128.50742895,4124.42961531,4132.06014359,4119.18219576,-169.173438365
do_nothing,4117.24094278,4103.93988863,4125.8784204,4134.68255476,4130.21245451,4127.37077487,4124.76604999,4116.1284028,4135.97161977,4127.72264594,4124.33813764,4131.14456495,4119.23853623,-167.198523219
do_nothing,4117.87715135,4106.08233859,4126.83656379,4134.62356712,4130.35029816,4127.73748288,4125.46573486,4116.46523132,4135.97189028,4126.86804521,4124.24209108,4130.08769336,4119.37225067,-160.093988798
do_nothing,4118.6514859,4108.4661442,4127.98843977,4134.56776193,4130.50063024,4128.16451443,4126.17874441,4116.7878873,4135.97202202,4125.96152118,4124.14586123,4128.91068806,4119.59489145,-148.373197041
do_nothing,4119.55786003,4111.07172957,4129.32436536,4134.51657831,4130.66659666,4128.65510531,4126.90737901,4117.10812262,4135.97201274,4125.0224031,4124.05380352,4127.63853181,4119.91623176,-132.66374664
do_nothing,4120.58710568,4113.8747933,4130.83027156,4134.47133395,4130.85097645,4129.21072214,4127.65344496,4117.43756093,4135.97186584,4124.07087091,4123.97006536,4126.29932461,4120.34379752,-113.68459855
do_nothing,4121.72709354,4116.84664403,4132.48787043,4134.4331879,4131.0560289,4129.83086331,4128.41790719,4117.78715132,4135.97159007,4123.12731923,4123.89841645,4124.92345039,4120.88245992,-92.2198881091
do_nothing,4122.96293339,4119.95465314,4134.27493951,4134.4031075,4131.28335589,4130.51291942,4129.20057126,4118.1666447,4135.97119914,4122.21169296,4123.84209406,4123.54264659,4121.534107,-69.0903515445
do_nothing,4124.27725149,4123.16281784,4136.16572112,4134.38183987,4131.53378557,4131.25210179,4129.99981315,4118.58411508,4135.97071097,4121.34282003,4123.80366945,4122.18901123,4122.29741023,-45.1233949169
do_nothing,4125.65053885,4126.43242438,4138.13142999,4134.36988888,4131.8072829,4132.04144564,4130.81237267,4119.04554593,4135.970147,4120.53776822,4123.78494086,4120.89398493,4123.16769875,-21.122899863
do_nothing,4127.06156146,4129.72279637,4140.14085811,4134.36749826,4132.1028913,4132.87189164,4131.63322363,4119.55449863,4135.96953119,4119.81125218,4123.78685739,4119.68734626,4124.13695001,2.16011120857
do_nothing,4128.48782027,4132.9921091,4142.16106115,4134.3746414,4132.41870828,4133.73244692,4132.45552978,4120.11187617,4135.96888904,4119.17511498,4123.80947662,4118.59625831,4125.19390041,24.0548435197
do_nothing,4129.90604683,4136.19824734,4144.15810732,4134.39101837,4132.75189667,4134.61042306,4133.27069218,4120.71579145,4135.96824656,4118.6379055,4123.8519575,4117.64440131,4126.32427473,43.9950857269
do_nothing,4131.29271907,4139.29968197,4146.09786632,4134.41606043,4133.09873154,4135.49174571,4134.06848904,4121.36154572,4135.9676292,4118.20456874,4123.9125883,4116.85122286,4127.51112753,61.539608998
do_nothing,4132.62458169,4142.25634009,4147.94681518,4134.44894196,4133.45468216,4136.3613269,4134.83730551,4122.04171828,4135.96706089,4117.87626127,4123.98884797,4116.23133174,4128.73528533,76.3878052595
do_nothing,4133.8791562,4145.03044408,4149.6728371,4134.48859979,4133.81452659,4137.20348859,4135.56444661,4122.74636498,4135.96656309,4117.6502993,4124.07749791,4115.79405638,4129.9758739,88.3899355034
do_nothing,4135.03522661,4147.58729616,4151.2459899,4134.53375925,4134.17249551,4138.00242282,4136.2365225,4123.46331878,4135.96615401,4117.52024212,4124.17470014,4115.54318274,4131.2109119,97.5515619967
do_nothing,4136.07328817,4149.89598706,4152.63922224,4134.58296656,4134.52244051,4138.74267233,4136.83989164,4124.17858241,4135.96584798,4117.47610917,4124.27615668,4115.47688039,4132.41794991,104.031958976
do_nothing,4136.97594904,4151.93001008,4153.82901758,4134.634627,4134.85802081,4139.40961426,4137.36114416,4124.8768,4135.9656549,4117.504725,4124.37726498,4115.58781916,4133.57473227,108.136526492
do_nothing,4137.72827678,4153.66776539,4154.79594877,4134.68704791,4135.17290221,4139.98992996,4137.78760537,4125.54179193,4135.96558003,4117.59018239,4124.47328334,4115.86347234,4134.65985918,110.303464565
do_nothing,4138.31808433,4155.09294334,4155.52512913,4134.7384857,4135.4609613,4140.47204452,4138.10783782,4126.15713464,4135.9656238,4117.71440999,4124.55950041,4116.28659607,4135.65342685,111.085190131
do_nothing,4138.73615241,4156.19478039,4156.00654969,4134.78719574,4135.71648823,4140.8465213,4138.3121199,4126.70676543,4135.96578194,4117.85782745,4124.63140286,4116.83586872,4136.53762494,111.125185903
do_nothing,4138.97638704,4156.96818499,4156.23529516,4134.83148368,4135.93438137,4141.10639832,4138.39287986,4127.17559076,4135.96604576,4118.00006791,4124.68483551,4117.48666847,4137.29727248,111.131150298
do_nothing,4139.03591224,4157.41373526,4156.21163498,4134.86975678,4136.11032705,4141.24745489,4138.34506596,4127.55007629,4135.96640254,4118.12074483,4124.71614863,4118.2119628,4137.92027639,111.845465787
do_nothing,4138.91509967,4157.53755337,4155.94098873,4134.90057368,4136.24095849,4141.26839928,4138.16643633,4127.81879716,4135.96683618,4118.20023859,4124.72232806,4118.98327969,4138.39799964,114.014113135
do_nothing,4138.61753734,4157.35106551,4155.43376887,4134.92269075,4136.32398819,4141.17097011,4137.85775599,4127.97292817,4135.96732784,4118.22047665,4124.70110439,4119.77172745,4138.72552954,118.355224218
do_nothing,4138.14994112,4156.87065858,4154.70510671,4134.9351035,4136.35830931,4140.95994686,4137.42289175,4128.00665511,4135.96785682,4118.16568119,4124.65103859,4120.5490285,4138.90184021,125.52848389
do_nothing,4137.52201256,4156.1172477,4153.77447079,4134.93708143,4136.34406217,4140.64306765,4136.86880042,4127.91749107,4135.96840137,4118.02305804,4124.57158224,4121.28853163,4138.92984613,136.106563376
do_nothing,4136.7462473,4155.11576943,4152.66518961,4134.92819471,4136.2826636,4140.23085582,4136.20540929,4127.70648428,4135.96893957,4117.78340222,4124.46311149,4121.96616744,4138.81634701,150.549694402
do_nothing,4135.83769812,4153.89461674,4151.40389248,4134.90833175,4136.17679752,4139.73635972,4135.4453925,4127.37830799,4135.96945025,4117.44159716,4124.32693465,4122.56131307,4138.57186683,169.184375497
do_nothing,4134.81369705,4152.4850311,4150.01988423,4134.87770638,4136.03036714,4139.1748142,4134.60385072,4126.94122687,4135.96991376,4116.99698705,4124.16527402,4123.05753469,4138.21039259,192.187044381
do_nothing,4133.69354074,4150.92046667,4148.54447024,4134.83685429,4135.84840979,4138.5632346,4133.69790541,4126.406939,4135.97031274,4116.45360574,4123.98122326,4123.4431804,4137.74902046,219.573361654
do_nothing,4132.49814396,4149.23594049,4147.01024913,4134.7866182,4135.63697757,4137.91995735,4132.74622202,4125.79029728,4135.97063276,4115.82025,4123.77868215,4123.71180161,4137.20751958,251.193538219
do_nothing,4131.24966625,4147.46738166,4145.45039078,4134.72812214,4135.40298728,4137.26414249,4131.76847958,4125.10891859,4135.97086282,4115.11039044,4123.56227078,4123.86238789,4136.60782618,286.73390806
do_nothing,4129.97111734,4145.65099157,4143.89791735,4134.6627352,4135.15404483,4136.61525494,4130.78480625,4124.38269356,4135.97099573,4114.3419191,4123.33722583,4123.89940738,4135.97348266,325.724708592
do_nothing,4128.68594748,4143.8226261,4142.38500427,4134.59202617,4134.89824927,4135.99254119,4129.81520241,4123.63321421,4135.97102828,4113.53673855,4123.1092815,4123.83265216,4135.32903801,367.553794329
do_nothing,4127.41762934,4142.01720934,4140.94231707,4134.51771041,4134.64398244,4135.41451735,4128.87897295,4122.88313927,4135.97096133,4112.72020233,4122.8845381,4123.67689441,4134.69942687,411.485785088
do_nothing,4126.18923825,4140.26818651,4139.59839858,4134.44159121,4134.39969016,4134.89848349,4127.99419025,4122.1555195,4135.97079964,4111.9204216,4122.66932099,4123.45136554,4134.10934445,456.685943713
do_nothing,4125.02303802,4138.60702234,4138.37911883,4134.36549772,4134.17366089,4134.46007679,4127.17720684,4121.47310608,4135.97055164,4111.16745688,4122.47003306,4123.17907607,4133.58263397,502.247898634
do_nothing,4123.94007905,4137.06274912,4137.30719848,4134.29122233,4133.97380743,4134.11287429,4126.44223432,4120.85766493,4135.97022898,4110.49241818,4122.29300373,4122.88599907,4133.14170244,547.224182593
do_nothing,4122.95981549,4135.66156701,4136.40181358,4134.22045984,4133.80745732,4133.86805411,4125.80100124,4120.3293192,4135.96984603,4109.92649986,4122.14433767,4122.60014426,4132.80697889,590.658455654
do_nothing,4122.09974767,4134.42649775,4135.6782873,4134.15475113,4133.68115677,4133.73412194,4125.26249915,4119.9059404,4135.96941925,4109.4999794,4122.02976657,4122.35055306,4132.59642773,631.618219756
do_nothing,4121.37509551,4133.37709155,4135.14787144,4134.09543351,4133.60049315,4133.71670891,4124.83282187,4119.60260648,4135.96896647,4109.24121077,4121.95450706,4122.16624707,4132.52512743,669.226815849
do_nothing,4120.79850857,4132.52918607,4134.8176178,4134.04359972,4133.56994027,4133.81844496,4124.51509917,4119.43114275,4135.96850619,4109.17564386,4121.92312812,4122.07516418,4132.60492262,702.693525875
do_nothing,4120.37981757,4131.89471582,4134.69033733,4134.00006704,4133.59273019,4134.03890993,4124.30952216,4119.39975795,4135.96805678,4109.32490143,4121.93943097,4122.10311658,4132.84415558,731.340678486
do_nothing,4120.1258319,4131.48157049,4134.76464287,4133.96535762,4133.67075463,4134.37466238,4124.21345405,4119.51278473,4135.96763583,4109.70594389,4122.00634435,4122.2728046,4133.24748056,754.626774188
do_nothing,4120.0401864,4131.29350069,4135.03506917,4133.93969046,4133.80449782,4134.81934318,4124.22161716,4119.77052994,4135.9672594,4110.33034996,4122.12583767,4122.60291829,4133.81576249,772.164797814
do_nothing,4120.12324063,4131.33007011,4135.49226294,4133.92298553,4133.99300219,4135.3638494,4124.32634456,4120.16923673,4135.96694146,4111.20373832,4122.29885432,4123.10735607,4134.54605927,783.735070193
do_nothing,4120.37203261,4131.58665414,4136.12323441,4133.91487931,4134.23386702,4135.99657163,4124.51788335,4120.70115711,4135.96669336,4112.32535139,4122.52526682,4123.7945862,4135.43168548,789.292198941
do_nothing,4120.78028967,4132.05448596,4136.9116622,4133.91475141,4134.52328009,4136.70368707,4124.78473585,4121.35473067,4135.96652343,4113.68781816,4122.80385508,4124.66717276,4136.46235344,788.965910044
do_nothing,4121.33849831,4132.72075295,4137.83824344,4133.92176086,4134.85608178,4137.46949918,4125.11402511,4122.11486261,4135.96643675,4115.2771075,4123.13230852,4125.72148316,4137.62438683,783.055768997
do_nothing,4122.03403549,4133.56874718,4138.88108217,4133.93489066,4135.22586055,4138.27681396,4125.49187154,4122.96329195,4135.96643499,4117.07267815,4123.50725236,4126.94758865,4138.90100085,772.020026333
do_nothing,4122.85136266,4134.5780746,4140.01610988,4133.95299869,4135.62507833,4139.10734234,4125.90376887,4123.87903895,4135.9665164,4119.04782495,4123.92429752,4128.32936339,4140.27264212,756.459038415
do_nothing,4123.77228347,4135.72492777,4141.21753311,4133.97487271,4136.04522369,4139.94211878,4126.33494871,4124.83891935,4135.966676,4121.17021516,4124.37811343,4129.84478133,4141.71738101,737.093910158
do_nothing,4124.77626454,4136.98242586,4142.45830361,4133.99928707,4136.47699037,4140.7619266,4126.77072464,4125.81811204,4135.9669058,4123.40260237,4124.86252246,4131.46640386,4143.21134802,714.741174746
do_nothing,4125.84081705,4138.32102492,4143.71060708,4134.02505857,4136.91047819,4141.54772161,4127.1968082,4126.79076569,4135.96719522,4125.70369967,4125.37061394,4133.16204497,4144.72920556,690.284462773
do_nothing,4126.94193546,4139.70899905,4144.94636661,4134.05109902,4137.33541314,4142.28104616,4127.59959109,4127.73062931,4135.96753152,4128.02918909,4125.89487576,4134.89559541,4146.2446462,664.644214325
do_nothing,4128.05458768,4141.11299156,4146.13775679,4134.07646234,4137.74138319,4142.94442674,4127.96639004,4128.61169178,4135.96790038,4130.33283968,4126.42734086,4136.62798246,4147.73090853,638.746546673
do_nothing,4129.15324949,4142.49863249,4147.25772395,4134.10038401,4138.11808566,4143.52174913,4128.28565292,4129.40881594,4135.96828651,4132.56770351,4126.95974569,4138.3182378,4149.16130194,613.492406099
do_nothing,4130.21247396,4143.83121584,4148.28050746,4134.12231132,4138.45558194,4143.99860612,4128.54712735,4130.09835342,4135.96867425,4134.68735587,4127.48369758,4139.92464292,4150.50973185,589.728107048
do_nothing,4131.20748453,4145.07642658,4149.18215545,4134.1419229,4138.74455442,4144.36261339,4128.74199429,4130.65872764,4135.9690482,4136.64714429,4127.99084765,4141.4059185,4151.75121645,568.2182966
do_nothing,4132.11477852,4146.20110368,4149.94102718,4134.15913636,4138.97655987,4144.60368902,4128.86297054,4131.0709724,4135.96939385,4138.40540954,4128.47306558,4142.72242239,4152.86238597,549.622277827
do_nothing,4132.91272515,4147.17402151,4150.53827232,4134.17410363,4139.14427293,4144.71429166,4128.9043837,4131.31921395,4135.96969812,4139.92464157,4128.92261254,4143.8373193,4153.82195475,534.474487122
do_nothing,4133.5821406,4147.96666872,4150.95827582,4134.18719378,4139.24171237,4144.68961186,4128.86222241,4131.39108435,4135.96994982,4141.17253389,4129.33230814,4144.71768528,4154.6111567,523.169757513
do_nothing,4134.10682118,4148.55400095,4151.18905559,4134.19896419,4139.26444271,4144.5277105,4128.73416394,4131.27805459,4135.97014011,4142.1229023,4129.69568772,4145.33551137,4155.21413493,515.953820815
do_nothing,4134.47401608,4148.91514258,4151.2225999,4134.21012108,4139.2097438,4144.22959855,4128.51957989,4130.97567715,4135.97026276,4142.75643719,4130.00714589,4145.66857385,4155.61827741,512.919310941
do_nothing,4134.67482203,4149.03401317,4151.05513145,4134.22147133,4139.07674118,4143.799253,4128.21952053,4130.48372977,4135.97031434,4143.06126401,4130.26206305,4145.70114276,4155.81449193,514.007331941
do_nothing,4134.70448468,4148.89985601,4150.68728636,4134.23386773,4138.8664912,4143.24356549,4127.83667723,4129.80625466,4135.97029433,4143.03329309,4130.45691143,4145.42450657,4155.79741504,519.014450736
do_nothing,4134.56259437,4148.50764905,4150.12419852,4134.24815044,4138.58201577,4142.57222187,4127.37532248,4128.95149024,4135.97020504,4142.67634691,4130.58933815,4144.8372969,4155.56555143,527.604770724
do_nothing,4134.25316701,4147.85838236,4149.37548174,4134.26508749,4138.22828296,4141.79751319,4126.84122698,4127.93169591,4135.97005146,4142.00206124,4130.65822266,4143.94560473,4155.12134106,539.326546152
do_nothing,4133.7846047,4146.95918972,4148.45510497,4134.28531754,4137.81213126,4140.93407999,4126.24155384,4126.76287355,4135.96984106,4141.02956359,4130.66370698,4142.7628857,4154.47115288,553.632621363
do_nothing,4133.16953392,4145.82332635,4147.38115877,4134.30929783,4137.34213704,4139.99859399,4125.58473062,4125.46439307,4135.96958337,4139.78494043,4130.60719738,4141.30965926,4153.62520478,569.903838543
do_nothing,4132.42452346,4144.46998888,4146.17551369,4134.33726043,4136.82842666,4139.00938284,4124.88030079,4124.05853268,4135.96928959,4138.30051082,4130.4913369,4139.6130122,4152.59740999,587.474460508
do_nothing,4131.56968779,4142.92397767,4144.86337501,4134.36917901,4136.28243687,4137.98600559,4124.13875679,4122.5699472,4135.96897214,4136.61393063,4130.31994874,4137.70592268,4151.40515156,605.658600016
do_nothing,4130.62818547,4141.21520616,4143.47274083,4134.40474834,4135.71662882,4136.94878872,4123.37135753,4121.02508005,4135.96864407,4134.76715617,4130.09795113,4135.62642611,4150.06898645,623.776629572
do_nothing,4129.62562516,4139.37806556,4142.03377399,4134.44337774,4135.14416283,4135.91833389,4122.58993356,4119.45153616,4135.96831862,4132.80529959,4129.83124509,4133.41664724,4148.61228201,641.180565889
do_nothing,4128.58939449,4137.45065699,4140.57810068,4134.48419937,4134.57854286,4134.91501103,4121.80668353,4117.87743366,4135.9680086,4130.77541103,4129.52657682,4131.12172621,4147.06078768,657.277483085
do_nothing,4127.54792893,4135.47390627,4139.13805055,4134.52609119,4134.03324054,4133.95845065,4121.03396532,4116.33075245,4135.96772598,4128.72522295,4129.19137735,4128.78866723,4145.44214583,671.550106075
do_nothing,4126.52993964,4133.4905795,4137.74585532,4134.56771401,4133.52131014,4133.06705007,4120.28408507,4114.83869704,4135.96748135,4126.70189219,4128.83358236,4126.46513994,4143.78534655,683.573863332
do_nothing,4125.56362054,4131.54422132,4136.43282394,4134.60756101,4133.05500663,4132.25750756,4119.56908657,4113.42708983,4135.9672836,4124.75077402,4128.46143583,4124.19826445,4142.12013286,693.029829167
do_nothing,4124.6758562,4129.67804037,4135.2285147,4134.64401782,4132.6454192,4131.54439728,4118.90054323,4112.11980976,4135.96713956,4122.91426116,4128.08328167,4122.03341108,4140.47636535,699.713152688
do_nothing,4123.89145309,4127.93377069,4134.1599258,4134.67543053,4132.30213284,4130.93979711,4118.28935486,4110.93828935,4135.9670538,4121.2307189,4127.70734834,4120.01304669,4138.88335784,703.536744657
do_nothing,4123.23241692,4126.35053985,4133.2507277,4134.70017882,4132.03292971,4130.45298016,4117.74555163,4109.90108214,4135.96702847,4119.73354481,4127.34153188,4118.17565873,4137.36919843,704.530166112
do_nothing,4122.71729886,4124.96377748,4132.52056108,4134.71675101,4131.84354145,4130.09017975,4117.27810836,4109.02351052,4135.9670633,4118.45037879,4126.99318351,4116.55478694,4135.96007315,702.83383072
do_nothing,4122.36063236,4123.80419778,4131.98442454,4134.72381773,4131.73746198,4129.85443591,4116.89477259,4108.31740211,4135.96715562,4117.40248473,4126.66890773,4115.17819046,4134.67961102,698.688796673
do_nothing,4122.17248027,4122.89688986,4131.65217452,4134.72030083,4131.71582877,4129.74552955,4116.60191046,4107.79092057,4135.96730056,4116.60432066,4126.37437742,4114.06717459,4133.54827063,692.42258212
do_nothing,4122.15810919,4122.26054718,4131.52815801,4134.70543458,4131.77737813,4129.76000841,4116.40437464,4107.44849353,4135.96749126,4116.06330808,4126.11417153,4113.23609721,4132.58278891,684.431585685
do_nothing,4122.31780386,4121.906865,4131.61099491,4134.67881611,4131.91847752,4129.89130628,4116.30539865,4107.29083776,4135.9677192,4115.77980555,4125.89164114,4112.69206967,4131.79571197,675.160823785
do_nothing,4122.64683016,4121.84013,4131.89352337,4134.64044305,4132.13323483,4130.12995467,4116.30652198,4107.31507851,4135.96797456,4115.74728519,4125.70880861,4112.43486115,4131.19502666,665.081802827
do_nothing,4123.13555033,4122.05702128,4132.36291612,4134.59073636,4132.4136821,4130.46388319,4116.40755001,4107.51495733,4135.96824665,4115.95270409,4125.56630407,4112.45700927,4130.78390904,654.669421496
do_nothing,4123.76968945,4122.54663551,4133.00097102,4134.5305472,4132.75002837,4130.87880166,4116.60655178,4107.88112007,4135.96852434,4116.37705731,4125.46334221,4112.74413361,4130.56060246,644.378842098
do_nothing,4124.53074694,4123.29074205,4133.78457348,4134.46114704,4133.13097399,4131.3586538,4116.89989806,4108.40147462,4135.96879652,4116.99609275,4125.39774126,4113.27544249,4130.51843385,634.62327754
do_nothing,4125.39654214,4124.26426608,4134.68632214,4134.38420135,4133.54407636,4131.88612859,4117.28234056,4109.06160594,4135.96905252,4117.78116446,4125.36598483,4114.02441758,4130.64597229,625.753610835
do_nothing,4126.34187818,4125.43598962,4135.67530348,4134.30172748,4133.97615522,4132.44321266,4117.74713212,4109.84523477,4135.96928255,4118.70019619,4125.36332562,4114.95965518,4130.92732887,618.040697515
do_nothing,4127.33930339,4126.7694522,4136.71799424,4134.21603828,4134.4137234,4133.01176449,4118.28618588,4110.73470486,4135.96947806,4119.71872414,4125.38392904,4116.04583755,4131.34259134,611.661100066
do_nothing,4128.35994568,4128.22402451,4137.77926503,4134.12967331,4134.84342834,4133.57409036,4118.89026969,4111.71148311,4135.96963204,4120.80098494,4125.42105278,4117.24480319,4131.86838183,606.686871032
do_nothing,4129.3743916,4129.75612153,4138.82345278,4134.04531992,4135.25248859,4134.11350143,4119.54923052,4112.75665673,4135.96973928,4121.91101308,4125.46725722,4118.51668128,4132.47852091,603.079842909
do_nothing,4130.3535804,4131.32051592,4139.81546619,4133.96572692,4135.62911005,4134.61483177,4120.25224182,4113.85141191,4135.96979652,4123.01371201,4125.51464034,4119.82105355,4133.14477715,600.690704342
do_nothing,4131.26968196,4132.87170856,4140.72188592,4133.89361386,4135.96286683,4135.06489875,4120.98806614,4114.97747966,4135.96980255,4124.07586417,4125.55508985,4121.11810644,4133.8376786,599.262950702
do_nothing,4132.09692923,4134.36531113,4141.51202113,4133.83157917,4136.24503339,4135.45288865,4121.74532431,4116.11753641,4135.96975824,4125.06704814,4125.58054451,4122.3697373,4134.52736118,598.441600427
do_nothing,4132.81237745,4135.75939522,4142.15888518,4133.78201067,4136.46885599,4135.77065379,4122.51276307,4117.25554926,4135.96966639,4125.9604356,4125.58325662,4123.54058144,4135.18442828,597.786374593
do_nothing,4133.39656578,4137.01576367,4142.64005619,4133.74700161,4136.62975405,4136.01291087,4123.27951279,4118.377059,4135.96953167,4126.73344579,4125.55604747,4124.59893004,4135.78079583,596.788853917
do_nothing,4133.83406098,4138.10110263,4142.93839192,4133.72827561,4136.72544444,4136.17733472,4124.03532772,4119.46939633,4135.96936031,4127.36824118,4125.49254763,4125.51751398,4136.29049805,594.892962297
do_nothing,4134.11386674,4138.98797654,4143.0425733,4133.72712322,4136.75598487,4136.26454549,4124.77080207,4120.52182999,4135.96915988,4127.85205441,4125.38741471,4126.27413364,4136.69043029,591.517985912
do_nothing,4134.2296869,4139.6556336,4142.94745695,4133.74435284,4136.72373515,4136.2779917,4125.47755604,4121.52564774,4135.96893893,4128.17734304,4125.23652142,4126.85212062,4136.96100745,586.083227595
do_nothing,4134.18003567,4140.09059553,4142.65422335,4133.78025791,4136.63323828,4136.22373512,4126.14838796,4122.47417369,4135.96870665,4128.3417747,4125.03710798,4127.2406229,4137.08671892,578.033322226
do_nothing,4133.96819283,4140.28701232,4142.17031482,4133.83460207,4136.49102605,4136.11014783,4126.77738941,4123.36272723,4135.96847248,4128.34805124,4124.78789391,4127.43471092,4137.05656379,566.863203496
do_nothing,4133.60200748,4140.24677064,4141.5091647,4133.90662284,4136.30535667,4135.94753458,4127.36002212,4124.18853033,4135.96824571,4128.20358516,4124.48914524,4127.43530748,4136.86435353,552.14171696
do_nothing,4133.0935588,4139.97935259,4140.68972656,4133.99505415,4136.08589402,4135.74769568,4127.89315534,4124.95057083,4135.96803519,4127.92004575,4124.14269468,4127.24894927,4136.50887263,533.53291902
do_nothing,4132.45868737,4139.50144951,4139.73581943,4134.0981669,4135.84334042,4135.52344649,4128.37506336,4125.64942928,4135.96784889,4127.51279502,4123.75191325,4126.88739266,4135.99389186,510.814184457
do_nothing,4131.71641453,4138.83634377,4138.67531101,4134.21382629,4135.58903553,4135.28810944,4128.80538297,4126.2870771,4135.96769368,4127.00023555,4123.32163355,4126.36707987,4135.32803282,483.890363313
do_nothing,4130.88827094,4138.0130791,4137.539167,4134.33956381,4135.33453515,4135.05499463,4129.18503124,4126.86665284,4135.96757504,4126.40309366,4122.85802619,4125.70848532,4134.52448708,452.803376597
do_nothing,4129.99755824,4137.06544707,4136.36039878,4134.47266121,4135.09118435,4134.83688473,4129.51608518,4127.39222353,4135.9674969,4125.74366197,4122.36843219,4124.93536461,4133.60059773,417.736813611
do_nothing,4129.06857075,4136.03082385,4135.1729462,4134.61024331,4134.86969929,4134.64554036,4129.80162589,4127.86853777,4135.96746147,4125.04502585,4121.86115589,4124.07393133,4132.57731623,379.015284823
do_nothing,4128.12580549,4134.94889706,4134.01053466,4134.74937583,4134.67977214,4134.49124174,4130.04555125,4128.30077694,4135.96746927,4124.33029831,4121.34522411,4123.15198913,4131.4785522,337.098485627
do_nothing,4127.19319009,4133.86032717,4132.90554746,4134.88716473,4134.52971234,4134.38238187,4130.25236191,4128.69431098,4135.96751906,4123.62188733,4120.83011865,4122.19804806,4130.33043852,292.570130046
do_nothing,4126.29335738,4132.80539041,4131.88795417,4135.02085288,4134.42613587,4134.325125,4130.42692668,4129.05446449,4135.96760797,4122.94081867,4120.32549075,4121.24045499,4129.16053794,246.122111484
do_nothing,4125.44699329,4131.82265131,4130.98433386,4135.14791085,4134.37371234,4134.32314205,4130.57423379,4129.38629864,4135.96773166,4122.30613512,4119.84086671,4120.30656712,4127.99702016,198.534432216
do_nothing,4124.67228153,4130.94771131,4130.21702838,4135.26611812,4134.37497776,4134.37743182,4130.6991357,4129.69441352,4135.96788448,4121.73439067,4119.3853549,4119.42199591,4126.86783923,150.651607207
do_nothing,4123.98446385,4130.21207677,4129.6034556,4135.37363201,4134.43021839,4134.48623433,4130.80609543,4129.98277524,4135.96805978,4121.23925429,4118.96736417,4118.60994546,4125.79994102,103.356384726
do_nothing,4123.39552925,4129.64218424,4129.15560607,4135.46904184,4134.53742918,4134.64503913,4130.89894288,4130.25457115,4135.96825012,4120.83123361,4118.59434354,4117.89066512,4124.81852844,57.5417307596
