label,COUNTER,INTERPOLATED,AF3,F7,F3,FC5,T7,P7,O1,O2,P8,T8,FC6,F4,F8,AF4,RAW_CQ,GYROX,GYROY,MARKER,SYNC,TIME_STAMP_s,TIME_STAMP_ms,CQ_AF3,CQ_F7,CQ_F3,CQ_FC5,CQ_T7,CQ_P7,CQ_O1,CQ_O2,CQ_P8,CQ_T8,CQ_FC6,CQ_F4,CQ_F8,CQ_AF4,CQ_CMS,CQ_DRL
off_to_on,-0.806929620922,2.55100917354,0.948035857329,4.93946577625,-8.18131374072,-11.104102296,-9.65051251477,-7.36852165587,4.78397031515,-2.39227897297,2.30984471939,-2.21541529884,0.56554015487,20.0699437374
off_to_on,1.43395039263,2.95564935469,3.01418330375,7.27089374619,-7.073084908,-7.03337892352,-6.34649165588,-4.35779626739,6.99556489046,-0.839957217006,4.18905027244,-1.40768340016,1.2930562272,28.6008639073
off_to_on,2.94568335626,2.3646391492,4.08112382102,9.31429197267,-5.80575878506,-3.02083382256,-3.25060354685,-1.91431934961,8.95174830124,-0.247899379649,5.6952848808,-1.26580657336,1.42580482713,33.3322817011
off_to_on,3.54916252747,0.782275092816,3.98932364304,10.9289528247,-4.53236393833,0.400569003631,-0.761339493428,-0.349623229033,10.5065221681,-0.676156876259,6.71130895491,-1.81388342742,0.977051532668,34.368254441
off_to_on,3.21159935098,-1.62675592216,2.76233184504,12.0012147693,-3.35985555838,2.83154671669,0.85554450441,0.198502632737,11.5381219594,-1.9987777235,7.17813543008,-2.94319826092,0.0582872214992,32.3479992632
off_to_on,2.04729006519,-4.55654772301,0.602444618936,12.4567998065,-2.33963366298,4.0562493509,1.49716482123,-0.222436611527,11.9631697792,-3.92562797953,7.10069562592,-4.42865086775,-1.13759846357,28.3050516071
off_to_on,0.297491933188,-7.59966935973,-2.13911268356,12.2687726022,-1.46804400914,4.06390866428,1.22952272859,-1.39528540987,11.7465204272,-6.04830634761,6.54480065314,-5.96292568748,-2.36542270753,23.4738978239
off_to_on,-1.70740718637,-10.3020170286,-5.01311442781,11.4600308969,-0.696194847811,3.04009012264,0.269222048674,-2.97308089013,10.905430787,-7.90335403923,5.62589368802,-7.20342358843,-3.36492013094,19.0752716395
off_to_on,-3.59780926205,-12.225306477,-7.53707508096,10.1000100661,0.0529439262327,1.32962228599,-1.05593565322,-4.53681374422,9.50748673921,-9.04359420667,4.49126671601,-7.82514629262,-3.90068306284,16.1132105995
off_to_on,-5.01969267673,-13.008593361,-9.26462753558,8.29610361633,0.863221734195,-0.622729659171,-2.36145487922,-5.66248765912,7.66260529188,-9.10737824455,3.29834914734,-7.57187472482,-3.79902982518,15.2139676432
off_to_on,-5.68647513715,-12.4203215302,-9.84979982177,6.18104280929,1.80338171404,-2.34472643184,-3.26774984941,-5.98776709665,5.51026068201,-7.87590250011,2.19222837136,-6.2982347729,-2.97641194139,16.5295862994
off_to_on,-5.42070255492,-10.393699992,-9.0972585697,3.89803142062,2.90814519651,-3.41144098372,-3.46000706427,-5.26878191496,3.20373877104,-5.31051683719,1.28565327928,-3.99655423443,-1.45516437632,19.7185998664
off_to_on,-4.17986468522,-7.04050976472,-6.99163920258,1.58571368521,4.16538948615,-3.51144434822,-2.73785733282,-3.41923569014,0.893608291698,-1.56481303651,0.644388407885,-0.804588393344,0.635795101591,24.0045313912
off_to_on,-2.06296470087,-2.64141270323,-3.70207290921,-0.634976046975,5.51152007229,-2.49492481918,-1.04796072382,-0.526594239432,-1.2873439571,3.03015876411,0.279985689922,3.00708847037,3.07556085402,28.3014272151
off_to_on,0.702771408621,2.38594613556,0.438485581345,-2.67036783287,6.83585884883,-0.397066288845,1.50490878455,3.15657658295,-3.23573903549,8.00544987448,0.150941053732,7.06635510379,5.57918367993,31.3862096255
off_to_on,3.79286734341,7.53673615178,4.97602755955,-4.45888699162,7.99348464762,2.56628723181,4.66963477913,7.24457039742,-4.88437611521,12.8130438659,0.171966140564,10.9451927459,7.83510905917,32.091483711
off_to_on,6.829642871,12.2799418581,9.39424678884,-5.97078039139,8.82467529364,6.02959291672,8.08154116985,11.269054067,-6.20348705997,16.8958516291,0.229912759336,14.2134378907,9.54689594875,29.4903440763
off_to_on,9.43299599875,16.1224297521,13.1810689077,-7.20314957393,9.17809799864,9.5302802558,11.311442207,14.7409315769,-7.19665440237,19.7593198764,0.203913901073,16.4932794363,10.4733913625,23.0468347827
off_to_on,11.2707831482,18.6676437443,15.8938216269,-8.17141801662,8.93431975589,12.5751705226,13.9240148932,17.2149433862,-7.89236552313,21.0349976012,-0.0133079352044,17.5071029618,10.4617565278,12.7115334869
off_to_on,12.1018831376,19.6613540137,17.2142874174,-8.89888969014,8.02614014678,14.7108472636,15.5373410271,18.3481949778,-8.33280480934,20.5276311921,-0.496178179261,17.1122845445,9.46875782325,-1.04975475674
off_to_on,11.8062224127,19.0187700387,16.9864673174,-9.40631917221,6.45269005221,15.5877987694,15.875403951,17.944830503,-8.56185653457,18.2397217645,-1.27195866247,15.3184175491,7.56740010996,-17.2963630472
off_to_on,10.3980060632,16.8299556637,15.2324344728,-9.70337041559,4.28512185955,15.0092546374,14.8064003323,15.9811302212,-8.61435104076,14.3706286611,-2.3135597216,12.2849379777,4.93804930202,-34.7146794192
off_to_on,8.02084252792,13.3434708778,12.1447870841,-9.78349955435,1.66290790511,12.9580346383,12.36177389,12.608101148,-8.50833024427,9.2907889535,-3.54059967831,8.29983572002,1.84536629082,-51.7659999405
off_to_on,4.92600916654,8.93108678782,8.05746607691,-9.62321059513,-1.21891056736,9.59804525955,8.73359729604,8.13174402564,-8.24157855481,3.49495481479,-4.82862484804,3.74271090886,-1.39565609106,-66.8592643615
off_to_on,1.43741295927,4.0388705892,3.39961913853,-9.18589299801,-4.12991327883,5.25079513671,4.25093282652,2.97417822964,-7.79294638432,-2.45892826856,-6.02520820271,-0.962504369825,-4.45977695952,-78.5254907292
off_to_on,-2.09146697188,-0.868414334203,-1.36063461931,-8.42967232053,-6.82928840538,0.350899886255,-0.661329845831,-2.37871990488,-7.12819817349,-8.01683071171,-6.97063945318,-5.3985694204,-7.0521438131,-85.5720132904
off_to_on,-5.32244180715,-5.36201069876,-5.77454419246,-7.31801076224,-9.09232764743,-4.61251600156,-5.53532519568,-7.43588508337,-6.20936881477,-12.692804391,-7.5202491036,-9.20279805593,-8.94391865586,-87.1989194331
off_to_on,-7.97305537311,-9.09582336192,-9.46519869017,-5.83129268336,-10.7349588395,-9.15975660831,-9.91743262915,-11.7579782197,-5.00602705146,-16.1219492785,-7.56516973157,-12.1055161806,-9.99812369331,-83.0665295007
off_to_on,-9.84725770247,-11.8392919046,-12.1673097745,-3.97740094308,-11.6331535605,-12.8805451588,-13.4221009811,-15.0053020683,-3.50651188514,-18.0957090429,-7.04856178114,-13.9543859283,-10.1823931166,-73.3102426282
off_to_on,-10.8525714062,-13.4929012631,-13.7495590444,-1.79937176812,-11.7347908959,-15.4816425554,-15.7751511058,-16.9708669625,-1.72717911145,-18.5756350696,-5.97498330526,-14.722004894,-9.56722073872,-58.5063698143
off_to_on,-11.0021002194,-14.0853275538,-14.217440599,0.621400046117,-11.062625649,-16.8157573397,-16.8410479172,-17.5949959216,0.282025957438,-17.6848114603,-4.41156615885,-14.4966229935,-8.31036450823,-39.5985898066
off_to_on,-10.4019759358,-13.7538285081,-13.6973986925,3.16730259476,-9.7082429626,-16.8883903333,-16.6309839124,-16.9605054,2.43680960567,-15.679190864,-2.48083059432,-13.4581948293,-6.63000930177,-17.7985729141
off_to_on,-9.22691370381,-12.7117628542,-12.405702222,5.69210682966,-7.81810367757,-15.8426639397,-15.2913581739,-15.2701712632,4.6229990005,-12.9037276202,-0.346155639545,-11.8439635165,-4.77082311983,5.52429874391
off_to_on,-7.68814932602,-11.2087467033,-10.6075353493,8.03331505215,-5.57382299521,-13.9254987902,-13.0749760935,-12.8105176849,6.7058572796,-9.74005781507,1.80804720832,-9.90908035897,-2.96795575684,28.9503019348
off_to_on,-5.99894657817,-9.48971755215,-8.57293960411,10.0278131567,-3.16953604354,-11.4412200153,-10.2996497471,-9.90763934405,8.54311563927,-6.55333228904,3.79868173073,-7.88823524434,-1.41420253114,51.1031892178
off_to_on,-4.34297625855,-7.75899925941,-6.53637733319,11.528845614,-0.789494392166,-8.70039946009,-7.3005215036,-6.88157698589,10.0000109146,-3.64557409121,5.46573758328,-5.96386268315,-0.234976578552,70.7242565311
off_to_on,-2.85019152553,-6.15440453937,-4.66581343601,12.4220770109,1.41112377401,-5.97222223476,-4.38314389428,-4.00563370393,10.964286531,-1.22167824333,6.69050844567,-4.24528437524,0.525502104924,86.7252510374
off_to_on,-1.58348232651,-4.73466136007,-3.04549406841,12.6385708551,3.31978595688,-3.44785135953,-1.78404181366,-1.47599967851,11.3590862319,0.627888166099,7.40782954306,-2.76135020142,0.905095030811,98.2228836225
off_to_on,-0.537606135685,-3.48128735056,-1.67431970512,12.1628985286,4.87305910148,-1.22029638018,0.355781224592,0.604675667561,11.1519479387,1.92617442199,7.61079331986,-1.4670256171,1.01192133457,104.560497733
off_to_on,0.350057142705,-2.31379410893,-0.479223303768,11.0352350779,6.05553251462,0.716511022271,2.0009578475,2.22829233654,10.3586475765,2.79176925198,7.3474966885,-0.262262440118,1.00188245019,105.323374184
off_to_on,1.17919514236,-1.11511412223,0.659349517641,9.34711135559,6.89191035903,2.44992556912,3.21454621023,3.46770084199,9.04136814951,3.4072933088,6.71051495389,0.980309665748,1.04911581529,100.353134204
off_to_on,2.06038324429,0.237308280613,1.87456028523,7.23135605629,7.43394895111,4.11565682861,4.13513519373,4.45138020484,7.3014691039,3.97968873986,5.82082079697,2.38356797802,1.31393423296,89.7640509764
off_to_on,3.08753522033,1.84003752946,3.27862723844,4.84755092138,7.74461258602,5.85576676624,4.94222044546,5.33085496549,5.26788580861,4.69859959891,4.80862544458,4.03515925027,1.91310952825,73.9604404121
off_to_on,4.31359199665,3.73695546935,4.93245671848,2.36492324063,7.88214835109,7.77517872427,5.8155164877,6.24619118657,3.0827870282,5.69917070071,3.79400747184,5.96276309214,2.89695567288,53.6505368285
off_to_on,5.73345882419,5.90166061802,6.82452953553,-0.0550748692869,7.88669590305,9.90457542189,6.89473578827,7.29499125702,0.886472045289,7.03472465173,2.87016179641,8.11928061957,4.23662810568,29.8492843605
off_to_on,7.2770062485,8.23176600196,8.86257442793,-2.27424703164,7.77157362978,12.1765910947,8.24626829696,8.50960689014,-1.19645157841,8.66316423699,2.0916582823,10.3803195738,5.82354264766,3.86108529829
off_to_on,8.81335143545,10.5560292916,10.8795072106,-4.18925574589,7.52059556109,14.4201081404,9.84215398927,9.84593603713,-3.06780929308,10.4488464757,1.46931622997,12.55448089,7.48105399137,-22.7657398311
off_to_on,10.1658822634,12.653284215,12.6528686948,-5.73799847947,7.09179555089,16.37457058,11.5549100765,11.1853767494,-4.66222070553,12.1794008496,0.972296419706,14.4050522631,8.98677604242,-48.3180793263
off_to_on,11.1358424284,14.2803801794,13.9348987517,-6.90017827105,6.4269140578,17.7229697233,13.1694188515,12.3495473722,-5.94846451354,13.5948446278,0.536935229287,15.6800575642,10.1024238419,-71.0311692784
off_to_on,11.5310037594,15.2050313359,14.4887496903,-7.69233066119,5.4650896658,18.1390444925,14.410540053,13.1255300145,-6.92599124699,14.4246748333,0.0808529591461,16.1464290083,10.6070168998,-89.230076651
off_to_on,11.1951957077,15.2388049643,14.1254053159,-8.1583544359,4.15852563368,17.341755148,14.9827467125,13.2979092183,-7.61744921512,14.427605959,-0.47989639401,15.6235175088,10.3288434349,-101.48755886
off_to_on,10.034341239,14.2655205385,12.7357593853,-8.35721019384,2.48756756392,15.1486286798,14.6162331594,12.682955528,-8.05866312618,13.4283890348,-1.21329634734,14.011295075,9.17179283611,-106.7809772
off_to_on,8.03516641763,12.2610560877,10.3130200571,-8.34980962291,0.47267776299,11.5193794786,13.1128722933,11.1600539609,-8.28784641375,11.3466906571,-2.15615935784,11.3093893856,7.13247533269,-104.627630071
off_to_on,5.27381703563,9.30183889845,6.96202416176,-8.18717008701,-1.8187850616,6.58233352795,10.3852605516,8.6959124448,-8.33588836112,8.2142206975,-3.30358158855,7.62439117176,4.30583513786,-95.177454106
off_to_on,1.91306105072,5.5609278405,2.89394394497,-7.90165020721,-4.27233931016,0.638483038959,6.48290638657,5.35812223322,-8.21932998669,4.17797686378,-4.60471178198,3.16448768978,0.878534753678,-79.2449526856
off_to_on,-1.81163891528,1.2923257428,-1.59303932769,-7.50255529339,-6.73313079932,-5.85885267709,1.60128114365,1.3161186971,-7.9371665342,-0.510630459545,-5.96556062469,-1.77783807209,-2.88898178954,-58.2683685931
off_to_on,-5.61536913031,-3.19426150084,-6.14454603297,-6.97668890492,-9.01908163321,-12.3472407995,-3.92826795286,-3.17070934054,-7.47196524205,-5.51916911175,-7.25855651497,-6.85278113488,-6.68937655889,-34.1928922424
off_to_on,-9.19327399446,-7.56479790167,-10.3881720538,-6.2936375308,-10.9389338533,-18.2162861747,-9.66715779835,-7.77632783651,-6.79506670168,-10.466950045,-8.337584578,-11.6864466486,-10.2007862438,-9.28497856187
off_to_on,-12.252504594,-11.4943268668,-13.9739532763,-5.41482880615,-12.3129654007,-22.8790002632,-15.1136428892,-12.1399029048,-5.87495864321,-14.9629810762,-9.05646570867,-15.9162819404,-13.1206016171,14.1048142288
off_to_on,-14.5425590943,-14.6982488918,-16.6118385596,-4.30481172707,-12.9937437991,-25.8439411206,-19.7570662286,-15.9022781397,-4.68737757367,-18.6444865547,-9.28834945952,-19.2245762376,-15.1965496881,33.8042307776
off_to_on,-15.8803117068,-16.9578075091,-18.1014302344,-2.94285773307,-12.8842326609,-26.7782777839,-23.1355852179,-18.7426927916,-3.22538858818,-21.2115574476,-8.94337237242,-21.3663678606,-16.2514747336,48.0749056608
off_to_on,-16.1668644951,-18.1371079511,-18.3504417791,-1.33292497265,-11.950881483,-25.552939048,-24.8901109582,-20.4114418235,-1.50766378837,-22.454240308,-7.98218284012,-22.1890156511,-16.1991676889,55.8273475689
off_to_on,-15.3945467097,-18.1902834143,-17.3799689563,0.489729086603,-10.2299631321,-22.2632944828,-24.8076031652,-20.7548090282,0.41657033603,-22.2695325891,-6.4235126168,-21.641894979,-15.0498435273,56.7645074318
off_to_on,-13.6437443713,-17.1588141723,-15.3165197265,2.45649783058,-7.82628549599,-17.2220715522,-22.8481743511,-19.7296633929,2.46695472313,-20.667136937,-4.34479562241,-19.7759801286,-12.9052274419,51.4306916969
off_to_on,-11.0705676309,-15.1602858768,-12.3725253697,4.46846228658,-4.90437378368,-10.9249803651,-19.1524984709,-17.4064372257,4.53616894682,-17.7642330017,-1.8757764531,-16.7342851508,-9.94449145456,41.1539807639
off_to_on,-7.88746916554,-12.3708649665,-8.81850693896,6.4042716292,-1.67316532852,-3.99326273219,-14.0285160474,-13.9606169948,6.49850791049,-13.7707609554,0.814020428112,-12.7350934598,-6.40331422431,27.8841403932
off_to_on,-4.33966944788,-9.00434596025,-4.95100178389,8.1318935536,1.63394678226,2.89942976077,-7.91904601337,-9.65419009924,8.22184015392,-8.96762664686,3.53230351399,-8.05050227607,-2.54899428168,13.9424335578
off_to_on,-0.680541392274,-5.29073372577,-1.06065369566,9.52267445017,4.78134395052,9.10625041402,-1.35430695753,-4.80954428618,9.58139147677,-3.68074439846,6.08331296576,-2.98299507611,1.34523269727,1.71272171229
off_to_on,2.85105464841,-1.45698567113,2.59547512637,10.4657943156,7.55308684288,14.0820411318,5.10479629323,0.221002296669,10.4734935888,1.74609169573,8.28698491766,2.15744645523,5.02373567318,-6.68714530334
off_to_on,6.04905787754,2.28815546518,5.81421754756,10.8811288358,9.77201255856,17.4440682159,10.925688605,5.08660975888,10.8274081267,6.97682979027,9.99567202097,7.07369162655,8.26753512101,-9.70996027
off_to_on,8.75254068274,5.76421741996,8.45738919193,10.7287498261,11.3139722505,19.0107681732,15.6583427281,9.46700537211,10.6135862709,11.7052013607,11.1065292519,11.4979749237,10.907339809,-6.6172658922
off_to_on,10.8515059253,8.82388192617,10.4532807127,10.0137705318,12.1158327877,18.8137246101,18.9783477078,13.0965327833,9.84721591598,15.6718733185,11.5683294758,15.2040351505,12.8300108222,2.38449700531
off_to_on,12.2865372846,11.3534825722,11.7896135795,8.78590168506,12.1766884889,17.0818128267,20.7140259548,15.7812457409,8.58656819568,18.6761937496,11.3822643523,18.0150163109,13.9788088379,16.1328815871
off_to_on,13.043498477,13.2705056042,12.5001801325,7.13382858067,11.5525837907,14.2002879232,20.854931107,17.4080746999,6.92638452449,20.5827047633,10.5970959805,19.8077598362,14.3485347943,32.6303444855
off_to_on,13.1450078446,14.5197554445,12.6481211895,5.17523818522,10.3458206316,10.6510097401,19.5414828426,17.9460476449,4.98723558845,21.3230960685,9.29973833702,20.5143655937,13.9771687102,49.2863841824
off_to_on,12.6406112203,15.0697690244,12.30900953,3.04391296801,8.69051697419,6.94251049794,17.0378831724,17.4403897438,2.9023328224,20.894536071,7.60286876428,20.121892329,12.9357992738,63.2530994763
off_to_on,11.5974371958,14.9106746427,11.5566018453,0.87568016279,6.73642571807,3.53986690695,13.6924968447,16.0009689824,0.803600571548,19.3553456939,5.63143415902,18.6708468847,11.3185224549,71.8124778572
off_to_on,10.0926984464,14.0540848409,10.4533740057,-1.20488979868,4.6330839175,0.804168121078,9.89130538367,13.7869426463,-1.1911231154,16.8188191893,3.50989984792,16.2527552746,9.23362271325,72.7650224089
off_to_on,8.2087967399,12.5349164078,9.0469099611,-3.0953146724,2.51614840099,-1.05018964425,6.01068676045,10.9895784921,-2.98810318779,13.445722241,1.3518092867,13.0067195849,6.7968231472,64.7671929723
off_to_on,6.03111830042,10.4143833626,7.3720593615,-4.72226023106,0.497330378031,-1.97486574186,2.3755670938,7.81509812927,-4.52374055446,9.43570082837,-0.747264594388,9.11454701097,4.12680810402,47.570091387
off_to_on,3.6479941613,7.78293694075,5.4577090034,-6.04412635053,-1.34125761575,-2.08154702389,-0.772010819294,4.46907137821,-5.76604048646,5.017600118,-2.71290652578,4.79387729358,1.34269079828,22.1234116167
off_to_on,1.15185314562,4.76172185965,3.33620255722,-7.04914269856,-2.94819261758,-1.61219584494,-3.29049648609,1.14345024083,-6.7116284782,0.438585251011,-4.4913508606,0.288783935088,-1.43729056284,-9.47448010106
off_to_on,-1.35961547936,1.50122203615,1.05301679747,-7.74962452893,-4.29975272659,-0.89066323542,-5.14124833252,-1.99315370442,-7.37908552764,-4.04799379963,-6.0460085515,-4.14241022988,-4.09675299636,-44.1795211665
off_to_on,-3.78342082037,-1.82383360487,-1.32568174254,-8.17358761085,-5.39384793069,-0.263393440491,-6.37653162829,-4.8018037137,-7.79990259408,-8.19585061675,-7.35216849435,-8.24192070491,-6.52269845949,-78.3367516262
off_to_on,-6.01318952822,-5.02361208535,-3.70953534925,-8.35527050928,-6.24220405228,-0.0384223902166,-7.11582642989,-7.17641761199,-8.00867143565,-11.779674253,-8.3912119244,-11.7691703328,-8.60823567897,-108.10757858
off_to_on,-7.94341571362,-7.90593309616,-5.98570640264,-8.3262130802,-6.86225239132,-0.431983982677,-7.51467761491,-9.04429013907,-8.03419064806,-14.6089120391,-9.14564736558,-14.5180849024,-10.2567633058,-129.936831981
off_to_on,-9.47586123248,-10.2914889792,-8.0259834078,-8.10838153956,-7.27007750229,-1.53077985605,-7.73117616101,-10.3645934828,-7.89296543127,-16.5403352269,-9.59602756696,-16.3333452969,-11.387446766,-141.000339984
off_to_on,-10.527399228,-12.0298011327,-9.69846110161,-7.71044190218,-7.47548496069,-3.27553548274,-7.89527074097,-11.1255139645,-7.58615131879,-17.4881308403,-9.720397177,-17.1237249418,-11.9414088631,-139.574902728
off_to_on,-11.0381908707,-13.0138662856,-10.8821145264,-7.12772887617,-7.47982392931,-5.46822268197,-8.08547625355,-11.3406142793,-7.10040428045,-17.4302807153,-9.49641298011,-16.8707183976,-11.8877471462,-125.281434634
off_to_on,-10.9788819315,-13.1914464493,-11.4820143768,-6.34582502244,-7.27670621687,-7.80175658626,-8.31627873776,-11.0448846137,-6.41244460453,-16.4102192437,-8.9057619261,-15.6310406842,-11.228348815,-99.1676149441
off_to_on,-10.3555412512,-12.571288852,-11.442738627,-5.347054613,-6.85528022215,-9.90759952114,-8.53782788029,-10.2907971113,-5.49652178025,-14.5331923124,-7.94005932205,-13.5322144677,-10.0005249716,-63.6166480917
off_to_on,-9.21133341716,-11.2231830003,-10.7577524916,-4.11870318511,-6.20531493677,-11.4140194315,-8.64761032165,-9.14453649936,-4.33347828465,-11.9573201003,-6.60710987108,-10.7612828617,-8.27672349514,-22.0910400893
off_to_on,-7.62437738875,-9.27157849304,-9.47311627151,-2.6614734071,-5.32308094101,-12.0061473612,-8.51198237927,-7.68246621057,-2.91982720845,-8.88001328259,-4.93630296955,-7.54757233765,-6.1609635989,21.2583132097
off_to_on,-5.70181251998,-6.88337285592,-7.6847393145,-0.996626262713,-4.21691459728,-11.478688336,-7.99396654238,-5.9878143737,-1.27522554543,-5.52100554536,-2.9820055844,-4.14124823544,-3.78209949556,62.0698188661
off_to_on,-3.57067534405,-4.2512940257,-5.52938576718,0.829557709088,-2.91142513219,-9.77320155182,-6.9827874896,-4.14752795906,0.5530532143,-2.10374409399,-0.824094023384,-0.790023688759,-1.28448618506,96.2762971765
off_to_on,-1.36668462409,-1.57491779746,-3.1705924616,2.74495891311,-1.44953331075,-6.99412057488,-5.42036653245,-2.24923911226,2.48960078247,1.16286009281,1.43481551811,2.2833036087,1.18299175185,120.57440568
off_to_on,0.777645991875,0.958321432753,-0.78142714254,4.65484448449,0.10812513049,-3.40080058958,-3.32043876439,-0.378304472266,4.43466762939,4.10033117437,3.67538477826,4.89986445497,3.47832215405,132.799775811
off_to_on,2.74405333244,3.18979830367,1.47352515092,6.44891634371,1.68649285073,0.623598370246,-0.777036582795,1.38509485685,6.2719676293,6.57247663165,5.77027562695,6.93808187868,5.47692882369,132.161424614
off_to_on,4.43736066224,5.00208662681,3.45447797292,8.01136017374,3.20173724509,4.62216934537,2.03935974759,2.96877611347,7.87957269081,8.49202101558,7.59461778564,8.33992809773,7.08025475068,119.307211896
off_to_on,5.79109931319,6.32577044211,5.05889532038,9.23259572765,4.56855832354,8.12622512731,4.89789135822,4.31125676837,9.14248833503,9.82156641298,9.03698603854,9.10957340957,8.22151676237,96.2139353484
off_to_on,6.76942577824,7.14020495083,6.22854606093,10.0211438148,5.70822399204,10.7203437087,7.53368556737,5.3642661039,9.96521982957,10.5691888323,10.0095508998,9.30495662394,8.86819135979,65.9181799206
off_to_on,7.36542206193,7.46862998987,6.95048226243,10.31397675,6.55629118652,12.1011372009,9.68103784265,6.09497000654,10.2826065093,10.7796931287,10.4561560911,9.02375818336,9.02124407151,32.1242664748
off_to_on,7.59640941781,7.36881700494,7.25219740472,10.0839140605,7.06900954255,12.1212119855,11.1088554426,6.4877812812,10.0674243706,10.5230970054,10.3573389047,8.38598523611,8.7115364174,-1.25909315943
off_to_on,7.49732061691,6.92099221822,7.19208309246,9.34303381233,7.22757818438,10.8118413417,11.6533609244,6.54559246103,9.33370062309,9.88221166084,9.73170448339,7.51577178008,7.99416797304,-30.5935155166
off_to_on,7.11339523357,6.21504011965,6.8469565473,8.14162974443,7.03970797053,8.38086144933,11.2433054481,6.29023340374,8.13528217376,8.94118749658,8.6335330463,6.52499711414,6.94168805554,-52.9367867597
off_to_on,6.4934529794,5.33891986437,6.29877618399,6.56287059212,6.53829025156,5.18580024998,9.9138632796,5.76193204373,6.55986360536,7.77660088645,7.14697220782,5.50093429393,5.63712183989,-66.3671599982
off_to_on,5.6847696979,4.36984611066,5.62265242987,4.71391619851,5.77734110962,1.68575769181,7.8068501488,5.01755777383,4.71931032765,6.45212364436,5.37757852133,4.49942105789,4.1676095648,-70.167820302
off_to_on,4.73017657623,3.36917052778,4.8779089742,2.7147258552,4.82572918344,-1.62142266486,5.15673381491,4.12746855379,2.73761606342,5.01713222267,3.44226828723,3.54411493831,2.61919333516,-64.8523644561
off_to_on,3.66750378481,2.3811644755,4.10332576546,0.686086999372,3.75946355014,-4.26804362262,2.26384078285,3.17087751642,0.738137116813,3.50889597214,1.45888152472,2.63140207914,1.07296279902,-52.0333876975
off_to_on,2.53099045579,1.43517987907,3.31691311671,-1.26154462148,2.65348468683,-5.88196156521,-0.542052490838,2.22980755756,-1.16819403834,1.95735604372,-0.463457799415,1.7396355823,-0.397543287522,-34.1567327018
off_to_on,1.35387878914,0.550082565701,2.51976399069,-3.03697508056,1.57394928889,-6.23940238287,-2.94316529795,1.38190667883,-2.8921625738,0.39107676873,-2.23217617468,0.840727822285,-1.7280237941,-14.1409017308
off_to_on,0.171178707604,-0.260487847901,1.70284689487,-4.57393332495,0.571926877522,-5.29778165772,-4.67481302583,0.692632590089,-4.37196652074,-1.1572060517,-3.77656497783,-0.0881838287468,-2.86465476821,5.02764379347
off_to_on,-0.978423564916,-0.983517720304,0.85514948696,-5.83294760148,-0.320754800514,-3.20385505132,-5.56067931274,0.207548928312,-5.57476883382,-2.64687332721,-5.05022748244,-1.05519015879,-3.76532368704,20.6884508142
off_to_on,-2.05232973503,-1.60390302161,-0.0285650261574,-6.79950794915,-1.09304326101,-0.275898130643,-5.53740445155,-0.0543357590163,-6.49419099386,-4.02856429466,-6.03069564751,-2.04791146299,-4.401142918,30.8388241424
off_to_on,-3.00588844033,-2.10433017594,-0.94195290099,-7.47914294656,-1.75341725253,3.03783848559,-4.66491901726,-0.105158137968,-7.1444341147,-5.24657252727,-6.71660214526,-3.03262016836,-4.75827231542,34.362060377
off_to_on,-3.79626609271,-2.46780787792,-1.864344681,-7.8904819937,-2.32603940852,6.21892189843,-3.12073611312,0.0102719591708,-7.55219634067,-6.24419360817,-7.12306020777,-3.958239862,-4.83978918767,31.126306873
off_to_on,-4.38773033354,-2.68222509485,-2.76151963456,-8.05763617034,-2.84478867228,8.74882609278,-1.17847560301,0.216798160441,-7.74784810131,-6.97106083831,-7.27606019456,-4.76435613972,-4.66708644152,21.9466146796
off_to_on,-4.75732420107,-2.74574912033,-3.58974120315,-8.00327319585,-3.34591015199,10.1799784943,0.827033638644,0.415524142858,-7.7573875749,-7.3910136963,-7.20672599217,-5.39161510671,-4.28012526393,8.42155773684
off_to_on,-4.89967215005,-2.6715513927,-4.30214141416,-7.7435819519,-3.86019434995,10.1983026082,2.5439100617,0.494611979595,-7.59652131371,-7.48882125927,-6.94619367278,-5.79242218546,-3.73586918451,-7.32762798636
off_to_on,-4.82966912798,-2.49033537373,-4.85607628512,-7.28595114842,-4.40567433136,8.66894090059,3.65114785197,0.343574844913,-7.2678296476,-7.27418399961,-6.52170232355,-5.93977405336,-3.1044052835,-22.9752891804
off_to_on,-4.58207857079,-2.24946141041,-5.21988411263,-6.6296866011,-4.98180050576,5.65908551435,3.90418138267,-0.130261146194,-6.76144501683,-6.78185996197,-5.95425655359,-5.83238164679,-2.4626037902,-36.3207197948
off_to_on,-4.20757255271,-2.00807687163,-5.37760198362,-5.76954393157,-5.56592012524,1.43487020671,3.17207017798,-0.985003046053,-6.0590775176,-6.06744391921,-5.2579704567,-5.4949231223,-1.88563137868,-45.5828460095
off_to_on,-3.76540897421,-1.82846650971,-5.33061265884,-4.70134720398,-6.11266337476,-3.56733013575,1.46118002734,-2.22939872723,-5.1406584062,-5.19915832203,-4.4409704879,-4.97318908799,-1.43713807949,-49.6212377619
off_to_on,-3.31364300572,-1.76469531838,-5.09582859334,-3.42858120952,-6.55653923908,-8.79154187156,-1.07819861181,-3.8123722593,-3.99242663154,-4.24684658524,-3.50754916387,-4.32488819719,-1.15938690726,-48.0564282271
off_to_on,-2.89838258913,-1.85036168274,-4.70075389988,-1.96864823783,-6.81769820068,-13.6283448181,-4.16379631124,-5.61904013988,-2.61502464086,-3.27003665122,-2.4611409268,-3.60778849748,-1.06489150893,-41.2778045084
off_to_on,-2.54399575738,-2.0877580917,-4.17645778842,-0.357502101036,-6.81045642845,-17.4881970769,-7.41107320245,-7.47480199634,-1.03013774311,-2.3073271984,-1.30764147351,-2.86750765826,-1.13118928122,-30.3436510471
off_to_on,-2.24626435408,-2.4408322341,-3.55000632902,1.34838905223,-6.45383179346,-19.8727945068,-10.3776227931,-9.15822268636,0.715588725205,-1.36934432745,-0.0586061076285,-2.12750197374,-1.3001574482,-16.7929385018
off_to_on,-1.97020558656,-2.83399488742,-2.83812314894,3.07338058526,-5.68305095155,-20.4357063329,-12.6172557602,-10.422310732,2.55021883448,-0.437089304458,1.26607392644,-1.3835726531,-1.48277466234,-2.40007434902
off_to_on,-1.65366085826,-3.15804895766,-2.0437229509,4.72738575239,-4.4607821195,-19.0250062759,-13.7373673662,-11.0225795938,4.380105077,0.533313449169,2.6363254733,-0.604520027161,-1.56948832723,11.0894617546
off_to_on,-1.21685436682,-3.28340967542,-1.15648613087,6.2135388777,-2.78675835614,-15.7029722086,-13.4525612883,-10.7491156627,6.09710112243,1.59954511295,4.01108413073,0.260475490221,-1.44546289167,22.2036600084
off_to_on,-0.577080831693,-3.07950931826,-0.15788525305,7.43781626055,-0.704501310153,-10.7408279569,-11.6277174986,-9.45894513386,7.58856761957,2.81696948954,5.33863221304,1.26842047003,-1.0090875214,29.9343729213
off_to_on,0.333341495557,-2.43803532064,0.969841516121,8.31928247896,1.69595555804,-4.58956163285,-8.30474695903,-7.1044543252,8.7488856063,4.21983326903,6.55811451129,2.46494587344,-0.191360760575,33.8485957458
off_to_on,1.54854155019,-1.29665581087,2.23218707963,8.79947101983,4.28011719801,2.16931544462,-3.7090640164,-3.75359997947,9.49093530954,5.80297575382,7.60219871727,3.86555725278,1.02671284423,34.1082642193
off_to_on,3.05314485264,0.340663339349,3.61049499972,8.84948124796,6.87617668151,8.88695055858,1.76586952217,0.40178745399,9.75596863432,7.50758403247,8.40079449656,5.43923479912,2.60167150578,31.4000785361
off_to_on,4.77204727494,2.39061237782,5.05225984834,8.47367185729,9.28706048992,14.9167276308,7.59498312772,5.05216547429,9.52050639704,9.2143111411,8.88569307769,7.09794886428,4.42268869952,26.7899717362
off_to_on,6.56852645527,4.68795322319,6.46613319467,7.70931187373,11.3066018659,19.6822351738,13.1755181388,9.79184724345,8.79929627919,10.7462663173,8.99592746911,8.69506348644,6.31600230973,21.5273052368
off_to_on,8.25228198087,6.99532227002,7.72365085561,6.62214238646,12.7385369843,22.7361257276,17.8927166956,14.1549946826,7.6439141463,11.8830614528,8.68357524024,10.0344295981,8.05929736636,16.8302699108
off_to_on,9.59759935879,9.02563159527,8.66875371473,5.2984152599,13.4165707499,23.8037292816,21.1899686929,17.6630626631,6.1371982817,12.3854204104,7.91963139266,10.8903639589,9.40525429835,13.6855164916
off_to_on,10.3702488644,10.4753446967,9.13491833569,3.83451406788,13.2234621231,22.8072812476,22.6353310948,19.8789206188,4.38428301239,12.0280635076,6.69947722348,11.0368948966,10.1120309853,12.6916878492
off_to_on,10.3601908359,11.0650301857,8.96833038198,2.32564218685,12.1069837627,19.8689804741,21.9764932096,20.4615367188,2.50145988512,10.6369430974,5.04737992464,10.2829088697,9.97717869318,13.9689484967
off_to_on,9.41590908857,10.582083181,8.05424699746,0.855221379011,10.0907500432,15.2935008508,19.1773605344,19.2144511164,0.604373485364,8.12570170162,3.01940093308,8.50844081246,8.87060593721,17.1460683629
off_to_on,7.47545461875,8.91961473299,6.34273077555,-0.513447561167,7.2782892313,9.53275510301,14.4313630317,16.1214385027,-1.20288448341,4.52568152632,0.704094702281,5.69657028442,6.7618676535,21.4247711837
off_to_on,4.58921283886,6.10543489965,3.86949102639,-1.74204313589,3.84933940741,3.13741807203,8.14915500607,11.3638143235,-2.83639115031,0.00408034754548,-1.77953398534,1.95539235962,3.73736912119,25.7096868652
off_to_on,0.93007972805,2.31587621805,0.767763252884,-2.81790830508,0.0481239625755,-3.29919636329,0.921278419599,5.31570518221,-4.2376987932,-5.13404107022,-4.28716370868,-2.47460451118,0.00404628009253,28.7829995787
off_to_on,-3.21189088974,-2.12912672311,-2.73197251254,-3.75051389552,-3.83576459459,-9.19891094815,-6.5407220637,-1.48390203934,-5.37532593409,-10.4623307401,-6.65745353023,-7.23076030068,-4.12236826064,29.4970320879
off_to_on,-7.45137043082,-6.79094770779,-6.31616227942,-4.56431503943,-7.49236936342,-14.0523836891,-13.478656335,-8.3806790652,-6.24250482063,-15.4683196367,-8.72322232505,-11.8567975164,-8.24443622244,26.9562754161
off_to_on,-11.3449143068,-11.1556988206,-9.61606583691,-5.28919668299,-10.6199875222,-17.4638286665,-19.1694934621,-14.6715563244,-6.85180955854,-19.6045785965,-10.324834415,-15.8478447713,-11.9233020012,20.6628487511
off_to_on,-14.439869969,-14.6919812993,-12.2471174722,-5.95011194102,-12.9545599931,-19.183098834,-23.0055208251,-19.6814626809,-7.22773422688,-22.3507257719,-11.3247297122,-18.7075103219,-14.7280476501,10.605519874
off_to_on,-16.329548815,-16.9164124135,-13.855572144,-6.5576844911,-14.2967104383,-19.1229431737,-24.5637230163,-22.8415345936,-7.39856186557,-23.2791441003,-11.621717546,-20.0104478633,-16.2884305287,-2.71882665237
off_to_on,-16.7078350929,-17.4587822149,-14.1667409924,-7.10144173498,-14.5333766713,-17.3607750706,-23.6562583408,-23.7593946337,-7.38892435011,-22.116090837,-11.1634592433,-19.4624804035,-16.344430068,-18.3524174047
off_to_on,-15.415916745,-16.1181162365,-13.0283088838,-7.54697823209,-13.6514041868,-14.1257079647,-20.3558839375,-22.2725243183,-7.21429364024,-18.7897642442,-9.95554392735,-16.9499874608,-14.7859718876,-34.9839944821
off_to_on,-12.4743160664,-12.9015141709,-10.4422898583,-7.83776814161,-11.7412334857,-9.77280986956,-14.9929063608,-18.477348123,-6.87829388845,-13.4579289016,-8.06574488748,-12.5710386103,-11.6770316445,-51.0999203242
off_to_on,-8.09486753125,-8.03938976178,-6.58017294805,-7.90163374399,-8.98984014944,-4.74742818961,-8.12341274857,-12.7292624395,-6.37323763567,-6.50982570186,-5.62243440255,-6.64263818044,-7.25998724884,-65.1573369921
off_to_on,-2.6695925224,-1.9734776025,-1.77766591784,-7.66113886311,-5.66327120497,0.456986152486,-0.471809202025,-5.61220047624,-5.68374429613,1.45991733566,-2.80670745402,0.318762980241,-1.93840710918,-75.7559575759
off_to_on,3.26371354192,4.68262640167,3.49204779878,-7.04652192718,-2.08032852212,5.34386009975,7.14631980074,2.11997494997,-4.79278033133,9.70415900062,0.161535796047,7.64296737369,3.7608454033,-81.7867482091
off_to_on,9.07630039463,11.2069967069,8.66477733721,-6.00931426684,1.41996607099,9.4575995557,13.9126661606,9.62437493231,-3.68904841317,17.3981307782,3.04255231146,14.573915886,9.24258989089,-82.5404325914
off_to_on,14.117951541,16.8502211792,13.1469533041,-4.53458064436,4.51366751328,12.4233622409,19.0961720666,16.0634082548,-2.37441120171,23.7284239582,5.5990683398,20.3525630368,13.9094033486,-77.7655209682
off_to_on,17.7931613931,20.9241628652,16.3854916953,-2.64980965731,6.92606380559,13.9794745416,22.1344009546,20.7016430797,-0.870001445361,27.9858967291,7.61969443341,24.305168565,17.2310931419,-67.6732652243
off_to_on,19.6347231411,22.8877436608,17.9374052802,-0.428866988056,8.46079211824,14.0000299298,22.6970162419,22.9936090888,0.780150685234,29.6512664696,8.9408782048,25.9262061832,18.8090897882,-52.8943298882
off_to_on,19.3653200324,22.4187305319,17.5301754562,2.00994350606,9.02048537955,12.505891552,20.7239934161,22.6516591042,2.50877708357,28.4625150968,9.46480854944,24.9452391209,18.4275737649,-34.3979306522
off_to_on,16.9388196592,19.4618380166,15.1045872698,4.51187226381,8.61641984064,9.66310959512,16.4339820337,19.6851162833,4.22862687041,24.4550293095,9.17098854713,21.3686751297,16.0845199797,-13.3879118322
off_to_on,12.555217109,14.2461265153,10.8335750227,6.89908670299,7.36586893998,5.76864013896,10.3015893834,14.4052073625,5.83907621237,17.9684445926,8.11980774001,15.4901384967,11.9981466956,8.80868675552
off_to_on,6.64630225868,7.26836485553,5.11342855519,8.9879449275,5.47729797684,1.22419399666,3.00589409377,7.39434202036,7.23533097284,9.61810755205,6.44731002476,7.86695263514,6.58721931598,30.8465213459
off_to_on,-0.167246118354,-0.756721535383,-1.47286794139,10.6081267452,3.22498696812,-3.49998695519,-4.64419393711,-0.557352239398,8.31904793857,0.233427540306,4.35137472516,-0.735555057396,0.426912916297,51.4498244785
off_to_on,-7.14297685423,-8.97412912944,-8.2167904079,11.6212434184,0.915965753388,-7.90869229201,-11.7994197179,-8.54123806503,9.00895911413,-9.23040374558,2.07058182979,-9.42608103547,-5.81493945433,69.4776505314
off_to_on,-13.5004227046,-16.4852819666,-14.3632459756,11.9365435866,-1.14688015905,-11.5290891229,-17.6644543408,-15.6348100392,9.25005038872,-17.7973435456,-0.142017798835,-17.2863642092,-11.4538068007,83.96598073
off_to_on,-18.511606389,-22.4522161283,-19.198137584,11.5216559613,-2.7011526719,-13.9576866232,-21.5862881195,-21.0093771663,9.02002620196,-24.5797799503,-2.04728981199,-23.4754736524,-15.8675393118,94.1505856404
off_to_on,-21.5873051549,-26.1964860065,-22.133877351,10.4069195896,-3.55635999688,-14.9024563919,-23.1267125157,-24.0278221699,8.33215898119,-28.8790611245,-3.44724580093,-27.3267232504,-18.5689290783,99.4774297217
off_to_on,-22.348373629,-27.280458518,-22.7821327587,8.6826685172,-3.6165856086,-14.2157480825,-22.1106545954,-24.3205160374,7.23412141108,-30.2650201189,-4.20782482785,-28.4252632396,-19.262794553,99.6082894896
off_to_on,-20.6730991119,-25.5606921544,-21.0044179784,6.48974851106,-2.89161128144,-11.9141970999,-18.6448880827,-21.8300148032,5.80295673067,-28.624671435,-4.27438079916,-26.6566431163,-17.8804695028,94.4280643869
off_to_on,-16.714427682,-21.2064952245,-16.9337301499,4.00442382177,-1.49508975304,-8.18284129156,-13.1050492594,-16.8189170355,4.13687459089,-24.1739704903,-3.67785018615,-22.2201676813,-14.5873502654,84.0573200083
off_to_on,-10.8845977767,-14.6810934369,-10.9639628875,1.41955998674,0.370053772677,-3.36209444228,-6.09253578536,-9.83975187964,2.3449890585,-17.4310644632,-2.53067950145,-15.6052321449,-9.76251077789,68.8695983441
off_to_on,-3.80877809541,-6.68755061871,-3.70785765733,-1.07555657927,2.43723366798,2.08204896078,1.63366765779,-1.67043457579,0.536378562377,-9.15424220388,-1.01284661962,-7.53345914343,-3.95289959368,49.5088640616
off_to_on,3.74679784386,1.91394014531,4.07174689354,-3.31424572714,4.40969878676,7.6023521932,9.24232067638,6.7769235934,-1.19009236064,-0.252192371696,0.650444502512,1.1262368445,2.19217056336,26.8990910933
off_to_on,10.9634877093,10.2071364793,11.5491671682,-5.167975348,5.99778844889,12.6252283808,15.9225602108,14.5627747096,-2.75389936199,8.322373076,2.21674272261,9.45913183054,7.99806217541,2.23626865042
off_to_on,17.064853825,17.3266158572,17.9310093238,-6.55658357883,6.95534828304,16.6107455785,20.9732031038,20.8294813314,-4.09797706407,15.6826324182,3.4565925069,16.6101487271,12.8437884503,-23.0464254462
off_to_on,21.4056625868,22.5571580256,22.5475018176,-7.45208816963,7.1108020326,19.1113767678,23.8785603443,24.8999940614,-5.19034193414,21.1076440538,4.18229714687,21.8802942112,16.2331578794,-47.3467190548
off_to_on,23.5444412466,25.4133948722,24.9287814487,-7.8758693452,6.38904063938,19.8228860316,24.3622697262,26.3539922737,-6.02225885147,24.1203148886,4.27160061441,24.8023426263,17.8494075988,-68.9961706281
off_to_on,23.2908907238,25.6900992546,24.8567862742,-7.88990742221,4.82144051016,18.6212761841,22.4133040336,25.0724962129,-6.60349968571,24.5341573565,3.68329360423,25.1868047414,17.5868462927,-86.3932739488
off_to_on,20.7226835874,23.4773388036,22.3865192506,-7.58354192079,2.54281286845,15.5810249175,18.2816252373,21.2459472171,-6.95565530017,22.4637120799,2.46275015757,23.1331285003,15.5560466934,-98.1555646025
off_to_on,16.1700828014,19.1392960513,17.8343608066,-7.05778646014,-0.224275210577,10.9717968487,12.4445299997,15.3453382634,-7.10471882831,18.2981990307,0.736669698318,19.0056012296,12.0625611093,-103.273890034
off_to_on,10.1708835442,13.2602402988,11.7353087157,-6.40950649521,-3.19579065931,5.23323295678,5.5481371124,8.06056775262,-7.07422121619,12.6426442297,-1.30232824541,13.3779527183,7.56252303897,-101.248347354
off_to_on,3.40187316986,6.56530513563,4.77495280505,-5.71771045655,-6.05980550562,-1.06999240119,-1.66870396143,0.214196440513,-6.88006302058,6.23479424543,-3.41931255574,6.95459327016,2.60139487801,-92.1846272275
off_to_on,-3.40415724408,-0.17317266712,-2.29486939988,-5.03383162712,-8.51313988906,-7.30821375017,-8.4588860932,-7.33829802844,-6.52787301601,-0.150953284853,-5.36585854019,0.479242446144,-2.25585299008,-76.8321022105
off_to_on,-9.54519426159,-6.23136485042,-8.74585331931,-4.37724554358,-10.2965317272,-12.8553057769,-14.1499131518,-13.8092141458,-6.01328473918,-5.79997997689,-6.91041917279,-5.35694952196,-6.49395062066,-56.5509130738
off_to_on,-14.4297103952,-11.0193631603,-13.9570736824,-3.73646960769,-11.2240347952,-17.1578579993,-18.2155980806,-18.5678740617,-5.32502599178,-10.1419045682,-7.86640691733,-9.99597273345,-9.70707929322,-33.2039321713
off_to_on,-17.6396381704,-14.1456178374,-17.4825364939,-3.07564434374,-11.2031396365,-19.7968450407,-20.3285814142,-21.2077702131,-4.45024100669,-12.8126444621,-8.11445886655,-13.0722601215,-11.6418212287,-8.97972060855
off_to_on,-18.9693824199,-15.4527970051,-19.0944312137,-2.34512153683,-10.2433410637,-20.5343523271,-20.3881466299,-21.584017011,-3.38108424556,-13.6869029311,-7.6161332321,-14.4439018531,-12.2184088237,13.837002533
off_to_on,-18.4369571001,-15.0214777589,-18.7974418875,-1.49439374809,-8.45237649912,-19.3395801377,-18.5209014176,-19.8174762774,-2.12139750512,-12.8780259363,-6.41741658158,-14.1929286681,-11.5284116001,33.121885736
off_to_on,-16.2670657074,-13.1424842278,-16.8133812597,-0.485275310706,-6.02093137858,-16.3907842561,-15.0552033666,-16.2662553228,-0.692243215974,-10.7065981335,-4.64175670465,-12.5960734154,-9.81020596672,47.1629141642
off_to_on,-12.8495871944,-10.262872341,-13.5393225208,0.696769442232,-3.1980445676,-12.0527265165,-10.4733241421,-11.4694013566,0.864777468723,-7.64327224591,-2.47369628343,-10.0713593643,-7.40650866818,54.8742806698
off_to_on,-8.67999608748,-6.91395777178,-9.48579057201,2.03496070814,-0.260562225053,-6.83223755887,-5.34788930392,-6.07100071523,2.48716679854,-4.23459637805,-0.135385499986,-7.10895549032,-4.71052418274,55.9413052126
off_to_on,-4.29033944147,-3.63194303363,-5.2039899951,3.4784535452,2.51935761688,-1.31724550833,-0.270801867441,-0.735110656823,4.09443058221,-1.02259391488,2.14086263597,-4.19657565502,-2.10856339342,50.8728613518
off_to_on,-0.180259741674,-0.882351660349,-1.21218310057,4.94502078829,4.90457173465,3.89326678746,4.21652762041,3.93725605265,5.59403450115,1.53068160529,4.1403579725,-1.75005596856,0.0728213194619,40.9489530062
off_to_on,3.24288821491,1.00143417552,2.06893668958,6.32887823253,6.71741693114,8.25973449236,7.68331085837,7.47857298684,6.88973872773,3.10347605172,5.69058028919,-0.0586096183092,1.6080690498,28.0647673571
off_to_on,5.70742525416,1.85754846035,4.36363180015,7.51260145709,7.85551758209,11.3641925117,9.85303833342,9.60420312144,7.89125328093,3.55185166643,6.67942253421,0.748172103987,2.39698540858,14.4868856629
off_to_on,7.0994264937,1.7083018387,5.56570228945,8.3814798925,8.29737509881,12.9564901929,10.6261238963,10.2353955638,8.52393098684,2.92012689113,7.06498045562,0.707854624814,2.46959450549,2.55033534939
off_to_on,7.46181585732,0.745409019829,5.73805414482,8.83829256989,8.09757897565,12.9789071244,10.0797745703,9.49420255761,8.73717800037,1.42389348668,6.875924443,0.00728628107849,1.97165835855,-5.66512620002
off_to_on,6.97203911981,-0.709039165341,5.08859604533,8.81642160265,7.37285018721,11.5663203589,8.44621565744,7.67242043283,8.51041956986,-0.590888321106,6.20277859545,-1.05697927737,1.13379477236,-8.63625637114
off_to_on,5.9027603496,-2.25934454184,3.92704882181,8.28945121775,6.28128517963,9.02223021154,6.07304204478,5.1800082371,7.8557877523,-2.70597846665,5.18164625999,-2.13325173429,0.229365750074,-5.63280873557
off_to_on,4.57216350475,-3.50187709562,2.60974034831,7.27589601626,4.99796186657,5.77406595679,3.37152979163,2.48092416393,6.81714910463,-4.49720063285,3.97289491355,-2.87559883208,-0.472254983803,3.14614421715
off_to_on,3.29155995338,-4.08982384746,1.48086494527,5.83838826571,3.69040126979,2.31384970199,0.75998616965,0.0256369739543,5.4655968078,-5.59924821178,2.73791664119,-3.001759353,-0.74997842633,16.5592906478
off_to_on,2.31798407784,-3.78760751342,0.818843762106,4.07742987403,2.49721942859,-0.867858511355,-1.39048700049,-1.81041881055,3.892018094,-5.75970856758,1.61723763976,-2.33949273219,-0.466382087557,32.6408702736
off_to_on,1.81834877118,-2.50733268001,0.795346112803,2.12056786756,1.51269265417,-3.34602491171,-2.80109449445,-2.77442190328,2.19774251444,-4.87490532213,0.712948869873,-0.85473960343,0.410805825989,48.8388393518
off_to_on,1.84973083102,-0.322424464611,1.45241214891,0.108474839186,0.778995823883,-4.8148809102,-3.31607206356,-2.76404187085,0.484521959025,-3.00299894762,0.077722427398,1.34216116267,1.80392822455,62.3461104819
off_to_on,2.35778449758,2.5429511032,2.70028973509,-1.82017978664,0.286705232334,-5.12448322792,-2.91587806512,-1.83285138269,-1.15484537302,-0.353189958592,-0.288327144911,4.01260731631,3.53761255724,70.4836813515
off_to_on,3.19253252924,5.74656202616,4.33549095323,-3.5430508268,-0.017043968231,-4.2956232701,-1.71209152843,-0.173728783146,-2.64406461156,2.74666660164,-0.432832086391,6.8253077473,5.36576387548,71.085701462
off_to_on,4.13826354684,8.87762589008,6.0756432179,-4.96577117525,-0.214419455327,-2.51156747319,0.0743626730483,1.91628144216,-3.9281841109,5.89870080441,-0.439443967412,9.40557506454,7.00901447674,62.8342821894
off_to_on,4.95233039134,11.515622738,7.60537552778,-6.02949733026,-0.399225994832,-0.0882310007062,2.14798209668,4.08378891,-4.97526376977,8.69242263326,-0.411181203464,11.3907172157,8.1968795576,45.4966686517
off_to_on,5.40655771845,13.2897253058,8.6260630153,-6.71352075375,-0.658560124366,2.57275108086,4.18128699479,5.97222962626,-5.7748890931,10.7623576675,-0.451491186399,12.4831820786,8.70831547786,20.0288310797
off_to_on,5.32485581873,13.930316036,8.90193148905,-7.03283894735,-1.05659925154,5.04137545672,5.85935323042,7.27268752901,-6.33401232134,11.8376569213,-0.645918465844,12.4936331365,8.40475857587,-11.4737652035
off_to_on,4.61148170067,13.3054396785,8.29581187122,-7.03129834194,-1.62289704788,6.91909106778,6.92044644158,7.76538746907,-6.67098114781,11.7768518064,-1.04709908837,11.3678044206,7.25095987788,-45.9776200891
off_to_on,3.26602729198,11.4374158466,6.78958304604,-6.77153345976,-2.34678512686,7.89296371836,7.18775172725,7.34655580311,-6.80885387015,10.5833089093,-1.66524120877,9.19352630148,5.32082306635,-79.8439567157
off_to_on,1.38337505234,8.49783411275,4.48676421527,-6.32334595154,-3.17850330311,7.7770005401,6.58862963501,6.03768855519,-6.76916321864,8.39989308745,-2.46539312843,6.18733395858,2.78770694695,-109.253751089
off_to_on,-0.860798577957,4.7823198973,1.59743635004,-5.75233517981,-4.03664750873,6.53535521481,5.15965476128,3.97691674954,-6.56717249478,5.48442174001,-3.37177300183,2.66310807297,-0.0990698962901,-130.672674741
off_to_on,-3.23622937847,0.669324338729,-1.5917248172,-5.11048877141,-4.8205896074,4.28472567776,3.03764436621,1.39472071585,-6.20938779366,2.17023257294,-4.27839219106,-1.0122005046,-3.04782051685,-141.296936157
off_to_on,-5.49157420064,-3.43065628406,-4.75741780014,-4.4300868831,-5.42582180782,1.27616170857,0.438693578382,-1.4216450119,-5.6936941903,-1.18180226757,-5.06429830969,-4.46892293802,-5.76310514156,-139.422068378
off_to_on,-7.38988308434,-7.12788209907,-7.58349324829,-3.72172443078,-5.75980668057,-2.14068902059,-2.37133377482,-4.16928185197,-5.01203444866,-4.23247701888,-5.61112309071,-7.38353991327,-7.98370999444,-124.685495833
off_to_on,-8.74061138552,-10.100646056,-9.80200962506,-2.97659583035,-5.75591683434,-5.56554095764,-5.11052535106,-6.5701283675,-4.15511638989,-6.70744785624,-5.82033176929,-9.51893173667,-9.51458876634,-98.1491766932
off_to_on,-9.4234973129,-12.1305944708,-11.2256877696,-2.17251672037,-5.38341402903,-8.60075379143,-7.51426936342,-8.40504913505,-3.11828680829,-8.42839459638,-5.6276688643,-10.7503699664,-10.2484157496,-62.2087875237
off_to_on,-9.40106896948,-13.1216881706,-11.7673997276,-1.28257688511,-4.6520800319,-10.9025246697,-9.36403255176,-9.53706845119,-1.90749971563,-9.32817466786,-5.01275700127,-11.0739175123,-10.174063278,-20.3381576557
off_to_on,-8.71842981549,-13.1010084764,-11.4444487473,-0.284913971935,-3.61096234811,-12.2230933147,-10.5082885625,-9.92115941069,-0.54426722346,-9.44857891164,-4.00255489967,-10.5966631632,-9.37133070705,23.300977508
off_to_on,-7.49099689261,-12.2023908337,-10.367785776,0.828072507382,-2.34160316897,-12.4385331717,-10.8736177508,-9.60015925323,0.931381290717,-8.92200531998,-2.66830137469,-9.51099937287,-7.99330821484,64.3362126476
off_to_on,-5.88271343338,-10.6363934989,-8.71859090342,2.04265942686,-0.946940865569,-11.5588917098,-10.4654720508,-8.68849270766,2.46061292821,-7.94078196944,-1.11652498717,-8.05753512506,-6.23954728845,98.6895027606
off_to_on,-4.07864400645,-8.65200395417,-6.71647908779,3.32015196783,0.462312239612,-9.72002451573,-9.35952708765,-7.34713043244,3.96845496226,-6.71963348658,0.524457139037,-6.48286250488,-4.32446879536,123.046975881
off_to_on,-2.25658241643,-6.49648156634,-4.58469896504,4.59738727139,1.78169223247,-7.15906249806,-7.68573013412,-5.7543408235,5.36923211879,-5.45764300998,2.12051469373,-4.99903034159,-2.44599217955,135.234927439
off_to_on,-0.562265196931,-4.37970537509,-2.51792969277,5.79149133465,2.92529820598,-4.17768714687,-5.60794541736,-4.07716406801,6.57416767265,-4.30590400936,3.54781986732,-3.7511396425,-0.759148933277,134.455464863
off_to_on,0.907987094429,-2.44837515281,-0.657630038667,6.80833627509,3.83463125434,-1.09895307342,-3.30241219039,-2.44812212192,7.50019131694,-3.34593138328,4.70682452314,-2.79804717325,0.641498315197,121.35339768
off_to_on,2.11474155171,-0.773588286678,0.92151951031,7.55357031591,4.48279375721,1.77591811667,-0.938055282133,-0.950573147753,8.07878868043,-2.58200448051,5.53221065527,-2.10897939995,1.72831304558,97.9077347962
off_to_on,3.07230221488,0.647008627306,2.21247659542,7.94468290384,4.87365237077,4.20461869571,1.33891567656,0.385477470058,8.26369041087,-1.94825690679,5.99758571382,-1.57626604267,2.53542290073,67.1636534017
off_to_on,3.83600220166,1.87373847384,3.26453448298,7.92238276959,5.03637632094,6.02971587802,3.41459223523,1.57711704808,8.03633897508,-1.32888602061,6.11451807663,-1.04180661155,3.14329835134,32.841050645
off_to_on,4.48258967363,2.99950233644,4.16239467972,7.45963456356,5.01648437983,7.19035238564,5.21066931011,2.67357242217,7.40836811514,-0.587713053802,5.92636794089,-0.332686930274,3.65603336298,-1.1288932379
off_to_on,5.08747679493,4.11946324104,4.99969841778,6.5670098456,4.86505794453,7.71880140963,6.68202676994,3.73572210399,6.42073913123,0.398184711832,5.49813474098,0.700096621844,4.17539430503,-31.0793135743
off_to_on,5.70309656543,5.301506482,5.85195131303,5.29351511787,4.62802519159,7.72330234065,7.8100031489,4.81407549047,5.13963899776,1.70669494941,4.90410021074,2.14634784109,4.77614824834,-54.0351567273
off_to_on,6.34237556466,6.56294386861,6.7538030202,3.72268914965,4.33735793588,7.36062429648,8.59332077863,5.92938461515,3.64968944814,3.3463595239,4.21531635916,4.01082770642,5.48690716991,-68.0397846631
off_to_on,6.97042581092,7.85779360102,7.68485252604,1.96442241501,4.00566322906,6.80323823511,9.03879897601,7.05952741016,2.0453781247,5.24393537052,3.48893499641,6.20139171592,6.27978215582,-72.3421802987
off_to_on,7.50613738722,9.07712203373,8.56667391106,0.143547390885,3.62505674428,6.20662318578,9.15379549491,8.13518265126,0.421849916547,7.24631225935,2.76101477566,8.53344925551,7.07068528311,-67.4253082692
off_to_on,7.83364846021,10.0626809235,9.27183872641,-1.61330594767,3.17047173058,5.68200837962,8.94180125885,9.04529511792,-1.13374351548,9.1369513449,2.04383439501,10.7505188012,7.73037770464,-54.8773953417
off_to_on,7.82195866537,10.6317793304,9.64366038006,-3.19086316287,2.60680372482,5.27881399816,8.40188277491,9.65165469479,-2.54925224839,10.6646482031,1.32798467203,12.5581053164,8.10461307555,-37.1283652573
off_to_on,7.34951382555,10.6093637956,9.52353381126,-4.49665426472,1.89863754037,4.9793747286,7.53185392867,9.81035519221,-3.77208000501,11.5803939572,0.588726930628,13.6659911106,8.04023761135,-17.0906594685
off_to_on,6.32965927429,9.86196148581,8.78138887672,-5.46930111286,1.02085315924,4.70648257362,6.33430508345,9.39670556737,-4.7708466739,11.6767249786,-0.204587375961,13.8326367751,7.41311128324,2.24501254445
off_to_on,4.73258969056,8.32768382264,7.34413804462,-6.08264403748,-0.0317675720032,4.34219092239,4.824048452,8.32952565493,-5.53416451592,10.8234320033,-1.07773433188,12.9049492956,6.15336156574,18.204212959
off_to_on,2.59986439459,6.03697173157,5.21718477582,-6.34530158571,-1.23768310979,3.75450597818,3.03524569517,6.59076941512,-6.06695482489,8.99392666607,-2.04139088164,10.8472590959,4.26382484678,28.7620581707
off_to_on,0.0486448253534,3.12011861415,2.49504511728,-6.29589893688,-2.54582089753,2.82733275511,1.02650940814,4.2370770166,-6.38507973596,6.27787538253,-3.08329661854,7.75487006097,1.82851733068,32.7737632166
off_to_on,-2.7356211741,-0.200373697363,-0.641227951637,-5.99479794273,-3.87759857042,1.48853087715,-1.11739650306,1.40105753995,-6.50928462375,2.8777097311,-4.16426123143,3.84977800905,-0.990544614763,30.0763061532
off_to_on,-5.51753917165,-3.63218020719,-3.94009253861,-5.51362970518,-5.13369069207,-0.268756511311,-3.28805332402,-1.71834229223,-6.45950856539,-0.910993345578,-5.21886877775,-0.541241734066,-3.96811092068,21.4534361078
off_to_on,-8.03884453014,-6.84750152447,-7.10719608746,-4.9242036136,-6.20473702545,-2.37526300062,-5.36015278714,-4.87536379561,-6.25051661578,-4.73285999192,-6.16098798002,-5.02338921146,-6.84024289882,8.47503512494
off_to_on,-10.050492915,-9.52463491727,-9.84097372003,-4.28840836931,-6.98454549926,-4.6873412722,-7.20185782252,-7.80432029346,-5.88955646985,-8.21532720066,-6.89343441777,-9.18046596967,-9.33534751383,-6.76154276887
off_to_on,-11.3451601197,-11.3907636039,-11.8711322808,-3.65052826449,-7.38391511744,-7.00137829514,-8.68744436326,-10.2501678935,-5.37638415937,-11.0146257772,-7.32046294975,-12.6249492141,-11.207416115,-21.9483121529
off_to_on,-11.7853612128,-12.2596040557,-12.9944171735,-3.03300334463,-7.34305885093,-9.07895115916,-9.7104790906,-11.9985106375,-4.70559544825,-12.8587063546,-7.36129884728,-15.0445842455,-12.2668217469,-34.8955532073
off_to_on,-11.322948271,-12.0581689201,-13.1023426069,-2.43612552044,-6.84076839381,-10.6790617663,-10.1956387494,-12.9008476827,-3.87080549555,-13.5810776554,-6.96271528184,-16.2390766258,-12.4043540306,-43.8269736849
off_to_on,-10.0069532659,-10.8384125678,-12.1966667295,-1.84156447542,-5.89890870944,-11.5926204446,-10.1074330241,-12.8915588081,-2.8699005392,-13.1408165781,-6.10876321196,-16.141913705,-11.605129957,-47.6020157487
off_to_on,-7.9784291812,-8.77170680261,-10.3901503543,-1.219045497,-4.58149399563,-11.673922942,-9.45452903089,-11.9943328602,-1.71039129006,-11.625995384,-4.82614224143,-14.8245097586,-9.95046641854,-45.8380454767
off_to_on,-5.45285399004,-6.12662056061,-7.89228861187,-0.535039252459,-2.98837803423,-10.8642490021,-8.28901994635,-10.3172842121,-0.413858482048,-9.24015492128,-3.1843098795,-12.482423602,-7.60751767926,-38.9203614553
off_to_on,-2.69250810887,-3.23296838854,-4.98192395236,0.237962940104,-1.24437269648,-9.20384638563,-6.70072844593,-8.03763820517,0.981397236501,-6.27387879841,-1.29017043213,-9.40595967651,-4.80821161434,-27.9042405101
off_to_on,0.0272660791504,-0.437169277327,-1.97059915311,1.11308610319,0.514729533036,-6.83027916488,-4.80736658358,-5.37834893427,2.42012474062,-3.06563154772,0.722047434289,-5.93965266622,-1.82050645327,-14.3282660908
off_to_on,2.45309480897,1.94469871344,0.838107617952,2.08296714452,2.15730986745,-3.96315221188,-2.74197022736,-2.58011886885,3.83256870811,0.0424962751336,2.70443718877,-2.43663037648,1.08398187798,0.0301236514211
off_to_on,4.38486862687,3.66936144443,3.18741994713,3.11690601576,3.57017742704,-0.87726529465,-0.639393485053,0.127142869978,5.13943805061,2.74785563903,4.51080826427,0.785564156031,3.66150832403,13.4191129398
off_to_on,5.69883652625,4.5981525206,4.89879771249,4.16177612115,4.66999720663,2.13201083905,1.37627009639,2.54943606941,6.25884653877,4.82313018377,6.01181984343,3.4815078429,5.72264422478,24.3581008223
off_to_on,6.35926372223,4.71351767852,5.89150173932,5.14663393383,5.41040106741,4.78617232079,3.20168726829,4.54701929689,7.11435771884,6.14022862454,7.10790613334,5.50191401963,7.15024700298,31.8299611023
off_to_on,6.41713834556,4.11781785501,6.18760000513,5.99041711957,5.78394373592,6.85844373597,4.76052532275,6.04379114754,7.64307423131,6.67921382411,7.73838046289,6.80226136054,7.90688168631,35.3947494516
off_to_on,5.99636004233,3.01463743418,5.90190867876,6.61166315697,5.81883559473,8.20105731388,6.00540122789,7.0269409871,7.80267515751,6.52156647469,7.88566465484,7.43555926352,8.03121041555,35.2121244416
off_to_on,5.26972258043,1.67539332455,5.21861633435,6.93888218937,5.57115323027,8.76107956705,6.91572475559,7.53762392911,7.57643007139,5.8294044829,7.57428669768,7.53118349831,7.62447952638,31.9735725687
off_to_on,4.4285265329,0.396222511914,4.3583262609,6.92012033726,5.11388019375,8.58263030759,7.4922854911,7.65476934538,6.97548675878,4.81431337546,6.86501900819,7.2637753228,6.82962978069,26.7586388273
off_to_on,3.65059397162,-0.548427540563,3.54066854632,6.53036485273,4.52456578913,7.79537281496,7.74993563575,7.47511550499,6.03810129004,3.70088636154,5.84518391919,6.81759674898,5.80652895975,20.8398917192
off_to_on,3.07166134512,-0.948588452733,2.94826554767,5.77575109797,3.87354421977,6.59119808572,7.70997619733,7.09302662145,4.82589910875,2.69071602858,4.61663821711,6.3522690915,4.70724056163,15.4678643485
off_to_on,2.7645675036,-0.691560310283,2.69758570399,4.69398626937,3.2145090155,5.19277104193,7.39382115451,6.5835279166,3.41766183009,1.93233774568,3.2831976911,5.97542133551,3.6550489885,11.6689159085
off_to_on,2.72941622882,0.220190744034,2.82112963231,3.35093830786,2.578814006,3.81878877463,6.81919862445,5.99131768587,1.90146672366,1.50154807575,1.93924575593,5.72651399888,2.73020564574,10.0857839464
off_to_on,2.89616586319,1.66869954586,3.26362561982,1.8338722996,1.9742405763,2.65124279157,5.99960398846,5.32739924851,0.36621596581,1.39478697708,0.660998012403,5.57419010984,1.96417269902,10.8831943116
off_to_on,3.13914743052,3.43778827866,3.89273859242,0.242273724791,1.38823192345,1.80961410789,4.94704080208,4.57360577871,-1.10634914042,1.53615602762,-0.49858388461,5.42724428874,1.34271684391,13.7305034691
off_to_on,3.30113685191,5.24540033736,4.5225490677,-1.32248667546,0.79486530448,1.33581966543,3.67738899451,3.69389259722,-2.44815452374,1.79647766735,-1.51084144774,5.15705199197,0.816772292796,17.861598648
off_to_on,3.22309562874,6.78616711084,4.94607969729,-2.76726109659,0.164227823119,1.19204234523,2.21714937752,2.65007359449,-3.60906846386,2.02091829613,-2.36868077069,4.62741806467,0.318775356104,22.2009439862
off_to_on,2.77478178704,7.77786880401,4.97173920869,-4.01569055793,-0.527524534801,1.27157343899,0.60993664708,1.41887753577,-4.55854012396,2.060389677,-3.08086434574,3.72658241294,-0.21864028553,25.5353761215
off_to_on,1.88126196576,8.00487135518,4.45793239966,-5.01416969219,-1.28925035656,1.42078242924,-1.07899579101,0.00692879478623,-5.28459321189,1.8014061179,-3.6645674786,2.3957520575,-0.84498756268,26.7052958062
off_to_on,0.540956006769,7.35207273877,3.34034602205,-5.73455403227,-2.10868282688,1.46861203622,-2.76168899444,-1.53943664693,-5.79055388076,1.18938616976,-4.13763672966,0.649070560426,-1.57843785699,24.7870081081
off_to_on,-1.1678712409,5.82430423922,1.64752512384,-6.17344009874,-2.95024165992,1.25883880673,-4.3308416874,-3.13177036445,-6.09021158878,0.24149204653,-4.51195328375,-1.41869711348,-2.39885063002,19.2402394379
off_to_on,-3.09348356532,3.54829278727,-0.497864756107,-6.34834685155,-3.75731867558,0.679917636857,-5.66784145792,-4.64553626004,-6.20231626568,-0.953180041186,-4.78904462087,-3.63850791803,-3.24851765664,10.0007924002
off_to_on,-5.0292327248,0.756874976736,-2.89250789986,-6.2915636318,-4.45881355688,-0.312393199263,-6.65486548641,-5.93412723227,-6.1453755595,-2.24618226804,-4.95865111492,-5.78687634783,-4.04048210885,-2.49314141806
off_to_on,-6.74171591222,-2.24222464408,-5.27880062045,-6.04274161444,-4.97897782498,-1.68330949026,-7.18964942522,-6.84902403282,-5.93362520334,-3.4531121097,-5.00041488905,-7.61644388475,-4.67299110522,-17.3426787116
off_to_on,-8.0044136118,-5.10846973335,-7.38027715036,-5.64144941843,-5.24904818144,-3.32019229039,-7.20089020216,-7.2630898965,-5.57481981845,-4.3840917072,-4.88830572109,-8.89270882306,-5.04758468914,-33.2900511768
off_to_on,-8.63177434747,-7.51528238817,-8.94085779715,-5.12087076325,-5.21880864066,-5.04659954058,-6.66190102151,-7.09329068312,-5.07016741611,-4.87640974681,-4.59692267821,-9.43122475145,-5.08768483342,-48.8646840437
off_to_on,-8.5085557752,-9.19468908474,-9.7620551017,-4.50360259468,-4.86617172938,-6.64719345154,-5.60014944972,-6.31900438538,-4.41635988018,-4.82399111352,-4.1084863035,-9.12933694001,-4.75442779086,-62.5524786767
off_to_on,-7.60986272636,-9.97337967348,-9.73253714308,-3.80015157592,-4.20312452435,-7.89976876633,-4.10070308054,-4.99257214445,-3.60929201164,-4.19878498014,-3.4192148194,-7.98721357902,-4.05690120742,-72.9653219401
off_to_on,-6.00865197925,-9.79502657518,-8.84555817876,-3.01028127953,-3.27690988054,-8.60952039812,-2.30234355448,-3.23978585978,-2.64876937467,-3.06036479525,-2.54387600793,-6.11444779305,-3.05483687351,-78.9893356856
off_to_on,-3.86930420717,-8.72577324193,-7.20155825582,-2.1268997115,-2.16602881838,-8.64026332752,-0.386094921371,-1.24945776643,-1.54332560349,-1.55183081228,-1.51760578518,-3.72063227477,-1.85302833884,-79.8948297183
off_to_on,-1.4279224311,-6.94230186647,-4.99543495319,-1.14176656849,-0.971447873059,-7.93771835591,1.44299018996,0.747138583384,-0.31423085695,0.117777671907,-0.394534538768,-1.09072185336,-0.588094627721,-75.3974632556
off_to_on,1.03800540925,-4.70445378527,-2.49026977604,-0.0520029536295,0.195847739563,-6.54112753387,2.97889352906,2.50457654094,1.00211913175,1.70224214684,0.756711109185,1.45166567069,0.590520034808,-65.6676154213
off_to_on,3.24634205566,-2.31661929467,0.0186946954542,1.13375317534,1.22921630543,-4.581192314,4.03980849614,3.79566323834,2.35400590815,2.9539978175,1.86004609286,3.58796045762,1.54243962724,-51.2921997035
off_to_on,4.9482164122,-0.0837053380645,2.24458581174,2.39066473798,2.04055465592,-2.26437710684,4.49219862306,4.44344638516,3.67662360875,3.6617654008,2.84049474005,5.04914252893,2.15773818158,-33.199035558
off_to_on,5.96168807226,1.73180073974,3.94803867546,3.67539653922,2.57221157013,0.154316881422,4.27043934041,4.34822909751,4.89661221468,3.68432129345,3.63301572118,5.6545568471,2.37440780554,-12.5576075022
off_to_on,6.19631879514,2.94542114396,4.9692608661,4.92676120226,2.80479482101,2.40623864332,3.38914337523,3.5055019025,5.93839335042,2.97521226487,4.19025081201,5.33926880497,2.18905384354,9.328800529
off_to_on,5.66511185351,3.4738744546,5.24841065322,6.06943522535,2.75961973472,4.24656746657,1.94609449869,2.01183547193,6.73152171156,1.59447505748,4.48801619993,4.16575793931,1.65896133043,31.1259570846
off_to_on,4.48210348455,3.34273035934,4.83142279139,7.02041005959,2.49531983418,5.48886778116,0.114864895034,0.0573726943042,7.21808767047,-0.294721460485,4.52769487729,2.31795692941,0.894986161921,51.5562652431
off_to_on,2.8459627689,2.67776631435,3.86057844201,7.69742615947,2.09899883496,6.03156963927,-1.87248171403,-2.09460843,7.35917041073,-2.44440926838,4.33516185983,0.0781674072427,0.046136890438,69.465440034
off_to_on,1.01196923911,1.68169698129,2.55136600117,8.0283248531,1.67311951246,5.8723642171,-3.75087504747,-4.1387793599,7.13945207175,-4.55283971319,3.95640518522,-2.21014768583,-0.72199139863,83.8675435044
off_to_on,-0.743606346032,0.60009024712,1.1591794035,7.96008869979,1.31997543458,5.10824621448,-5.2530472458,-5.76568370249,6.56934563693,-6.30403303242,3.45051067503,-4.18864729637,-1.2517940178,93.9718557355
off_to_on,-2.16163605299,-0.318185485668,-0.0591479918033,7.46634910171,1.12597680688,3.92102611568,-6.1420108333,-6.70166481091,5.68432679784,-7.41043763821,2.88107765993,-5.53309659006,-1.41760542757,99.1978155969
off_to_on,-3.03539603646,-0.859940097438,-0.883284919605,6.55231883839,1.1480413908,2.55026750636,-6.24122219898,-6.74559493454,4.5415427221,-7.65279527482,2.30736385363,-5.99826752604,-1.14543333849,99.1850937899
off_to_on,-3.23805057252,-0.880249965021,-1.16129507994,5.25643111635,1.40410381245,1.25746414701,-5.4586341,-5.79754282608,3.21414192124,-6.91167777635,1.77648491765,-5.45253482483,-0.425493165871,93.8046893603
off_to_on,-2.73864570744,-0.323937661263,-0.830942667874,3.6483896071,1.8691803051,0.286584477409,-3.80152538902,-3.8755226541,1.78407462262,-5.18632424108,1.31781506574,-3.89739936473,0.684382586961,83.1740977412
off_to_on,-1.60461279319,0.766986897709,0.0724820021203,1.82379629905,2.47763466442,-0.173315712111,-1.38009235851,-1.11799931494,0.334307758686,-2.59818808784,0.940379131814,-1.46929648207,2.06502994097,67.675751117
off_to_on,0.0092444195463,2.26066304237,1.42266066594,-0.10403841131,3.13140103668,-0.0179632527956,1.60084914166,2.22832961244,-1.05854472164,0.62126388993,0.633551479123,1.57646917044,3.55106084256,47.9739637193
off_to_on,1.88336989934,3.95598236458,3.02177802594,-2.01414588425,3.71306123363,0.75418885818,4.8612479121,5.83405303077,-2.33026380277,4.1567881106,0.370859012151,4.89734146047,4.95261029969,25.0224607184
off_to_on,3.76416349804,5.61298338241,4.62989834745,-3.78863051468,4.10197501,2.03867561545,8.0741333747,9.32274693354,-3.43304540516,7.64603172847,0.116206623274,8.106247684,6.08056751957,0.0530408104778
off_to_on,5.39820768875,6.98818295796,5.99962748472,-5.32284047329,4.19122385561,3.63705066485,10.8996350033,12.3124729708,-4.33711810322,10.7216811811,-0.168521037526,10.8195651648,6.77164526319,-25.4634512605
off_to_on,6.5650978152,7.86939337427,6.91084901579,-6.53383784357,3.90301588782,5.28272406955,13.0208173918,14.4580255709,-5.0299395209,13.0535269632,-0.515721178288,12.7038479558,6.9097080622,-49.8897498689
off_to_on,7.10435498351,8.10483658744,7.20047897621,-7.36627580539,3.20042627608,6.67714474383,14.1772762126,15.4888872529,-5.51330628527,14.3850663178,-0.945431790247,13.5151869967,6.44038876377,-71.5293974422
off_to_on,6.9329558248,7.62242772829,6.78310478777,-7.79514659414,2.0938784588,7.53140463666,14.1927765728,15.2385163106,-5.79900589943,14.5602035927,-1.46082031943,13.1262817115,5.37707537716,-88.763410662
off_to_on,6.05155030322,6.4367731539,5.6599004224,-7.82527665957,0.641525296886,7.60757784184,12.9939974752,13.6618002792,-5.90382865398,13.5371369424,-2.04647241103,11.5381677238,3.79767872855,-100.204794381
off_to_on,4.53920751503,4.64343532759,3.9150897204,-7.48785672854,-1.0564472955,6.75414236217,10.618558894,10.8390787429,-5.84481667926,11.3883949723,-2.66968894147,8.87578220599,1.8329858972,-104.853805038
off_to_on,2.53824905002,2.40203027136,1.70115990342,-6.8346484104,-2.86872755521,4.93065164271,7.21179567808,6.96684217744,-5.6355485921,8.28791803302,-3.28451364453,5.36881498059,-0.351354448352,-102.233384909
off_to_on,0.23213254901,-0.0885797373167,-0.78429835208,-5.93075958138,-4.64742865217,2.21830179872,3.01303219012,2.33681208386,-5.28405611615,4.48777692734,-3.83778326927,1.32125354117,-2.5762745449,-92.4836018941
off_to_on,-2.17977727282,-2.61862238147,-3.32608970051,-4.84699819429,-6.24425982556,-1.18503852278,-1.66676195854,-2.69361048109,-4.79267648175,0.288342706197,-4.27618691687,-2.92559739974,-4.67080777297,-76.3966880232
off_to_on,-4.50649006905,-4.99454421777,-5.71874863557,-3.65278836545,-7.52614580644,-4.98468146447,-6.47322605168,-7.73573233041,-4.15980782659,-3.99369713286,-4.55318941138,-7.03124027765,-6.49047021233,-55.380303462
off_to_on,-6.58510905811,-7.06063286313,-7.78948744133,-2.4104741453,-8.38829556822,-8.82124253536,-11.039618569,-12.4047408285,-3.38320707749,-8.05519530618,-4.63473469056,-10.6901023217,-7.9299357047,-31.3453445106
off_to_on,-8.29339449583,-8.71198025639,-9.41350278002,-1.17157416305,-8.76318187393,-12.3108550112,-15.0173971179,-16.3519047816,-2.46420200952,-11.6307496785,-4.50288654181,-13.657488747,-8.92848850131,-6.52486051423
off_to_on,-9.55399009446,-9.89728929745,-10.5198657704,0.0247732582549,-8.62456263815,-15.0883371004,-18.1035293803,-19.290803784,-1.41202292915,-14.5089749135,-4.1569428068,-15.7647820798,-9.46801570173,16.7589993543
off_to_on,-10.3306871466,-10.6119017913,-11.0879550353,1.15127058212,-7.98644466351,-16.8479276162,-20.0623428727,-21.0156587427,-0.247420461829,-16.5400615877,-3.61200970828,-16.9231703289,-9.56459210502,36.3542031844
off_to_on,-10.6185328227,-10.8832001365,-11.1360839871,2.19022208197,-6.89763718746,-17.3766866978,-20.7405483878,-21.4110382093,0.995169688349,-17.6353431048,-2.89546736937,-17.117050609,-9.25579645299,50.5324715661
off_to_on,-10.430650883,-10.751903177,-10.7053330631,3.13021111246,-5.43315011437,-16.5767714051,-20.0749464233,-20.453354413,2.26744083831,-17.7608347223,-2.04211888223,-16.3898083767,-8.58659684817,58.2037242769
off_to_on,-9.78515259103,-10.2534999325,-9.84239120442,3.96242383668,-3.68406735145,-14.4743621787,-18.0931204839,-18.2054719347,3.5092345609,-16.9274950598,-1.08903016686,-14.8256717645,-7.59683398981,59.0605426414
off_to_on,-8.69538434667,-9.40401257099,-8.58529997394,4.67734652044,-1.74761567681,-11.2147986832,-14.9080342849,-14.8063134629,4.6526513472,-15.1811697269,-0.0710975996808,-12.5316383714,-6.31297695892,53.6292646829
off_to_on,-7.16600692232,-8.19345100302,-6.95535837583,5.26244923539,0.281052447517,-7.04522563727,-10.7078200534,-10.4575105818,5.62781054475,-12.5947926568,0.981782361769,-9.62304040036,-4.74598153106,43.2155830138
off_to_on,-5.19615640854,-6.58884687135,-4.95719003467,5.70126591569,2.31429628272,-2.28751221458,-5.74215797762,-5.40893462994,6.36955070158,-9.26453108873,2.0453967663,-6.21524802989,-2.89588274948,29.7462292294
off_to_on,-2.78941328822,-4.54687791847,-2.58730822508,5.97402388461,4.27419919251,2.69479381172,-0.306534242448,0.0555601960793,6.82419723789,-5.31034160455,3.09964901677,-2.4225113385,-0.762401555746,15.5226797227
off_to_on,0.0312295288094,-2.0341325661,0.150275686731,6.05970644756,6.09178917088,7.53129247507,5.27460385003,5.63150852871,6.95548790467,-0.88009266972,4.12511318205,1.63671848621,1.64042952607,2.91578530385
off_to_on,3.20648000214,0.948639650314,3.22445379894,5.93919134639,7.70411716126,11.8773230705,10.6651109627,11.0063076428,6.74884368996,3.84474203137,5.09850883216,5.8301668691,4.26858956819,-5.96011933333
off_to_on,6.62578861145,4.34308427042,6.55760279048,5.59893121433,9.05048758009,15.4409974391,15.5344435533,15.8712938937,6.21338948414,8.64457620914,5.98819385639,10.001091203,7.03479848409,-9.55028182051
off_to_on,10.118265076,8.01574407921,10.0109274683,5.03455405937,10.069327091,18.0024244411,19.5748071149,19.9341742458,5.38143279729,13.2613526538,6.7508824513,13.9603661145,9.80100740031,-7.09743473208
off_to_on,13.4527934085,11.7511004519,13.3787503779,4.25377240124,10.697076921,19.4241377268,22.5179922583,22.9324971493,4.30545504602,17.4048789054,7.33068597424,17.484794083,12.3792976365,1.22086335176
off_to_on,16.3493852181,15.2583500353,16.3947415854,3.27809394849,10.8701110532,19.6529864395,24.1516005736,24.6484659698,3.0530071974,20.7673982472,7.66125098881,20.3241699673,14.5426079517,14.2786670271
off_to_on,18.5020444014,18.1930492883,18.7512581201,2.14300572068,10.5300764595,18.7147931637,24.3340822258,24.9247773593,1.70018031106,23.0464935423,7.67127337167,22.21809418,16.0451358015,30.1191379853
off_to_on,19.6114314582,20.1923309036,20.1307706064,0.896527886709,9.63232138244,16.7037842237,23.0076596165,23.6804330961,0.324501283556,23.9747675077,7.29307270501,22.9216734537,16.6505768146,46.1927265885
off_to_on,19.4237273655,20.9199780092,20.2461366938,-0.403731788094,8.15634775668,13.7690799555,20.2078893733,20.9247852974,-1.00184049469,23.3531586462,6.47331081352,22.2373791539,16.1648447665,59.6887245022
off_to_on,17.7706210189,20.1156261714,18.8846001309,-1.69468240668,6.11662371783,10.1003975253,16.0684191974,16.7675933362,-2.217605361,21.0835217126,5.18443202749,20.0487746366,14.4688068284,67.9189973571
off_to_on,14.6045473178,17.6410967815,15.9491785685,-2.91251845856,3.57173557747,5.91463779986,10.8195142928,11.4227318206,-3.27631759267,17.1954676785,3.4350809563,16.3508613971,11.5460777199,68.7039456218
off_to_on,10.0233584774,13.5165948073,11.490791726,-3.9975790799,0.629824590886,1.44432729472,4.77921622555,5.20347583443,-4.14792527741,11.862579297,1.27768236474,11.2716296687,7.5011570283,60.7084891985
off_to_on,4.27956834105,7.94033240609,5.72518392928,-4.89873072846,-2.55142779967,-3.07187649986,-1.66343418758,-1.49198514177,-4.81827399688,5.40403977165,-1.18842256812,5.08011322866,2.5641741271,43.6806602397
off_to_on,-2.22891931685,1.28700629158,-0.969631463594,-5.57679188131,-5.77135775514,-7.39707422118,-8.07287009665,-8.20505450548,-5.28668154168,-1.73064712151,-3.81941073905,-1.82221656937,-2.919880477,18.556791001
off_to_on,-8.98731894594,-5.91676165932,-8.07722808029,-6.00666796658,-8.79962017766,-11.3033032139,-13.9979709883,-14.4501712205,-5.56216663043,-8.99400675139,-6.43541631431,-8.92771647499,-8.51751642682,-12.5860583932
off_to_on,-15.4097801564,-13.0387704883,-14.9868412178,-6.17805288998,-11.3954197904,-14.5790264784,-19.0073606751,-19.7547194474,-5.65905788374,-15.7877877835,-8.83459100192,-15.6649974582,-13.7465868499,-46.7299958695
off_to_on,-20.898032817,-19.4049640307,-21.0536281522,-6.09475043938,-13.3308726792,-17.0377484508,-22.7260109635,-23.7017223655,-5.59276551001,-21.5205073995,-10.8115736774,-21.4535457649,-18.1254803314,-80.2477661733
off_to_on,-24.9062995596,-24.3734087926,-25.6685154517,-5.77284485766,-14.4158947106,-18.5280868342,-24.8695618361,-25.9707990122,-5.37643086982,-25.669051154,-12.1784403701,-25.7645149474,-21.2259747194,-109.326951931
off_to_on,-27.0046319988,-27.4095464672,-28.3292497308,-5.23807990186,-14.5215260054,-18.9449643651,-25.2725971523,-26.3725660224,-5.01899084929,-27.8369873839,-12.7857101103,-28.1803444162,-22.7232276563,-130.434707986
off_to_on,-26.9325626423,-28.1530511211,-28.7035610032,-4.52287296876,-13.5985243626,-18.2408838173,-23.9074123715,-24.8720056376,-4.52493422062,-27.8021680956,-12.5407919876,-28.445510545,-22.4364061148,-140.764116219
off_to_on,-24.6358013167,-26.4672429406,-26.6758700394,-3.66338908333,-11.6884325129,-16.4356687083,-20.8905861332,-21.5973024872,-3.89572756663,-25.5471206683,-11.4214168567,-26.5014353656,-20.3543808876,-138.604223541
off_to_on,-20.2805704793,-22.4639079545,-22.3707025866,-2.69703346182,-8.92511698191,-13.6227298236,-16.4758595001,-16.8321839546,-3.13259631503,-21.2676062733,-9.48209792722,-22.5003088387,-16.6426347412,-123.584506289
off_to_on,-14.2428465255,-16.4993254749,-16.1487191713,-1.66060552555,-5.52589967433,-9.96995033803,-11.0333086497,-10.9917048066,-2.24010782982,-15.3573112155,-6.85245323507,-16.7951168388,-11.6298405368,-96.7598582478
off_to_on,-7.07291163287,-9.14093447791,-8.57468337167,-0.58921330746,-1.77271438581,-5.71370519115,-5.01639108641,-4.58345363702,-1.22985562234,-8.36961461799,-3.72720216873,-9.90617796867,-5.77515486575,-60.52227339
off_to_on,0.56119456914,-1.10789290048,-0.360322355595,0.484099802151,2.01495650102,-1.14530843929,1.08005375532,1.84194797465,-0.123509601637,-0.960341612879,-0.348690275762,-2.4675694592,0.380206889993,-18.3475690729
off_to_on,7.94493655559,6.80772318364,7.71161372303,1.5281897684,5.51245938769,3.40978667584,6.76656694493,7.74570038265,1.0454177949,6.18204379394,3.01623856703,4.8404633669,6.27144524833,25.5931636869
off_to_on,14.3948502043,13.8296587027,14.8731806759,2.51336664335,8.4239440231,7.61858104468,11.6055861097,12.6548315671,2.23154888248,12.4105892415,6.10244881278,11.3650559028,11.3716436864,66.9100399799
off_to_on,19.3330547384,19.2852621976,20.4565600601,3.41095949114,10.5138712064,11.1704185072,15.2525729806,16.2090734001,3.37955336626,17.1894113835,8.67278717413,16.5512493555,15.2486985494,101.499853793
off_to_on,22.3496086018,22.6813686902,23.9683354309,4.19315723927,11.6321697005,13.8068955095,17.4871150315,18.1950623723,4.42788568863,20.1501682189,10.5413566278,20.0007738787,17.6107038335,126.017650416
off_to_on,23.2450647796,23.758744216,25.1434451993,4.83331718449,11.729857348,15.3481575422,18.230464023,18.5637896304,5.31394525501,21.1285247449,11.5910633936,21.5118054447,18.334238035,138.25574107
off_to_on,22.0480503465,22.5182384183,23.9720296567,5.30682385524,10.8630782148,15.7120980614,17.5475454254,17.4292544812,5.98002284153,20.1761906998,11.7834050784,21.0948343607,17.4721987266,137.383384453
off_to_on,19.0058540113,19.2154055508,20.6958082449,5.59245685524,9.18493890401,14.9236499739,15.6333222797,15.0486028801,6.37925425659,17.5472127831,11.1594290253,18.9628712217,15.2404774678,124.018312806
off_to_on,14.5494342291,14.3244147073,15.7745106023,5.67410916711,6.92606592034,13.1124917704,12.7852893426,11.7863508511,6.4807749324,13.6604966244,9.83188967829,15.4975511275,11.9855045447,100.122912836
off_to_on,9.23750066817,8.47603021122,9.82672088162,5.54260752429,4.36624688863,10.4989374353,9.36556095668,8.06729096021,6.27336130053,9.04357225399,7.9697262032,11.1958234363,8.13714781882,68.7403041256
off_to_on,3.68693997371,2.37776769706,3.55276271082,5.1973392613,1.80066654726,7.36934247101,5.75727407134,4.32408602002,5.76704316033,4.26498952033,5.77692115462,6.60440360342,4.15328930132,33.6058128521
off_to_on,-1.50149536778,-3.27342830281,-2.35048879332,4.64739355847,-0.495053695465,4.04381141659,2.32068534439,0.94617448153,4.99244633985,-0.135884449781,3.46846303827,2.25067520241,0.463379287843,-1.31525058112
off_to_on,-5.81285361999,-7.87478320575,-7.27203474226,3.91197868397,-2.29665373855,0.840115566539,-0.645693781552,-1.76364082312,3.99793580425,-3.71268090513,1.24643389076,-1.42094019807,-2.58174631943,-32.3040313286
off_to_on,-8.87439911373,-10.9870024231,-10.7560757504,3.01997186071,-3.45593250589,-1.96165537452,-2.93430697102,-3.61964245564,2.8449297457,-6.16145771527,-0.720858594986,-4.09901898431,-4.74749373641,-56.318637232
off_to_on,-10.4920646138,-12.3807608141,-12.5497382662,2.00857915413,-3.91534554124,-4.14918587544,-4.44481466939,-4.56719443701,1.60200059705,-7.34978018065,-2.31426737169,-5.63543171112,-5.93611905082,-71.3257734419
off_to_on,-10.6629755951,-12.0549821952,-12.6236662833,0.921209593358,-3.71083219645,-5.5988882475,-5.18585850943,-4.67902639648,0.338533337198,-7.32230505695,-3.4720661356,-6.05254118483,-6.1882491755,-76.4945771186
off_to_on,-9.56329715917,-10.2253332104,-11.1635897548,-0.195219934076,-2.9627444808,-6.28503492481,-5.26270873893,-4.13492346034,-0.881247232202,-6.28290868327,-4.19042813601,-5.52714390641,-5.66588027925,-72.2325567832
off_to_on,-7.51389823758,-7.2853149115,-8.53482335638,-1.29325264616,-1.85629686403,-6.27598891921,-4.8530283067,-3.18813178883,-2.00314533314,-4.55652984739,-4.51651700608,-4.35416087583,-4.61991474997,-60.0645885163
off_to_on,-4.92916116882,-3.74589991277,-5.2251624146,-2.32780158253,-0.614300288962,-5.71823092992,-4.17451344577,-2.12349935394,-2.9862063023,-2.53653970196,-4.5355459502,-2.89577424553,-3.34731634443,-42.3763241354
off_to_on,-2.25631283949,-0.162354385625,-1.77435552421,-3.25868548721,0.534095168928,-4.81058144747,-3.44916356446,-1.21336819427,-3.80397774634,-0.625249430034,-4.35390947136,-1.52355563534,-2.14423154849,-22.0604036089
off_to_on,0.0863437181012,2.94164876437,1.30010941489,-4.05253803841,1.38447225493,-3.7723874861,-2.86926090858,-0.677388251771,-4.44382105682,0.824112271722,-4.08092712617,-0.561895830247,-1.26178077558,-2.11532439218
off_to_on,1.76407201272,5.14245288667,3.57095805633,-4.68393698456,1.7839683572,-2.81028095808,-2.56976334776,-0.651722895828,-4.90456176095,1.55605610117,-3.8118098504,-0.240636060053,-0.870634545679,14.7487017243
off_to_on,2.56625281483,6.16851806991,4.75401091619,-5.13571927771,1.65043621528,-2.08828973474,-2.61079061366,-1.17167090472,-5.19300270075,1.44573957157,-3.61416667975,-0.663296983356,-1.03905979125,26.4455006946
off_to_on,2.42803844518,5.92982326508,4.73948374044,-5.39856841731,0.981631297205,-1.70556044968,-2.97236428497,-2.16975110672,-5.31997280609,0.512097594702,-3.51976483328,-1.79493526657,-1.72706987048,31.7486258745
off_to_on,1.43104799497,4.52147628709,3.59832037459,-5.47006146518,-0.146499467984,-1.68480471055,-3.56176273699,-3.48906901705,-5.29662475,-1.08997534713,-3.52243359089,-3.47077993288,-2.79694286041,30.4003337398
off_to_on,-0.216032232599,2.20204641214,1.56366707331,-5.35342936755,-1.59187233491,-1.97297249648,-4.23203032887,-4.90962644156,-5.13162230884,-3.09661718334,-3.582085118,-5.4238286116,-4.03802972184,23.0852965127
off_to_on,-2.21337672486,-0.649438573878,-1.00902595456,-5.05630500912,-3.16673969793,-2.45382386722,-4.80859338097,-6.18344854846,-4.82968543524,-5.17676834023,-3.63394659383,-7.32694041174,-5.20178990312,11.2791165521
off_to_on,-4.21680059017,-3.59111350392,-3.69699537236,-4.58970605546,-4.66358297436,-2.97028473328,-5.11980739125,-7.07323529384,-4.39171587602,-6.98238629061,-3.60138183679,-8.84301549593,-6.04164163642,-3.00173743222
off_to_on,-5.88846917474,-6.18204109053,-6.07212644023,-3.9674293156,-5.88279133113,-3.35300213655,-5.02674748645,-7.38885121766,-3.81644759703,-8.19977358982,-3.41022450203,-9.67586295917,-6.35167566044,-17.509667724
off_to_on,-6.94437800565,-8.04312395692,-7.76110510215,-3.20593238939,-6.6583714921,-3.45058237242,-4.44772575844,-7.01639304041,-3.10329823388,-8.59474871885,-3.00240606895,-9.61444737983,-5.99861190077,-30.0899935126
off_to_on,-7.19221070504,-8.90691106639,-8.49555949579,-2.32466417685,-6.87833197774,-3.15674552335,-3.37384524554,-5.93574439422,-2.25588240028,-8.04547167593,-2.34684992872,-8.56433261054,-4.94250970934,-38.9739993938
off_to_on,-6.55480875834,-8.6499142817,-8.14568898365,-1.34669811502,-6.49723290771,-2.43010509414,-1.8732575984,-4.22426221148,-1.28551883086,-6.55866129918,-1.4460798459,-6.56212281753,-3.24349048868,-43.0020216389
off_to_on,-5.07671009107,-7.30374191676,-6.73342341262,-0.299439543513,-5.5395590212,-1.30341470444,-0.0834808955489,-2.04628212683,-0.214041475068,-4.2674130591,-0.337677807615,-3.77123069063,-1.05382859775,-41.7491206101
off_to_on,-2.9136952696,-5.04446226428,-4.42415984967,0.784863829762,-4.09388592069,0.119251934965,1.80709040851,0.369817387833,0.924686270565,-1.41147795659,0.909484693533,-0.46000429766,1.40310034907,-35.5407716185
off_to_on,-0.307657969152,-2.16267659863,-1.49914906693,1.8690734169,-2.29907830028,1.67704962342,3.58574746572,2.76348572353,2.08496816421,1.69668794956,2.20354590302,3.03427552582,3.86366588909,-25.3620437308
do_nothing,2.44894433299,0.980626458284,1.6867793653,2.91178332669,-0.324805625318,3.17646470563,5.04616484027,4.87806796173,3.21134014357,4.71489210498,3.44114585168,6.35010742193,6.05995465864,-12.67861984
do_nothing,5.05356137365,4.00559742796,4.75561349836,3.86872976234,1.65065668245,4.42127947964,6.01867508513,6.49580524726,4.24237440679,7.31688250435,4.52035269494,9.1486958192,7.75559310744,0.800323540991
do_nothing,7.23304777012,6.56487778685,7.35728755999,4.69497645338,3.4621399774,5.24373917257,6.39560513381,7.46674550601,5.11581941693,9.23426219593,5.35311996786,11.1564844969,8.77632516792,13.3804487865
do_nothing,8.77675979726,8.38761458012,9.21438951703,5.34773476309,4.97584458971,5.53200471729,6.14786408555,7.7275067464,5.7744540173,10.2889400255,5.87551463522,12.1975323935,9.03116460961,23.6235256887
do_nothing,9.55904834651,9.31037843184,10.154541311,5.78955829368,6.10184179076,5.24947303036,5.33023498952,7.30737082941,6.17190390754,10.4119768771,6.05435584967,12.2116112944,8.5214388021,30.5375547251
do_nothing,9.54871291254,9.29139449985,10.1265838456,5.99156503562,6.79946935343,4.44273536967,4.07446225279,6.32106125045,6.27764785661,9.64678638574,5.88949211586,11.256089031,7.33688220063,33.6905896426
do_nothing,8.80500739147,8.4070831889,9.19920252898,5.93630010992,7.07539459498,3.23665152321,2.57100459052,4.94949726268,6.08053313605,8.13696539364,5.41162477935,9.49204987158,5.63984250148,33.2352965485
do_nothing,7.46176134713,6.83251663658,7.54321557216,5.61986676195,6.97522403643,1.81698958956,1.04198416194,3.41153681977,5.59031167913,6.10121761504,4.6762519328,7.15734003626,3.64034672923,29.8448628188
do_nothing,5.70281007136,4.80964304591,5.40103528426,5.05302211296,6.57046456345,0.403020530341,-0.290834351299,1.93097661529,4.83697236225,3.79957866743,3.75485779014,4.53098744976,1.56599561408,24.5738126053
do_nothing,3.73298681922,2.60869687833,3.04847896757,4.26104866079,5.94325351851,-0.785933371373,-1.23844425315,0.703694396571,3.8679417851,1.49621141709,2.72482778827,1.89448733783,-0.368754635682,18.6677440503
do_nothing,1.74929004402,0.488894926865,0.75493102814,3.28235705108,5.1714910758,-1.56496787343,-1.67268663179,-0.130282418306,2.74351235162,-0.575714387072,1.65968107982,-0.504360685506,-1.98947181254,13.3525510349
do_nothing,-0.0835220231774,-1.33574740545,-1.25224512352,2.16592994088,4.31680595656,-1.81377448335,-1.54591264872,-0.505790755,1.53109038896,-2.24212172279,0.621070724398,-2.4800323416,-3.18110466883,9.63552371074
do_nothing,-1.64964631321,-2.72077730257,-2.81412302935,0.967858934994,3.4172073892,-1.4977402205,-0.899268440058,-0.439996120771,0.299004551211,-3.40545284363,-0.346361605967,-3.92661822018,-3.89742394381,8.14774733354
do_nothing,-2.88943043043,-3.60292957222,-3.85420035286,-0.252663671101,2.48542103623,-0.676446352943,0.141751590412,-0.0273929656964,-0.889345037111,-4.04954352176,-1.21671065854,-4.82212995342,-4.15975485816,9.05005218934
do_nothing,-3.79685420672,-3.99824522867,-4.37877503669,-1.43747482528,1.51291386047,0.502130888453,1.38403877755,0.576749658624,-1.98028829005,-4.2320435207,-1.98113755564,-5.22003445729,-4.04586618945,12.0146124074
do_nothing,-4.40867159828,-3.98806585935,-4.46467899598,-2.53326354005,0.478640925224,1.8212905877,2.59370054228,1.18192520975,-2.93310062983,-4.06635839983,-2.64339401374,-5.23020470022,-3.67134048583,16.2827441599
do_nothing,-4.78784557535,-3.6961130862,-4.23723306518,-3.49470930078,-0.639251199549,3.02661348825,3.52934868197,1.59307286306,-3.72134089535,-3.69658219601,-3.2135772966,-4.99298546557,-3.16679338879,20.7882540899
do_nothing,-5.00467007235,-3.26109144979,-3.84264548785,-4.28665897341,-1.85103024326,3.86399450078,3.97726377067,1.64187895387,-4.33230108814,-3.26978889126,-3.70141278307,-4.65094827382,-2.65478961128,24.3264594779
do_nothing,-5.11913688862,-2.80971386416,-3.41970957748,-4.88519898393,-3.14468492939,4.11922143125,3.78354775178,1.21414033926,-4.76483155833,-2.9102365983,-4.1103962582,-4.32303734423,-2.2301621678,25.7430133561
do_nothing,-5.1676699908,-2.4346973552,-3.07549422374,-5.27762724209,-4.47905738355,3.65324082805,2.87875135001,0.269259249141,-5.02603173493,-2.6995086704,-4.43393652028,-4.08519304889,-1.94672116414,24.1146648527
do_nothing,-5.15640960679,-2.18119867627,-2.86881954481,-5.46146929863,-5.78230950648,2.42773448121,1.29146558542,-1.15088342443,-5.1274419763,-2.66547749035,-4.65425575161,-3.96030057676,-1.81216941116,18.8961956281
do_nothing,-5.06195699427,-2.04355310464,-2.8038387826,-5.44279555887,-6.95636240565,0.516918323569,-0.851142976458,-2.92488091006,-5.08141586924,-2.78142766385,-4.74429611281,-3.91866317565,-1.79162215802,10.0135144506
do_nothing,-4.83910974246,-1.97232275639,-2.83426034479,-5.23416554239,-7.88696242071,-1.89660730373,-3.33610356546,-4.86609415308,-4.89828932207,-2.9749721294,-4.67233184065,-3.88841374992,-1.81869019727,-2.10873380469
do_nothing,-4.43386077335,-1.88986394179,-2.87693697026,-4.85254247704,-8.45807961036,-4.54185305454,-5.88916561689,-6.74621493522,-4.58480437936,-3.14481076526,-4.40848839925,-3.77364322506,-1.81186020896,-16.5870235451
do_nothing,-3.79900963992,-1.71118052148,-2.83201351688,-4.31748624797,-8.56858357815,-7.09287645458,-8.20793398906,-8.32476894431,-4.14401760807,-3.18216399503,-3.9320068518,-3.47679634923,-1.69308583889,-32.1787633086
do_nothing,-2.90929093172,-1.36597272793,-2.60580127221,-3.64985217264,-8.14868778865,-9.21125952006,-9.99931611165,-9.38046964799,-3.57666140046,-2.99304723655,-3.23792344327,-2.92125309523,-1.4052118975,-47.4266374465
do_nothing,-1.77302808175,-0.817650148837,-2.13218782288,-2.87111127815,-7.17358106731,-10.5918400992,-11.0164127468,-9.74016735751,-2.88367270577,-2.51752795675,-2.34189050235,-2.07006614597,-0.925129705469,-60.8267453727
do_nothing,-0.437946461071,-0.075666366197,-1.38874027434,-2.00328324643,-5.67198990863,-11.0053340682,-11.0900738649,-9.30157064024,-2.06939721057,-1.74271365413,-1.28213781605,-0.937541143207,-0.270349927709,-70.997769733
do_nothing,1.01018407333,0.801255460797,-0.40464419799,-1.0693560758,-3.72809322824,-10.3318181869,-10.1510703325,-8.04686875191,-1.1448500321,-0.707344127566,-0.118020913327,0.408400094979,0.502155721798,-76.8297259185
do_nothing,2.45613851376,1.71180957015,0.740931935527,-0.0939753430257,-1.47614411171,-8.58024493603,-8.24009288414,-6.04570122443,-0.130386409178,0.502687981279,1.07484706152,1.85355306069,1.30464606834,-77.5951165292
do_nothing,3.76983422361,2.52774230122,1.9297919704,0.895865102816,0.911796419727,-5.89106529365,-5.5044029318,-3.44740373741,0.942787823694,1.76702983865,2.21231855979,3.25329423669,2.03333262575,-73.011700507
do_nothing,4.82462871893,3.11585659416,3.02312613879,1.87040250763,3.24359656667,-2.52137383934,-2.18170059724,-0.463890847551,2.03266747743,2.94954855056,3.21124131536,4.45436470455,2.58658100007,-63.2534789824
do_nothing,5.51630977114,3.36262092306,3.88424049484,2.79718176059,5.32802238962,1.1855711766,1.42659369336,2.65428513412,3.08822697577,3.91979393119,3.9994162957,5.31895580657,2.88342020094,-48.9137040602
do_nothing,5.77957371166,3.19705652554,4.40170767547,3.64177175797,6.99618959635,4.84241219166,4.98914398888,5.64538998692,4.05282668195,4.57360314676,4.52448973675,5.74706959076,2.87909922972,-30.929646455
do_nothing,5.59913184126,2.60774175215,4.50894747766,4.36915349616,8.12063263578,8.06567780285,8.18128056997,8.2638976901,4.86888958803,4.84937928108,4.76040521281,5.6933806468,2.57488778832,-10.4827029263
do_nothing,5.01341627914,1.65064412311,4.19681540305,4.94569278377,8.62941936759,10.5232023495,10.719829212,10.3044739071,5.48328370428,4.73732356041,4.71038300069,5.17570128236,2.02024946923,11.1112323064
do_nothing,4.11004197298,0.445934977444,3.51691978746,5.34150228593,8.51340482983,11.9745861234,12.3920388333,11.6198988246,5.85271863157,4.28009657543,4.40590614958,4.27350714537,1.30677151303,32.5073428418
do_nothing,3.01352834818,-0.836270148761,2.57491631459,5.53291763441,7.8256587653,12.2992987098,13.075367392,12.1312827213,5.94843842755,3.56482824996,3.90179750632,3.1165966828,0.554612060568,52.42279759
do_nothing,1.86707161182,-1.99945686092,1.51469310197,5.50477340834,6.67318265447,11.5087809302,12.7461812728,11.8300875782,5.75957153506,2.70785073797,3.2680755177,1.86557441848,-0.106500218296,69.7068330627
do_nothing,0.811174157657,-2.85015135749,0.495888379967,5.25217327685,5.20209653561,9.74115598866,11.4769146708,10.7725988432,5.29467100015,1.83475303944,2.5797838202,0.687203501726,-0.558717324443,83.3886601494
do_nothing,-0.0374897224718,-3.22876625543,-0.331674345858,4.78150342862,3.57836992954,7.23959107205,9.42271230696,9.06842641694,4.58121919748,1.05914874043,1.90631911025,-0.27145312121,-0.716488076604,92.706066265
do_nothing,-0.603562812658,-3.03696293366,-0.852480757929,4.11053129376,1.96676604083,4.31760635682,6.79984147782,6.86522652059,3.6631453408,0.463777059226,1.30187897876,-0.905935543023,-0.542523472301,97.120445985
do_nothing,-0.863965942346,-2.25701157772,-1.00470082238,3.26754831262,0.51087953958,1.3163863147,3.85904677444,4.33205807866,2.5966708944,0.0871821999137,0.798497347248,-1.17058923664,-0.0565225734261,96.3250210045
do_nothing,-0.850453796084,-0.959731755112,-0.791160698365,2.28963831279,-0.683052469166,-1.43983962761,0.857431648284,1.6436166892,1.44501857554,-0.0817047669094,0.402749970912,-1.08535429335,0.665037329468,90.2521054699
do_nothing,-0.643217647074,0.700730316031,-0.279937089428,1.22026329101,-1.55646698956,-3.68415079716,-1.96764372723,-1.03291213284,0.272662996799,-0.100075846089,0.0966527091357,-0.73191041563,1.49835166238,79.0827271804
do_nothing,-0.356430076583,2.50503828133,0.405751827587,0.106439537488,-2.10169233254,-5.23758769492,-4.4197150388,-3.54735863663,-0.860154956989,-0.0593446946236,-0.15737448996,-0.239645217027,2.28981351852,63.2583528576
do_nothing,-0.117952129825,4.19745905305,1.10695841378,-1.00418275701,-2.35787414152,-6.02619447201,-6.35739354204,-5.77220783535,-1.90198750514,-0.0667711206197,-0.408244829305,0.236439642019,2.87912420515,43.4907256305
do_nothing,-0.0464152887201,5.52134796552,1.6547918698,-2.066029333,-2.40046382913,-6.08260162634,-7.70066061762,-7.6048718043,-2.81330363187,-0.223688850297,-0.705940307994,0.542437987081,3.12454314849,20.7628021229
do_nothing,-0.229383455156,6.25622289468,1.89856726199,-3.03784440102,-2.3260264864,-5.53257969003,-8.42950396373,-8.96762374535,-3.56789006378,-0.604061126031,-1.09087936966,0.552616900582,2.92639463346,-3.68773980822
do_nothing,-0.706205533884,6.25094448038,1.73184675933,-3.88429485276,-2.23475696009,-4.56915822481,-8.57612251655,-9.80646878289,-4.15250043793,-1.23712819793,-1.58463742353,0.192479663966,2.24511245525,-28.4104436922
do_nothing,-1.458491406,5.44796952486,1.11214908016,-4.57687173437,-2.21336405761,-3.41863390914,-8.21265285855,-10.0901613229,-4.56497770095,-2.09732469449,-2.18356173659,-0.546008915883,1.11085238137,-51.8148116861
do_nothing,-2.40998051447,3.89486982955,0.0710256564698,-5.09413452932,-2.32085931209,-2.30383873024,-7.43673499549,-9.81023165193,-4.81128728505,-3.1035165645,-2.8563997214,-1.59968025833,-0.377070162468,-72.2746124318
do_nothing,-3.43609947798,1.74113417253,-1.28733626927,-5.42143915764,-2.57929269558,-1.41026139306,-6.35721463158,-8.98233789325,-4.90203821377,-4.12810946304,-3.54645555243,-2.84093102522,-2.06113646881,-88.2587479101
do_nothing,-4.3819519692,-0.779572839589,-2.79904609265,-5.55035596884,-2.97069189643,-0.859994733437,-5.081908617,-7.6486336964,-4.84911617751,-5.01494886122,-4.17809477126,-4.09522295567,-3.7456068929,-98.4776298423
do_nothing,-5.08609629986,-3.37935855851,-4.26322348515,-5.47800902511,-3.44050532861,-0.697128785121,-3.70872904336,-5.88027304184,-4.66300127879,-5.60342892729,-4.66673590948,-5.16681503478,-5.22275464926,-102.028839291
do_nothing,-5.4064678178,-5.75407963665,-5.47116819606,-5.20654899379,-3.90686677208,-0.886341860976,-2.32069461973,-3.77878814583,-4.35120309928,-5.75509946171,-4.93090726096,-5.86887364353,-6.30157150885,-98.522592723
do_nothing,-5.24436097741,-7.62393684488,-6.23758705326,-4.7429126908,-4.27413826143,-1.3243540746,-0.984594924971,-1.47496904738,-3.91803996119,-5.3785002421,-4.90459394674,-6.05333128037,-6.83472347444,-88.1670438079
do_nothing,-4.56258175702,-8.77083995047,-6.42907774917,-4.09893323495,-4.44857434924,-1.86192218895,0.247555631999,0.87591211313,-3.3657505735,-4.44806599256,-4.54801280012,-5.63580113116,-6.73973119031,-71.7961459949
do_nothing,-3.39469788725,-9.06713361817,-5.98541264431,-3.29176153942,-4.35367319514,-2.33247461801,1.33553146756,3.10316915212,-2.69669227794,-3.01373375246,-3.85514787569,-4.61152488825,-6.01116418184,-50.8286199638
do_nothing,-1.84363694017,-8.49152892453,-4.93021145715,-2.34446080934,-3.94287452128,-2.58254783039,2.24773937179,5.03394954304,-1.91618745905,-1.19924119836,-2.85683192531,-3.05964244776,-4.72195297782,-27.1549194974
do_nothing,-0.0695137236694,-7.12997065929,-3.36918589931,-1.28655888919,-3.20771125931,-2.49902548428,2.95906882246,6.50969379602,-1.03545840387,0.811169932429,-1.61880358521,-1.13483090422,-3.01354298184,-2.95890878989
do_nothing,1.73174081968,-5.16140688258,-1.47604089629,-0.15430354672,-2.18024770475,-2.02881273811,3.45050110561,7.40403059941,-0.0740599076102,2.79609972543,-0.234910639495,0.952699471878,-1.07629345168,19.5091360439
do_nothing,3.35589079844,-2.83067711881,0.531966376973,1.00962778548,-0.929527825206,-1.18789073353,3.71065802736,7.63972718922,0.938716820816,4.52718902953,1.18364504052,2.96604123705,0.876993215501,38.1831278992
do_nothing,4.61994402822,-0.412657175977,2.42517555685,2.15715787819,0.447324998046,-0.0584754002211,3.73887143972,7.20204524968,1.96384560518,5.80177121784,2.52152610279,4.6750252563,2.64047242582,51.4246944952
do_nothing,5.38920689425,1.8269026577,3.9946557475,3.23667692748,1.8379116467,1.22503569941,3.5488491288,6.14600292926,2.95413625973,6.4730222653,3.6730667405,5.88923087769,4.04318910398,58.2272896679
do_nothing,5.5975824834,3.6679350958,5.08222729339,4.19571982438,3.12925080568,2.4988174951,3.17170545927,4.59563188322,3.85729647988,6.47285709692,4.55469194862,6.48551660343,4.97135205575,58.3513956879
do_nothing,5.25778919972,4.9645257066,5.60269718795,4.9842908468,4.22210031326,3.59715692331,2.65708495085,2.73429063186,4.62017020102,5.82377129741,5.11416953708,6.4257685972,5.3816199166,52.3685971236
do_nothing,4.45965911461,5.66108115193,5.55478758267,5.55854856206,5.04275023013,4.38010304938,2.07135330338,0.786329755086,5.19364502062,4.6374024024,5.33538309607,5.76199477184,5.30344491435,41.6032662367
do_nothing,3.35648246231,5.79390322809,5.018959628,5.8844702367,5.55057165448,4.7565593553,1.49232974895,-1.00827411866,5.53760090028,3.09955917142,5.23798415401,4.62779308837,4.83021086718,27.9739028409
do_nothing,2.1412250592,5.47815830914,4.14236658734,5.94106920133,5.7403078228,4.69892026971,1.00070492759,-2.42349200086,5.62524321297,1.44354748722,4.87205382125,3.21730970027,4.1006467314,13.7500487184
do_nothing,1.01607265164,4.88252534885,3.1131998333,5.7227504802,5.63894697233,4.24676574434,0.669012165177,-3.27730748977,5.44623019343,-0.0845098098649,4.30866108897,1.75475774946,3.27352664766,1.25319058829
do_nothing,0.159893185994,4.19575587837,2.12840306701,5.24046139814,5.29788498509,3.49895490805,0.549663306626,-3.4581411924,5.00815845327,-1.2632989214,3.62783036648,0.459087567401,2.49974154667,-7.46068978007
do_nothing,-0.301333083225,3.59068078603,1.35985171377,4.52141786629,4.78183314494,2.59540911136,0.663995804348,-2.94366610095,4.33618792962,-1.93119455248,2.90582721634,-0.490758458847,1.89627281405,-10.8947600529
do_nothing,-0.316373252542,3.19164176039,0.924440073906,3.60734863264,4.15643467386,1.69163064592,0.994406982946,-1.80880629896,3.47083740585,-2.01291890272,2.20377490432,-0.98455107566,1.52633686618,-8.34015207577
do_nothing,0.0808038955919,3.05083031802,0.863018902102,2.55137791189,3.47674262505,0.930278393824,1.48142268263,-0.220999241121,2.46422684873,-1.53356889474,1.55940574036,-0.99880297988,1.38903054644,-0.00581426252171
do_nothing,0.774026987584,3.13764790225,1.13184008631,1.41383728641,2.7785505614,0.414701352412,2.02696735388,1.57753779337,1.37524738325,-0.617372381499,0.983258391805,-0.601037073583,1.42032608694,12.9727735473
do_nothing,1.58141070843,3.34315578998,1.60827457139,0.257436697685,2.07408032556,0.189109270905,2.50423785357,3.29898304759,0.264274140838,0.529230623628,0.45992765667,0.0607257077894,1.50546225262,28.6526183201
do_nothing,2.28328893808,3.49926973408,2.11035276882,-0.857688397967,1.35279347327,0.229056833852,2.773552894,4.64726169105,-0.811917517496,1.64821021089,-0.0458374134343,0.782006038423,1.50093007542,44.5193773384
do_nothing,2.65771042381,3.40993961879,2.42746747316,-1.87851442241,0.587219912513,0.444279447172,2.70250951306,5.3589514962,-1.80442135303,2.47013876616,-0.579183594881,1.3360405304,1.2626445459,57.8136194466
do_nothing,2.51830692165,2.88951398544,2.35771795358,-2.76275970444,-0.257173249056,0.693894676982,2.18789519781,5.24233619667,-2.67517970405,2.7582024085,-1.18299913408,1.51301967465,0.675783588691,65.906716873
do_nothing,1.74877646708,1.80214809247,1.74615518736,-3.48122710554,-1.20977850254,0.811890784034,1.17623433787,4.20913009587,-3.39839793314,2.34946845908,-1.88560739781,1.15836752641,-0.318652692911,66.6774975603
do_nothing,0.328504447455,0.0956969578152,0.517816025019,-4.01864141256,-2.28248423179,0.638998250088,-0.320293031823,2.29409035358,-3.96035312148,1.18698493014,-2.69045189972,0.20398022108,-1.70517212916,58.8387472952
do_nothing,-1.65504483592,-2.17586970662,-1.30001117532,-4.37295483844,-3.45945091789,0.0557837996024,-2.21547616491,-0.340870334914,-4.35778913261,-0.662610980048,-3.5696710247,-1.31279855749,-3.38654786516,42.1674768979
do_nothing,-4.00973440871,-4.84594885527,-3.57042284631,-4.55328845166,-4.69108374856,-0.98866031006,-4.35033894267,-3.41952034158,-4.59528671333,-3.00936747984,-4.46290882138,-3.2460087942,-5.18987926068,17.6041285188
do_nothing,-6.45828530298,-7.646814112,-6.05646820968,-4.5768487699,-5.89367143044,-2.45763347191,-6.50493667204,-6.58031144812,-4.68212862394,-5.55906490266,-5.2819258817,-5.35498932678,-6.88581871907,-12.7977519407
do_nothing,-8.67189149499,-10.2385852681,-8.44719165809,-4.46528371261,-6.95531273913,-4.22126878503,-8.42013400042,-9.41853197938,-4.62922723717,-7.94919721703,-5.92067491876,-7.33412148857,-8.21875802077,-46.0704835835
do_nothing,-10.3137302484,-12.252366644,-10.3971821868,-4.24100350521,-7.74776584973,-6.06644675211,-9.82733202087,-11.5366749515,-4.44663993375,-9.79749222718,-6.26962305172,-8.85471495453,-8.94395697327,-78.6591428474
do_nothing,-11.0865677842,-13.3419306827,-11.574502242,-3.92398157346,-8.14287838775,-7.72174977932,-10.482804491,-12.5967521307,-4.14207398985,-10.7565601703,-6.23237171459,-9.6133826986,-8.86632676895,-106.838059751
do_nothing,-10.777834663,-13.2367394881,-11.7103876745,-3.52946950162,-8.03143858146,-8.89459783493,-10.2023694951,-12.367744225,-3.72059791462,-10.5670987292,-5.74216092912,-9.38005105418,-7.87505894105,-127.165660546
do_nothing,-9.29564519637,-11.7885216066,-10.6435471412,-3.06692003206,-7.34176013493,-9.31560059944,-8.8917224183,-10.7617319303,-3.18555993869,-9.10196610512,-4.77572590508,-8.03851273993,-5.96862040646,-136.919983109
do_nothing,-6.69026980752,-9.00417094812,-8.35235214192,-2.54023232574,-6.05516600317,-8.78371871712,-6.5679797089,-7.8534848973,-2.54050074612,-6.3944101904,-3.36222966511,-5.61321649345,-3.26579411215,-134.458302084
do_nothing,-3.1574136396,-5.05936401128,-4.96965962701,-1.94923922058,-4.2158056703,-7.20529585042,-3.36883757227,-3.88025788516,-1.79167009154,-2.64570332261,-1.58560002453,-2.2777107349,-0.00028829927944,-119.452936823
do_nothing,0.977934222387,-0.289796582135,-0.777265217599,-1.29217395817,-1.93290281856,-4.62052420587,0.452846314476,0.778987264212,-0.950643379951,1.78987190033,0.420524929651,1.65740261192,3.50128410553,-92.9704511975
do_nothing,5.2956670128,4.84001413618,3.82025625994,-0.568708982422,0.625496867084,-1.21240762977,4.54944967455,5.64306510199,-0.0365023553538,6.44167003474,2.48501121275,5.77632480056,6.85586048961,-57.3811666752
do_nothing,9.32880775388,9.78725312058,8.33968636275,0.216928106893,3.24705442696,2.70439450711,8.51241058169,10.1824045034,0.922901155385,10.7769241637,4.41733697594,9.60623248549,9.6704572743,-16.1076273572
do_nothing,12.6198676842,13.9947152355,12.2760433582,1.05327457797,5.69654480067,6.71463402697,11.9160733713,13.8809093482,1.89094624119,14.2659880841,6.0294356577,12.6758612335,11.5927946375,26.7584957107
do_nothing,14.7780861481,16.9600635338,15.1650393835,1.91984824057,7.74171533576,10.3503086555,14.3666429118,16.2983044318,2.82366507013,16.4502675199,7.15849784159,14.5769418065,12.3592182613,66.9243806506
do_nothing,15.5300273261,18.3013675973,16.6429548138,2.7866007929,9.18043570082,13.1495071254,15.5503988445,17.1251731019,3.6725224044,17.0039010246,7.68770791809,15.0202800396,11.8332325055,100.391011169
do_nothing,14.7567333108,17.8100401537,16.4958810974,3.61478525155,9.86565495781,14.7186065757,15.2751055054,16.2236384316,4.38827325741,15.7808236604,7.56205961453,13.8787360996,10.0290155771,123.913495131
do_nothing,12.5122904005,15.4837064328,14.6915019883,4.35922294219,9.72482326465,14.7892825632,13.4991162638,13.6483058418,4.92544192956,12.8405637681,6.79696481021,11.2108975358,7.11616033144,135.369436869
do_nothing,9.02104002941,11.5340140662,11.3887596881,4.97176516264,8.77103712469,13.2620956832,10.3439698587,9.64446874611,5.24685324202,8.44877168604,5.47827249988,7.26166104772,3.40433021773,133.989839459
do_nothing,4.65344078283,6.36760138832,6.92360157576,5.40558036295,7.10415799606,10.2299080036,6.08816849905,4.62338004574,5.32761697132,3.05171527457,3.75343091043,2.43892390443,-0.690790749995,120.424713259
do_nothing,-0.116610227296,0.541961420018,1.77214303954,5.61978121157,4.90140898538,5.97688695074,1.14208742299,-0.882746399348,5.15802428225,-2.77262750084,1.81470519156,-2.73126069296,-4.69631128273,96.6368274039
do_nothing,-4.76773872113,-5.2987080466,-3.50441333715,5.58385218706,2.39830931196,0.952053123885,-3.99368745211,-6.28078685773,4.74495219906,-8.38114790833,-0.123555860958,-7.66581476537,-8.13968553028,65.6390317747
do_nothing,-8.79331384997,-10.4998492209,-8.32630283863,5.28135364982,-0.137919131216,-4.28020732002,-8.78216318064,-10.9846783732,4.11156877617,-13.141738566,-1.85077823243,-11.7945608058,-10.607677846,31.110379863
do_nothing,-11.7620619106,-14.4755379427,-12.1647930247,4.71245967693,-2.43931667387,-9.10699423441,-12.7098129785,-14.4831462997,3.29535872129,-16.5095084454,-3.18585456307,-14.6301669165,-11.7990769141,-3.0587113977
do_nothing,-13.3694006051,-16.7800982716,-14.6059992131,3.89502254614,-4.26873660527,-12.942861295,-15.3455213529,-16.3990158568,2.3447134194,-18.0934844622,-3.99934689397,-15.8291975127,-11.5641882449,-33.2337663591
do_nothing,-13.4730234146,-17.1631488253,-15.4007700362,2.86402799922,-5.44804919909,-15.3051287799,-16.391527832,-16.532945923,1.31451781631,-17.7053248417,-4.22929123275,-15.236384302,-9.92577051209,-56.4570242826
do_nothing,-12.1083104135,-15.6009475948,-14.4942689873,1.6694894964,-5.87942747836,-15.8785388529,-15.7200982288,-14.8863258434,0.261292151234,-15.383795768,-3.8885013221,-12.9063008748,-7.07844974274,-70.7699196289
do_nothing,-9.48175619803,-12.2999068048,-12.0314966968,0.373002829491,-5.55697042296,-14.5603768871,-13.3912484281,-11.6606263034,-0.761508657506,-11.3918037977,-3.06236281378,-9.09946347962,-3.36643162853,-75.3993941881
do_nothing,-5.94343622829,-7.67170637137,-8.33810796476,-0.956676769545,-4.56710905696,-11.4795431183,-9.64904850439,-7.23336813539,-1.7074766547,-6.18623435645,-1.89734501277,-4.2531186407,0.757836647684,-70.7887468478
do_nothing,-1.9422027836,-2.28307263698,-3.87906091054,-2.24858084475,-3.07764096488,-6.98635849257,-4.89657773192,-2.11370471076,-2.54007266854,-0.36426975918,-0.581670388619,1.06980900636,4.78890781703,-58.4744342926
do_nothing,2.03054013727,3.21347263764,0.799531073631,-3.43450895613,-1.31666903544,-1.61369599754,0.347829319949,3.11695010754,-3.23402789883,5.40719590667,0.679390143779,6.24736730263,8.23050640129,-40.8302575672
do_nothing,5.50126498726,8.15917530727,5.1378642156,-4.4535815533,0.456003827111,3.98616416536,5.50812834985,7.87207517384,-3.77527752498,10.470341264,1.69042292159,10.6726194584,10.6567473112,-20.7170350938
do_nothing,8.07132252844,11.9689322113,8.63063250477,-5.25597827983,1.98151492767,9.12126660602,10.0152857779,11.6269637415,-4.15959124,14.2537309453,2.29151595016,13.8259618457,11.7646409886,-1.08700895012
do_nothing,9.46347074497,14.2015272384,10.887364444,-5.80559166828,3.03459164975,13.1462896372,13.3716493276,13.9775525528,-4.39024645451,16.3387527508,2.37934448155,15.3368513034,11.4112631187,15.4035101125
do_nothing,9.55236456465,14.6115598285,11.6774670013,-6.08146365917,3.45217570262,15.544394936,15.2074430402,14.6844021947,-4.47521234772,16.5072219977,1.92099508276,15.0274484148,9.63096342619,26.7227813002
do_nothing,8.37560399041,13.1768116322,10.9546158181,-6.07801183818,3.1544822117,15.9940055589,15.3227695312,13.6969737758,-4.42435957391,14.7646244403,0.958769678622,12.9329859743,6.63057239916,31.6927865317
do_nothing,6.12448534728,10.0979738345,8.85786739134,-5.80417555982,2.15589017452,14.4117317801,13.7102092696,11.1557911146,-4.2471756088,11.3365502618,-0.394622350834,9.29659843455,2.76339025683,30.0930088572
do_nothing,3.11618714361,5.77118047804,5.68988843226,-5.28170469324,0.564316151839,10.9656722581,10.555402147,7.37274996057,-3.95135627874,6.63920087889,-1.96984208078,4.53951574391,-1.51456598147,22.6308220928
do_nothing,-0.248590821403,0.737198682821,1.87559648576,-4.54286656322,-1.43086260835,6.057109905,6.21559856531,2.79240206994,-3.54247813324,1.22799945712,-3.56188816528,-0.789472988299,-5.70037606848,10.7888089729
do_nothing,-3.53681838198,-4.38602419124,-2.09309399404,-3.62785718295,-3.58087444692,0.27269772903,1.1787575223,-2.06080827935,-3.02476065227,-4.26908954352,-4.95557596988,-6.0789208159,-9.30497223971,-3.42441492144
do_nothing,-6.33653200481,-8.97882049422,-5.71912678515,-2.58217487451,-5.60694538113,-5.68694984432,-3.99196645415,-6.64289264446,-2.40273281753,-9.22523697653,-5.95231062039,-10.7260048005,-11.9112242567,-17.7812775533
do_nothing,-8.30578730563,-12.4938394519,-8.56085598724,-1.45415699988,-7.23348952859,-11.0932864921,-8.72183808253,-10.4511249305,-1.68345589269,-13.0865098566,-6.39481467371,-14.2056078626,-13.2222355085,-30.1553791857
do_nothing,-9.21134001828,-14.5196527881,-10.2838179414,-0.292806519081,-8.22114581766,-15.279619102,-12.4888719463,-13.0783848553,-0.878848825747,-15.4333037971,-6.1867772385,-16.1290941293,-13.0941286305,-38.8100055091
do_nothing,-8.95275959728,-14.8264681288,-10.6976208954,0.854041445006,-8.39576749761,-17.7233063711,-14.88150259,-14.2551310112,-0.00763101969608,-16.0245494305,-5.3050761273,-16.2861242055,-11.5496934795,-42.6167232662
do_nothing,-7.56968811868,-13.3889313681,-9.77395945509,1.94122878223,-7.66999546074,-18.1100253889,-15.6430981608,-13.8747600858,0.903555617417,-14.8200991272,-3.80319082209,-14.6650759601,-8.77177025443,-41.1772019696
do_nothing,-5.23215904689,-10.3839919702,-7.64429978224,2.92752024922,-6.05496245902,-16.3720929617,-14.6984521172,-12.000191993,1.82016453932,-11.9794742509,-1.80554020483,-11.4503193365,-5.07780819011,-34.836144822
do_nothing,-2.21598950064,-6.16494558697,-4.57839989237,3.77666575855,-3.66086248324,-12.6961818654,-12.1595582857,-8.85175257756,2.70104906601,-7.83803158092,0.506402164716,-6.99739063204,-0.879338721269,-24.5890537832
do_nothing,1.13301194707,-1.21564831901,-0.947180305524,4.45835084589,-0.68642789374,-7.49969923758,-8.31041494335,-4.77853209241,3.50100057252,-2.86422776372,2.914384011,-1.78967271428,3.36815897133,-11.9032224904
do_nothing,4.44112640937,3.90884186898,2.82475276097,4.94907673872,2.60137341686,-1.37907561232,-3.57301687406,-0.217135873862,4.1742711126,2.39628980714,5.18749223924,3.61779222814,7.21854859733,1.51818675832
do_nothing,7.34973665331,8.64756139103,6.31061405196,5.23296733515,5.89502683736,4.96327194406,1.54120522472,4.35706949518,4.67866841754,7.38278269199,7.10718739173,8.66047436527,10.2849208054,13.9923781942
do_nothing,9.55415665027,12.4968776495,9.1305083555,5.30245334803,8.87837898735,10.8039425674,6.48869086388,8.48057973699,4.97970694748,11.5803802881,8.49032925307,12.8252524676,12.2802369492,24.0956185645
do_nothing,10.8340382189,15.0643209175,10.9922831686,5.15874509156,11.2592127332,15.4848059219,10.7531652651,11.7487523923,5.0542691867,14.5731141917,9.20762791457,15.7032772421,13.0443355424,30.8507665286
do_nothing,11.0724558814,16.1071970974,11.7197742032,4.81198444439,12.7989685189,18.4898363106,13.9004920633,13.8544365969,4.89328162021,16.0835650438,9.19561183082,17.029315637,12.5548272633,33.8388920073
do_nothing,10.2623700224,15.5523323823,11.2659146436,4.28096961226,13.3365171495,19.503261142,15.6230246705,14.614708742,4.50303277387,15.9955394373,8.461061254,16.7039305621,10.921537461,33.2223329394
do_nothing,8.50079370257,13.4957874116,9.71023718364,3.5923751478,12.8036421171,18.4423164975,15.7689066128,13.9837045567,3.90493841271,14.3583653493,7.07779317378,14.7970022178,8.36620778057,29.6799709519
do_nothing,5.97242320113,10.1838486543,7.24226549755,2.77944113164,11.2308672832,15.4612532125,14.3536271569,12.0511476187,3.13376538526,11.3735689412,5.17657980707,11.5332806229,5.19087604548,24.2682928087
do_nothing,2.92556356255,5.97874375916,4.13391285072,1.88017195398,8.74334557294,10.9269248964,11.5532259551,9.02768665126,2.23453038749,7.36660817772,2.929726686,7.26261029187,1.73951207061,18.2321140579
do_nothing,-0.356219569961,1.31408474042,0.705088955574,0.935156052697,5.54757934362,5.36982691294,7.68060660174,5.21940834065,1.25846317689,2.74777909973,0.532345034025,2.41897221298,-1.64202128555,12.7952721773
do_nothing,-3.58319365389,-3.35413859255,-2.71284108112,-0.0148188757672,1.91065745463,-0.582611795378,3.14822564984,0.994775865613,0.258540434662,-2.03275357767,-1.81742082969,-2.52659738895,-4.64280814826,8.96335962622
do_nothing,-6.48613410135,-7.59516007621,-5.81130570351,-0.931136811172,-1.86562383737,-6.28171494409,-1.5782248887,-3.25230023735,-0.714859923868,-6.5306619122,-3.937013831,-7.11388530959,-7.01645531607,7.36758099481
do_nothing,-8.83813608846,-11.0444713882,-8.33280852865,-1.77947650226,-5.4729976898,-11.1326745458,-6.02975904236,-7.13952164925,-1.61766912714,-10.3491731105,-5.67505657006,-10.9372040664,-8.60060546513,8.17169627966
do_nothing,-10.470050364,-13.4343918425,-10.0907347603,-2.53147017094,-8.62448323316,-14.6600130031,-9.78215784291,-10.3299993058,-2.41479496238,-13.1729826466,-6.92255685359,-13.6808192834,-9.32510970139,11.0539484875
do_nothing,-11.2790117744,-14.6118965765,-10.9795414307,-3.16573141314,-11.079040775,-16.555910674,-12.4971426844,-12.5600265133,-3.08150110014,-14.7917715418,-7.61899567667,-15.1432392424,-9.20912750399,15.2644480156
do_nothing,-11.2304115764,-14.5431547339,-10.9755428246,-3.66816303978,-12.6609707823,-16.7064009746,-13.9526770179,-13.6588784035,-3.60344601701,-15.1120999102,-7.75321617023,-15.2489228988,-8.34878142769,19.7474181349
do_nothing,-10.3543313441,-13.3058288686,-10.1296476139,-4.03154949473,-13.272547471,-15.1934375772,-14.0598117854,-13.5595697074,-3.97552307886,-14.157765373,-7.35961703946,-14.0473789363,-6.89799631508,23.3085969065
do_nothing,-8.73784013967,-11.0714602813,-8.55419892517,-4.25453563595,-12.8991205108,-12.2739449882,-12.8650832422,-12.3003569417,-4.19980927859,-12.0598347134,-6.51060707564,-11.7008810661,-5.0456928371,24.8021928774
do_nothing,-6.5146458412,-8.08108120139,-6.40643690679,-4.34017939568,-11.6066737865,-8.33976420334,-10.5390667091,-10.0175229589,-4.28304372057,-9.03837759154,-5.30655585845,-8.46299396959,-2.99255304228,23.3098356632
do_nothing,-3.85342669018,-4.61750125056,-3.87104354915,-4.29432651907,-9.53252205797,-3.86454873146,-7.35310834234,-6.93058515021,-4.23410207695,-5.37840578399,-3.86456609937,-4.6507220679,-0.93017573721,18.2860696213
do_nothing,-0.945831320918,-0.977539126802,-1.14380831493,-4.12408080355,-6.87039394222,0.655092477562,-3.64735527999,-3.32150533736,-4.06190439668,-1.40265851988,-2.30730952028,-0.613345248101,0.975301384291,9.65062771131
do_nothing,2.0052716595,2.55309509996,1.58221024184,-3.83662756326,-3.85155223366,4.75668179074,0.206113032154,0.490245223076,-3.77409667392,2.55627262473,-0.75294797639,3.29907521304,2.5939699019,-2.18399546115
do_nothing,4.79708492612,5.72037610874,4.12740926606,-3.43861196274,-0.723821199855,8.06042301053,3.8410231206,4.17477786673,-3.37669769005,6.18233449418,0.693143152391,6.76488292923,3.83712971541,-16.3516051619
do_nothing,7.23775406201,8.31701030728,6.33333729551,-2.93618411102,2.26957347275,10.3040280776,6.9317008496,7.41902790536,-2.87472584855,9.19923074468,1.94446414141,9.51559029724,4.65714045813,-31.6305773301
do_nothing,9.15693379274,10.1918064284,8.06796646554,-2.33571149813,4.90957469209,11.360772007,9.22169819947,9.95220871088,-2.27364411194,11.3892581708,2.9372136515,11.3547154584,5.04340707147,-46.5860984896
do_nothing,10.4160545446,11.2538793111,9.22940613384,-1.64504242398,7.0177588751,11.2401012808,10.5439039437,11.5676883528,-1.58131256395,12.6069860559,3.63200593422,12.1698057621,5.01605384887,-59.7359220054
do_nothing,10.9180385114,11.4725977826,9.74889608739,-0.875099031381,8.46854009752,10.0723940851,10.830820757,12.139716032,-0.810040884865,12.7873593206,4.01379439573,11.937329005,4.61881656328,-69.7171916054
do_nothing,10.615881421,10.8743172123,9.59363865131,-0.0415019764301,9.19637543077,8.08134367127,10.1147593103,11.6337182941,0.0216975823189,11.9480784496,4.09037203714,10.7205987505,3.91238611254,-75.4332003182
do_nothing,9.51920010762,9.53683197289,8.76958158636,0.834106229118,9.19767244564,5.54868462478,8.51869026857,10.1092616507,0.888287566089,10.1863195013,3.88979997926,8.66129370291,2.9689586565,-76.1631745362
do_nothing,7.69764328628,7.58222045644,7.32376350687,1.72335798461,8.52752799559,2.77648458128,6.23931613199,7.71524431288,1.75702046396,7.67004324248,3.45704539035,5.96544307283,1.86820087463,-71.6244714761
do_nothing,5.28005356648,5.16843590119,5.34540630375,2.59133214361,7.29181797596,0.0519732745595,3.52451428248,4.67743025496,2.58930537366,4.62434347347,2.85002328217,2.88499908396,0.694342682291,-61.9838584041
do_nothing,2.44849919825,2.47972174648,2.96469605065,3.39774745947,5.63548979218,-2.38102346342,0.647630446154,1.27905224595,3.3429972766,1.31353030461,2.13516526496,-0.303677177943,-0.466236292254,-47.8216258961
do_nothing,-0.573234046708,-0.28421706283,0.348210777591,4.0991871955,3.72816675434,-4.34134912535,-2.11883117678,-2.16415421965,3.97561861257,-1.98005699164,1.38260696389,-3.32291959681,-1.52769084342,-30.0581061986
do_nothing,-3.53643380826,-2.92032847423,-2.30974465529,4.65221406848,1.74834467971,-5.71938635182,-4.52774209558,-5.33252625959,4.4481017963,-4.97917874175,0.661106091992,-5.91682097449,-2.40832523173,-9.85592706734
do_nothing,-6.1885064252,-5.2354511797,-4.80008120517,5.01709306792,-0.13246268787,-6.47601173515,-6.37808551767,-7.93220975081,4.72858427134,-7.43511049291,0.0328718497457,-7.87255173001,-3.03548918451,11.4873741087
do_nothing,-8.29649207953,-7.06017448464,-6.91560629481,5.16172700268,-1.76429601845,-6.63343735534,-7.5303621056,-9.72330334967,4.79575946137,-9.14943556268,-0.451414027192,-9.0382386136,-3.35165874697,32.6428915513
do_nothing,-9.67065582088,-8.26242202025,-8.47013331067,5.0653432168,-3.03083037686,-6.26063506502,-7.91569999947,-10.5436029379,4.64133124304,-9.99218983238,-0.757001418118,-9.33583910781,-3.32112210604,52.3397007281
do_nothing,-10.1854177349,-8.7595052823,-9.31803767271,4.72146146499,-3.85797143141,-5.45641363019,-7.53829201098,-10.3253786138,4.27123019969,-9.914421936,-0.868444327259,-8.76772485772,-2.93627693266,69.4340521261
do_nothing,-9.7948972061,-8.52717760884,-9.37183648068,4.13972662055,-4.21827925298,-4.33306756039,-6.47134693846,-9.10316148121,3.70541083917,-8.95356225501,-0.791470350764,-7.4161242472,-2.22229954092,82.957152157
do_nothing,-8.54075049465,-7.60422479689,-8.61526591533,3.34630153381,-4.13089895434,-3.00291752659,-4.8472453669,-7.01133998836,2.9762365899,-7.23057226911,-0.552941210408,-5.43515849887,-1.23893534972,92.1443846985
do_nothing,-6.55075638322,-6.09139921824,-7.10962068286,2.38267274126,-3.65708362471,-1.56915848479,-2.84300690619,-4.27139600282,2.12564622123,-4.93863611084,-0.198650825253,-3.03589831174,-0.0784104639578,96.4515833573
do_nothing,-4.0276700023,-4.1440366083,-4.99179522045,1.30290596549,-2.89180586008,-0.121403938316,-0.662488180896,-1.16974333695,1.2014540882,-2.32408184883,0.211063505555,-0.465603468894,1.14104707445,95.5649064091
do_nothing,-1.22908753742,-1.95843480569,-2.46345463938,0.169576281681,-1.95233142275,1.26464932113,1.48307148722,1.97176510565,0.253244317552,0.338829172919,0.607642025512,2.01699966612,2.28592951531,89.4099071545
do_nothing,1.55972173001,0.247076624677,0.228064455315,-0.951234986364,-0.96493294823,2.52474907067,3.39446225093,4.82966140394,-0.671639485762,2.77676015663,0.922011146461,4.16799304449,3.22154485484,78.16283078
do_nothing,4.05703051996,2.25461607991,2.81533440398,-1.9953605925,-0.0511174715288,3.6025187564,4.90222326959,7.11338376845,-1.5315374739,4.74670667362,1.09288204908,5.78335694157,3.82794992733,62.2636301423
