label,COUNTER,INTERPOLATED,AF3,F7,F3,FC5,T7,P7,O1,O2,P8,T8,FC6,F4,F8,AF4,RAW_CQ,GYROX,GYROY,MARKER,SYNC,TIME_STAMP_s,TIME_STAMP_ms,CQ_AF3,CQ_F7,CQ_F3,CQ_FC5,CQ_T7,CQ_P7,CQ_O1,CQ_O2,CQ_P8,CQ_T8,CQ_FC6,CQ_F4,CQ_F8,CQ_AF4,CQ_CMS,CQ_DRL
off_to_on,-2.16155941826,-1.73281137262,-0.975186827931,-0.82813449026,-0.532029846931,-2.28492248,-0.26479963386,-1.13506413249,-0.894327276942,-0.279389738379,-1.70940434993,1.90296628768,-2.06437121366,-149.706958753
off_to_on,2.04468446092,0.198173219066,0.714602269653,1.19501776597,0.777199442412,3.31683440417,-2.37396945126,-0.499123645407,0.872646700318,2.0753233222,0.760703221439,3.57919500972,0.397044663897,66.5772398243
off_to_on,-1.30531795856,-0.840710218952,-1.78131605269,-0.577922401026,-1.87849828304,0.0546071542175,-2.2079192448,-0.7129926594,-0.848873673782,-2.14245004715,-0.258717648994,-3.66548844162,-0.132613830562,96.7565134917
off_to_on,0.59907636311,2.36194402475,2.53382364856,0.485807440331,1.3054241178,-0.0507484114765,5.04230405134,2.72168466561,0.823068211311,0.491908700394,1.34091967773,-1.13037748803,2.02847721785,-8.40761520759
off_to_on,0.387243431448,-0.805786248742,-0.321683024452,-1.11876477042,0.207295895801,-2.12027308282,0.405223068864,-1.34546217184,-0.795299485819,0.221940454156,-1.43172974924,1.34145112973,-1.98975693008,-161.623497455
off_to_on,-0.464291713149,-1.70139171001,-2.10243125843,1.02892046787,0.0352907219713,0.108478514913,-4.57469706476,-1.67137210232,0.765636932032,0.45913434362,-0.220017577676,2.23535342239,-0.753389771291,85.8935217811
off_to_on,-1.04844998313,0.43739682507,0.476988257503,-0.32457205358,-1.33783338491,1.90611256006,-0.204428137505,1.11342885328,-0.734151254842,-0.466291269566,0.459002991258,-1.55177895646,1.43553479054,85.1677666907
off_to_on,1.44959316421,2.06163211367,2.31720263236,0.455617941309,1.040964444,1.58882411981,4.69595513049,1.82913448143,0.70092238707,-0.552161784279,1.18258706571,-2.01389043656,0.979559189363,-36.9968948814
off_to_on,0.322607969919,-1.04955742516,-1.43559736656,-1.11709093956,0.146428289582,-3.50497953492,-0.867946935298,-1.87262412614,-0.666036624958,0.123081041222,-1.38538304223,1.0262058925,-1.9461039554,-107.892210912
off_to_on,-0.278101896084,-0.339271836103,-0.229425582779,0.889973173129,0.353553581752,-1.07025090008,-2.78166513363,0.0393082804527,0.629579119843,2.37751390708,0.133917520129,3.23379106055,0.61308120629,67.4883573413
off_to_on,-2.6995157768,-1.93705776462,-1.513886711,-0.23917978428,-1.68178776508,2.24709356179,-1.20445831864,-0.911119330383,-0.591637591845,-3.30842923792,-0.562227844769,-3.6687362139,-0.662740596447,50.4821695474
off_to_on,3.03608119336,3.19485375762,2.69958880159,0.510644703824,1.17349137294,4.26846236977,4.79486682081,2.65570079812,0.552308360452,0.54105717853,1.81616684462,0.285805094622,1.78364094277,-3.54002436046
off_to_on,0.773749420326,0.388440632407,0.318958868485,-1.04328320037,0.23518902265,-5.38596579083,-1.17391328038,-0.999836815631,-0.511691167738,1.84200503068,-0.78197198137,1.31385245386,-0.757585902931,-97.0610393907
off_to_on,-2.00453982761,-2.55602402504,-2.10566896094,0.527772315578,0.199765582573,-3.42512518081,-2.61960311885,-1.50512117754,0.469883873342,-0.12925265881,-0.908713774487,-0.185253030057,-0.86152773216,42.8741829957
off_to_on,-1.16526532648,-0.739438216033,-0.836559499673,0.156377839331,-1.36448002297,6.24544585767,0.987056013151,0.813849584403,-0.426987895211,-1.84685915893,0.147449110639,-0.343910304324,0.109520393754,39.151475835
off_to_on,1.57180852315,2.43408298124,2.05310869825,0.375741407654,0.314083676022,2.75023971145,0.671511632603,0.516089086209,0.383111735237,-0.246997737921,1.07074326089,-0.174446640972,0.680427082189,31.4172002446
off_to_on,1.98443803677,1.1701117052,1.40551506162,-1.10195465371,1.49647099444,-6.45462333639,0.424977943573,0.203601478485,-0.338364555466,2.18735055589,-0.190466702554,-0.233691112988,0.554833650982,-98.3377968266
off_to_on,-1.62990700555,-2.27396206122,-2.06226935472,0.45758399703,-0.435650975992,-2.02903492142,0.409817499958,0.0863830081391,0.292853449368,0.825048889947,-0.391390130355,0.986710118672,-0.440094645264,-5.85299719343
off_to_on,-2.92329471261,-2.11919280918,-2.2986178047,0.592769569306,-2.08150235604,5.71853081155,-2.52855935364,-2.15613701793,-0.246689539271,-3.51081414807,-0.886382526043,-0.240351326736,-1.85944965419,95.6059340485
off_to_on,2.86865045534,3.39736404076,3.2038848651,-0.342444635223,1.60832262268,2.64948540695,0.576969579416,1.49769978401,0.199988862262,0.187460444313,0.943511176243,-0.677590184257,1.49036256562,-9.92590107294
off_to_on,1.45452221532,0.799398236439,0.916748179902,-0.541974069672,1.01921184479,-6.92888353912,2.18072380335,1.3431305575,-0.152865771951,2.73482320439,0.695295036051,-0.748544596112,1.31649732463,-40.5363382312
off_to_on,-1.01940636939,-1.57179329722,-1.24068087044,0.51429967264,-1.00983332342,-0.264239098413,0.582378450485,-0.487857154178,0.105432735395,1.41581196262,-0.162028116574,2.79375448781,-0.269223601612,-87.9073900065
off_to_on,-2.59596451595,-2.18488551581,-2.44114195067,0.0383203223351,-1.34455531606,4.85967756222,-3.68249208825,-2.49349827566,-0.0578060916287,-4.79073471993,-1.83076021604,-1.33694047601,-3.15305455433,137.074358855
off_to_on,0.346797365614,1.21537291291,0.902763428439,-0.0470477959289,1.21114330211,-0.29832217479,-0.200301038428,0.62688602078,0.0101045566226,-0.891587549285,0.414767160147,-2.6402657795,0.874999648673,37.4902411056
off_to_on,4.20621018818,3.89134693115,4.17404356553,-0.0806184315698,1.43891940353,-2.26278397158,4.67713766461,3.5824645064,0.0375566209771,6.65295395942,2.6831940092,3.36127222687,4.59575197197,-124.732857614
off_to_on,-1.38099983112,-2.87055602352,-2.43705247029,-0.203229750658,-1.76196221508,-1.36003425334,-1.53118091859,-2.15875643938,-0.0850637365497,-1.8659863791,-1.45248207766,0.233325936358,-2.97277002008,-46.6703371708
off_to_on,-3.61905087782,-2.80090444395,-3.30987175903,0.19500130546,-0.59607482961,2.25736276175,-2.88451242593,-2.076252569,0.132300000625,-5.02264617505,-2.02062518594,-2.19936802973,-3.38529812431,134.492502018
off_to_on,0.515368159892,2.36051202265,1.96866656198,0.272188755697,1.02301685885,1.02762378512,0.779459754609,1.15385800758,-0.179148859689,2.09726656354,1.20943818427,-0.0403047257429,2.88694316075,63.9039112827
off_to_on,4.20704554681,2.33603678495,3.09531549609,-0.0549056891969,0.96932748605,-1.16045502667,1.82361327893,1.65770526886,0.225498409478,3.6842268883,1.72091814654,1.28316439861,2.82343325245,-194.610512899
off_to_on,-0.0861755443057,-1.25570382785,-1.08612925903,-0.857533046648,-1.14689261539,-1.00326147713,0.807728024353,0.522092598796,-0.271237980803,-1.2113281015,-0.725986768936,0.960762164791,-2.39530665956,23.5020475108
off_to_on,-5.05083551695,-2.69286817631,-3.62364546079,0.911656548108,-0.824176752491,-0.298042574398,-1.85447689234,-2.7891513102,0.316255145554,-3.17344061051,-1.44249291471,-1.39538803822,-2.52732760936,111.961855971
off_to_on,0.440879940479,0.529101320889,0.771410054913,-0.0307829434514,0.92655009259,1.78237588753,-2.10804123566,-1.03846996522,-0.360440135556,0.184067044104,-0.324065087475,-1.83576810318,1.54274354425,33.8495416452
off_to_on,5.34315997903,3.30451425257,4.15785604203,-0.0812140003562,1.13779969756,1.41600192735,2.66231173739,4.11360002479,0.403688454251,3.28474387407,2.11319767683,2.35311515632,2.92799579085,-155.511749872
off_to_on,-1.59429663566,-0.841412432226,-1.53770643824,-0.694706300896,-1.71066922028,-3.91510458003,1.69750996644,-0.295586268767,-0.44589671532,0.0589912068282,0.218748237636,1.33787571554,-1.66186703093,23.4709363935
off_to_on,-3.02289370545,-1.84220089154,-2.27180109285,0.741659058077,0.44077356759,0.592979165148,-0.876095893558,-2.34455980819,0.486961475663,-1.8712875583,-1.25725589278,-1.3574750135,-1.54539555718,84.5773905148
off_to_on,-1.07629928518,-2.06090346799,-1.20931827752,-0.135463158575,-0.183319470952,2.59261980521,-4.71074748587,-1.95276645687,-0.526783980877,-3.29131261834,-2.26065496133,-3.66884928696,-1.24293076126,30.9556758304
off_to_on,4.63178908378,4.36038447162,4.36136461529,0.424878114489,0.904753858052,0.0506135952966,2.79073829806,4.03622014799,0.565270914141,4.61195536015,3.11868832482,3.95643393273,4.03724064977,-114.45590742
off_to_on,0.731949880087,1.26684415395,0.439273985942,-1.20034894806,-0.551767437661,-3.67859008129,4.84722652246,1.29198866863,-0.602330216396,2.68466252806,1.50666100537,2.44409846402,0.53131656473,2.38449002715
off_to_on,-4.70059324021,-4.6911386104,-4.34035228428,0.853389952134,-0.0428528391799,2.28924078685,-3.34110042735,-3.72724778517,0.637871646349,-5.28661549829,-2.72872217689,-4.09436045385,-4.20247617574,68.0105662969
off_to_on,-0.822847192084,-0.947699985913,-0.223467211483,-0.0684769584576,-0.767326966555,2.03789649648,-5.42191729044,-1.70998286704,-0.671811152291,-2.37353553506,-2.33641718166,-2.15713512582,-0.75476016569,28.7228184253
off_to_on,5.35837152589,5.07488465579,4.44143368351,0.51933761294,1.35589763813,-3.68084485434,4.57227904329,4.13568058795,0.704069965514,6.02219707398,3.84313794373,4.37118265837,4.87610528972,-71.8354794788
off_to_on,-0.913741554545,-0.610933253474,-1.21215464608,-1.32186288856,-0.219334073985,0.101332531972,4.64085456166,0.978659171779,-0.734571014397,0.641026502979,1.06751899778,1.10351599528,-0.309244359225,-26.1614341908
off_to_on,-2.94956177586,-2.52467218073,-1.59126884513,0.830409089273,-0.288183559307,5.58289601519,-3.89818031145,-2.36789497332,0.763240878624,-3.62416132623,-2.13849910902,-2.20109128787,-2.96228245835,59.9180039369
off_to_on,-1.03726763812,-1.9255343867,-1.58392312035,-0.146784765312,-1.47194881846,-5.84256523815,-6.81594624391,-3.82826549439,-0.790013245112,-3.15097346369,-3.12715754205,-4.2179949087,-2.32162670547,22.4073952754
off_to_on,4.62678600092,4.6183917929,3.50300238463,0.822405582738,2.58380092306,-1.2696647388,8.07045192657,5.63939271173,0.814826749532,6.0387851542,4.1796472133,5.18840953468,5.47582711146,-31.0048235173
off_to_on,-1.70020677184,-0.360445544919,-0.419004512558,-1.46129787816,-0.917234708235,5.32744893716,2.78599821898,0.921038433923,-0.837622411324,0.607679843051,1.16315690009,2.16773414559,0.220888586234,-53.3707726918
off_to_on,-1.21601532819,-2.15629708782,-0.864494067522,0.586917046713,-0.631151939809,1.11653611482,-6.83517932672,-3.89237849785,0.858346499399,-3.76729158267,-2.38507672704,-3.89300664169,-3.56607108365,56.1607550707
off_to_on,-0.0440197769674,-1.09336369304,-1.55006608905,0.0212870694055,-0.411431970544,-7.11824814834,-1.67608231568,-1.2247620335,-0.876952739133,-1.65552338551,-2.43084041617,-3.04981828086,-1.72800803952,14.6686488
off_to_on,0.52086450874,2.28429671357,1.13547714021,1.2104798339,1.60842086339,1.2567898199,6.51944656183,3.77539165266,0.893399413371,3.79603842068,3.31938883103,4.36255159577,4.39933489793,-1.18199867365
off_to_on,1.00758438978,0.995723618352,1.99179340747,-2.16384159654,-0.697679878887,6.03727282452,-0.209260274101,0.356969618137,-0.907648028373,1.25726299976,1.08260481732,2.74110365586,1.14282481345,-66.8615922963
off_to_on,0.389404385424,-1.24025912447,-0.720753331251,0.910802799336,-0.125502743254,-1.05868681878,-4.29894620885,-1.92841508588,0.919666549658,-2.52710081069,-1.51901859584,-3.61411762639,-3.51793908548,50.0027587794
off_to_on,-3.66691544007,-2.79447428329,-3.81332873538,0.40692394401,-1.08512127334,-6.72491533265,-0.968590598048,-2.29025817337,-0.929430249933,-2.8392761617,-2.71755330333,-4.30096078665,-2.52235530474,5.35879711709
off_to_on,2.88643124098,3.77058528529,3.80307383994,0.554763191778,2.16509657467,3.19950074746,5.94821631324,4.10821781909,0.936918599239,4.72311474887,3.19030080839,6.09833921685,5.81862227484,19.9304850335
off_to_on,0.431103252343,-0.726347648945,0.0150136722437,-2.0279028187,-1.27915297323,2.86719319329,-2.56788774674,-0.887210569318,-0.942115158992,-0.740779896314,0.219195073838,0.940586892466,-0.936060947238,-67.478097604
off_to_on,-0.0874175233744,-0.119981716273,-0.483154611723,1.46730950938,0.385367869995,1.16127901947,-1.94673934472,-0.554824332388,0.945010673429,-0.80212511896,-0.228500187075,-2.53441977439,-2.31326468434,39.8055805517
off_to_on,-2.57322874723,-1.61345886051,-1.96948959428,-0.0700675072616,-1.08733732249,-5.57516167969,0.102780768196,-1.62166212847,-0.945602651618,-1.5111910081,-2.42882786934,-3.63585038076,-1.19684643186,-3.2580571075
off_to_on,1.87019915609,1.16619953338,1.64153239615,0.324415293444,1.59475526366,-0.619089254599,3.14503696473,1.91203865486,0.943892516888,1.50646999318,1.60319082943,4.10637020858,3.4632920496,33.1893194902
off_to_on,0.950240044597,0.668354112937,0.624193181646,-1.63041284395,-0.611336502168,5.40357784013,-1.25738276836,0.586130741886,-0.939886547049,0.535997939807,0.960354453038,2.52104956234,-0.257738654463,-59.1058816058
off_to_on,-0.81148808678,0.0450011026873,-0.27386295814,1.73492678046,-0.0587613048265,1.95812694745,-2.13279190144,-1.16760894757,0.933598402235,0.0413248950862,0.0844704763089,-3.11539980292,-1.98081944681,27.5836438174
off_to_on,-1.43638245267,-1.74670272274,-1.51425379718,-0.646652851958,-0.760783148999,-7.54582527053,0.847812131656,-0.870520546368,-0.925047692311,-1.48341973627,-2.33546609245,-3.29782405913,-0.288337282637,-9.97240057987
off_to_on,1.72274419052,1.23750893959,1.30033377663,0.192706134131,1.36363597229,-0.107114087579,2.8806806635,2.04747359764,0.914257739284,0.540181405774,1.30226846108,4.27542549123,2.50848353792,38.864022813
off_to_on,-0.656328851638,-0.476142676376,-0.558275769152,-0.855606229169,-0.766871048811,6.33713073008,-3.23084904727,-1.72904445185,-0.901257256793,-0.375891737008,0.199716506646,0.868269194711,-1.93524889491,-45.1608919216
off_to_on,1.20101257136,1.72894891892,1.6057007889,1.40557363101,0.628264579947,1.4476585032,0.804302302459,1.65278436955,0.886082034863,2.89813690064,1.27822702164,-0.934747353302,0.908262549056,15.5676171485
off_to_on,-2.51481893347,-2.48867440428,-2.40388060415,-1.09652448987,-1.63487690246,-9.1414283103,-0.178801802975,-1.56821843597,-0.868772842185,-3.15152833489,-2.41691577491,-3.87290005223,-0.722853503356,-14.4238141045
off_to_on,1.86655615995,0.957349289079,1.06899302962,0.50748819014,1.84103984105,2.83464030484,1.35109980326,0.609533782951,0.849374007439,-0.447692037384,0.570256833241,3.17887646901,0.728201055268,37.9611975778
off_to_on,0.310409559497,0.295887763616,0.346804963227,-0.383863243425,-0.466318082282,5.85443074421,-0.948494744977,0.247421812008,-0.827935469536,1.76010467551,0.642798351101,2.03206828347,-1.12863941168,-28.5174344983
off_to_on,-1.23583683303,0.142081383809,-0.171474628044,0.761813962063,-0.367778262107,-2.80364621936,-0.596681126801,-0.0733587011451,0.804513497533,1.17631412216,0.856731848589,-1.87597000473,1.360869338,2.8777631544
off_to_on,-0.0486030118396,-0.279997692838,-0.323048605778,-1.20578999173,-0.522038359426,-4.19320828439,0.200698911737,-0.584458827004,-0.779168311109,-2.25622029677,-1.61918550079,-2.46311155997,0.045063106034,-7.40748642922
off_to_on,1.58333823741,-0.168180176534,0.373061806201,1.23836174006,1.35434878067,3.09376958641,1.32814630316,1.02845675714,0.751963533686,-0.448956982766,0.280271633825,2.03050565605,-1.39152144331,14.689726824
off_to_on,-1.28497508152,-0.712347761738,-0.768355966774,-0.669887516073,-0.856524923178,1.35755729544,-0.899771806723,-0.929385110098,-0.72296824566,1.20506203124,0.0493091152792,1.62691577157,-0.341116668111,0.912847930915
off_to_on,-0.0393778929416,2.07012754281,1.28410120246,0.0083837206754,0.338035377281,-0.53325578138,-0.27142898754,0.356125484398,0.69225676852,1.69707910248,1.19379206966,-0.460489590845,3.00405239249,10.0881064482
off_to_on,-0.208942540202,-1.45545931759,-1.19338007188,-0.16281010927,-0.75045745244,-2.13483297683,-1.08105464247,-0.444564440389,-0.659906361933,-2.97386328238,-1.27557294711,-3.52427637977,-2.10350372818,-57.5495554057
off_to_on,1.99518859099,0.107475283407,1.15555035504,1.0986093181,0.998554905206,1.29548923889,3.10927526723,1.80795367671,0.625997465869,0.930360323751,0.393122418298,2.83533990486,-0.700796431664,58.7830524569
off_to_on,-2.22937277885,-0.721454850817,-1.45620373386,-1.43868770234,-0.57166694379,-0.358065399687,-1.71134089176,-2.47096972825,-0.590615442438,0.174013159957,-0.802373629585,0.679782892634,0.338864025784,4.96907191869
off_to_on,0.153865477975,1.78863037572,0.83420253181,0.439805634739,0.598355703759,1.91255416933,-1.26412323906,0.768053385109,0.553849577079,0.855030515741,1.41429457232,-0.666604646154,2.12365757063,-34.3917762367
off_to_on,1.0055599773,-0.418482889355,0.620515127343,0.486079008083,-1.11230656456,-1.28731495547,0.992300867224,1.19651936053,-0.515791139939,-0.726916271757,-0.194082072692,-1.12167156722,-1.62029188052,-8.84979602752
off_to_on,0.113025758896,-1.64899613375,-0.841299301925,0.164648135743,0.587865762911,-2.5308767689,1.25294188486,-1.00616636153,0.476534232474,-0.843478392407,-1.03241433286,0.0923226570489,-1.28294931137,33.3406441899
off_to_on,-0.656820020965,1.00437713365,-0.353201223102,-1.3303079274,0.791750607744,2.68136866119,-0.794692028171,0.00881983722288,-0.436176993852,0.851651546,0.05859402822,1.22778828842,1.72199180169,13.8850373613
off_to_on,-0.483007136905,1.13814011008,0.79339260409,1.03610703414,-0.813972248526,2.29316465123,-1.16926049418,0.184464733689,0.394820055832,0.659029511686,1.29667009208,0.460560726914,0.575222253255,-66.9579889371
off_to_on,0.360253069204,-1.41945417927,-0.183367641067,0.178650502539,-0.841545512286,-3.94460315454,0.17363932069,-0.926078158752,-0.352565156911,-1.14715510291,-0.924713815414,-1.73264675239,-1.74298141272,63.4288106587
off_to_on,1.74563477293,0.343883764554,0.41628388008,-0.303564779369,1.73795275992,-0.801071279449,2.39834185616,2.29676592948,0.30951635022,0.7702328532,0.132072769943,0.171748458899,0.957248682297,-20.0848603408
off_to_on,-2.27230544177,-0.453846584052,-1.46641750026,-0.480865376839,-0.723666981922,2.98205441701,-1.95898707454,-1.45257920138,-0.265780559324,-1.09615226018,-0.267453950105,0.256969430073,-0.397997741951,-14.6058452613
off_to_on,0.133656942725,1.21808990854,1.37062699634,0.456677427125,-0.399446414434,2.11009188445,-0.550152354539,-1.22117087771,0.221465761676,1.11475187862,0.333551549065,1.75037256659,0.407540044601,6.3595237943
off_to_on,1.17017230093,-0.60280220646,-0.0585634075478,0.119013251207,0.231986160372,-5.15383273421,1.02653505254,1.33280069871,-0.176680234852,0.320935878269,0.0269970727067,-1.48300423202,-0.0468817974072,26.5608516615
off_to_on,-0.229202373067,-0.716014055415,-0.765164780502,0.222934135982,0.266786667678,-0.687084363478,0.192204744988,1.25316310066,0.131533868634,-1.14872354919,0.193641813551,-1.46739089535,-0.138751755322,-11.1180872123
off_to_on,-0.207320889831,0.895513412328,0.78567732995,-0.795740596267,-0.141355915835,6.15377409391,-0.290655408259,-1.44896548373,-0.0861380642012,-0.093145674554,-0.469921809672,1.71634365003,-0.185259579623,-56.7123794319
off_to_on,-0.82849823832,-0.410438661708,-0.793336722845,0.0456958567713,-0.0825655515117,-1.68094390963,-0.574016298159,-1.57288804564,0.0406039155944,0.673969914875,-0.412767666484,0.547926016764,-0.2678294858,58.4568430417
off_to_on,1.0204124567,0.485366444029,0.547905620408,0.915971822509,0.0926936281768,-4.8649609954,1.06632431323,2.62306543654,0.00495793464699,1.30541865754,1.21977887431,0.059931682292,1.42107530083,36.100111894
off_to_on,0.171441230243,-0.331602019152,0.336138402196,-0.187287609352,-0.343688102327,1.94278956358,-1.0813412434,0.0929469505165,-0.05043611059,-2.24640724941,-0.22093865358,-2.01309310326,-1.01728563566,-64.3683700548
off_to_on,-0.818344077809,-0.872693515921,-0.937984854496,-0.942027827513,0.491240871108,4.58671788306,-0.203671952211,-2.26981148119,0.0957191723211,-0.917010955178,-1.21604499428,-0.444808187558,-1.13810644281,-33.1907105543
off_to_on,0.598785393479,1.52614478724,0.509795943895,0.197868840184,0.174974197125,-2.34842367074,2.7191603582,1.34510091828,-0.140697208505,3.88231619071,0.872521813316,4.00795177372,1.9793490059,61.1353306621
off_to_on,-0.568160022888,-0.251498736457,0.187100853738,1.21950144717,-0.815350972042,-4.57041846788,-2.57013534934,0.358375975899,0.185261475641,-1.2606629133,0.482862081449,-1.24111075569,-0.144169113916,58.3276662545
off_to_on,0.277595993787,-1.16785852083,-0.278251947537,-0.842474579055,0.203007668969,3.50879193521,-1.7500860024,-0.73316024628,-0.229303516195,-3.41818335543,-0.818443836455,-4.00956896276,-1.59744662106,-99.2941789761
off_to_on,0.735710828831,0.680324334592,0.0431228605692,-0.400207259256,0.791131589905,3.37905646735,3.99437667663,0.362324794743,0.272716240678,2.64172182516,0.230450128648,2.45372130624,0.889302012124,-25.0185053068
off_to_on,-1.10787866185,0.2878005625,-0.237718738781,0.208363368102,-0.683545977672,-4.18143737665,-0.183439999939,-0.308179467453,-0.315395132255,2.00767380796,-0.0369263041627,2.98760758825,0.516505829348,59.5998155206
off_to_on,0.506576975023,0.563730909593,1.09733292623,0.674676954605,0.241230683106,-0.713173944992,-2.75447539986,1.00487474804,0.357237538123,-1.98129359799,0.476844091891,-2.09604620603,0.0479524846869,82.7366765805
off_to_on,-0.724807095664,-2.02281176935,-1.85295309056,-0.446707642446,-0.802883961126,1.61446262882,-0.932075999144,-1.93028249593,-0.398142193778,-3.14596449556,-0.935809142492,-3.76939280531,-1.74176480498,-118.719266382
off_to_on,1.69815373187,1.4869200108,1.25245474379,0.0411189530179,1.29671529921,1.47614858976,4.37883833012,1.33116503149,0.438010525468,4.38759647292,0.906344377807,4.34886805756,1.75589250094,-31.6513283957
off_to_on,-1.06070781646,0.264906358457,0.423836586224,-0.752999563519,-0.317928120169,-1.45922512617,-0.756100858664,0.935340053555,-0.476747382355,0.79701019484,-0.269498801839,1.05541024549,0.0312286980044,57.242200492
off_to_on,-0.935740271005,-0.645407188022,-1.002023439,1.09652266307,-0.662396702331,-0.758362457355,-3.56981612225,-1.59363463941,0.514260158593,-3.77393177467,-0.28748907678,-3.44373525055,-0.971902495868,109.299454447
off_to_on,1.31338296661,-0.070300511444,-0.167376875535,-0.0057584968185,-0.197544105464,0.184256129491,1.13235869917,-0.819411750085,-0.550458749953,0.0227581517198,-0.125308162117,0.228952160495,0.059680152733,-130.340007611
off_to_on,0.242691877178,0.0595410568988,0.81206768484,-0.356890559676,1.42477510609,0.949088530918,2.95406211365,2.22509962938,0.58525687994,3.2830576107,0.917551962074,2.29017172191,0.718311488041,-44.9924042759
off_to_on,-1.21240372939,-0.034388667187,-0.062353625786,-1.19475316527,-0.825918363225,0.448619643049,-1.58999152441,0.0715742733113,-0.618572351268,-0.80205651597,-0.731979596506,-1.08997463585,-0.223166102547,55.464964333
off_to_on,1.07697938077,1.39368551302,0.383709276206,1.92425116597,-0.360539405827,-0.412977979022,-1.43452753984,-1.6561130482,0.650326169078,-1.78168658036,0.0896860876891,-0.215582196782,0.152512516904,129.806613304
off_to_on,-1.25189325004,-2.48188227558,-2.3637929489,-0.210253001615,-0.260738647009,-2.61130938419,0.00173777318755,-1.2780260265,-0.680442886778,-0.880706996979,-0.638924636916,-0.749892746757,-1.56197649231,-128.980644351
off_to_on,1.48409471853,1.3757267238,2.62398044907,-0.944573851414,1.85326868517,2.70078895778,3.2500982928,4.34166808923,0.708851782341,4.0436589733,1.80760726133,2.129939054,2.45919686565,-66.6603836887
off_to_on,-0.847660313154,0.0860262536127,-0.204961327695,-0.702933636873,-1.93926824807,0.736015050033,-3.01717996199,-2.35061003424,-0.735486685478,-2.11121450048,-1.51935967197,-1.9608449289,-1.15252393195,58.1140164817
off_to_on,0.290688077711,0.40594160424,-0.937814726584,2.36167348743,0.61607405956,-0.183893819261,0.0196902474903,-1.59907198648,0.760285240775,-1.50991955354,0.0645157967708,0.379754933834,-0.598819491933,140.348201227
off_to_on,-0.590217827015,-1.25552560232,-0.786755993845,-1.25724971622,0.0929477706492,-3.77648335647,1.86699087499,1.76143120686,-0.783189546524,1.24688235858,0.294918055088,1.08358768521,0.338984131718,-116.880551419
off_to_on,0.582531980734,0.318336817376,1.57123363934,-0.470567127229,0.357317035333,1.63712390034,-0.947971883862,0.954807449289,0.804147051126,1.33921674972,0.709539669908,-0.591279899762,1.18073373518,-90.8916140988
off_to_on,0.0417779313838,0.672397578443,0.217126970768,-0.140728760828,-0.905766898319,4.88027230819,-1.61681617928,-1.97802597339,-0.823110058267,-1.73726777295,-1.24168217482,-1.53851857557,-1.42796447725,62.4483557013
off_to_on,0.233320418198,0.505740393017,-0.809783697672,1.79703907287,0.969353138299,-2.90532892167,2.66971220666,0.811641861664,0.840035221879,0.246883905096,0.797103361241,2.15049765956,0.162395622951,142.017869438
off_to_on,-1.37708344245,-2.08441978398,-1.34996304418,-1.71528564229,-0.805001303719,-6.68370748508,-0.543506341355,-0.197656818584,-0.854884350103,0.010159565118,-0.586115801898,-0.104535841263,0.367713940045,-97.9561427264
off_to_on,1.60048338028,1.5843627552,2.49035405304,0.347610216837,0.734034282606,7.65350149872,-1.07422863332,0.981767643174,0.867624946216,1.27389016619,0.970290313062,-0.872760651538,0.97422187246,-112.838057561
off_to_on,-1.10827854383,-0.444813233513,-1.08303632022,-0.00215956872123,-0.962786776401,2.66271710728,-1.58507867846,-1.88672895657,-0.87822951796,-2.17491553572,-1.20712386937,-1.72149288317,-2.48145149443,65.8638117392
off_to_on,1.56651770074,1.14201410828,0.633730277732,0.93806466689,1.36643615148,-6.94878411365,4.39985306241,2.03355056967,0.886675343394,1.97069566594,1.17198779914,4.13486134133,2.19155904413,137.24681592
off_to_on,-2.12880910019,-2.39489296046,-2.12120972646,-1.53891458702,-1.35896692861,-2.18426609293,-1.65729466054,-1.33095509095,-0.892945303232,-1.1798820418,-1.19570154604,-2.32173936717,-0.708407654073,-75.9866526232
off_to_on,0.801626226057,1.40206893858,1.74283145625,1.11085082936,0.77732389231,9.25538767958,-2.66776036784,0.119143824369,0.897028047091,0.169056765827,0.967915889645,-1.27994809281,-0.0252382860905,-130.114192928
off_to_on,1.10701511044,1.04097109272,1.11615066277,-0.558215649905,-0.3552036049,-2.48932652393,1.3285577169,0.593176177017,-0.898917235186,0.546151277497,-0.321168461487,1.94258191264,-0.274423977438,67.6728010959
off_to_on,-0.75365766411,-1.55825638743,-1.78362319085,0.719497850921,0.569062248455,-7.17425263049,2.78488934224,-0.030750010238,0.898611564007,-0.210844408196,0.110177105508,0.312197920737,0.460416473963,128.446147205
off_to_on,-1.2152040142,-0.563258425506,-1.14768754142,-1.22403984941,-0.920084205859,5.01466766078,-2.23141598998,-1.05338776367,-0.896115501991,-0.883937946796,-0.824175305487,-2.15912668629,-0.403126042467,-54.7128582517
off_to_on,1.92020563385,2.49060384053,3.01172803048,1.22552927899,0.926345267699,5.00890459569,-1.14586554274,1.35129932949,0.891456382288,1.45309769184,1.46570044018,2.04652945195,0.875937010875,-141.331666205
off_to_on,-1.11968352839,-2.18033419493,-1.41250468927,-0.740835147061,-0.789852218766,-8.39492342866,0.567150678009,-1.03408707986,-0.884842639257,-1.22786159065,-1.18812597491,-0.859121242378,-1.59418926127,67.91375604
off_to_on,0.81205147845,0.859242836103,-0.0398336223624,0.557667153379,0.82949650064,1.57259213586,2.97580478663,1.31754629822,0.876982157089,1.31444548889,0.780801139005,0.192682306208,1.65360694704,117.726677628
off_to_on,-1.41238118133,-0.521106251456,-1.15377889083,-0.86678099827,-1.14479477712,4.87255425738,-3.67652531836,-2.08751646671,-0.868355318016,-1.88886604394,-1.10862170994,-1.05328851315,-1.23611947236,-36.9075085574
off_to_on,1.64284609108,1.0955804321,2.3202260583,1.00290908029,1.56520803101,-1.97792381659,1.18663424662,1.75469848137,0.856217335812,1.55297457553,1.43013991052,2.30167331877,0.955164677139,-146.410876827
off_to_on,-1.02100672341,-1.27768113268,-1.16139692216,-0.748218565126,-1.39706232791,-5.42304839878,0.818170250559,-0.0907282296307,-0.834657031433,-0.106302398049,-0.854290435022,-1.59614749,-0.647983929554,67.2597847233
off_to_on,0.192410555558,0.715984575819,-0.395540481488,0.685798517871,0.29789589557,5.84462186598,-0.977442936662,-0.771044604379,0.805538310112,-0.403541737137,0.152277098133,-0.510675609631,0.329323822445,106.677172296
off_to_on,0.213821107408,-0.0738553651483,0.21993559185,-0.983917666352,0.444502653129,1.75782401659,-0.259057807581,-0.311206856503,-0.78601476537,-0.809678926578,-0.398977426498,0.799021792379,-0.575509954291,-24.1797982177
off_to_on,0.00431953015549,-0.212258853243,0.630202974799,1.10262261547,0.469334649187,-5.9311894872,1.9387937183,1.24447358159,0.785178943423,1.35037703075,1.01807190864,0.850791963687,0.889162784051,-146.229239182
off_to_on,-0.523848033992,0.0991194041895,-0.551530278488,-0.873679997144,-1.6627207695,0.495861475482,-1.63706160798,-0.274943185384,-0.775977367443,0.178866481159,-0.909763590868,-1.10632765349,-0.162167179724,66.80447412
off_to_on,0.828431309883,0.560409891926,0.22936224972,0.648265339612,1.02929230691,5.73946315003,-0.922668179334,-0.507323471944,0.728861622942,-0.983291596197,0.422788833462,-0.129380746322,-0.603787744257,94.5453751559
off_to_on,-1.08950284565,-1.64923444169,-1.0151381932,-0.511110957509,0.21250119408,-3.81920910186,1.16804268639,-1.20318613068,-0.673390196208,-1.28116332231,-0.555437261189,-0.600428133935,-0.651183911759,-9.73361534528
off_to_on,1.652958168,2.25881204604,2.30785871325,0.468151980597,0.515229920401,-1.41658849873,2.74799029167,3.1250524033,0.663975317768,3.58784327489,1.1480444173,2.8110717847,2.83732908516,-158.613075141
off_to_on,-1.7182379527,-1.54720325014,-2.21910908883,-0.798205674219,-2.00732144382,1.50617352616,-4.69159551126,-1.84382296443,-0.679107206493,-2.07482168668,-1.30461750054,-2.22229831905,-2.57971833947,86.6198766902
off_to_on,0.558144047374,0.0952419660441,0.420038488626,1.18492275941,1.22755305322,1.5905617783,0.608708737889,-0.92780076327,0.643301531195,-1.08440678312,0.841169498067,-0.633637095543,-0.1329955472,82.8304729878
off_to_on,0.533919530857,0.56599923578,1.06867140291,-0.70786271476,0.645492795594,-1.77073431165,3.25644879745,0.928589894576,-0.561892653086,1.13799855054,-0.254339074951,0.848630269853,1.518321278,-38.6617750795
off_to_on,-0.186625411287,-0.020903417147,-0.625598722279,-0.283996874285,-0.178026040742,0.0595741565241,-0.926881810598,1.23592114498,0.520439025224,1.04590651642,-0.0898493925363,1.20806880527,-0.0746700875807,-104.422931794
off_to_on,-0.425865962825,-0.485933613891,-0.643643839955,0.136135408094,-1.50296129306,-0.0188887182303,-2.686511994,-1.16924694738,-0.529437784276,-0.929630016833,0.0504095048387,-0.557488309088,-1.30530495306,68.1529691387
off_to_on,-0.0236628686956,0.16350445395,0.856571452506,1.15453125964,0.726835155393,0.0791787624247,1.17713888474,-1.29931927387,0.503895036152,-1.07693746033,0.406383583049,-1.82681097805,0.579578833241,47.5844718903
off_to_on,0.14947529616,-0.024798284167,-0.340108759807,-1.38829846578,1.21957343618,1.32165983763,1.72484750065,1.41310066837,-0.4250781775,0.513244683451,-0.954519621439,0.232345829258,0.299760555449,-4.35346988905
off_to_on,1.14737633917,0.882135027602,0.435959222305,-0.0656513771204,-0.257951828097,-0.792816490998,0.0841993834068,2.09141083149,0.373913193696,2.27270980936,0.988254799786,3.76085845139,0.571187325048,-94.3970237695
off_to_on,-1.82731483038,-1.52123757726,-0.846151689996,0.856748524492,-2.23085933763,-2.87614446189,-3.3944122473,-3.92613635967,-0.371450746177,-2.34714846138,-0.36184202829,-2.78192270546,-1.59528617783,44.6615492626
off_to_on,0.618795625424,0.842518166674,0.806724057723,0.266226319785,1.62948470138,4.30857545935,1.99210868932,0.738234805659,0.342042882822,-0.456067231636,-0.161423000494,-2.14427409533,0.884766485085,34.5117404536
off_to_on,0.10565864531,-0.0646358305554,-0.890505595486,-1.17149524973,0.947710862404,-0.36031935796,1.70335227404,2.66542895924,-0.266730101121,0.992002230845,-0.23726227216,2.26260202888,0.162214466245,31.8954720494
off_to_on,0.813424976882,0.285407638645,1.01935394326,0.280360986874,-0.721797905177,-3.72336118964,-1.36130103461,-0.859136743223,0.216081972882,1.36191129361,0.99164933715,2.74136006229,0.346183661732,-95.2520837534
off_to_on,-0.566694377617,-0.160385039782,0.263322241561,0.551944016225,-1.40475266402,2.35351643844,-1.66897878684,-2.68866821838,-0.204826704937,-1.3760931294,-0.569135726902,-3.42119423337,-0.989560078466,-5.18050612375
off_to_on,-1.61705681273,-1.02039461534,-2.0910202295,0.320344628791,0.795623582119,2.04028588959,1.2336168149,1.20294446124,0.168008367511,-1.76760682144,-0.936883764218,-2.23202776235,-0.29612220572,90.8591081181
off_to_on,1.87678090204,1.15137737101,1.36685990153,-1.10688408846,1.53848413109,-3.17203671864,2.19456815808,3.17518445619,-0.0971168180435,2.4215107292,1.25675979498,4.79199406601,1.89547141968,-9.48996572608
off_to_on,0.827930360563,0.439789733717,1.21042764692,0.0229994458967,-0.987265138017,-0.418223716134,-2.41679136984,-2.56751937635,0.0517169108346,0.778571690318,0.412596893941,-0.169039619214,-1.03776085702,-33.7686380459
off_to_on,-1.90182040096,-0.921091773987,-1.3573902429,1.13517605418,-1.37796445874,3.82389493312,-1.32449439238,-2.43644300767,-0.0334585698651,-2.05350370226,-1.45258741786,-3.73461426958,-1.14865008167,-93.4809973752
off_to_on,-0.245469589537,-0.353130231233,-0.703023620094,-0.245001424378,1.02454201087,-1.87350188353,3.0726953026,3.39332022566,-0.0115172502966,-0.432998391817,0.111179447591,1.64668199079,1.54880589993,134.845811681
off_to_on,0.984156745831,-0.0358615929551,0.306826582613,-1.08303040147,1.0246262158,-3.60492163666,-0.569430930584,0.758257431396,0.0772190636314,1.04955954519,1.06123652643,1.06353525524,-0.350278483302,41.7907622628
off_to_on,1.2863646268,2.19155816563,2.06976852477,0.35714690002,-0.581394735467,4.70471304226,-1.46398336755,-2.039975479,-0.114695812293,1.90305189035,0.25720912835,-0.0019850390399,-0.107218902827,-122.642860189
off_to_on,-1.79326967724,-1.35183154984,-1.07879725179,1.23531890301,-1.20825494102,1.05343997068,0.260403607234,-1.29055891745,0.136599271251,-2.22140239988,-1.45194090291,-0.92700601472,-0.0672597673575,-52.2551964161
off_to_on,-1.10610287829,-2.55737765665,-2.53999280737,-0.957209036875,0.491376864248,-5.09750035914,0.669133559652,1.73661719614,-0.186752845508,-2.11464136012,-0.374318954859,-1.00486584429,-0.580300855061,134.058593987
off_to_on,2.61958577484,3.2037439775,2.51132482952,-0.608136326357,1.47493198382,1.21347739698,1.02621152017,2.44470535951,0.246593774381,4.08214139665,2.45802755751,1.84651765573,1.20823948759,70.87853546
off_to_on,-0.788858203297,0.516020795105,0.781222271587,0.712182865422,-1.17788327348,2.93439144553,-2.14680280644,-3.64492642176,-0.277152040103,-0.295129855283,-0.996759839513,0.150800529981,-0.529793426797,-199.339280937
off_to_on,-0.447338737655,-1.86275124725,-0.893162255685,0.718568857126,-0.196854443469,0.497872117196,0.535563667136,-0.343281344531,0.301151720159,-2.53236309725,-1.54984550543,-0.635408253074,-0.078494593433,22.7863936784
off_to_on,-0.46528070501,-1.10775290277,-1.91108035015,-1.19630331147,-0.193636429551,-4.08725895017,0.787213489772,2.29789953472,-0.352008864797,-0.143555996332,0.582662805948,-1.62181435687,-0.660117061947,111.553507871
off_to_on,0.595482239942,2.13143862292,1.43039828813,0.126643588853,1.02981021777,-0.634005720623,0.143300743864,0.372743747416,0.403794438441,2.71329989404,2.11928119193,1.782604865,0.982938050302,39.0433230514
off_to_on,0.503645593249,0.753069721919,1.75351193104,0.393981422957,-0.202491614526,5.09599443281,-0.53323836313,-1.55916378904,-0.428598871175,-0.291320963404,-1.52618911503,1.21735198477,0.350190347497,-160.293345305
off_to_on,-0.407590786526,-1.78569453817,-1.55478420711,0.579931023587,-0.574802490385,0.499524727131,-0.893228695623,-0.744934117909,0.453954044433,-2.50073890262,-1.34679660881,-2.0527980536,-1.08803228768,24.2214405225
off_to_on,-0.416300406172,-0.691151956164,-1.35407685882,-1.34262076001,-0.415800829911,-6.31789226533,0.820961835187,1.13969702953,-0.5016903621,0.614478215665,1.28463898461,-0.754983386053,-0.311259271948,83.6946708219
off_to_on,0.27581296974,1.6329616069,1.52566228238,0.663412470494,1.32950104343,0.566549690438,1.69158335711,1.59422919525,0.543439460559,2.4991599476,1.6150526451,2.17839205925,1.50410004329,35.1195155624
off_to_on,-0.752451746367,-0.223029209958,0.00736441794445,0.206893226978,-0.79150619779,6.24797372153,-2.5095686367,-2.36754960043,-0.563143845374,-1.9651895588,-2.41347820596,-0.660038591786,-0.762902892001,-118.333295887
off_to_on,2.56783713069,0.871914739372,1.13370116312,0.139718801736,0.421954330656,-0.051756690093,0.423842456684,0.351460340598,0.588666671746,-0.100736238454,0.375801824175,0.449548939835,0.278423925262,3.34851375016
off_to_on,-2.26675570931,-2.90492458721,-2.74304971841,-1.01923466111,-0.944306195218,-8.87149738262,0.113802224983,-0.0351434180421,-0.630113512212,-0.340175299673,0.393278336524,-2.18088744944,-1.56154914619,66.8476542215
off_to_on,-0.72783540848,1.53940211725,0.85407010609,1.12287818352,0.950506083144,4.02726701098,2.0479125483,1.75558232522,0.660703297902,1.95982623905,1.05700762632,1.58717815055,2.1422160402,32.0434579668
off_to_on,1.32831304199,1.69754793957,1.38472111019,-0.619400224689,-0.492149270634,6.22822227547,-1.97406201141,-1.55884236598,-0.675677390147,-1.44719999197,-1.43778535611,1.09774624715,-0.300354830019,-74.4316051269
off_to_on,1.52767472072,-1.25323222043,-0.0708347678072,0.434123457556,0.798873542393,-4.10930169813,-1.32692914216,-0.549396646845,0.699721668732,-0.523187673175,0.0694368784525,-0.991014166398,-1.32827838747,-25.6142546462
off_to_on,-2.05839388798,-1.72726080628,-1.51510692103,-0.679771197791,-0.996975746007,-5.26229860199,1.97439562478,1.10522473649,-0.732474089738,1.16714601012,0.195475721346,-1.50108796566,0.261256024534,58.6925162906
off_to_on,-0.98023484257,1.80693328861,0.195154214859,0.918217819071,0.022284232151,4.94567851147,1.56068448882,0.103623049732,0.751697374211,-0.0763390316905,1.01235970518,1.23122255821,1.60051571161,24.9824063087
off_to_on,1.47557241872,0.446191697979,0.557424145871,-0.977503878098,0.3104830354,2.96441640506,-2.97749958035,-0.970566553772,-0.762012396178,-1.27579263659,-1.10559946922,1.1117084595,-1.43809567084,-32.2164116165
off_to_on,1.90494429793,-0.332391213128,1.4705036068,0.823961822099,1.200389691,-3.69388213843,0.145323988999,1.5919475238,0.782532603602,2.05173786954,0.111862945136,0.038095972555,0.110177085817,-53.659708452
off_to_on,-3.19182217407,-1.99714347076,-2.47250305684,-0.52697176227,-2.10759241961,-3.35651281676,0.747713374114,-2.40051862873,-0.804930829731,-2.07238094073,-0.630041054595,-3.7010711747,-0.30259433332,55.2013553452
off_to_on,1.08447281742,2.73469023069,1.01901092639,0.507984779574,0.989520043764,6.38295494624,2.58716296824,1.9078092566,0.813382943885,1.20867023657,2.24687375641,3.25729551221,2.03634512598,16.662913067
off_to_on,-0.559927040673,-1.39569425501,-0.81268066213,-0.910644004956,-0.351927062707,-1.78821548417,-3.81724872995,-0.191688049215,-0.818958886788,-0.0814530638984,-1.85151586094,1.02446680021,-2.6631416377,-1.53558203152
off_to_on,1.77424315679,0.196548554759,1.97893302091,1.10255101936,1.25505506233,-3.32483273274,0.0506538759637,-0.214513583302,0.833844615835,-0.0409947793627,-0.371520902423,-1.79542883257,0.891350697489,-67.6311879623
off_to_on,-0.431439789145,0.261455468198,-0.63385285711,-0.767718144405,-1.08578453559,3.01529903043,2.61869294561,-0.877283013315,-0.844941214384,-0.986261874749,0.819763376126,-2.16236504397,1.06584393223,49.3148474504
off_to_on,-1.73622392059,-0.264434854938,-1.8162859861,0.624545346615,-0.391860178817,2.01115589,-0.213799239315,1.0158934606,0.843691994876,1.55271267223,1.24365035287,3.58674441532,-0.439550547484,6.81419395165
off_to_on,-0.0793172797953,-0.526016959716,0.461956504502,-1.05143413186,-0.0751750925424,-5.44688909732,-2.64382580597,-0.130737831692,-0.844336190663,-0.42115924741,-2.36260272905,0.501690820033,-1.75744078832,20.0554849301
off_to_on,2.98473225414,1.33639475,2.7360714042,1.25451491321,2.1294670822,1.44885394315,1.66384607139,0.182554456406,0.851784832747,-1.06645618715,0.764482077433,-3.57233057155,1.87660892596,-68.3134696804
off_to_on,-1.43563586154,-0.917021732639,-2.07175244504,-0.789903073159,-1.70778897841,5.05748637965,0.396719501481,-0.875948024714,-0.851391756937,0.331015991488,0.790293539592,0.282091962544,0.259763710416,39.248102717
off_to_on,-1.24061804505,0.518478640575,-0.641046870503,0.431627581458,-0.618384729486,-2.43630894464,0.142965271266,1.07472014454,0.841720664182,2.4651855371,0.339766036262,5.07766091342,-0.420620049635,-2.27692123258
off_to_on,-0.839405056951,-1.72913291661,-0.333259523197,-0.683243052898,0.150717660961,-7.10404352638,-1.96376146981,-1.68707022539,-0.837132215952,-3.68807134492,-2.44992583083,-4.95940795886,-2.52400821183,33.5630699152
off_to_on,3.98232195514,2.54674038906,3.20677446136,0.973006699133,2.56794480436,7.50622647484,2.34725541364,2.61503719763,0.835878062361,1.40204496573,2.29040553573,-0.52437799005,3.57914102081,-59.7661597183
off_to_on,-1.9232569053,-0.928743696858,-2.35935501772,-0.884755263734,-2.47186140881,2.80671901926,-1.57692583977,-1.56076413523,-0.824540826546,0.977833691804,-0.196683812728,3.51399065113,-0.370339093171,27.0712989596
off_to_on,-1.70089887009,-0.556925872776,-0.710275161705,0.72483662335,-0.19557177779,-5.91127090906,0.857134400335,-0.774292841886,0.807765363388,0.0642048823021,-0.596398457397,0.341465317401,-1.73571034608,-9.39857640515
off_to_on,0.582830863838,-0.400221597314,0.951237616236,-0.692567239067,0.638218820345,-2.91824848964,0.351259413382,0.850401286916,-0.797602352737,-1.78823920625,-0.702629506165,-4.69004917025,-0.709718001272,39.3413802759
off_to_on,1.96504798197,0.913682557043,0.598216097608,0.712049669554,1.02901523297,6.0673421415,-1.96739825882,0.715986001005,0.787045234465,0.0504983387608,1.3765638451,1.83642269782,2.38774189,-45.5510436997
off_to_on,-0.392747098789,0.718810978869,-0.444563466495,-0.830853789864,-0.91089598999,2.23766985609,1.24977474155,-0.530921462605,-0.765936994108,2.12584263991,-0.32719639462,3.82016929674,0.372534518858,15.0858086924
off_to_on,-1.51556589532,-0.398221442382,0.186867513506,0.939567904761,-0.226335802501,-4.92735683419,2.80886280247,0.0921053422203,0.743308447648,0.600537829163,0.0763024476941,-2.02359569733,-1.73021593846,-14.1999272688
off_to_on,-1.3180162327,-3.02100088143,-1.9044235579,-0.764433027067,-0.793634984336,-3.48240870378,-5.24046746205,-2.21654054276,-0.727296024755,-4.71061004258,-1.60783975992,-4.93748799732,-2.06103083522,38.4728584236
off_to_on,4.1888369796,3.38859951148,2.56868934896,0.518049372732,2.13170132151,6.11145962413,1.38822769215,3.16648865286,0.707539056746,2.64321600547,1.99136215226,4.91365826261,4.09361052839,-28.6756496856
off_to_on,-1.50397483577,0.837780674824,-0.378725477775,-0.596065660215,-0.788352298315,1.74941971323,3.8056032955,0.324005863842,-0.678299034775,2.7065345668,-0.109303983104,2.05964669154,-0.0556427296658,2.47926132979
off_to_on,-1.95799863138,-1.81631571037,-0.673469733606,0.768117452033,-0.586124486209,-3.41537094397,-1.65653065167,-2.28849165341,0.650923679185,-1.75779441318,-0.60520480218,-2.99105582625,-2.3841673586,-7.45392288865
off_to_on,0.108370225601,-2.70619054939,-1.36182811941,-0.721365615242,-0.94369830007,-4.37526977859,-5.12049372672,-1.78483957301,-0.628491380135,-4.13191073566,-1.33629252251,-3.70715258244,-1.65002297382,15.102487942
off_to_on,2.88048388611,3.65406847829,2.12378464604,0.710866591962,2.14030669483,4.63934708519,5.0091847919,4.41563978348,0.597561927833,4.19666573844,2.20823658666,4.63422811387,4.02371639565,1.08443230605
off_to_on,-0.93219418262,1.96328649374,0.495476889602,-0.759908789477,-0.110513828992,4.29807286728,2.81749643651,0.460006114844,-0.554420951811,2.27333249442,-0.0558396325454,2.9188129068,0.615566979404,9.63655443058
off_to_on,-2.45795735576,-4.14972472083,-2.10998915659,0.477252372153,-1.48297293801,-4.52576334185,-5.97710397304,-4.76369041532,0.513821228244,-4.534873399,-1.47868625923,-5.18328233167,-3.96897819095,-57.8269213177
off_to_on,1.24807957445,-1.21652793598,0.160934044254,-0.21467580186,-0.386430959372,-4.84302817808,-0.372197143625,0.715686544779,-0.490323297407,-0.442243219142,-0.0141016856274,-2.06900678302,0.0322296201593,59.5929456791
off_to_on,2.28795447367,4.4152807231,1.96357917551,0.596847827865,2.12498959111,5.37472586148,5.7971886131,4.62047559626,0.484927155211,3.97944486499,1.66594273105,5.87482832509,3.83720946248,4.38318326199
off_to_on,-2.62150696864,-0.681022079688,-1.78470438961,-0.906909066169,-0.723704984231,3.47601099173,-2.91565529087,-2.77482936257,-0.474310466756,-2.03411641312,-1.22667645578,-0.736124909967,-1.71993713091,-33.917118806
off_to_on,0.358243120661,-1.70236604478,0.882924850211,0.251430175739,-0.740797593011,-3.56582818196,-1.82442690779,-1.32808979397,0.4165457979,-0.132747722564,0.435956550516,-2.81312327468,-0.884791141252,-9.44876426377
off_to_on,0.542841470742,-1.1782302621,-0.319220831144,0.343271941268,-0.299197341761,-5.08795586221,1.4630197285,0.516378380578,-0.315751555052,-0.0307911795749,-0.406362486346,-0.389588726247,-0.229576330412,33.6463559045
off_to_on,0.388977493616,2.26851359228,-0.232311401348,0.279857875222,1.39481913472,4.86414432986,1.23489342883,1.74933860475,0.263035561474,-0.134602574161,0.0149299290765,2.61749721534,0.989576126937,13.8516831317
off_to_on,-1.02070070761,0.756972535536,0.011582163085,-0.920859985509,-0.686452577824,3.93623383453,-1.73547509001,-0.428539466218,-0.317204052783,0.351978517986,0.362527423078,-0.461471253482,0.168581603082,-66.4051469009
off_to_on,0.327553462469,-1.63091175404,0.689502734031,0.313081052678,-0.147642661419,-4.78564624029,0.328609506125,-1.48613489224,0.366275941823,0.941519956147,0.429933761197,-0.83423491476,0.223265433332,62.3545305705
off_to_on,1.1673418626,-0.420076933574,0.329763064749,0.226416441014,0.340208792436,-2.17011023824,1.59681177792,0.699090996661,-0.261599190771,-0.758156296331,-0.814985042576,0.490697434123,-0.936788416123,-19.6487721734
off_to_on,-1.81845152808,0.149927318218,-2.00895893201,0.446790887039,-0.783874457152,2.94527814467,-2.64369684394,0.295467198307,0.0820432288226,-2.10183373113,-0.566425685228,-1.63161823363,-1.3762785676,-13.9279028312
off_to_on,0.10670478926,1.19308132701,0.544567164966,-0.732495618082,0.530343468262,1.60627155827,0.3200393891,-0.00779237642982,-0.050856639673,2.07721774667,1.12943519471,1.32857405129,2.53089160814,5.73776007016
off_to_on,2.38624982329,0.857234696758,2.51080365192,-0.385853515797,1.20024047378,-0.632624378258,3.63708211873,0.555036313633,0.165143602406,2.43440548152,0.838099425097,2.81451464429,1.55698959387,25.8393351954
off_to_on,-2.0942955462,-2.73636378455,-1.78600791544,0.879858147144,-1.6959214542,-2.93535712285,-2.84660272362,-1.53284525866,-0.17448202192,-3.76325171765,-1.96662795686,-4.0365201693,-4.24719887149,-9.45502873934
off_to_on,-0.628947261945,0.0335283158032,-1.31069636796,0.374502638872,-0.551784534108,0.311835273,-2.27784637867,0.650086772983,-0.000939016195186,-0.883571769347,-0.0502222457575,-1.18523252477,-0.0524940324376,-57.6326666321
off_to_on,1.43780947009,1.99224992194,0.759865967439,-1.06385987558,1.82267326561,3.33146103322,2.94462231994,0.555218997094,0.133781422181,2.96283182507,1.60243714233,3.84743591946,3.66133647787,58.01738189
off_to_on,0.527021691204,0.973474150159,1.88457994731,-0.221854182273,0.290136075333,0.245065927656,2.09859948887,0.0727226732159,-0.0910232817096,1.2651365817,0.0826526414904,1.13198353323,0.103508738053,36.2584832468
off_to_on,-1.10267067839,-2.25077089857,-0.370968575065,1.23616503662,-1.80495057291,-4.64977879897,-3.07283587269,-0.206651043514,0.0522368169326,-3.03110307129,-1.53225341763,-4.01172235182,-3.43152582721,-62.7307809166
off_to_on,-1.22582033863,-2.3423127781,-3.20879405253,-0.333256325872,-0.347268255334,0.726404790734,-2.47489788038,-1.68561941807,-0.161194778443,-2.06693424411,-0.281982206035,-1.49272976503,-0.697805637648,-35.2089220365
off_to_on,2.63362150492,4.6036908424,2.12161684149,-0.662599554048,2.42151906955,6.19232960101,4.59043901385,2.17617109604,0.2756912943,5.16364061274,2.20360406889,5.69335673419,4.61082784922,61.2747108598
off_to_on,-0.841300449155,0.383935454587,1.59032770181,0.14292633761,-0.961472075139,-5.33804741977,0.142242932492,0.089897421462,-0.261086748723,-0.52825074774,-0.924244426908,-1.00299238151,-1.13560878524,58.9337562983
off_to_on,-1.35805004629,-3.99115424112,-1.32473908115,0.673763706509,-1.06661352432,-2.54709491398,-2.89069701522,-1.19961030849,0.235643661882,-4.22282269475,-1.21286704427,-4.33414414222,-2.98617358031,-97.7952280058
off_to_on,1.22227845567,0.410313612727,-1.18504274212,-0.599325268762,0.454831752947,6.95512439003,0.362653346079,0.0106451941033,-0.318544668889,2.12117795725,0.929749842101,1.98618933394,1.09819933487,-27.721697859
off_to_on,0.231876452015,2.83160931556,0.461972085432,0.351945958533,0.782103493781,-1.87427183799,0.706131225247,0.0213793049126,0.407884005755,2.32140008549,0.690569751621,2.65950322645,1.72798090475,60.142377237
off_to_on,-0.882128117154,-0.259200230712,1.38523260755,-0.43275594637,-0.433597086921,-5.92809654265,0.792287954431,0.909373708741,-0.402975432523,-2.61680300407,-1.15237413222,-2.16259101634,-0.70928766687,83.6464910568
off_to_on,0.36063815678,-1.90301564205,0.0188274148278,0.297738938406,0.0103310813918,4.8923390664,0.574889923793,0.559170607766,0.393887825396,-0.22716783471,0.498393924956,-0.97959973449,-0.376522758891,-117.272935064
off_to_on,0.222274767454,-0.650179577546,-2.01357805045,-0.0960155145278,-0.566661437152,3.53567701411,-2.75821214099,-2.48463270629,-0.460671309516,1.83048525166,-0.0183678252019,1.35830918625,-0.695703494568,-34.8918596728
off_to_on,0.369786271576,2.60309699897,1.09951496578,0.479773032688,0.709482321005,-4.65240612989,0.323187173342,0.872785507786,0.521441125513,-0.347022262451,0.23262341499,0.854364663383,0.782861005077,58.0894697608
off_to_on,-1.87029691812,-0.837554313481,-0.0812920936431,-0.896044123385,-0.325741122695,-4.43608606664,1.95808995113,1.19751243342,-0.517888418114,-2.77476954353,-0.999411280045,-2.69190449945,-0.149723523501,110.390330822
off_to_on,2.18324829552,-0.234773375869,1.22875399691,0.481653973668,0.756699879006,7.03810089171,1.76657819046,0.86026391777,0.527462237738,3.68849374814,1.49510279942,2.43620519197,1.58366865387,-128.894253483
off_to_on,-0.457253265871,-1.22374370233,-1.50048773584,0.0500401060964,-1.34038613023,2.53716686056,-4.44174776245,-3.28476515622,-0.587713442738,-0.443326337638,-0.811799404231,-0.183847689512,-2.42291749082,-48.5355452152
off_to_on,-0.928808389372,1.43361531143,-0.228430614264,0.426789341254,0.690974117575,-5.91879455,-0.502115258071,0.915775608055,0.622385252521,-2.5929105033,-0.249444081736,-1.54483504367,-0.26206139523,56.3792326034
off_to_on,0.230746749633,0.542601191697,0.804819358024,-1.30770333131,0.165229184415,-3.83337746916,4.4086153841,2.53501818812,-0.610999585803,0.826065987239,0.0811699239352,0.461469288187,2.09067156479,131.041731982
off_to_on,0.559614376104,-1.43232600931,0.0444003971475,1.19546628132,0.0402252010617,6.43810162935,0.210562504059,-1.54751787208,0.629242905531,1.99390072485,0.778029332881,1.15675415964,0.253346322197,-127.433465935
off_to_on,0.0546049823135,0.204057158743,0.111444996986,-0.238406848914,-0.439476445038,4.90320886454,-4.42084123371,-1.47646527213,-0.684590282865,-0.613918617167,-0.73616757241,-0.348993495536,-1.98112424366,-70.4023288999
off_to_on,0.175186387113,1.50275411989,0.104062572419,-0.0793376724092,0.610998588244,-6.97019402947,0.766173670365,2.18454345435,0.703296208067,-1.05876116778,0.474023030893,-0.219326671056,0.37615213611,58.922618096
off_to_on,-2.26218625456,-2.73703749016,-2.55068113325,-0.780299966233,-1.40447171527,-6.95841299199,2.05997176282,-1.640121507,-0.687621884966,-1.98732569234,-1.28474074607,-2.25363662762,-0.287205826236,141.757278397
off_to_on,2.9094538962,2.49213487173,3.49756515716,1.54938380748,1.8660657214,10.5276569887,2.22012039924,1.49513205157,0.707153786034,4.34170255585,1.78449535015,3.50958944563,2.77892889011,-115.218809594
off_to_on,-0.633541723766,-0.160509184058,-0.356335593643,-1.00948998317,-0.510383525174,3.87510067143,-4.60879618544,-0.597488633001,-0.752044758168,-0.422943934627,-0.612453484925,-0.164907135173,-2.18336446156,-94.7506211996
off_to_on,-0.885240036526,-1.40402786927,-1.73593116519,-0.0191082921232,-0.606526200765,-8.5787844701,-0.0526381861924,-0.222255204964,0.758756409474,-2.99159227186,-0.218918786923,-2.07930140607,-1.17081771119,63.0700873182
off_to_on,-0.517830151692,-0.59380989284,-0.904044269802,-0.2025132089,-0.929110037435,-4.60762238437,2.60497358467,-1.01284179665,-0.742946278114,-0.784817703269,-0.910449940555,-1.21515399113,0.606874494509,143.609433732
off_to_on,1.74337286676,2.85447979028,2.93645787669,1.39661315135,2.47764286941,8.8362559573,1.03433736943,1.73701566709,0.760431609764,4.47173820235,1.69246954064,3.67093005503,2.74147681522,-96.2251589797
off_to_on,-0.584247656945,-0.921530769731,-0.108128858833,-1.52590563705,-0.743244596637,3.18438742145,-2.19686063029,0.67956684355,-0.790969590056,-0.563763823372,-0.385796023387,-0.020590263953,-1.64424782662,-116.704156928
off_to_on,-0.684375204238,-2.22273789434,-2.4456915715,0.374694247471,-1.52075431797,-6.66872127172,-1.25647387198,-2.0004310179,0.787347377937,-3.68644888172,-0.57378212814,-3.12750297594,-2.10808772703,66.2449363624
off_to_on,0.130713175901,0.969193478528,-0.0366062844758,-0.0763920875132,0.212641208251,-3.4933096842,0.757025109474,-1.38931291578,-0.772997396769,0.225068977773,-0.617246604071,-0.221732460203,0.954102505341,139.02183607
off_to_on,1.1655331869,2.826256349,3.32603076109,1.16356176146,2.51605390204,5.64711709561,3.61831230615,4.05384928774,0.785803963159,4.4463988672,1.72045234546,3.96228450494,3.06717782976,-74.2588328362
off_to_on,-2.10421838139,-3.35268746167,-2.44867639309,-1.47156182135,-2.2890676599,1.69566650844,-2.74997484364,-1.13586256362,-0.800168348867,-2.49364497131,-1.15161920317,-1.954284842,-2.60839600906,-133.873279622
off_to_on,2.42359793645,0.884634464138,-0.0237264027377,0.306447013735,0.154787085687,-0.539955055461,-1.59203615626,-1.64882452002,0.787602039566,-0.73925855216,0.702773347252,-0.669256299835,-0.309444963525,67.7809301581
off_to_on,-1.47821192672,0.0354550053302,-0.162173163802,0.0872985145963,0.130003536009,-5.44836972486,-0.235577088693,-1.27123442346,-0.774778008465,-1.06925999378,-1.17934484726,-1.32096239717,-0.539418334016,130.405312285
off_to_on,-0.15478958313,0.96526343983,1.79478588601,1.15512895879,1.25916902586,1.09747592007,4.88009197193,4.09288657337,0.781033937868,2.75665199467,0.917918598779,2.99722059724,2.5192251601,-53.075504938
off_to_on,0.416255991243,-0.882842051841,-1.51225510988,-1.76269943246,-1.59015991422,4.74768282177,-1.74657811339,-0.662187441293,-0.779573845747,0.461340211098,0.00971527710583,0.143196149463,-0.49707065748,-144.874562335
off_to_on,0.599223055586,-0.329512702539,-0.507875493204,0.667578074511,0.507173693972,1.01990600252,-4.77237138129,-3.34032026748,0.759530340309,-2.64835838041,0.272971065328,-2.84241338895,-1.89584653248,67.7275484123
off_to_on,-0.752924006362,0.300810120585,1.33416094656,0.0122582031739,0.257193991072,-5.53897199843,2.48671532285,0.962507652569,-0.746860065253,-0.707595024473,-1.17989875901,0.108157039424,-0.0661176904084,119.876016495
off_to_on,0.235435904783,1.0038496501,0.360827076937,0.872039655091,0.127869235919,-1.86452357494,4.90851011155,3.1896353371,0.744924680064,3.46215369665,0.782818538958,3.48629082294,2.43940426871,-35.4461880689
off_to_on,-0.734312847029,-1.5716215022,-2.40150361572,-1.44706475842,-1.0201256895,4.90500081953,-4.48524868718,-2.16039230549,-0.729615331837,-0.828534334366,-0.0782821078117,-2.26580378468,-1.011777079,-149.650033557
off_to_on,1.34724864752,1.00929416348,2.05507742627,0.642635853925,1.3553508142,4.56366225023,-1.90460100202,-0.726458851287,0.704087431337,-1.63880923102,0.902431456076,-0.970789097489,-0.453899220558,66.7668308948
off_to_on,-0.847506884413,-0.775215960653,-0.317152819697,-0.113738884104,-0.792939819855,-7.30512091503,2.27918510225,-0.544893397939,-0.68984606161,-0.976209244196,-1.80649799099,0.61609938238,-1.24915284875,109.032761967
off_to_on,0.975361751397,1.36762664756,0.362448918283,0.763475733865,0.332992118839,-2.83623342883,3.07592829312,3.09996468937,0.67848984745,3.87844592441,0.926816980346,2.42491942675,2.34601298331,-22.9698585404
off_to_on,-2.1840981309,-1.53851991457,-1.76224712691,-1.09880338817,-0.861725774483,4.91197952722,-4.04631914221,-1.593754035,-0.651993026399,-1.77904904257,0.0858824858594,-3.03754681926,-0.568690677031,-149.110094347
off_to_on,1.33023357133,0.542095309764,1.26740645134,0.424689432887,1.35184122973,5.22146635651,-0.259768925049,-1.41608353947,0.623018667412,-1.80570711619,0.554603344704,0.223496701302,-0.326432953389,66.0064848634
off_to_on,1.6651359212,0.54829048846,0.713524094613,-0.161064956528,-0.524090769352,-5.82227877492,2.38221457216,1.02883339516,-0.60576590745,1.38930032911,-1.12668576356,1.92805458931,-0.961315070756,97.1330368173
off_to_on,-2.06124774788,-0.642680182776,-0.923040486839,0.848659742627,-0.568629136803,-5.17752881499,-0.888322760813,0.873104999419,0.584666503443,1.2106257914,0.0719078978804,-0.840766854833,0.595473686979,-8.88932741365
off_to_on,-0.929297215403,0.141232346625,-0.286134893498,-1.10696874321,0.232766199931,5.61150810454,-0.349755006515,-0.510728771239,-0.549921344433,-1.13488257667,0.664350967696,-1.11347610136,1.60773873519,-160.863498641
off_to_on,2.28088750315,0.478439096743,0.491856560459,0.431663874058,0.87857024389,5.3301646299,1.2151713759,-0.232393412161,0.519151580953,-0.761345928967,0.548918649485,1.12712209501,-0.928536974515,84.9092935608
off_to_on,-0.666978566106,-1.46948590157,-0.738548761741,-0.0367244978106,-1.13075956437,-6.22078888491,-2.57317674993,-1.2624824102,-0.497876494347,0.176882429307,-1.75977752068,-0.409873395541,-2.60080195411,86.4964738401
off_to_on,0.183020458828,2.08105876084,2.19180293158,0.376187483138,0.628697180504,-3.03225302609,1.62496272442,2.25784956599,0.467723508493,2.37201963565,1.01326903842,1.10623537852,3.20330375486,-38.4312665991
off_to_on,-1.44270861056,-0.99140146757,-1.95096742777,-0.550482325805,-0.317976377174,3.38482884669,1.46545958361,-0.443730088209,-0.427684676238,-2.45120559771,0.267064396788,-1.8840038279,0.174196065042,-107.324203352
off_to_on,1.03233399135,-0.593150141975,-0.753572037918,0.341555097338,0.286903973319,4.11125164159,-1.09925616467,-0.74803766045,0.396247968473,-0.152831165508,-0.0334473684257,0.753655663091,-1.77118404943,67.9161511917
off_to_on,0.537963234705,0.20904346637,1.28579212702,-0.381620696289,-0.448235146176,-3.63417267698,-2.948371053,-0.983925754913,-0.370455241549,1.16968254974,-1.01817163722,0.716817900586,-0.668968094737,50.6743566179
off_to_on,-0.121891465438,1.10455058891,1.30137759615,0.54222259297,0.77736868878,-2.42785608193,2.95770735122,1.68716332643,0.332849327327,0.233718501673,0.94907260008,-0.477045935974,2.19769424078,-5.0003058969
off_to_on,-0.898493146526,-0.339423025049,-1.46506373778,-0.315216402562,-0.502944993231,2.16402762385,2.5694068305,0.973635276088,-0.290291602668,-0.5111966212,0.317217709412,-0.151536284549,0.143520583016,-96.7846787597
off_to_on,-0.326789193041,-1.4824533626,-1.63763672499,0.0990674597188,-0.5700056611,0.738106300784,-4.53777992786,-2.43808051448,0.258836920417,-0.816627791927,-1.0154270912,-0.196994274324,-2.22662580947,45.6997273676
off_to_on,1.64844515171,0.926026565171,1.92465206203,-0.301117647114,0.840438335307,0.572086464092,-0.735950753214,-0.120245150769,-0.228576914828,0.526603197644,0.107353262496,0.155101020536,0.497690032812,36.1113147971
off_to_on,-0.239061473812,1.15743243958,1.28324198593,0.360417730285,0.401317174843,-0.14614143069,4.41945122337,2.19535286807,0.18578453552,1.11436381397,1.19121475249,0.573876312598,1.85733737053,30.5886816889
off_to_on,-1.70571920412,-1.30702479835,-1.98221683008,-0.0513304635934,-1.20040900325,-3.66844205645,-0.973905123882,-0.780501216977,-0.143166747919,-0.825389245744,-1.06361269971,-0.290863804399,-0.95366615696,-95.3239879177
off_to_on,1.58501201272,0.178240907084,-0.0749001826122,0.0405818723436,0.442587617192,1.53424521044,-2.44008942789,-0.215845164921,0.112042830641,-0.341497690715,-0.161178435557,-0.0162151242892,-0.916624723458,-5.67291575835
off_to_on,-0.679128834855,-0.547466877721,-0.249222692719,-0.263014681569,0.134338999502,4.3325944261,-0.00559733547243,-1.24798265412,-0.0779277187967,-0.895962847323,0.524471757088,-1.70805327369,-0.0793840346173,92.5728740397
off_to_on,0.0755761630699,1.14890985806,1.68124309659,-0.0395996415299,0.255886880638,-1.35532247438,2.61332528789,1.05991704989,0.0325733518514,2.16314896062,0.287755073438,2.46784616033,1.96806926035,-11.0577719819
off_to_on,0.992243333337,0.425573917343,0.465167835583,0.388018263659,0.0288773718238,-5.72551973434,-0.139144973584,1.71278562594,0.0080694668522,0.471062810225,-0.564469919721,1.08899111508,-0.615788089461,-32.6562781462
off_to_on,-1.48396764905,-2.09044191828,-3.03352036979,0.141028628719,-0.931560933303,1.83264129288,-2.58284658051,-2.00800664269,-0.0386106699161,-3.43130996917,-0.256426756859,-4.16184479843,-2.32427325607,-95.0512463207
off_to_on,0.146119870452,1.14656187295,0.916241478698,-0.61293260387,0.376618443021,7.0483269583,1.02057642017,-0.701782936849,0.07542045751,1.41440641602,0.817002942488,1.1552465988,2.10661645816,136.741181519
off_to_on,0.646183720241,0.481780907572,1.85730230761,-0.168534184773,0.84416484561,-4.27221078444,0.84697507096,0.808925920615,-0.120636852417,2.00900499958,-0.49865131088,2.87997877746,0.607014258082,40.338660333
off_to_on,0.723601105781,-0.419456323944,-0.140906216319,0.911694223103,0.0253418237684,-4.73181267384,0.192705067912,1.72274037134,0.157743095634,-0.811944039028,0.0588110540647,-0.900864415838,-1.22326553044,-121.213505918
off_to_on,-1.10207895187,-0.0121305882543,-1.80662210895,-0.155066874668,-1.71887012566,3.94219295527,-0.542386777132,-0.958282689669,-0.187382395868,-1.98690734421,0.226461113798,-2.64058338119,-0.44738366872,-54.388510429
off_to_on,-0.97964378216,-0.235398350062,-0.368075993825,-0.53848321508,0.716657480396,2.72036119926,-1.30849070339,-2.32054342269,0.225260623852,0.603676920095,-0.492424761656,0.719174119373,0.679509063071,136.250684635
off_to_on,1.60400124854,0.00422292764864,2.05702368644,-0.484812856256,1.63058937505,-2.6286645037,1.30270407521,1.59264796567,-0.267800814018,2.21279797917,0.219565521212,2.48822336001,0.737706641139,69.4850077031
off_to_on,0.575322039638,0.213409043957,0.164590590023,1.37251323015,-1.13586468152,-1.11710817741,0.949969881244,1.8749101975,0.300267646556,-1.08867214492,0.584946617591,-0.701330843097,-0.694049194108,-198.103153402
off_to_on,-1.39394593391,0.623912722285,-1.66955047451,-0.23085392673,-1.35984384026,0.9142466103,-1.1160425215,-1.41326207882,-0.328512911855,-1.73428396073,-0.777538162706,-1.95564689257,-0.894227772537,20.7715362275
off_to_on,-0.00300558538906,-0.154086647256,0.292020921471,-0.864704112787,1.68389629126,-0.0449964692131,-0.189737989947,-1.1041283292,0.36551699288,1.70692985252,0.252396971983,0.585585957383,1.38389956858,113.79796916
off_to_on,-0.443008463587,-2.64344120037,-0.368852349077,-0.282597243477,-0.0497940700423,0.306893277847,-1.19101756859,-0.691312079028,-0.40318816252,-0.334543050366,-0.304193906131,0.359292763667,-0.627265728004,37.5466989645
off_to_on,2.45517049484,3.02348974149,2.22674188463,1.5630005006,-0.158363397973,2.76907552965,2.94291236553,3.64314771343,0.430308458151,0.551852601972,0.9155758951,2.17795096881,0.463360949211,-159.171299285
off_to_on,-1.58817169845,0.856180782628,-1.40127385138,-0.566298031644,-0.964027529523,-4.85404397402,-0.437589444834,-1.12063865655,-0.456453913397,-0.982669604402,-0.780835929436,-2.57277763264,-0.822072986556,22.5739316006
off_to_on,-1.2031753043,-2.43326838197,-1.01501987892,-0.674013321826,0.938534561811,-1.29126214429,-2.53630247643,-2.7814714519,0.490519446068,0.184403213794,0.183558659472,-1.1209751309,0.598165004471,85.6096189349
off_to_on,1.20511231993,-1.22267535438,0.608385763901,-0.343349868805,-0.0511026600477,6.42937993919,0.334563793888,0.9541762336,-0.521599249187,0.334195022554,-0.348203330801,2.25114794711,-0.128137796385,33.7595345034
off_to_on,0.742918493675,2.7215803007,0.784042213567,1.69404787372,0.0123675747684,0.347168549573,2.85832533071,2.53314316544,0.54297122974,-0.0750383238299,0.645599669624,0.90039886332,-0.101023470725,-117.380814915
off_to_on,-0.833304514325,1.22443356769,0.1187041371,-0.867899940673,-0.383339716394,-7.24598679657,-0.887579569272,-1.0010218076,-0.566116215832,0.13359532229,-0.0747020501376,-1.98261638843,0.430276306765,2.08524701086
off_to_on,0.11213505166,-2.52780632635,-0.364059742988,-0.359672736903,0.319644856602,0.70184158165,-2.25658692062,-1.579070805,0.595264589303,0.147880820344,-0.143442145749,-0.120346590981,-0.298353974868,68.3506497822
off_to_on,-0.900028563703,-2.19649718927,-1.84944303837,-0.410658518337,-0.596591632184,6.18358009321,0.434768830988,-0.400988471391,-0.618566858982,-1.44492387687,-1.00453450334,0.148046434936,-1.11062525064,30.9159259861
off_to_on,1.48033630477,4.42006666776,2.18423534938,1.52071819029,1.31523310296,1.53132953998,3.15583597622,2.88223533169,0.633999780207,1.90683180204,1.83097544752,1.77447770128,2.35699435566,-73.6595798602
off_to_on,-0.952444702542,-0.626480463042,-0.0940395544035,-0.779912284234,-1.18932225359,-9.47417692153,-3.10574815929,-1.55056558442,-0.653116083144,-0.929746454832,-1.06372328064,-1.62108011005,-1.61662470436,-26.5514211364
off_to_on,1.45104512721,-1.27317931977,0.657182464633,-0.166255369371,0.411508372074,1.27335826593,1.05919304507,0.33754276706,0.675643212226,0.764966761406,0.237731609704,0.801830308227,0.133452504178,59.8103674013
off_to_on,-1.95387657243,-1.33730912614,-2.5418748747,-0.66310268473,-0.49058674882,8.23276617691,0.0680412553603,-1.46343134041,-0.690526446275,-1.30852304327,-0.465871059685,-1.4851178949,-0.0525076867702,24.1106327412
off_to_on,-0.296761516169,1.49791189975,0.0616397596281,1.56098575299,1.10846645969,-1.04962733468,-1.07924616687,0.534512382385,0.69996040009,0.0387462573666,0.625567981749,0.423953046438,0.711507253618,-31.6120730315
off_to_on,2.07000871505,1.30725559046,2.90473285944,-0.722502724814,-0.837802270754,-9.13150491544,1.16678285619,2.23271031804,-0.713993933637,1.5082372884,-0.386002546056,2.39784908419,-0.590347617539,-54.3539140528
off_to_on,0.563371686806,-0.422589882643,0.493371507635,-0.0408885007186,0.126616220127,3.21886253952,1.48159824637,-0.836151968512,0.72861713231,0.165240710575,0.774843876766,-0.936932292759,0.228463043837,56.0071655131
off_to_on,-2.77145440778,-2.41075609014,-4.13409001714,-0.943286559173,-0.183600364964,7.81642572205,-3.02051639112,-3.14875007774,-0.734943927815,-2.43219505191,-1.19243881163,-3.6099578061,-0.32780146292,16.0428736467
off_to_on,-0.149843909418,0.657755471913,0.101242628594,1.71897754805,0.613737267163,-4.61456449845,-0.104210664913,2.26826599112,0.738394611558,0.832918085978,0.471483697325,2.65316168553,0.355791709578,-1.10914187158
off_to_on,1.84437850978,1.55258993177,3.41400994851,-0.62302101822,-0.872761583736,-6.43240001037,1.99487849809,1.35217698672,-0.746384147358,1.11808121557,-0.116029169815,2.14056806986,-0.695754678613,-68.1247625535
off_to_on,2.77170645286,2.27340483436,2.33973263592,-0.329604637344,1.42224684018,7.62071060204,2.36642819698,0.236246894471,0.752334501105,1.63114944363,1.52313535384,-0.688491301448,1.9773069589,49.8756978161
off_to_on,-5.37514455953,-5.27329987835,-7.00116771731,-0.620502734291,-1.66531954484,0.376594357687,-5.26147163369,-4.0541585891,-0.750395781811,-4.26264821853,-2.25363693598,-4.70085986801,-2.29962339862,6.41559598532
off_to_on,-0.0937736493071,0.245813928005,0.564881239232,1.64276022821,0.476407272949,-4.47862140879,0.196135943479,1.89379946639,0.74792871303,0.829041506354,0.451724531187,3.06741357058,0.337390182293,20.3023850844
off_to_on,3.98349389402,3.88856907296,5.35425837753,-0.969726460962,0.53124611536,0.831518118814,3.75424589285,2.34924469467,-0.749123679724,2.71607854601,0.770915548217,2.61544329762,0.797713814324,-68.6182119653
off_to_on,0.833580890057,0.85886919481,0.165655089256,0.054524084652,0.772488093207,3.77167253039,1.05069067945,-0.464613110548,0.746180820684,0.44090635448,0.865202708491,-1.32104297865,0.972632468628,39.5949634365
off_to_on,-4.45172049662,-4.43354789514,-5.36854241947,-0.469299812601,-2.11568234458,-3.23852744544,-4.52139260689,-2.79699904077,-0.736601411769,-3.4695712317,-1.84207110837,-3.10846374333,-1.67026627518,-2.47423623051
off_to_on,-0.370494105257,-1.01599562865,-0.135051531,1.18168217165,0.443777713458,-1.52987105275,-1.34468165236,-0.0848534073411,0.728334344636,-0.713597093794,-0.188494287919,0.59764197978,-1.01405334505,33.6308494657
off_to_on,3.5774761818,4.08170377717,4.2806179752,-0.973249271825,1.42646704782,3.6654985652,4.80116960965,2.71975995027,-0.72229536972,3.7264819203,1.07843024539,3.05222725814,1.73363945556,-59.8812062276
off_to_on,1.66047394465,2.76627312222,2.00472911899,0.479309705604,0.470142384708,0.955999323699,2.79426022076,1.98349880737,0.710769235619,2.1742354471,1.66538250588,1.5130138009,2.34656002515,27.2113806036
off_to_on,-5.11471755381,-6.57267267471,-5.96504446305,-0.459305635306,-2.99657759769,-5.88962419137,-7.85677063362,-5.60384211377,-0.694410830907,-6.83984690918,-3.16743135222,-6.06748438993,-4.37664621056,-9.40074988122
off_to_on,0.478829375968,-0.373586060436,-0.126566698702,0.61026227418,1.43244373615,3.15684104672,0.2315003552,0.60340706435,0.680538541873,0.899580603759,0.397959738689,1.0599140357,0.247248852365,39.2285909183
off_to_on,2.29778767451,4.35954678115,3.17323156007,-0.688870005682,1.0714253721,2.66720786753,5.82499341166,3.44996547843,-0.667208056009,4.91261408321,1.53858425587,3.90019930186,2.62102840599,-45.4721875798
off_to_on,1.91002852128,2.26135915247,2.68218197485,0.795097037076,0.405198080564,-2.1734491823,1.05991266201,1.24808145761,0.647877516168,0.149994553385,0.840646264712,0.686573994219,0.993374937193,15.0177095902
off_to_on,-3.26014871654,-5.52827067315,-3.9763552731,-0.732963450474,-2.50221203999,-2.25131839167,-6.82552018951,-4.58083197991,-0.62575179916,-5.74756800886,-2.63488415613,-4.67923379976,-3.85978918662,-14.0080429675
off_to_on,-1.8861157593,-1.73026620986,-2.91348831867,0.517327876252,0.372057923117,2.38851756054,-0.345754436775,-0.96641026624,0.606584191097,0.704876344816,0.276357294903,-0.520580299897,0.240120435418,38.1807185124
off_to_on,3.24609027538,5.30832336553,3.721111722,-0.592031303398,2.08407380276,0.589527903123,6.68987833501,4.63811416523,-0.586319402666,5.17444753052,1.61856092694,4.24314632994,3.09880446146,-28.4035012155
off_to_on,2.05571939297,1.73885286796,3.49993957946,0.756602959094,0.146833878794,-1.2379044006,0.00699873063367,1.01097193229,0.560340697476,-0.749212268182,0.439807811876,1.00253211559,-0.254422267633,2.20706981582
off_to_on,-3.78762267355,-5.56200044479,-4.07913050598,-0.444634258573,-2.88307546304,0.516509359807,-6.96443640741,-5.19601870286,-0.533540570169,-5.10051072129,-2.28042306416,-4.34284492178,-2.95813720899,-7.10815618751
off_to_on,-0.437726570133,-0.397831029826,-2.50091677244,0.170618559376,1.02218502669,0.141379151644,1.96168841399,0.677759013807,0.509543446095,2.00508304599,0.742903793728,-0.186347229999,1.27804681132,14.8132781109
off_to_on,1.26181256832,3.18946045058,1.73333874519,-0.614475493495,1.36661046012,-2.91012697387,4.05211734877,2.59776376908,-0.483109388173,2.28112411066,0.531516242663,1.68308388366,0.470147387111,1.0919881085
off_to_on,2.58263902441,2.72957142125,5.18821211417,0.888181781187,0.390731078249,4.65494161925,-0.0193297740905,1.42783631386,0.451908297625,0.758193065584,0.916547628293,3.53340841098,1.35612259999,9.78756484401
off_to_on,-2.45424815835,-4.92435721479,-3.64397753697,-0.168486196419,-2.29779103416,0.0761450900889,-4.8015735627,-3.5862767287,-0.421560114353,-3.70434889051,-1.68416758431,-3.62687845762,-1.9857484479,-57.5637288856
off_to_on,-1.67800947842,-1.42530425802,-4.0715902613,-0.292591625077,0.455733600853,-5.07576481857,1.16434351244,-0.492447934958,0.393388186864,-0.0792845313155,-0.026259514947,-3.25602267205,-0.757282749924,58.6127789679
off_to_on,1.65665992163,4.45114517295,3.40137283788,-0.534600094186,1.0842738498,1.02718243205,3.12426163715,2.30373660973,-0.361913573285,3.07449584047,0.935673144958,3.78614694234,1.61684840506,5.27276629
off_to_on,1.57934975796,0.533397011548,3.18228352143,1.16629965614,0.567900866924,4.9951409934,-1.01594573931,0.555641002162,0.327074369215,-0.0560658584504,0.254219180265,3.30414553167,0.804149854865,-33.4709614675
off_to_on,-0.583096643834,-3.22660713262,-2.35796558385,-0.361721398182,-1.14552921784,-1.32611818947,-1.12602550721,-0.454237008409,-0.294309684191,-1.83500668626,-0.61811188791,-3.85730493288,-1.157481068,-10.7189937981
off_to_on,-2.41033948096,-0.323953411248,-2.95777547325,-0.391536027564,-1.01900008329,-4.78653241651,-0.529776582733,-2.02503951045,0.262823257008,-0.76198177978,-0.336501252808,-3.28354080365,-1.12848854885,33.0031531476
off_to_on,0.18911692695,1.66292241758,1.18158757323,-0.182450723539,1.00663107621,0.778300001064,-0.102190003791,-0.785109294551,-0.227725963703,0.869280446281,-0.153476353762,3.78029700308,0.667661928358,17.8883696277
off_to_on,3.82312955894,1.58257785593,3.81838172193,0.691732583313,1.90317820247,5.78788879564,3.39456775224,4.92650676477,0.190887928165,2.71865642214,1.56970412939,3.59165295092,2.22442632932,-70.9600009244
off_to_on,-1.92210169356,-2.13619681313,-1.88064540874,-0.0236721883687,-1.95529364535,-1.96605241396,-1.7516435261,-1.08280111969,-0.156830105707,-2.3887982387,-0.754891545126,-4.86763671389,-1.8479502371,63.5390067457
off_to_on,-2.31832877279,-0.821945200661,-2.40288675192,-0.454595844399,-1.16380187014,-4.68340537297,-3.24204731827,-4.70980148113,0.123089937226,-1.71883353866,-1.18169644313,-1.45613200845,-1.10856627347,-18.7368556038
off_to_on,1.09898337025,0.858693846296,0.385089904706,-0.203407649303,1.26810382311,1.22886148576,2.08252820363,1.15673406364,-0.0859816522148,1.52388021466,0.576645877055,2.88122201524,0.961731204016,-11.8506707493
off_to_on,2.20442193749,1.33381216104,2.56870214987,0.658542214011,1.58658608202,5.25621934316,3.2491567721,4.99591400225,0.0487507749251,2.00362996743,1.30107739389,1.50373753422,1.37239438093,0.0322551804455
off_to_on,-0.195383513773,0.162837482363,0.771760291497,-0.0581323426409,-1.03893625777,-1.96878141252,-2.04077156973,-1.13521851855,-0.014510102953,-0.855505978499,-0.496653179903,-0.952225539323,-0.538933691498,29.6701006946
off_to_on,-3.52510227767,-3.10121934113,-4.01046618059,-0.433427264334,-2.28432201742,-5.42200952935,-3.99175050424,-5.8412269529,-0.0202513826804,-3.03006861863,-1.6938221776,-3.57691784868,-2.1750181282,-8.36474349892
off_to_on,1.44131011003,1.21189060759,0.423028152107,0.119361295323,1.60279111013,4.31723817338,3.45871167114,2.43719152669,0.0576705888958,1.63231315631,1.10994564565,1.73551636296,1.53428813269,-59.6227707466
off_to_on,3.01335017475,2.63232085349,3.39484283747,0.100068511512,2.17764209114,2.71028803136,2.85109346152,4.96276285528,-0.0937906250511,2.4883444471,1.14141725392,4.05373017718,1.29082393843,56.9851610668
off_to_on,-1.95975522625,-1.71567130567,-0.973529794899,0.166735069467,-1.79894867857,-4.64608098705,-3.78248033282,-2.77016958272,0.127119968818,-1.50915429621,-0.926236975131,-2.82298015527,-1.49351018771,38.0685795636
off_to_on,-2.11114101779,-1.49004423925,-1.977312051,-0.192545200711,-2.06851138428,0.254934863146,-1.08713750057,-3.53370041005,-0.161549362251,-1.71815069406,-0.94352519877,-3.14671283071,-0.236376270839,-62.0102629356
off_to_on,1.54740623425,0.715332164977,0.0298583817867,-0.0427476222716,2.04313620711,2.91266827306,2.18614451697,1.4441640855,0.197596051882,0.185406302632,0.703081897735,2.82045978842,0.31017601349,-36.9553682729
off_to_on,2.06057631012,1.75029830897,1.9160300393,-0.219642300355,1.68314929318,-1.06772390256,1.11069289115,3.76870771003,-0.231252796831,2.44683168069,0.865735750687,2.55959816623,0.449468238306,61.2690769729
off_to_on,-1.47504614548,-0.221528274374,0.33892000252,0.722973616714,-1.95150652732,-1.80084005861,-1.00623481324,-0.767210886303,0.262599663689,0.357118211433,-0.273855750691,-2.76341254552,0.432853180964,59.8403163819
off_to_on,-2.54866133502,-2.92787284725,-2.49907793147,-0.470548331381,-1.69112475789,0.475803674553,-2.38667586859,-5.00274797387,-0.295290377891,-4.0732366906,-1.68418659583,-2.33589044093,-1.56855975828,-97.6338214144
off_to_on,3.13825785733,2.08074249476,1.2550000898,-0.270121090818,2.72901944842,3.40941648324,2.31184964189,2.79426757532,0.328393330281,1.83747223583,1.5441308222,4.05421915576,0.881893130407,-28.4098226509
off_to_on,0.117574943536,0.922561290396,0.12597430616,0.200581396307,-0.0476732648589,-2.78483198004,0.504129802201,2.52958900803,-0.35841629304,2.11023454831,0.319905622002,-0.68269642526,0.141847970944,60.1067499653
off_to_on,-1.31071233129,-0.797205131716,0.433803133396,0.741266415161,-1.04012141054,-2.74486327568,-0.257664138952,-1.27158324974,0.386747322369,-0.966341073939,-0.730970372354,-1.72588453252,0.249382427557,84.1605963253
off_to_on,-0.717269091124,-1.36744872532,-0.535134789092,-1.15349346207,-0.688595608843,3.67497442344,-1.5263602663,-2.51554695451,-0.41631770234,-2.05302589586,-0.572752149214,0.624961675435,-0.801019049346,-117.816199027
off_to_on,1.19448667026,0.984071322868,-0.491461224089,0.50336250034,1.10703135945,3.03797426903,-0.21255579604,0.82437060923,0.445097365592,1.10519160879,1.15236965715,0.894822854458,0.216197569874,-34.2505525392
off_to_on,1.10121661865,1.33970609441,0.540129303735,-0.0140881167606,0.564717208297,-5.72370881525,2.66612078293,2.49586122205,-0.470514227372,1.48216356078,-0.281663874454,-0.509810135319,0.538898254854,57.6753758189
off_to_on,-1.74496449084,-1.40918162925,0.305382618343,0.52560909897,-0.710811916417,-1.95472857217,-0.335612950019,-0.70543491727,0.494858146383,-1.11520986983,-0.488708411685,-0.733130011723,-0.489609048226,110.618033117
off_to_on,-1.08611588339,-1.08770621189,-0.550966357284,-1.02475182312,-1.26045617631,7.03673589095,-3.48831785059,-2.70082344836,-0.520032095276,-0.905059852677,-0.0021536159211,0.528526386098,-0.19891592881,-129.986833655
off_to_on,3.30316899428,2.6141652744,0.94996869514,0.518023672324,1.91731720624,0.722148250963,2.38113901419,2.00412054534,0.543359911206,1.79043818054,1.34052981266,1.78294412091,1.41254069026,-46.6562824305
off_to_on,-1.77948245209,-1.63132270668,-2.03286667975,0.0421688222276,-0.309062298746,-9.00864496254,1.17758437712,0.177158942839,-0.563402718002,-1.96268657722,-2.03703440834,-3.45983061166,-2.43193726181,55.3556363288
off_to_on,-0.760346583046,0.175634441579,1.77008152723,0.527705698783,-0.58738641231,4.10074337072,-0.608623184272,0.396155878151,0.582883560036,1.62935368126,0.984837562978,1.51378670047,1.5948519144,131.3273429
off_to_on,0.476961394161,-0.167173024037,0.121134141253,-1.25652315069,-0.69078891116,4.90470227394,-2.69609819559,-1.73676041599,-0.602566011076,-0.0513533054715,0.580860755779,1.7240250806,0.568330003989,-129.0425548
off_to_on,1.54404239795,0.85278477473,-0.610960826683,0.685920926676,1.92501746412,-3.52865390251,2.52654778492,0.985158581378,0.619602295655,-0.917649767075,-0.209256055001,-1.20835396699,-0.854003298174,-67.7610704907
off_to_on,-1.53170236465,-0.533703702258,-0.861129277133,0.189016484744,-1.20691845752,-3.10165552335,0.887010777579,0.412183409381,-0.633708000466,-0.489304746251,-1.54599601934,-2.13273940909,-1.20343959111,57.7103251303
off_to_on,-0.5636281042,-0.44096680699,1.08675256391,0.436060819422,-0.307544027468,3.06048147102,-2.08889333117,-0.613051831897,0.647584589111,1.55283336305,1.45002530646,2.43719710697,1.81425430861,142.003994596
off_to_on,1.1710085228,0.210756260742,0.451293195579,-1.58902995293,0.612899157294,0.810340898418,-0.0375298593962,0.068735909437,-0.660925181102,0.0801531482257,0.543277205922,0.904261632744,0.333159306414,-117.213153073
off_to_on,0.628337896746,1.08929865337,-0.538791329359,1.0835414391,0.358242978596,-0.578069215703,1.7462287227,0.744283035302,0.671136539739,-1.22026299865,-0.743944907489,-2.26712332008,-1.34464989328,-91.7883660662
off_to_on,-1.74234357563,-1.2856272497,-1.28249701613,0.239986338164,-1.25267467102,-1.26955126745,-1.49132881626,-1.57179594549,-0.678945406546,-0.912953956606,-1.43637257279,-0.555026752479,-0.818013989888,62.1321790925
off_to_on,0.996633912018,0.456851774561,2.09207722891,0.100294072882,1.3834899211,0.760695305222,1.18280919392,1.607623274,0.686652986937,3.08134115077,2.25042442838,3.55470064651,2.69157711075,143.584286602
off_to_on,-1.00394970978,-1.07861406272,-1.47474949828,-1.44633939345,-1.13366287096,-1.22156740081,-1.51074401017,-1.22526941504,-0.693092986672,-2.05623474173,-0.689729725489,-3.39126343545,-1.78240438523,-98.3863339335
off_to_on,2.23565965235,2.56603005943,1.28444451188,1.17147481258,0.808590110821,3.13120235168,1.05826782426,1.37218763985,0.696251932322,0.105505584564,-0.0433281116353,0.810688251613,0.400079265564,-113.789474495
off_to_on,-1.46511514247,-1.39940596366,-0.895837891584,0.177183120243,-0.371167854682,-1.35762463992,0.16378960303,-0.85791388964,-0.697605995539,0.0774963178746,-0.844366429722,1.63091823947,-0.426311257337,65.8921304816
off_to_on,-1.35190076732,-1.60333313285,-0.741381076605,0.123055549556,0.206712757327,-2.44198844041,-0.247624266765,-0.983270916881,0.698795151388,0.379677616561,0.827261098747,-1.33160610101,0.45901702415,138.575616502
off_to_on,1.73030839345,1.4568165359,1.20292314323,-1.61346712673,-0.69197201318,1.37329474001,-0.991823928423,1.11646972164,-0.698094708915,-0.321024897824,0.0362184294063,-1.7483058666,0.0417159940885,-76.4019660269
off_to_on,1.02887144469,1.64715607855,0.904754921924,1.48373030328,1.05267236202,2.4056503423,1.15959997253,1.56059903289,0.694265130586,0.485572965059,0.458882502334,3.03291676356,0.269474816268,-131.270376126
off_to_on,-2.11043662774,-2.02328404632,-2.00894780474,0.0238039206832,-0.466167365977,-1.73907028568,0.525262731229,-2.26852215446,-0.689207427391,-0.531955864153,-1.27785477225,0.405098644915,-0.878696101151,68.1701178178
off_to_on,0.316578517978,-0.611526522995,0.153804856827,-0.197929077999,-0.0243540450155,-1.04180939995,-1.09457039127,-0.823560011802,0.6837754392,-0.156034416038,0.317362302567,-3.03292395335,0.334756717118,129.474645285
off_to_on,-0.00921091908898,0.339058375287,0.58451284384,-1.01065911466,-0.836345265667,-0.23634665085,-1.43715123997,1.47798691867,-0.67602036276,-0.289865288741,0.384563904518,-0.857337706605,-0.0870977606261,-55.0549289167
off_to_on,1.92393724091,3.06708140955,1.98022088062,1.31819362773,1.71333791591,2.76818246015,3.82031210442,2.91645536884,0.6655327817,2.66822516205,1.41469932995,5.6352611385,1.77725757957,-142.743356945
off_to_on,-1.90063209198,-3.15668767544,-3.30018191469,-0.525949131458,-0.861297151122,-1.75466313369,-2.1781258735,-4.78299486574,-0.654306720147,-3.36177305394,-2.7321186734,-2.97369357798,-2.88967328103,68.8654457608
off_to_on,-0.0175426512227,-0.606568585411,0.7097468378,0.23852801174,-0.142171912867,0.191069319625,-1.25239777046,0.144498959589,0.642417221422,0.198076275272,0.696884168883,-2.80482309378,0.86572332783,118.493009065
off_to_on,-0.232353989738,1.69930012217,1.42864997216,-0.520694632696,-0.864969810514,-0.778768878374,1.43886403274,3.23693938661,-0.628006358749,2.54390023541,1.4619505156,2.15269692603,1.54576873549,-37.1688305693
off_to_on,1.54352981787,0.832649583833,-0.196829604075,0.527636592694,1.90112085608,0.27807102088,1.00072155767,-0.289515498323,0.61142662326,-0.789120967723,-0.258351914857,2.44956533201,-0.769901612008,-148.068847867
do_nothing,0.191115180568,-1.31610568057,-0.984919361665,-0.655121883454,-0.212905464073,1.38908400344,-1.3079048553,-2.37482224761,-0.594473834316,-2.32978148631,-1.71575251505,-2.10264313845,-1.38857054419,68.5692518231
do_nothing,-2.39911782758,-0.725568681664,0.0184501074769,1.13511287351,-1.73109338649,-0.261591030308,-0.564047280057,0.187021105797,0.576561846946,1.87850871848,1.15346623937,-1.5973220293,1.38661758075,107.283065603
do_nothing,0.100805303219,0.409475703962,0.206927653482,-0.888555334697,0.0767561881178,-1.61978751772,0.29580341556,1.12709745856,-0.556177666246,0.8707543002,0.154831508796,1.04460977878,0.04641686056,-24.3906725577
do_nothing,3.39274490777,1.77263483038,1.24654522003,-0.0702150979217,2.80166946298,0.152007961276,2.04189515736,1.60283591985,0.53427204845,-1.28809377139,0.209601396785,2.18236053427,-0.252598040277,-148.089456312
do_nothing,-2.13699274921,-1.39005148343,-1.49078171125,0.0958303769179,-1.93571038192,0.411417931777,-1.96398958515,-2.65317956774,-0.512226527745,-1.16841690223,-0.940338887427,-1.74541166426,-0.70801501,68.3479467055
do_nothing,-0.895992056051,-0.135385558558,0.419290354798,0.84535436657,-1.10447892724,3.43112293165,-0.442127169002,-0.0677210773866,0.488987491567,2.99120963611,0.754605360197,-0.405750308753,1.39885156535,95.0962089196
do_nothing,-0.078141858958,-1.1276524275,-0.788027560971,-0.950152837391,0.875042428301,-3.94859308311,0.284460661563,0.734885090656,-0.463553458601,-2.06022911169,-0.763625915619,-0.823505258516,-1.56393114803,-9.9045564866
do_nothing,2.25229083641,2.47000344018,1.69333794436,0.193983155953,1.954250186,-2.75724328226,2.43077546917,1.86599309879,0.437252227348,-0.250531300251,1.03062329852,2.55702308686,1.10350446233,-160.689913817
do_nothing,-0.519338626562,0.155740271837,-0.142737545262,-0.2038079787,-1.95314989135,5.19044464379,-1.96989264079,-1.73582006256,-0.410928543223,1.53284737582,-0.228603433289,-0.133292127239,0.240507819603,88.3774185137
do_nothing,-2.08856834874,-2.96787564008,-2.09880442094,0.712735658116,-0.975104104688,2.66091443404,-2.31367221493,-1.78760515132,0.383291569829,-1.01562808556,-0.796149304267,-2.92168581431,-1.28694670349,83.3769666155
do_nothing,0.880592010423,0.963660362668,1.14851256522,-0.339551283233,1.63979914908,-6.92751133715,3.57864768954,2.44303232982,-0.35392039012,-0.221890336368,0.244400465848,1.45740546815,0.635906079429,-38.945194376
do_nothing,1.3936393417,2.38995553361,1.53143453772,-0.121927504302,0.827204658854,-1.28068517518,0.787494862951,0.750766299588,0.32428103518,0.921180484804,0.839614252045,1.91912339792,0.743296138925,-106.388428552
do_nothing,-0.901676104064,-1.69480537171,-1.72951078847,-0.565062577963,-1.83530107695,7.56376113519,-4.0331276283,-2.19039164705,-0.294654819809,-0.882445687689,-0.612767295011,-2.27659789277,-1.04164065246,69.7074380608
do_nothing,-0.0725542337111,-0.684193514335,0.0011762459664,0.992824918443,-0.0413456308945,-0.212428754594,1.39206453478,0.5979077455,0.263741887362,0.552139547905,0.0332508545502,0.455984019456,0.569743714104,48.5603927686
do_nothing,-0.762935107712,0.140211754135,0.201174477232,0.0943192559529,1.01833009108,-7.79369119602,1.87926546381,-0.096101352513,-0.231678671147,-0.338042949912,-0.437014486657,0.324543342549,-0.532479853185,-5.2356986331
do_nothing,1.02139502435,1.57525593292,0.941831655133,-0.762868738222,0.590532568892,2.9148528072,-0.118806548454,1.32432045053,0.199849201566,0.524304811973,0.70443085754,0.0741781743271,0.617772741558,-96.0257521023
do_nothing,0.130224434384,-0.918659957752,-0.996629877837,-0.381913729527,-1.74551779134,4.85339150921,-2.74458699024,-1.06868834638,-0.168028942244,-0.835490156964,-0.026424895573,-0.538705798785,-0.181924231478,46.7649955454
do_nothing,0.0473809426919,-0.599302651474,0.146486419067,1.12346062897,0.509795807113,-2.20017175509,0.732044578807,-0.747923402202,0.135102941576,0.384098098261,-0.278670203488,0.862150902429,-0.167497503568,34.1757112484
do_nothing,-0.993649591915,0.498436280541,0.352108458212,0.0146738178808,1.01923002938,-3.66349958846,3.05577960306,1.38077705763,-0.101666954622,0.791417759004,-0.142686985326,-0.362202870534,0.064648713518,31.7999059986
do_nothing,-0.707889897218,-0.275535541771,-1.09848884429,-0.746541649491,-0.869614683156,0.997319848442,-2.08573801867,-0.569661005443,0.0688491934125,-1.27384647012,-0.0819243175028,-1.3197466685,-0.327322691174,-96.2607618804
do_nothing,3.11823272707,1.2066425014,1.89204850075,-0.315447729368,-0.0389557218934,4.46065506529,-1.72951467638,-0.0683012758827,-0.0360393516118,0.583714612037,0.714864935381,2.14898945832,1.01486314854,-4.02164576739
do_nothing,-1.09111809666,-0.975772577972,-0.491764066101,0.884081937848,0.379310423412,-1.92936319549,1.78976185146,0.393367294752,0.00244468958914,0.0934113609716,-0.17873223377,-0.303054514844,-0.789902385904,90.2079762484
do_nothing,-3.39169617773,-1.34579438207,-2.45235134149,0.260723330157,-0.339319518536,-4.26050093136,1.16402147466,-0.710729413798,0.0310272926352,-0.432150339232,-0.853497240633,-2.22291617953,-0.620358550204,-8.51482289594
do_nothing,3.25944151741,2.38659063113,2.52423742032,-0.909013609619,0.256155575953,3.56109613655,-1.1538610383,0.362245711594,-0.0636146993,1.1187893496,0.505033523375,2.08541314939,1.4713197522,-34.6104064962
do_nothing,1.3918565804,-0.24227066579,0.900911333364,0.0235306233515,0.102675444953,2.15353306467,-1.57853103862,0.371946001714,0.0961581564919,-1.21281697551,0.506759741472,0.401882328285,-0.639050369669,-94.242096907
do_nothing,-3.12475988934,-1.73727232123,-2.37901001837,0.465154353228,-0.407366981689,-3.20440253107,1.69859235077,-0.122956113255,-0.129058332051,-0.368842304936,-0.261964407896,-1.68760494123,-0.593146649003,136.247172127
do_nothing,-0.310769129093,0.595740464973,-0.394704188118,0.129976518251,0.0176099993752,-1.13921494963,0.783068372489,-0.73597754478,0.161264807276,1.4603800302,-0.570973240354,0.202365608333,0.59470476866,42.0252917838
do_nothing,2.64600301574,1.05231554511,2.02739513835,-0.283814905145,0.437567769149,2.65235733793,-1.42242183221,0.273639790941,-0.19242386709,-0.11977128259,0.10029535308,1.19736098106,0.0952687296988,-123.793003096
do_nothing,0.0760207940264,0.305515503616,0.997729546169,-0.0541754624262,0.243277422758,1.47700232712,0.441949180508,1.57807342685,0.223443487464,-0.702917296372,1.1819577311,0.451521515402,0.202337263183,-52.7337776506
do_nothing,-3.38676126281,-2.61100151019,-3.54763163102,-0.361402199042,-1.43293346141,-4.20191592213,-1.09451675396,-2.54390528104,-0.254329436001,-1.49345384114,-1.31624254865,-2.92018015237,-1.36153134314,135.748537216
do_nothing,2.1985694849,1.60450546301,0.958034702572,0.786852244266,1.20803905147,0.570005169481,1.86335467296,1.15102780659,0.284051580996,2.72339283328,0.107189463227,1.71804968139,1.38967397647,70.5174366985
do_nothing,1.33352418818,1.47723738529,2.31146335347,0.00956348336432,0.341569921328,3.4861059548,0.212773604134,1.34128871539,-0.312642811635,0.359554304399,0.803340655981,1.84288577044,0.247905774088,-200.212513563
do_nothing,-2.01941248335,-1.70323198041,-0.800070137246,-0.561279888576,-0.849894062683,-0.77129889592,-2.27995492799,-2.2370567128,0.340932471255,-2.91826867114,-0.288353798167,-1.90479752244,-1.28736356426,22.6352235082
do_nothing,-0.155899725286,-0.868998694674,-1.97092030355,-0.587922576833,-0.424821588033,-4.01641962492,0.741750929259,0.421644136044,-0.368585783853,0.404892068873,-0.940166471203,-1.40427607427,0.183939982895,112.792269062
do_nothing,1.06968398711,1.32788794005,0.455918952862,1.53070664247,1.20316536479,1.53340573454,1.45007023989,1.8076792406,0.394728606967,2.46777749973,1.15410155437,1.57189927159,1.12777749811,38.6119637164
do_nothing,0.11361898382,0.897279569645,2.18496064222,-0.535353696727,-0.1670109699,4.66341544648,-0.832167965873,-1.40107794475,-0.419708718887,-0.711107846889,0.0639220700736,1.75420427704,-0.497424381436,-160.74639415
do_nothing,-0.139483688645,-0.897812465876,-0.155888146514,-0.427513170937,-0.616766930621,-2.69106949063,0.118247660519,-0.638654937742,0.44416605228,-1.35853359332,-0.750045703016,-1.26700101491,-0.562393982101,23.9894644843
do_nothing,-1.73350044411,-2.15025321892,-3.60723731748,-0.369157310664,-0.538930106079,-5.74220656455,-1.44218214799,0.430626620653,-0.46752041459,-0.82665094256,-0.613561208144,-3.47306347719,-0.356151451955,84.6628189264
do_nothing,2.215413987,2.97507690666,2.66521695618,1.02528478471,1.75198343721,6.31684641023,1.42814211052,2.06625373454,0.489147251833,2.94293324949,2.13484174817,3.86544811849,2.01447776113,34.6816697032
do_nothing,-0.385345782864,-0.166632741468,0.991317393563,-0.203909123011,-1.01297660434,2.42205102218,0.568612116953,-2.55721479915,-0.509605625012,-0.959975135116,-1.27619420308,1.15808084204,-1.74914124897,-118.433898526
do_nothing,-0.49116647562,-1.13173875818,-1.05138070873,-0.0237336629943,-0.139940992853,-5.45204717347,0.116375864122,0.0208193864625,0.529280815706,-0.908644405064,-0.629125669069,-2.32752534749,0.201955379209,3.01081447759
do_nothing,-0.532671600437,-0.720152567525,-1.29730985127,-1.21100962487,-0.28831145021,-1.71966812761,-2.71574174773,1.41320961159,-0.547463470869,-0.402997207002,0.551314133582,-1.90987318701,0.339784297619,67.5655898113
do_nothing,0.427575464521,1.05789111863,0.675178389407,1.39481505603,0.983123025629,5.1674711495,0.796365700852,-0.0311128600041,0.563823712992,0.78836557472,0.919722939505,2.38734789027,-0.106036657403,31.6614534725
do_nothing,0.975777916652,1.07398000858,1.42010007581,0.109084032804,-0.270029028136,0.975804495067,3.64764771006,-0.902336926467,-0.579016217669,1.1985082465,-0.98810589881,1.9844680968,0.263263414636,-74.2399654788
do_nothing,-0.20266439376,-0.844816956084,-0.0999299288532,-0.362334731958,-0.32375054793,-4.16215060882,-1.7754715118,-0.000611521578118,0.59315413378,-0.827309487301,-0.10543303525,-1.96852797847,0.0941624033353,-26.1303188984
do_nothing,-2.06750664831,-2.00756136828,-2.42647110418,-1.26785823543,-0.734952244396,-1.43554633807,-4.29633690456,-0.00209548761212,-0.605516738791,-2.10918129987,-0.0052492571217,-2.78295200033,-1.45953275135,59.3184607849
do_nothing,1.46308025562,2.2085870508,1.25365335609,1.64924051393,1.6068669892,4.30820859446,3.87575497671,1.65078723251,0.616066801842,2.26440511104,1.20066835299,2.98927737781,1.7977548828,24.5987605254
do_nothing,0.698259689162,0.0933324703844,0.782952081756,-0.100359011888,-0.715953858885,0.201898181609,1.61171999753,-2.24879873941,-0.62544523891,-0.141897107097,-1.53259135653,0.930702136943,-0.449667185509,-31.8061840444
do_nothing,0.827003077967,0.389007197474,1.28610580662,-0.312013024734,0.0508084750546,-0.997105928989,-1.23751972288,1.14988766941,0.633518408476,0.716770424632,0.842391758055,-0.178062706521,0.00153709175037,-54.3343474006
do_nothing,-3.84573813583,-2.61826320793,-3.72423451462,-1.03289253511,-1.11456340683,-4.25904754518,-3.53643107986,-0.408985105528,-0.639656752668,-2.1446606125,-0.296494015583,-3.48696417857,-1.30604365868,55.8551340559
do_nothing,1.69546540637,1.1276803593,0.9368199044,1.3003823656,1.69048234194,3.250415966,2.25025728373,0.34196300332,0.644074306637,0.0983170799623,0.216316886356,1.69875127651,1.64396329684,16.1781199829
do_nothing,3.07782790211,2.0008031125,2.86748757118,-0.146810506882,-0.241091549101,4.32429124983,2.80116007244,0.140795879621,-0.647309663291,1.61951102919,-0.513212956514,2.35532818356,-0.123977452515,-0.949418576557
do_nothing,-2.22616111425,-0.818634609407,-1.25126944891,0.218541829722,-0.860626710729,-3.79421319289,-1.61291779017,-0.41814180859,0.649040284772,0.971282519936,1.02605386076,-0.776334823011,-0.721494863349,-68.3896871775
do_nothing,-2.55046126477,-2.0633051864,-2.16160338959,-1.43443647878,-0.189081208672,-4.57561219197,-2.74970657943,-0.26363226513,-0.648802994047,-2.23137405359,-0.813236661734,-2.23146823043,0.0637836908099,50.0053134707
do_nothing,2.76108698182,0.856187612731,1.29402505278,1.11599959743,1.41146618099,4.56310247339,1.39318890003,0.844429309638,0.646994400153,-1.24417600964,-0.217979368813,0.182872670404,0.42688498137,6.20744977824
do_nothing,0.690018727736,1.03188461031,0.597856887511,0.331468150318,-1.0736200402,3.36413926827,1.46298082292,-0.945255770422,-0.643992249858,1.71001639838,0.0653621862828,1.10281804895,-0.839326535463,20.7640839724
do_nothing,-0.316242366351,1.65876563574,1.25977959622,-0.0476676695494,0.439542360846,-2.50766290659,1.46876513989,1.48431011738,0.639362234596,3.80681672876,1.78828465453,3.07056584143,2.0102646305,-69.0845619628
do_nothing,-2.72362473198,-3.98855405931,-2.8753197662,-1.50695294542,-0.541300490147,-5.7994212082,-4.02665603882,-1.71620479052,-0.632849085564,-5.14913268419,-2.30986699884,-4.20493412086,-2.06170196877,39.9465494854
do_nothing,1.93172547239,0.498779607957,0.35690855256,1.38323544044,0.61802625935,4.4063124438,0.0648466702937,0.523055089901,0.624949921735,-1.22877698431,0.193143175851,-1.63718423079,0.0309328142262,-2.97174974524
do_nothing,0.891699266199,2.68713100379,1.35046405155,0.0810091942496,-0.6805961114,4.44277706656,2.40122458932,0.154044207649,-0.615856632159,3.74202301945,1.02579771096,3.48791131193,0.752311511422,34.3201574381
do_nothing,-0.121758487078,0.468801046401,1.17994302782,-0.0707209293251,1.28430541901,-3.0997512167,1.85364352137,1.12250333651,0.605105488915,1.9852931361,0.674057571279,2.72011442494,1.18752488645,-60.481545838
do_nothing,-1.7367340948,-3.44243720624,-2.27051315867,-1.18531590578,-1.12715813614,-5.73582972624,-3.24222909415,-1.24025152946,-0.592656296879,-4.19600922778,-1.79211034224,-4.56413785343,-1.72779596159,27.7313373853
do_nothing,-0.0441742401078,-0.0802229560522,-1.11154260098,1.18517072348,-0.629626029396,4.14701134892,-2.51080199478,-1.43519826244,0.579024824402,-1.68417368953,0.0946475283597,-2.27264960167,-0.820302257368,-10.1154951613
do_nothing,1.98069239255,3.42148360933,2.47284249555,-0.178900855588,1.33576072502,5.32835690279,4.03964741744,2.10141349677,-0.56422373386,4.09622533739,0.993770222605,4.68574295512,1.65511157168,40.0646628679
do_nothing,0.378775456749,0.126166711402,1.45020904922,0.273060516896,0.932190374669,-4.75770736234,2.93800593822,1.92747743846,0.547834853731,1.71663875675,0.763752646534,2.12864074331,1.22909513418,-46.1542293884
do_nothing,-3.14382466801,-4.40037250273,-3.93471046576,-1.00159271068,-2.87657981853,-4.80882648026,-6.05730682449,-4.54801446925,-0.530010094571,-5.09268283058,-2.09400425981,-5.58334276142,-2.82701704265,15.6608906506
do_nothing,1.90219871159,2.42594128449,1.10600305947,0.56858053067,1.1848297077,6.88163387702,0.134140624757,1.13618410176,0.511213572593,1.06771359529,0.826254795343,0.599323866085,0.836327404446,-14.8625041273
do_nothing,0.153091132409,1.1815676213,1.23648005388,0.232162909405,1.23681248646,-0.200588450954,3.40370708915,2.46447025901,-0.491310897716,1.87693966161,0.236348013765,2.18184149181,0.392157735149,39.0833255411
do_nothing,0.32783105774,-0.402610553434,0.614823127345,0.288923514265,-0.287071723375,-2.97172401094,0.804435409967,-0.257217243235,0.469987423613,0.377804262861,0.602831272464,1.22460248396,0.892473224448,-29.1237363695
do_nothing,-0.736443742911,-1.52020590785,-1.93094624674,-1.14110412398,-1.92643791371,0.79111729506,-3.3269568009,-3.0963845876,-0.447541834013,-1.82809476037,-0.978152960325,-2.17916694324,-1.06107509503,2.92383994161
do_nothing,-0.556910400131,0.373309112411,-0.260471089851,0.69109865904,1.22764163557,0.104667514447,-0.206205087551,1.2121725411,0.424335738977,0.112544228519,-0.0586244071526,-1.26913451914,-0.451980611818,-7.96227548875
do_nothing,0.751300556339,1.09955080971,1.87675643393,0.0652166926732,0.963037440869,-0.397956913745,2.30077525087,2.5757455974,-0.400136617814,0.809055639641,0.333435513273,1.69245770948,0.390377822777,15.4757127183
do_nothing,0.53258401299,-0.263443136598,-0.391771703707,0.303781754874,-0.783541643891,2.52795370426,-0.060553466694,-2.02786937087,0.374768551612,-0.420879265618,0.464017439792,1.12811664936,0.573935945513,0.854293158257
do_nothing,-0.403542062175,-0.473332042641,-1.10879569756,-0.829126435283,-0.918879425532,-1.55726015855,-0.933968362702,-1.25433719543,-0.348618964339,0.645456870859,-0.411005149199,-0.891285635756,0.379103703043,10.0350453944
do_nothing,-0.368460683933,0.113465059162,0.854002845168,0.383166629595,0.981143616183,-3.31080895713,-0.115914548603,2.25915599493,0.32191941467,0.275959863323,-0.0892495470623,-0.995297091909,-0.888472121155,-58.4421929875
do_nothing,-1.07116800262,-1.02684435749,-0.837130321659,0.0840656535936,-0.0124132717857,2.93571856096,-1.08106774077,-1.12033537304,-0.294395104964,-2.72375233254,-0.691595187013,-0.830447561441,-1.86210226464,60.0283050926
do_nothing,2.55165283148,2.41475400649,1.39295123622,0.208659768703,0.330590135917,4.28596915772,2.91270593808,0.478875458834,0.266019606178,2.33426982775,1.51339302897,3.33602399293,3.51012436547,4.30435170116
do_nothing,-0.678657105443,-0.977004937424,-0.712363390397,-0.376609329373,-1.11437933556,-6.44716525215,-0.947231946786,-0.214095975044,-0.237208255659,1.09500092771,-0.438350719556,-1.19545660396,-0.0703332489033,-33.7939444734
do_nothing,-1.57745866796,-1.69290413244,-0.563972733275,0.0951604487952,0.534873787766,-0.789243939895,-2.05006380713,-0.324283149154,0.208058256605,-1.7115603984,-0.858900217874,-2.13052382121,-3.10477951495,-9.96400188957
do_nothing,0.270065160499,1.29028278286,0.489289439522,-0.216602874866,0.430037538322,5.78973869794,1.16158974184,0.193571581097,-0.178306041612,-0.970517196321,0.169196993008,1.3189255617,0.545066328367,34.1860197713
do_nothing,1.44706807342,0.921571085808,0.0807779905057,0.512566826916,-0.239449101648,-1.65825274985,1.18533980768,0.253791363974,0.148063012477,1.04036598982,0.885102689809,1.10006626724,2.73796517106,14.035889474
do_nothing,0.426726732741,-0.618391477206,0.37977620907,-0.022503204949,-0.213112083408,-3.17506599412,-0.502985646877,0.500204131741,-0.117717521933,1.57726087391,-0.160629495038,-0.830928361436,-0.57644882487,-67.4651591633
do_nothing,-2.43141931671,-1.23971660484,-0.690577108805,-0.505378686637,-0.192982108766,1.59891906824,-1.27969371145,-1.29440957681,0.0872479971503,-1.24807238988,-0.85327591996,-0.783701071813,-2.79021241118,63.4706609059
do_nothing,0.277296369488,0.7727587163,-0.20697179636,-0.147644640263,0.515569065482,1.81870587448,0.41798880089,-0.121054680375,-0.0564457587126,-1.43447646836,0.223036282067,1.07943292501,1.10830557799,-19.9266034599
do_nothing,2.66599605292,1.2099663522,0.838158683867,0.877211286857,0.158443872211,-1.73571788452,1.58425616708,2.14192124409,0.0255308149236,1.27014069882,0.762193376019,-0.155001949484,2.34480018276,-14.2079295631
do_nothing,-1.65642839001,-1.40021391513,-0.524196234254,-0.116378490661,-0.871110834396,-0.558836531468,-1.4499527849,-1.49436115562,0.00517792999644,0.578474163989,-0.455820295863,-1.34316143751,-1.73240541876,5.30943473454
do_nothing,-0.971709549081,0.305462430491,0.635962549232,-0.946493735993,0.545249298278,2.37387518703,-0.197324970177,-0.760601130384,-0.0357910058946,0.192640275211,-0.179100864677,2.19920957852,-0.766437682706,27.4017928402
do_nothing,0.902890917719,-0.0972732202401,-0.941893424893,0.444231636369,0.339102470078,-2.07845657385,0.737358395861,0.97474424054,0.066433330586,-1.52671675678,0.0324187678767,-0.329020581548,0.491680272155,-10.7317605777
do_nothing,0.535368522452,0.0135722830434,-0.207452289048,0.65632193092,-0.685375870339,-1.30157398441,0.104599269587,0.617321339079,-0.0968165046605,-0.154065653649,0.044418505905,-2.61654711675,0.843634475794,-58.094844527
do_nothing,-0.0722474708746,1.05724693451,1.7408412455,-0.445858150129,0.237914180701,4.16188169981,-0.310065950881,-0.585760991575,0.126717372578,2.07070443171,0.567899636255,1.9928508159,0.257748735165,59.287560921
do_nothing,-1.37849614393,-1.53715164949,-1.32747094388,-0.473308322308,0.216894136575,-1.11849588184,-1.23437494457,-1.5044184895,-0.156298123992,-1.15076932345,-0.884334025949,1.13927341176,-1.99513363318,36.4501720816
do_nothing,1.30672916546,0.454862196331,0.00690784265256,0.497622465584,0.165923889006,-4.06167784794,2.61618548901,2.44866692624,0.185587886673,0.0523276305064,0.34129897028,-0.917406947802,1.25203957192,-64.3814771066
do_nothing,-0.0803063471699,0.442875492913,0.0367593509511,0.00641476002111,-0.932975732002,2.15438739008,-1.07765647131,-0.628832534765,-0.214273970914,-0.517501667959,0.2046692247,-1.94963364663,0.635167295129,-34.6521334981
do_nothing,-0.660347993494,-0.227527845359,0.0995731693241,0.0931242692041,0.691455401332,4.36780081571,-2.18181312306,-1.76715484211,0.242238230624,-0.102690578998,-0.134055284276,1.20029503766,-0.897797387875,62.6006489727
do_nothing,0.678709355771,0.160737786631,0.884032439561,-0.473785148634,0.479590722859,-3.75975244992,2.60001604316,1.94113335687,-0.269656476055,1.66116926343,-0.117296722394,2.26398675373,-0.125827974328,58.425998456
do_nothing,-0.322529826991,-0.489687464841,-0.914013631546,0.438191762396,-0.696732188877,-3.59938530604,0.479396141433,0.117631192121,0.296466198002,-0.662276329748,0.11553818072,-1.8684286579,0.591150652975,-99.6402708122
do_nothing,-0.228362962281,0.0929107333564,-0.881810052807,-0.306419918302,-0.443118506059,4.85967690717,-2.12997689158,-1.78939541375,-0.322371841316,-1.62766522134,-0.0580417081574,-1.49428731869,-0.111672067089,-26.2559988134
do_nothing,0.470253567272,0.707060192051,1.36319560462,0.351874566419,0.877296598499,2.3078177723,0.27585934962,1.08434678481,0.347354132751,1.00968611121,0.292389510814,1.60070613305,-0.405872722315,61.2358420938
do_nothing,-0.43236989425,-0.821243426371,0.252868664143,-0.260003187115,0.00885927143838,-5.82007447158,0.797169647079,0.538204754048,-0.37156947441,0.76815137923,-0.737418817311,0.478558873092,-0.0618324542074,82.7318301162
do_nothing,1.0198364593,0.80323134739,-0.076423940769,0.230195669429,-0.00700337811017,0.774618970047,1.1188976285,-0.0863678084223,0.394881177721,0.537541614074,0.844640456243,0.532101382313,1.52699906898,-119.290663122
do_nothing,-1.90929106673,-1.30113127471,-2.38012743657,-0.622483014227,-1.41828215848,3.28210999226,-2.09477522147,-2.06248263719,-0.417044384683,-2.65902993936,-0.414515545996,-2.68453880805,-2.23868474389,-32.679673328
do_nothing,1.38237820093,1.19938169669,2.2746988279,0.741406529438,1.59064760611,0.0638346788738,0.284274240147,2.25310886633,0.438120682725,1.36807511362,0.225865734539,1.1928242723,0.795986054221,58.9437603682
do_nothing,0.441931227172,-0.0154764504099,0.940496664126,-0.106304953349,0.199117600328,-4.23643937066,0.541602099083,0.380272307257,-0.458223148581,1.0257431939,-0.729102259922,1.42944121566,1.04258585745,109.207975241
do_nothing,-1.24462167061,-0.687416543717,-1.7721366718,-0.0986936695039,-0.905161467671,1.63120926937,0.793394956085,-2.01663284427,0.477167331083,-0.745478508937,0.755494326006,-0.753645463868,-0.690673563368,-131.06782358
do_nothing,0.274928192984,0.237598908231,-0.685642035624,-0.848384548782,-0.602024763992,4.32046545586,-0.554097666359,0.38575973724,-0.494781465819,-0.329151459964,0.381175341708,-0.918838401294,-0.853235283489,-45.7776632033
do_nothing,0.77224079871,0.144072829638,1.19971062043,1.38400726342,1.4053294931,-4.20883370748,-1.36478301506,1.53017745268,0.511182713112,-0.0813915844025,-0.768885130044,0.280194756293,0.834580131351,57.0735881424
do_nothing,-0.880991464998,-0.259480635918,0.761668382688,-0.43067924431,-0.211164145244,-3.1140450323,0.650631886139,-0.872442708288,-0.526428140487,-0.105737221127,-0.928234154562,0.444695251582,0.276301018702,129.734526398
do_nothing,0.637930512554,1.09098265262,-0.184924622242,-0.342210446826,-0.387164418558,7.08605398755,2.22786441561,-0.353167797657,0.540315933292,1.58138325781,2.17284053853,0.774324680106,-0.00908675173365,-129.818317686
do_nothing,-0.565410173697,-1.96665571963,-2.74313818947,-0.428048507995,-0.811827612689,-0.943799518983,-2.46857910701,-0.659052207811,-0.552757392932,-1.55716211558,-0.711519291219,-1.72421707735,-1.42782581037,-67.314913955
do_nothing,0.907873110853,1.41832182654,2.70235659861,1.23914608444,1.52882285674,-5.48143982571,0.439991427797,2.44267513614,0.563897541345,0.302250986401,-0.752062818428,1.35011671215,1.88625367377,59.6937423053
do_nothing,-1.63714984891,-0.196176556304,0.228349206649,-0.702756015309,-0.705203151105,0.751129153896,-0.280154281002,-1.9839787963,-0.573736134186,-0.831054509094,-0.688930482017,-1.17325991725,-1.0402445349,140.279679006
do_nothing,1.53273676928,0.00559057953073,-1.0194671981,0.0761954685998,0.21266552662,7.11044141925,1.14467530251,-0.153281701967,0.582083562962,1.83425184344,2.31727922179,0.814625146727,0.129336644539,-117.788775324
do_nothing,0.109739025399,-0.609936065552,-0.775713827358,-0.547069966066,-0.797201680919,-3.70593368806,-0.0475486902458,1.00032967932,-0.588932381535,-0.224103963202,-0.816063980812,0.431873404984,0.189107485247,-91.5056959971
do_nothing,-1.18019062041,0.743311742954,1.36927843469,1.05513862202,0.845799943949,-5.02696812637,-0.89604725654,0.0476052571319,0.594429713166,-1.56968906196,-1.1974735131,-0.395171500207,0.157944392633,64.0959773516
do_nothing,0.00502498121309,-0.0816261599424,-0.0791268648186,-0.701949479136,0.0992682422943,3.72011992354,-0.512526116571,-0.819346953114,-0.598526539285,0.159913234362,0.220215864113,-1.16995051504,-0.719003527194,141.892368248
do_nothing,1.06518773973,-0.82017207204,-0.858208877385,0.369515487642,-0.392380348013,3.55516277206,1.02509020101,0.291332053888,0.601070201057,1.56808593005,1.51109425559,0.739506071009,0.436087118212,-98.897712459
do_nothing,-0.158102369287,0.628806980978,0.416196239025,-0.624213486905,-0.659582555418,-2.98703758489,0.507250066837,-0.100133417308,-0.602123049657,-0.539601110216,-0.947923528396,1.13250597521,0.307563483969,-113.454576013
do_nothing,0.116415479512,1.64651673937,1.33276781428,0.752613857124,1.6361708353,-1.54835141654,0.471150635072,1.37468138954,0.601813852018,-0.0217924894899,0.128417081557,0.401957301426,0.503945461483,67.6215189941
do_nothing,-2.5027581181,-3.69027610664,-3.2242775002,-0.516269903226,-1.30533597373,-0.649401776283,-3.75193833558,-2.4029108186,-0.600060444948,-2.00106539177,-1.11721189324,-3.73643738463,-2.37171879284,137.041592172
do_nothing,3.09789832803,1.86782481932,2.4525112963,0.449203683534,0.302774395482,3.58720901328,2.6239989694,1.3564173459,0.596764290123,2.48305726152,1.45128698608,2.31399792457,2.02540674396,-76.9515857274
do_nothing,0.172389498951,1.80450453721,0.901815413919,-0.52956456331,-0.0535088543373,0.530986532508,2.22445991893,0.363555383485,-0.592039547928,0.106203092854,0.107410650258,1.86384361303,0.338702063133,-130.741707144
do_nothing,-2.08527113536,-1.37561791617,-1.8749147774,0.529494444155,0.762126063348,-2.43084818796,-1.96597515568,-0.231796159655,0.585983489943,-0.962838403335,-0.390358480525,-1.07542509508,-0.592846840716,69.5398766625
do_nothing,-0.441383544833,-2.30236553537,-1.13516337094,-0.755752946282,-1.15769310901,-3.31013756993,-3.17796703819,-1.06350703593,-0.578500152564,-1.02114838537,-1.3776974968,-2.54272710597,-1.36125616368,128.174644297
do_nothing,2.31470069296,2.08362366807,2.41993673574,0.998965304627,0.486466836267,3.7736485916,3.04711937828,0.751889715911,0.569553412257,0.917810842446,1.41297871861,0.938893049103,0.985032050627,-55.7168359298
do_nothing,-0.130991994569,2.05507190262,0.628388469618,-0.519636216636,0.209395625303,4.46085804353,2.8821491885,1.00731280505,-0.559288202046,1.43233433995,0.816079820839,3.05780962709,1.60284070908,-141.948116205
do_nothing,-1.49374613982,-2.15672566138,-2.09278336904,-0.0545341937118,0.13126133408,-4.58333927964,-3.56819446899,-1.03095183645,0.547765085473,-0.673593374013,-0.988113181758,-0.865400387649,-1.09359318396,69.8483240787
do_nothing,-0.574441435844,-2.65669879413,-1.15892724465,-0.570197846007,-0.79234952129,-5.78642621604,-2.85909809861,-1.49521355687,-0.534893929624,-2.59453839356,-1.58237944735,-4.22044296097,-2.46914317497,117.437738507
do_nothing,2.29259245014,4.04450631072,3.39454444245,1.47464329509,0.829911725781,6.86796274296,5.41367770315,3.22017676649,0.520700542657,2.48713214983,2.44068236339,2.96687659725,3.02639651951,-37.9860478225
do_nothing,-1.24153717093,-0.0934514950537,-1.255750451,-0.759374154049,-0.782497815976,3.20109039637,-0.471480584401,-1.70384211226,-0.505339857924,0.294134301302,-0.46192308451,1.78608846217,0.0742364816646,-146.978311035
do_nothing,0.689095881565,-1.55251441288,-0.478330943363,-0.57325185367,1.0561926988,-3.77836388551,-2.67776472909,-0.777805870309,0.488837783889,-0.172161054442,-0.557012616935,-1.0942681218,-0.974897395223,69.1987711247
do_nothing,-1.38218686982,-1.23963056413,-0.664003743131,0.0774328720251,-0.738965807432,-4.96793522143,-0.314660793044,0.828346215077,-0.471126955115,-1.73996755056,-0.524216867991,-2.75347277485,-1.2783829295,106.438631151
do_nothing,0.0585902412279,1.85940330991,0.671294803298,1.43051580266,-0.200844622452,2.52062590549,2.41359425541,0.861862130018,0.452287124054,0.505543291729,0.892779830292,1.82872542409,1.50480745065,-25.3782313466
do_nothing,2.11512066447,1.13826992242,1.22172734548,-1.24943208355,0.249101636463,6.67438654291,0.209749959545,-0.990471330731,-0.432465422183,1.80754908139,-0.00430894631317,1.87183572989,0.849838186814,-146.705407034
do_nothing,-0.751631172264,-1.64745566356,-0.79922501031,-0.107408755952,0.599913210567,-1.33971039023,-2.06585260377,-0.748740529131,0.411660791423,-0.436158574663,-0.00371994450669,-1.60577369567,-1.01525659704,68.6827852286
do_nothing,-2.1830180127,-1.14214527488,-1.48424089439,0.13391430813,-0.535040455317,-8.91655642893,-0.138544380666,1.20813776648,-0.389840699279,-1.89237562943,-0.699888571854,-1.12815682064,-1.0606179667,94.424440008
do_nothing,1.36712483194,1.59600658407,1.09772469092,0.701062393521,-0.262106506777,0.990065441433,2.21703372232,0.762465453938,0.36712544056,0.591384779995,0.386207163064,1.35114815734,0.965594030103,-11.093201523
do_nothing,1.16015167383,0.440790281158,0.721213738265,-0.329926625681,-0.250248035538,10.5049663648,-1.25908031854,-2.22284170328,-0.343641332575,1.14519865481,0.134975311316,-0.301493596969,0.6895133811,-158.978078599
do_nothing,0.127885314637,0.149447947882,0.559365774557,-0.344860020984,1.48602291787,0.114139997991,-0.00815291384929,1.11102531431,0.319371466092,1.00013978791,0.647005029579,0.839453050114,0.339870802236,88.435826104
do_nothing,-2.95464082229,-2.57849673806,-2.81127318464,-0.51157115223,-0.950850998642,-14.0810529297,-0.588269661801,0.292386116162,-0.294324152356,-3.27377241804,-1.40152132454,-1.36233752852,-2.65533862619,82.8337299375
do_nothing,1.53761350314,1.63359108537,1.19094863948,1.29951290869,-0.562741905001,2.64478603136,1.29111746934,0.415050892648,0.268643903702,1.09093883067,0.561608751637,0.537304036244,1.54576762643,-40.3134420811
do_nothing,1.95406969146,1.59653990266,1.85720424459,0.0191758730094,0.226515789609,13.2892149275,-0.390474298453,-1.30243204068,-0.242428826068,2.06017138014,0.493192070272,0.0211102813916,1.58425269321,-104.350787991
do_nothing,-1.62164040015,-1.8656761866,-1.33435614882,-1.26787574307,1.06537820636,-3.00510955802,-1.14024572143,-0.327594103885,0.215658326325,-1.5318070204,-0.290253592381,-0.399925379613,-1.70449177985,69.6498667482
do_nothing,-1.03439412039,-0.218546136241,-0.696506696468,-0.138832530402,-0.407579725006,-12.0982483116,1.52239969446,2.48505173427,-0.188381346592,-0.354335555016,-0.0928179450381,1.6171191218,-0.551390634962,47.485467795
do_nothing,0.793824466333,0.477675757982,0.0676780986612,1.8429181728,-1.07099747344,1.69949413567,-0.325421449696,-1.37598670377,0.16074985744,0.196610447548,-0.172354227798,-1.30601535773,0.846681329222,-5.66316189357
do_nothing,1.21688156861,0.380788707232,1.07749081636,-0.650770607841,0.407804306121,12.1726292598,-1.09283349327,-1.81302520871,-0.13283185194,0.233439024272,-0.0451388162541,-1.6314297136,0.573735073254,-94.319653054
do_nothing,-0.639602221218,0.459144266842,0.416920066958,-1.352147791,1.07977407172,-1.01512088325,0.994647165671,2.38217521223,0.104614103052,0.777681005998,0.865708894755,2.53628848392,-0.388036381154,45.7513218839
do_nothing,-1.58178531844,-1.4005058418,-1.88421246785,0.648106982658,-0.50037651821,-12.0733025293,0.102128183991,0.0854168983546,-0.0761804676511,-1.07118787723,-0.662266547136,0.612005504287,-1.06608347412,34.5653148289
do_nothing,1.81012091156,0.367350627807,0.719287325639,1.14278803294,-0.627750812317,1.01729848225,0.195979535221,-1.1145289516,0.0476753258827,0.00458744230198,-0.435499511912,-1.82616079418,1.19421589654,30.8065010882
do_nothing,-0.392336716902,0.319145087319,0.343852628968,-0.548052856294,-0.342428647821,10.1401237687,-1.69135445615,-0.785242391607,-0.0191392646003,-0.0813002627468,0.390821391135,-1.6507873933,-0.228818331768,-94.9094604891
do_nothing,-0.449160076792,0.730136881901,0.376588337752,-1.13779942514,1.39659789503,1.20834195257,0.996619035518,1.59952311593,-0.00942532258225,0.976204995376,0.646411794994,2.92528260612,-0.237542583496,-5.13411228184
do_nothing,0.878155517556,-0.463577751437,-0.0238180533169,0.579149776068,0.186615869642,-9.48428187958,2.10877522666,0.765515714393,0.0379095039401,0.240001664436,-0.408614311024,1.38632446368,0.510313055178,91.68703743
do_nothing,-1.26767946509,-1.77924099943,-1.73792757902,1.13831831035,-1.97619914243,-4.01117973941,-2.78884742124,-2.46119780879,-0.066188263804,-2.23927418468,-0.951118218609,-3.78504852341,-0.927793308405,-10.4812791766
do_nothing,0.529388693218,1.8683024331,1.2395353723,-0.697986437488,0.769933061754,11.1007485491,-0.56023171052,0.616470215338,0.0942425050324,1.18485102029,0.982359982192,0.136739812595,0.497300182733,-33.3442873079
do_nothing,0.692231255111,0.70635024305,0.971880194102,-1.17469265479,1.21098257608,4.1165574782,2.35061101214,1.31473834789,-0.12204977021,1.20082701466,0.235910325109,2.26381322064,0.304754329792,-94.5301422339
do_nothing,-0.213596214939,-1.13890224776,-0.405617480171,1.20084221863,-0.514918956488,-11.0872393957,0.628578391006,0.0679907108983,0.14948826516,-0.375698605377,-0.280906008324,0.76382663364,0.249798895631,136.680078949
do_nothing,-1.06357672555,-0.979402388428,-1.71243942909,0.485257074916,-1.17503598192,-4.52787321955,-2.74800746937,-1.62071338708,-0.176459973518,-1.72987013552,-0.62265210101,-2.18972301317,-1.08056470343,41.2020582715
do_nothing,0.221094270681,0.559953590522,0.138488195137,-0.885299900449,0.586131177783,11.1346825595,-0.557428781622,-0.420817740562,0.202959781536,0.0600335223869,0.0925500616396,-1.60772298263,-0.289271299404,-123.331349013
do_nothing,1.78043333599,2.21163666023,3.09121655883,-0.511598920016,1.01545596552,4.49808734372,3.85722935802,2.83512633897,-0.228944839649,3.04899448406,1.11913876736,3.20650845096,2.18380749831,-53.0446446527
do_nothing,-1.24174102502,-1.45474471862,-1.36012669733,1.27230670575,-0.641725234903,-11.1500369487,-1.05798227027,-0.898568906619,0.254293247825,-1.44139973969,-0.17371343695,0.997026264676,-0.888329420794,136.525293149
do_nothing,-1.49508488142,-2.49103912184,-3.33966046647,-0.395769939531,-0.834798641634,-3.51818487024,-3.50099512327,-2.75948945206,-0.278937320788,-3.00770891914,-1.82022763748,-3.4899867615,-2.15812348956,69.9071643886
