label,COUNTER,INTERPOLATED,AF3,F7,F3,FC5,T7,P7,O1,O2,P8,T8,FC6,F4,F8,AF4,RAW_CQ,GYROX,GYROY,MARKER,SYNC,TIME_STAMP_s,TIME_STAMP_ms,CQ_AF3,CQ_F7,CQ_F3,CQ_FC5,CQ_T7,CQ_P7,CQ_O1,CQ_O2,CQ_P8,CQ_T8,CQ_FC6,CQ_F4,CQ_F8,CQ_AF4,CQ_CMS,CQ_DRL
off_to_on,4127.9249423,4131.5851204,4127.66453708,4135.55083899,4133.76626416,4144.98547816,4137.12785855,4132.0557686,4137.18663741,4133.40665767,4107.61250619,4132.38695664,4128.71053581,407.009259908
off_to_on,4127.46038368,4130.00167342,4126.95644373,4135.62595337,4133.57911926,4143.98312535,4136.31733482,4131.42168739,4137.1742475,4132.30173317,4106.96513534,4131.16920316,4127.58912599,451.414045954
off_to_on,4126.78043663,4128.21122711,4126.06621224,4135.70931562,4133.34315435,4142.81767484,4135.29459485,4130.62119692,4137.15661896,4130.98563554,4106.24455399,4129.71735966,4126.27154784,496.479216172
off_to_on,4125.89056746,4126.25025914,4125.00843671,4135.79803987,4133.06375496,4141.50974571,4134.080505,4129.66993634,4137.13456578,4129.48159709,4105.46496202,4128.05569596,4124.78175678,541.331959063
off_to_on,4124.8018961,4124.15971958,4123.80191111,4135.88900374,4132.74704261,4140.08243734,4132.70009545,4128.58684412,4137.10899623,4127.81653964,4104.64195827,4126.21333797,4123.14842195,585.080037391
off_to_on,4123.53080624,4121.98374803,4122.46897996,4135.97895233,4132.39961892,4138.5606653,4131.18167648,4127.39340498,4137.08088496,4126.02020293,4103.79204012,4124.22329344,4121.40400162,626.841720542
off_to_on,4122.09839081,4119.76829006,4121.03478421,4136.0646079,4132.02830573,4136.97047023,4129.55587823,4126.11283482,4137.051243,4124.12421079,4102.93207395,4122.12138458,4119.58369948,665.775479025
off_to_on,4120.52975722,4117.5596636,4119.52643278,4136.14278134,4131.63989191,4135.33832313,4127.85465227,4124.76923881,4137.02108695,4122.16111154,4102.07875718,4119.94513093,4117.72434248,701.108355404
off_to_on,4118.85322155,4115.40312747,4117.97213224,4136.21048188,4131.2408971,4133.69044988,4126.11027364,4123.38677865,4136.9914081,4120.16342952,4101.24809248,4117.73262569,4115.86322274,732.16198019
off_to_on,4117.09942395,4113.34150355,4116.40030788,4136.26502118,4130.83736196,4132.05219654,4124.35438068,4121.98888377,4136.96314281,4118.16276305,4100.45489453,4115.52144777,4114.036947,758.375293221
off_to_on,4115.30039941,4111.41390205,4114.83874928,4136.3041082,4130.43467304,4130.44745452,4122.61708764,4120.59753844,4136.93714503,4116.18896171,4099.71234792,4113.34764862,4112.2803359,779.323157305
off_to_on,4113.48863853,4109.65459453,4113.3138116,4136.32593142,4130.03742911,4128.89816196,4120.92620054,4119.23267308,4136.91416192,4114.26941178,4099.03163277,4111.24484846,4110.62541254,794.73020764
off_to_on,4111.6961718,4108.09207388,4111.84970127,4136.32922542,4129.6493536,4127.4238945,4119.30656241,4117.91168228,4136.89481338,4112.42845326,4098.42163145,4109.24347071,4109.1005154,804.479461326
off_to_on,4109.95370844,4106.74833254,4110.46787032,4136.31331936,4129.27325569,4126.04155461,4117.77954744,4116.64908595,4136.87957607,4110.68694557,4097.88872637,4107.37013624,4107.72956477,808.615407854
off_to_on,4108.28985702,4105.63838113,4109.18653821,4136.27816545,4128.91104005,4124.76516484,4116.36271686,4115.45634285,4136.86877228,4109.06199126,4097.43669441,4105.64723105,4106.53150442,807.341506104
off_to_on,4106.73045029,4104.77001996,4108.02035382,4136.22434599,4128.56376273,4123.60576554,4115.06964185,4114.34181779,4136.86256386,4107.56681888,4097.06669982,4104.09265229,4105.51993268,801.012219804
off_to_on,4105.29799116,4104.14386541,4106.98020359,4136.15305845,4128.23172837,4122.57141381,4113.90989062,4113.31089649,4136.8609511,4106.21081822,4096.77738259,4102.71972913,4104.70292841,790.1199235
off_to_on,4104.011231,4103.75362317,4106.07316525,4136.06607874,4127.91462173,4121.66727612,4112.88916957,4112.36623431,4136.86377654,4104.99971385,4096.56503594,4101.53730706,4104.08306981,775.27719603
off_to_on,4102.88488559,4103.58659135,4105.30260059,4135.96570361,4127.61166514,4120.89580373,4112.00960177,4111.50811895,4136.87073313,4103.93585714,4096.42386265,4100.5499776,4103.65763668,757.195181543
off_to_on,4101.92948903,4103.6243678,4104.66837533,4135.85467418,4127.32179192,4120.25697732,4111.27012056,4110.73492202,4136.88137647,4103.01861268,4096.34629763,4099.75843025,4103.41898019,736.6588347
off_to_on,4101.15138055,4103.84372945,4104.16718932,4135.7360832,4127.04382587,4119.74860551,4110.66695218,4110.04361106,4136.89514045,4102.24481251,4096.32338166,4099.15989981,4103.35503888,714.499971908
off_to_on,4100.55281588,4104.21764594,4103.79299708,4135.61326942,4126.77665644,4119.36666023,4110.19415873,4109.43029126,4136.9113557,4101.6092505,4096.34516992,4098.74868007,4103.44997525,691.569119196
off_to_on,4100.13219073,4104.71638597,4103.53749629,4135.48970276,4126.51940027,4119.10563228,4109.84421185,4108.89074633,4136.9292702,4101.10518986,4096.40115809,4098.51667481,4103.68490423,668.707177791
off_to_on,4099.88436211,4105.30867332,4103.39066076,4135.36886458,4126.27154099,4118.95888995,4109.60856814,4108.42094889,4136.94807136,4100.72485865,4096.48070902,4098.45395757,4104.03868294,646.717921119
off_to_on,4099.80105073,4105.96284865,4103.3412942,4135.25412713,4126.03304032,4118.91902489,4109.4782194,4108.01751365,4136.96690884,4100.45991075,4096.57346331,4098.54931437,4104.48873083,626.342292714
off_to_on,4099.87130637,4106.64799473,4103.37758155,4135.14863675,4125.80441551,4118.97817061,4109.44419296,4107.67806973,4136.98491757,4100.30183336,4096.6697187,4098.79074623,4105.01184966,608.235393947
off_to_on,4100.08201734,4107.33498507,4103.48761593,4135.05520505,4125.58677928,4119.12828067,4109.49798075,4107.40153308,4137.00124036,4100.24228593,4096.76076485,4099.16591257,4105.58501469,592.946937652
off_to_on,4100.41844448,4107.99742005,4103.65988102,4134.97621227,4125.38184065,4119.36135647,4109.63187959,4107.18826472,4137.01504944,4100.27335961,4096.83916208,4099.66250081,4106.18611084,580.905805647
off_to_on,4100.86476057,4108.61242003,4103.88367148,4134.91352653,4125.19186656,4119.66961745,4109.83922977,4107.04010612,4137.02556662,4100.38775112,4096.89895569,4100.26851247,4106.7945912,572.409191925
off_to_on,4101.40457701,4109.16125152,4104.14943723,4134.86844223,4125.01960608,4120.04561043,4110.11454452,4106.96028996,4137.03208158,4100.57884971,4096.93582025,4100.97246136,4107.39203934,567.616643719
off_to_on,4102.02144094,4109.62976927,4104.4490413,4134.84163989,4124.86818115,4120.4822584,4110.45352929,4106.95323079,4137.03396797,4100.84074032,4096.94713131,4101.76348435,4107.96262122,566.549133436
off_to_on,4102.69928769,4110.00866498,4104.77592489,4134.83316898,4124.74094901,4120.97285292,4110.85299567,4107.02420718,4137.03069706,4101.16813084,4096.93196498,4102.63137031,4108.49341703,569.093108928
off_to_on,4103.42283596,4110.29352024,4105.12517746,4134.842454,4124.64134333,4121.51099737,4111.31068043,4107.17895253,4137.02184884,4101.55621433,4096.8910287,4103.5665163,4108.97462798,575.009281359
off_to_on,4104.17791563,4110.48466866,4105.49351355,4134.86832342,4124.5727015,4122.09051099,4111.8249848,4107.42317668,4137.0071203,4102.00048078,4096.82652868,4104.55982397,4109.39965736,583.9457258
off_to_on,4104.95172075,4110.58687945,4105.879162,4134.90905993,4124.53808649,4122.70530546,4112.39465286,4107.76204421,4136.98633104,4102.49649464,4096.74198181,4105.60255155,4109.76506976,595.454701862
off_to_on,4105.73298401,4110.60888067,4106.28167672,4134.9624701,4124.54011162,4123.34924687,4113.01841111,4108.19963754,4136.95942602,4103.03965607,4096.64198166,4106.68613883,4110.07043696,609.012464916
off_to_on,4106.51207173,4110.56274647,4106.70168132,4135.02597062,4124.5807765,4124.01601536,4113.69459263,4108.7384343,4136.92647564,4103.62496447,4096.5319296,4107.80202353,4110.31808274,624.041241133
off_to_on,4107.28100201,4110.46317703,4107.14056227,4135.09668806,4124.66132173,4124.6989748,4114.42077036,4109.37882813,4136.88767322,4104.24680224,4096.41774311,4108.94146708,4110.51274253,639.932480514
off_to_on,4108.03339165,4110.32670323,4107.60012753,4135.17156841,4124.78210906,4125.39106291,4115.19342235,4110.11872017,4136.84332995,4104.89875545,4096.305554,4110.09540655,4110.6611564,656.07047647
off_to_on,4108.76434039,4110.17085039,4108.08224853,4135.24749252,4124.94253314,4126.08471168,4116.0076504,4110.95320566,4136.79386763,4105.57348576,4096.2014093,4111.25434696,4110.77161506,671.855448387
off_to_on,4109.47026352,4110.01329577,4108.58850425,4135.32139314,4125.14096906,4126.77180608,4116.8569699,4111.87437601,4136.73980927,4106.26266514,4096.11098697,4112.40830524,4110.85347963,686.725227584
off_to_on,4110.14868543,4109.87105412,4109.11984583,4135.39036942,4125.37475933,4127.44368776,4117.73318553,4112.87125133,4136.68176779,4106.956981,4096.03933787,4113.5468141,4110.91669522,700.174766063
off_to_on,4110.79800813,4109.7597231,4109.67629893,4135.45179446,4125.64024181,4128.09120838,4118.62636334,4113.92985311,4136.62043316,4107.64621609,4095.99066358,4114.6589901,4110.9713175,711.772795248
off_to_on,4111.41726913,4109.69281735,4110.25671928,4135.5034123,4125.93281885,4128.70483538,4119.52490523,4115.03342033,4136.55655816,4108.31940268,4095.96813833,4115.73366675,4111.02706934,721.175090496
off_to_on,4112.00590256,4109.6812151,4110.85861411,4135.54342063,4126.24706604,4129.27481037,4120.41572706,4116.16276571,4136.49094306,4108.96504709,4095.97378074,4116.75958922,4111.09294237,728.133938732
off_to_on,4112.56351653,4109.7327356,4111.47803888,4135.57053641,4126.57687707,4129.79135744,4121.28453663,4117.29676227,4136.42441952,4109.57141579,4096.00837877,4117.72566319,4111.17685478,732.503552283
off_to_on,4113.08969751,4109.85185934,4112.10957445,4135.58404203,4126.91563979,4130.24493562,4122.1162022,4118.41294324,4136.35783403,4110.12687107,4096.07146897,4118.62124646,4111.28537379,734.241316019
off_to_on,4113.58385019,4110.0395962,4112.74638601,4135.58381043,4127.25643634,4130.62652622,4122.89519771,4119.48819285,4136.29203117,4110.62024075,4096.16136832,4119.43646884,4111.42350745,733.404896173
off_to_on,4114.04507845,4110.29350011,4113.38036063,4135.57030803,4127.59225949,4130.92794357,4123.60610646,4120.49949987,4136.22783699,4111.04120418,4096.27525504,4120.1625635,4111.59456743,730.145379715
off_to_on,4114.47211054,4110.6078233,4114.00231684,4135.54457552,4127.91623592,4131.14215522,4124.23416156,4121.42474286,4136.16604291,4111.380675,4096.40929313,4120.79219137,4111.80010178,724.696752219
off_to_on,4114.86326959,4110.97379818,4114.60227657,4135.50818699,4128.22184713,4131.26359674,4124.76579928,4122.24347388,4136.10739038,4111.63116149,4096.55879367,4121.31974044,4112.03989432,717.362155607
off_to_on,4115.21648876,4111.38003135,4115.16978764,4135.46318874,4128.503139,4131.28846581,4125.18920065,4122.93766734,4136.05255655,4111.78708591,4096.71840553,4121.74158256,4112.31202619,708.497488821
off_to_on,4115.52936915,4111.81299171,4115.69428316,4135.41202021,4128.75491158,4131.21498067,4125.49479635,4123.49240208,4136.00214141,4111.84504704,4096.88232751,4122.05627327,4112.61299397,698.493018301
off_to_on,4115.79927669,4112.25757271,4116.16546349,4135.3574198,4128.97288206,4131.0435888,4125.67571151,4123.89644736,4135.95665647,4111.80401336,4097.04453358,4122.26468318,4112.93787823,687.753745903
off_to_on,4116.02347292,4112.69770712,4116.57368523,4135.30231924,4129.15381494,4130.77711324,4125.72812899,4124.14272715,4135.91651545,4111.66543724,4097.19900311,4122.37005262,4113.28055553,676.679335218
off_to_on,4116.19927279,4113.11701139,4116.91034138,4135.24973051,4129.29561486,4130.4208255,4125.65155235,4124.22864165,4135.8820269,4111.43328425,4097.33994784,4122.37796486,4113.63394574,665.644420099
off_to_on,4116.32422084,4113.49943616,4117.16821726,4135.20262963,4129.39737906,4129.98243653,4125.44895325,4124.15623049,4135.85338923,4111.11397431,4097.46202741,4122.29623609,4113.99028576,654.980109744
off_to_on,4116.39627678,4113.82989903,4117.34180716,4135.16384177,4129.45940832,4129.47200015,4125.12679211,4123.93216798,4135.83068804,4110.71623478,4097.56054589,4122.1347237,4114.34141977,644.957462626
off_to_on,4116.41400084,4114.09487703,4117.42757896,4135.13593212,4129.48317654,4128.9017266,4124.69490629,4123.56758744,4135.81389598,4110.25086897,4097.63162249,4121.90505781,4114.67909622,635.773627905
off_to_on,4116.37672948,4114.28293783,4117.42417581,4135.12110678,4129.47126096,4128.28570807,4124.16626548,4123.07773843,4135.80287511,4109.73044739,4097.67233057,4121.62030469,4114.99526189,627.541250273
off_to_on,4116.28473293,4114.3851915,4117.33254704,4135.12112744,4129.42723648,4127.6395622,4123.55660067,4122.48148785,4135.79738162,4109.16893231,4097.68080107,4121.29457393,4115.28234421,620.281606277
off_to_on,4116.13934624,4114.3956471,4117.15600287,4135.13724295,4129.35553854,4126.98000389,4122.88391793,4121.80068186,4135.79707307,4108.58124971,4097.65628715,4120.9425844,4115.53351371,613.921791866
off_to_on,4115.94306703,4114.31146223,4116.90019032,4135.17014049,4129.26130016,4126.32435892,4122.16791434,4121.05939182,4135.80151772,4107.9828249,4097.59918915,4120.57920608,4115.74291935,608.296118223
off_to_on,4115.69961406,4114.13307684,4116.57299045,4135.21991769,4129.15016951,4125.69003646,4121.42931758,4120.28307236,4135.81020594,4107.3891,4097.51104,4120.21899641,4115.90589027,603.151702312
off_to_on,4115.41394237,4113.86422735,4116.18433994,4135.28607669,4129.02811503,4125.09397921,4120.68917522,4119.49766388,4135.82256328,4106.81505223,4097.39445262,4119.87575029,4116.01909866,598.158066943
off_to_on,4115.09221257,4113.51184132,4115.74598288,4135.36754024,4128.90122551,4124.55211191,4119.96812259,4118.72867479,4135.83796498,4106.27473242,4097.25303262,4119.56208282,4116.08067983,592.920399625
off_to_on,4114.74171332,4113.08581782,4115.271161,4135.46268886,4128.77551258,4124.07880979,4119.28565999,4118.00027993,4135.85575159,4105.78084238,4097.09126028,4119.28906249,4116.09030657,586.995966751
off_to_on,4114.37073783,4112.59870283,4114.77425298,4135.5694176,4128.6567226,4123.68640835,4118.65946998,4117.33447108,4135.87524518,4105.34436785,4096.91434707,4119.06591054,4116.04921666,579.913046212
off_to_on,4113.98841681,4112.06527267,4114.2703748,4135.68521013,4128.55016436,4123.38477474,4118.10480403,4116.75029366,4135.89576581,4104.97428181,4096.7280725,4118.89977876,4115.96019329,571.191632793
off_to_on,4113.60451183,4111.50204175,4113.77495459,4135.80722706,4128.46055821,4123.18095884,4117.63396474,4116.26320012,4135.91664783,4104.67732908,4096.53860721,4118.79561451,4115.82749958,560.365091374
off_to_on,4113.22917483,4110.92671323,4113.30329581,4135.93240495,4128.3919108,4123.07893918,4117.25590579,4115.88454535,4135.93725559,4104.45789961,4096.3523285,4118.75611697,4115.65676926,547.001886291
off_to_on,4112.87268093,4110.35759329,4112.87014321,4136.05756218,4128.34741876,4123.07947552,4116.97596619,4115.62124387,4135.95699806,4104.3179936,4096.17563427,4118.78178449,4115.45485692,530.726503342
off_to_on,4112.545143,4109.81299059,4112.48926558,4136.17950746,4128.32940285,4123.18007625,4116.79574971,4115.47560151,4135.97534214,4104.25727743,4096.01476094,4118.87104811,4115.22965197,511.238704463
off_to_on,4112.25621804,4109.31062333,4112.17306896,4136.29514687,4128.33927351,4123.37508424,4116.71315375,4115.44532751,4135.99182409,4104.27322551,4095.87561093,4119.02048282,4114.98986184,488.330313171
off_to_on,4112.01481625,4108.86705636,4111.9322532,4136.40158565,4128.37752721,4123.65588015,4116.72254629,4115.52372587,4136.00605895,4104.36133997,4095.7635946,4119.22508443,4114.74477113,461.898819375
off_to_on,4111.82882501,4108.49719005,4111.77552389,4136.49622093,4128.44377254,4124.01119704,4116.81508315,4115.70005804,4136.01774769,4104.51543729,4095.68349132,4119.47859813,4114.50398409,431.957211422
off_to_on,4111.70485994,4108.21382101,4111.70936998,4136.57682256,4128.53678373,4124.42753537,4116.97915212,4115.96006211,4136.02668181,4104.72798869,4095.63933362,4119.77388277,4114.27715906,398.639586662
off_to_on,4111.64805505,4108.02729206,4111.73791572,4136.64159949,4128.65457864,4124.88966289,4117.20092506,4116.28660702,4136.03274534,4104.99049951,4095.6343176,4120.10329459,4114.07374357,362.202253699
off_to_on,4111.66190178,4107.94524431,4111.86285213,4136.68924968,4128.79451708,4125.38117994,4117.4649936,4116.66045433,4136.03591431,4105.29391114,4095.67074172,4120.45907315,4113.90271855,323.020213374
off_to_on,4111.74814479,4107.9724792,4112.08345029,4136.71899245,4128.95341505,4125.88512754,4117.75506072,4117.06109494,4136.03625356,4105.629008,4095.7499744,4120.83371247,4113.77235929,281.579084586
off_to_on,4111.90673938,4108.11093269,4112.39665507,4136.73058254,4129.12766991,4126.38461329,4118.05465693,4117.46762498,4136.03391115,4105.98681167,4095.87244972,4121.22030064,4113.69001927,238.462718143
off_to_on,4112.13587254,4108.35975824,4112.79725486,4136.72430576,4129.31339149,4126.86342941,4118.34784921,4117.85962326,4136.02911049,4106.35894483,4096.03768914,4121.61281294,4113.66194229,194.33691004
off_to_on,4112.4320473,4108.71551035,4113.27811996,4136.70095695,4129.5065342,4127.30663748,4118.61991107,4118.21799324,4136.02214045,4106.73794936,4096.24434638,4122.00634594,4113.69310691,149.929778115
off_to_on,4112.79022763,4109.17241633,4113.83050006,4136.66180117,4129.70302591,4127.70109623,4118.85792451,4118.52573484,4136.01334366,4107.11754582,4096.49027204,4122.39728348,4113.78710685,106.009497149
off_to_on,4113.20403893,4109.72272054,4114.44436896,4136.60852001,4129.89888923,4128.03591189,4119.05128835,4118.76861483,4136.00310347,4107.49282487,4096.77259446,4122.78338943,4113.94607009,63.3601918392
off_to_on,4113.66601697,4110.35708261,4115.10880335,4136.54314479,4130.0903521,4128.3027945,4119.19211236,4118.93570998,4135.99182988,4107.86036471,4097.08781306,4123.1638257,4114.17061817,22.7568607676
off_to_on,4114.16789605,4111.0650095,4115.81238069,4136.46797938,4130.27394458,4128.49630807,4119.27548202,4119.01980288,4135.97994507,4108.2182723,4097.43190039,4123.53909752,4114.45986601,-15.0597553412
off_to_on,4114.70092571,4111.83530053,4116.54358127,4136.38551521,4130.44658029,4128.61400777,4119.29958541,4119.01761725,4135.96786912,4108.56614964,4097.8004091,4123.91093094,4114.81146098,-49.4074426428
off_to_on,4115.25620394,4112.65648498,4117.29117931,4136.29834158,4130.60562127,4128.65646184,4119.2657005,4118.92988719,4135.95600655,4108.90499011,4098.18858051,4124.28209081,4115.22165893,-79.6850320217
off_to_on,4115.8250149,4113.51723376,4118.04460992,4136.20905431,4130.74892679,4128.62716088,4119.17804821,4118.76126263,4135.9447344,4109.23701337,4098.59145196,4124.6561504,4115.68543392,-105.392341215
off_to_on,4116.39915906,4114.40672876,4118.7942999,4136.12016602,4130.87488693,4128.53232196,4119.0435236,4118.52006096,4135.9343922,4109.56545035,4099.00396078,4125.03722667,4116.19661851,-126.146811585
off_to_on,4116.97126408,4115.31497627,4119.53195254,4136.03402111,4130.98244288,4128.38059899,4118.871323,4118.21788187,4135.92527448,4109.89429252,4099.42104321,4125.42969737,4116.74807019,-141.696230218
off_to_on,4117.53506537,4116.23305384,4120.25077822,4135.95271851,4131.07109595,4128.18271448,4118.67248958,4117.8691078,4135.91762605,4110.22802051,4099.83772735,4125.83791658,4117.33185983,-151.92706497
off_to_on,4118.08564622,4117.15328328,4120.94566462,4135.87804475,4131.14090749,4127.95103032,4118.45940247,4117.49031711,4135.91164014,4110.57132815,4100.24921903,4126.26594586,4117.93947677,-156.868084447
off_to_on,4118.61962866,4118.06932589,4121.6132826,4135.81141978,4131.19249183,4127.69907706,4118.24523602,4117.0996394,4135.9074595,4110.92885745,4100.65098039,4126.71731628,4118.56204491,-156.689082874
off_to_on,4119.13530816,4118.97620053,4122.25212652,4135.75385724,4131.22700392,4127.44106222,4118.0434161,4116.71608391,4135.90518025,4111.30495842,4101.03880064,4127.19483515,4119.19054362,-151.694684505
off_to_on,4119.63272719,4119.87022828,4122.86249019,4135.70594055,4131.24612278,4127.19137875,4117.86709899,4116.35887138,4135.90485812,4111.70348611,4101.4088592,4127.70044783,4119.81602727,-142.313369503
off_to_on,4120.11368495,4120.74891131,4123.44638177,4135.66781548,4131.25203136,4126.96413368,4117.72869629,4116.0467975,4135.90651671,4112.1276441,4101.75778105,4128.23516147,4120.42983694,-129.082042445
off_to_on,4120.5816822,4121.61075588,4124.00738205,4135.63919938,4131.24739227,4126.77271546,4117.63946577,4115.79765266,4135.91015713,4112.57988067,4102.08268438,4128.79903349,4121.02379877,-112.626644508
off_to_on,4121.04180155,4122.45505109,4124.55045138,4135.61940667,4131.2353181,4126.62941475,4117.60918284,4115.6277171,4135.91576845,4113.06184002,4102.38122029,4129.39122296,4121.5904033,-93.6394741574
off_to_on,4121.50052451,4123.28161634,4125.08169033,4135.60738961,4131.21933417,4126.54510881,4117.6459016,4115.5513447,4135.9233382,4113.57436679,4102.65160407,4130.01009801,4122.12296058,-72.8540170467
off_to_on,4121.96548758,4124.09053033,4125.60805915,4135.60179297,4131.20333077,4126.52901493,4117.75580806,4115.58064179,4135.93286235,4114.11755742,4102.89263668,4130.65338769,4122.61572601,-51.0181912352
off_to_on,4122.44518076,4124.88185518,4126.13706179,4135.60102058,4131.19150201,4126.58851352,4117.94316215,4115.72524147,4135.94435392,4114.69084835,4103.10371538,4131.31836289,4123.06399182,-28.8669892947
off_to_on,4122.94859405,4125.65536859,4126.6764006,4135.60331138,4131.18826866,4126.72903836,4118.21032057,4115.99216858,4135.9578499,4115.29312775,4103.28483116,4132.00202851,4123.46413996,-7.09554037517
off_to_on,4123.48481981,4126.4103169,4127.23360966,4135.60682182,4131.19818363,4126.95402868,4118.55782833,4116.38578706,4135.97341574,4115.92285676,4103.43655181,4132.70130888,4123.81365365,13.6663838979
off_to_on,4124.06262198,4127.14520146,4127.81567657,4135.60971143,4131.22581973,4127.264936,4118.98456505,4116.90781853,4135.99114714,4116.57818561,4103.55998899,4133.41320914,4124.11108654,32.8774381284
off_to_on,4124.68998573,4127.85760987,4128.42866392,4135.6102278,4131.27564098,4127.66127718,4119.48793,4117.55741939,4136.01116899,4117.25705216,4103.65674899,4134.13493799,4124.35599122,50.1044473917
off_to_on,4125.37366323,4128.54410266,4129.07734369,4135.60678732,4131.35185966,4128.14072463,4120.06404962,4118.33130279,4136.03363123,4117.95725183,4103.72886743,4134.86398047,4124.54881055,65.0380467214
off_to_on,4126.11873305,4129.20016372,4129.76485838,4135.59804821,4131.45828299,4128.69922411,4120.70799101,4119.22389149,4136.05870194,4118.67647107,4103.77872901,4135.59811322,4124.69073772,77.5035869732
off_to_on,4126.92819121,4129.82022037,4130.49242329,4135.58297286,4131.59815385,4129.3311313,4121.41396631,4120.22748819,4136.0865577,4119.41227931,4103.8089738,4136.33535867,4124.78355144,87.466856328
off_to_on,4127.8025922,4130.39773513,4131.25908377,4135.56087676,4131.77399139,4130.02935849,4122.17551437,4121.332451,4136.1173718,4120.16207741,4103.82239253,4137.07387873,4124.82943419,95.034363358
off_to_on,4128.73975752,4130.92536761,4132.06154003,4135.53146227,4131.98743751,4130.78552396,4122.98564883,4122.52736411,4136.15130078,4120.92300389,4103.8218135,4137.81181274,4124.83078126,100.448135263
off_to_on,4129.7345677,4131.39520095,4132.89405037,4135.49483573,4132.23911598,4131.59009822,4123.83696494,4123.79919612,4136.18846988,4121.69180436,4103.80998451,4138.54706852,4124.79000946,104.07519681
off_to_on,4130.77885179,4131.79902393,4133.74842136,4135.45150707,4132.52851081,4132.43254361,4124.72170196,4125.13344246,4136.22895833,4122.46467273,4103.78945415,4139.27707992,4124.70937478,106.392103095
off_to_on,4131.86138576,4132.12865737,4134.61409094,4135.40237219,4132.85387056,4133.30144599,4125.63176177,4126.51425206,4136.27278497,4123.23707696,4103.76245702,4139.99854764,4124.59080874,107.965092874
off_to_on,4132.96800773,4132.37631109,4135.47830732,4135.34867845,4133.21214494,4134.18464042,4126.55868956,4127.92454226,4136.31989525,4124.00358431,4103.73080821,4140.7071831,4124.43578322,109.426601176
off_to_on,4134.08185465,4132.53495639,4136.32640331,4135.29197504,4133.59895937,4135.06933459,4127.49362566,4129.34610981,4136.3701501,4124.75770291,4103.69581225,4141.39747678,4124.24521283,111.449014773
off_to_on,4135.18372049,4132.59869806,4137.14216234,4135.23405019,4134.00863266,4135.94223596,4128.42724133,4130.75974829,4136.42331762,4125.49175743,4103.65819143,4142.06251306,4124.01940298,114.716665767
off_to_on,4136.25253191,4132.56312974,4137.90826873,4135.17685809,4134.4342415,4136.78968954,4129.34967344,4132.14538443,4136.47906794,4126.19681616,4103.61803838,4142.69385293,4123.75804966,119.897131168
off_to_on,4137.26593145,4132.42565656,4138.60683076,4135.12243875,4134.86773438,4137.59783275,4130.25047368,4133.48224618,4136.53697177,4126.86268532,4103.57479622,4143.28150345,4123.46029495,127.612937057
off_to_on,4138.20095291,4132.18576946,4139.21996114,4135.07283425,4135.30009493,4138.35277318,4131.11858802,4134.74907403,4136.59650309,4127.47798338,4103.52726915,4143.81398892,4123.12483835,138.414754866
off_to_on,4139.034768,4131.84525691,4139.73039551,4135.03000512,4135.721553,4139.04079278,4131.9423798,4135.92438466,4136.65704581,4128.03030372,4103.47366446,4144.27853312,4122.75010114,152.757124548
off_to_on,4139.74547885,4131.40834212,4140.12212716,4134.99575023,4136.12183892,4139.64858048,4132.70970739,4136.98679239,4136.71790466,4128.50646874,4103.41166572,4144.66135586,4122.33443726,170.977645843
off_to_on,4140.31292786,4130.88173677,4140.38103469,4134.97163362,4136.49047476,4140.16349295,4133.40806374,4137.9153899,4136.77831992,4128.89287374,4103.33853549,4144.94808066,4121.87638158,193.280447967
off_to_on,4140.71949461,4130.27460647,4140.49547905,4134.95892109,4136.81709395,4140.57384109,4134.02478162,4138.69018584,4136.83748555,4129.1759136,4103.25124502,4145.12424391,4121.37492427,219.724586613
off_to_on,4140.95084896,4129.59844714,4140.456847,4134.95852935,4137.0917796,4140.86919731,4134.54730447,4139.29259269,4136.89457029,4129.3424809,4103.14662677,4145.17588992,4120.82979789,250.217831223
off_to_on,4140.99663002,4128.86687541,4140.2600194,4134.97098933,4137.30540996,4141.04071625,4134.96351909,4139.70595457,4136.94874094,4129.38051965,4103.02154486,4145.09023078,4120.24176279,284.516100896
off_to_on,4140.85102204,4128.09533958,4139.90374454,4134.99642508,4137.44999901,4141.08145968,4135.26214199,4139.91610052,4136.999187,4129.27961481,4102.87307734,4144.85634477,4119.61287524,322.228592366
off_to_on,4140.5132011,4127.3007606,4139.3908997,4135.03454874,4137.51901939,4140.98671412,4135.43314747,4139.91190522,4137.0451458,4129.03159383,4102.69870277,4144.46588314,4118.94672223,362.828427747
off_to_on,4139.98763014,4126.50111516,4138.72862756,4135.08467125,4137.50769516,4140.75428869,4135.46822169,4139.68583565,4137.08592723,4128.63111366,4102.4964832,4143.91375212,4118.24860736,405.668441577
off_to_on,4139.28418524,4125.71497486,4137.9283386,4135.14572814,4137.41325226,4140.38477959,4135.36122427,4139.23446041,4137.12093697,4128.07620517,4102.26523491,4143.19873552,4117.52567346,450.00153271
off_to_on,4138.4181015,4124.96101738,4137.00557486,4135.21631877,4137.23511567,4139.88178703,4135.10863709,4138.55889714,4137.14969745,4127.36874644,4102.00467875,4142.32402384,4116.78694988,495.004834359
off_to_on,4137.40973423,4124.25752664,4135.97973579,4135.29475718,4136.97504378,4139.25207092,4134.70997866,4137.66517411,4137.17186565,4126.51483845,4101.71556243,4141.29761824,4116.04331591,539.806813063
off_to_on,4136.28413764,4123.62189972,4134.87367141,4135.37913206,4136.63719234,4138.5056328,4134.16816232,4136.56448313,4137.18724696,4125.5250591,4101.39974849,4140.13258186,4115.3073755,583.51629974
off_to_on,4135.07047047,4123.070178,4133.71315307,4135.46737306,4136.22810281,4137.65571315,4133.48977695,4135.27330351,4137.19580454,4124.41457579,4101.06026275,4138.84711627,4114.59324285,625.252385884
off_to_on,4133.80124498,4122.61661931,4132.52623643,4135.55732053,4135.75661232,4136.71869568,4132.6852705,4133.81337998,4137.19766374,4123.20310131,4100.70129974,4137.4644475,4113.91624251,664.174087977
off_to_on,4132.51144143,4122.27332591,4131.34253525,4135.64679574,4135.23368514,4135.71391236,4131.76901883,4132.21154169,4137.19311123,4121.91468334,4100.32818284,4136.01251269,4113.29253154,699.508695611
off_to_on,4131.2375155,4122.04993993,4130.19242732,4135.73366873,4134.67216814,4134.66334602,4130.75926568,4130.49935403,4137.1825889,4120.57732331,4099.9472783,4134.5234463,4112.73865454,730.577772837
off_to_on,4130.01632951,4121.95341445,4129.10621575,4135.81592134,4134.08647517,4133.59122963,4129.67792269,4128.71260039,4137.16668257,4119.22242635,4099.5658637,4133.03287174,4112.27104494,756.819873968
off_to_on,4128.88404114,4121.98786422,4128.11326993,4135.89170317,4133.49220797,4132.52354505,4128.55022327,4126.89059653,4137.14610588,4117.88409021,4099.19195269,4131.5790121,4111.90548792,777.809161057
off_to_on,4127.87498485,4122.15449638,4127.24117118,4135.95937854,4132.9057232,4131.4874278,4127.40422882,4125.07534617,4137.12167979,4116.59824705,4098.83407967,4130.20164144,4111.6565624,793.26926665
off_to_on,4127.02058249,4122.45161881,4126.51488856,4136.01756293,4132.34365789,4130.51048852,4126.27019199,4123.31055294,4137.09430849,4115.40167887,4098.50104962,4128.94090558,4111.53708076,803.081925945
off_to_on,4126.34831944,4122.87472161,4125.95601046,4136.06514818,4131.82242746,4129.62006691,4125.17978837,4121.64051087,4137.06495241,4114.33093321,4098.2016605,4127.83604901,4111.55754683,807.290098671
off_to_on,4125.88082219,4123.416626,4125.58205701,4136.10131586,4131.35771209,4128.842438,4124.16523504,4120.10890212,4137.03459927,4113.42117216,4097.94440706,4126.9240904,4111.72565307,806.095505388
off_to_on,4125.63507082,4124.06769437,4125.40589728,4136.12553924,4130.96394862,4128.20199554,4123.2583214,4118.75753745,4137.00423432,4112.70499267,4097.7371768,4126.23849442,4112.04583846,799.850709005
off_to_on,4125.62177679,4124.81609427,4125.43529284,4136.13757436,4130.65384573,4127.72044036,4122.48938382,4117.62507992,4136.97481056,4112.21126033,4097.58694965,4125.80789068,4112.51892743,789.046072191
off_to_on,4125.84495155,4125.64810899,4125.67258597,4136.13744114,4130.43794004,4127.41600449,4121.88626053,4116.74579627,4136.94722014,4111.96400109,4097.49951361,4125.65489131,4113.14186842,774.292106076
off_to_on,4126.30168557,4126.54848645,4126.11454691,4136.12539599,4130.32421025,4127.30274243,4121.47326639,4116.14838216,4136.92226799,4111.98139597,4097.47920866,4125.79505766,4113.90758756,756.297888528
off_to_on,4126.98215039,4127.50081795,4126.75238912,4136.10189745,4130.31776471,4127.38992089,4121.27022933,4115.8549074,4136.90064853,4112.27492239,4097.52871048,4126.23606303,4114.80496969,735.846366834
off_to_on,4127.86982897,4128.48793778,4127.57195661,4136.06756704,4130.42061586,4127.68153524,4121.29162986,4115.87992533,4136.88292628,4112.84868245,4097.64886477,4126.977093,4115.81897434,713.767464766
off_to_on,4128.94197125,4129.49233486,4128.55408126,4136.02314751,4130.63155221,4128.17597762,4121.5458835,4116.22978661,4136.86952118,4113.69895281,4097.83858078,4128.00851729,4116.93088992,690.90998284
off_to_on,4130.17026408,4130.49656738,4129.67510241,4135.96946113,4130.94611521,4128.86587611,4122.03480153,4116.90219159,4136.86069899,4114.8139841,4098.09479121,4129.31185801,4118.11872395,668.113311106
off_to_on,4131.52169658,4131.483672,4130.90753505,4135.90737018,4131.35668459,4129.73811858,4122.75325958,4117.88600736,4136.85656697,4116.17406857,4098.41248234,4130.86006798,4119.35772214,646.179966677
off_to_on,4132.95959435,4132.437559,4132.22086765,4135.83774196,4131.85267172,4130.7740681,4123.68909575,4119.1613664,4136.85707509,4117.75188523,4098.7847961,4132.61812147,4120.62100385,625.849924141
off_to_on,4134.44478944,4133.34338477,4133.58246522,4135.76142009,4132.42081611,4131.94996925,4124.82325111,4120.7000529,4136.8620224,4119.51312124,4099.20320274,4134.54390712,4121.8802966,607.777626752
off_to_on,4135.93688663,4134.18789303,4134.95854885,4135.67920311,4133.04557625,4133.23753756,4126.13015595,4122.4661725,4136.87106848,4121.41735732,4099.65773991,4136.58940093,4123.10674776,592.512453708
off_to_on,4137.39558263,4134.95971599,4136.31521958,4135.5918312,4133.70960212,4134.60471683,4127.5783557,4124.41708993,4136.88374921,4123.41919417,4100.13731147,4138.70208529,4124.2717878,580.483281147
off_to_on,4138.78199164,4135.64962688,4137.61949197,4135.49998085,4134.39427362,4136.0165831,4129.13136052,4126.50460917,4136.89949646,4125.46958654,4100.63003615,4140.82656913,4125.34801604,571.987618546
off_to_on,4140.05992958,4136.25073581,4138.840302,4135.40426711,4135.08028667,4137.43636779,4130.74869342,4128.6763605,4136.9176607,4127.51734159,4101.1236339,4142.90635447,4126.31007758,567.185632949
off_to_on,4141.19710998,4136.75862159,4139.94945411,4135.30525227,4135.74826666,4138.82656784,4132.3871033,4130.87735062,4136.93753584,4129.51073005,4101.60583531,4144.88568666,4127.13549891,566.099194493
off_to_on,4142.16620685,4137.17139387,4140.92247425,4135.2034598,4136.37938815,4140.15010631,4134.00190203,4133.05162434,4136.95838527,4131.39915219,4102.06479818,4146.71142014,4127.80544985,568.615891337
off_to_on,4142.94574431,4137.48968141,4141.73933847,4135.09939217,4136.95597901,4141.37150365,4135.5483796,4135.14398163,4136.97946822,4133.1347973,4102.48951444,4148.33482913,4128.30540141,574.497774101
off_to_on,4143.52077856,4137.71654514,4142.38505085,4134.99355068,4137.46208795,4142.45801875,4136.98324809,4137.1016904,4137.00006537,4134.67423413,4102.87019127,4149.71329326,4128.62565223,583.394406091
off_to_on,4143.88334585,4137.85731722,4142.85005015,4134.88645586,4137.8839957,4143.38071912,4138.26606336,4138.87613544,4137.01950301,4135.97987199,4103.19859116,4150.811792,4128.76170129,594.859628019
off_to_on,4144.0326589,4137.91937029,4143.13043065,4134.77866655,4138.21065221,4144.11544201,4139.36057388,4140.42434485,4137.03717477,4137.0212364,4103.46831761,4151.6041482,4128.71444981,608.371309442
off_to_on,4143.97504394,4137.91182434,4143.22796995,4134.67079607,4138.43402448,4144.64361186,4140.23594782,4141.71033968,4137.05256029,4137.7760096,4103.67503509,4152.07397005,4128.490222,623.35326199
off_to_on,4143.72362086,4137.84520051,4143.14996352,4134.56352413,4138.54934318,4144.95288404,4140.86783331,4142.70625773,4137.06524021,4138.23079498,4103.81661474,4152.21525181,4128.10060051,639.198430464
off_to_on,4143.29773854,4137.7310337,4142.90887262,4134.45760321,4138.55523935,4145.03759064,4141.23921218,4143.39321085,4137.07490711,4138.38157448,4103.89319994,4152.03260627,4127.56207982,655.292452286
off_to_on,4142.72218683,4137.58145657,4142.52179911,4134.35385872,4138.45376665,4144.89897034,4141.34101465,4143.76184378,4137.08137202,4138.23383915,4103.90718912,4151.54111616,4126.89554716,671.036683453
off_to_on,4142.02621547,4137.40876906,4142.00980639,4134.25318256,4138.25030845,4144.54517161,4141.17247061,4143.81257384,4137.0845665,4137.80238552,4103.86313609,4150.76580572,4126.12560732,685.869832724
off_to_on,4141.24239698,4137.22500791,4141.39711117,4134.15652026,4137.95337336,4143.99102617,4140.74118251,4143.55550175,4137.08454033,4137.11078248,4103.76757165,4149.74074918,4125.27977394,699.287424436
off_to_on,4140.40537724,4137.0415315,4140.71017568,4134.06485228,4137.57428688,4143.25759825,4140.06291521,4143.00999631,4137.08145496,4136.19052684,4103.6287531,4148.50784668,4124.38755553,710.858417923
off_to_on,4139.55056153,4136.8686353,4139.97673396,4133.97917061,4137.12679066,4142.37152361,4139.1611081,4142.20396727,4137.07557317,4135.07991772,4103.45635148,4147.11531264,4123.47946906,720.238440066
off_to_on,4138.71278722,4136.7152135,4139.22478876,4133.90045187,4136.62656441,4141.36416104,4138.06612582,4141.17285309,4137.06724542,4133.82269209,4103.26108876,4145.61593315,4122.58601808,727.179228963
off_to_on,4137.92503547,4136.58848143,4138.48161785,4133.82962825,4136.09068875,4140.27058611,4136.81427349,4139.95836093,4137.05689349,4132.46647335,4103.05433947,4144.06515957,4121.73667415,731.534032493
off_to_on,4137.21723326,4136.49377232,4137.7728283,4133.76755787,4135.53706893,4139.12846273,4135.44661201,4138.60700578,4137.04499203,4131.06109285,4102.84771259,4142.51911196,4120.95890093,733.25884977
off_to_on,4136.61519408,4136.4344189,4137.12149576,4133.71499563,4134.98384103,4137.97683159,4134.00761602,4137.16850329,4137.03204896,4129.65684903,4102.65263033,4141.03257031,4120.27725876,732.40954529
off_to_on,4136.13973905,4136.41172756,4136.54742216,4133.67256602,4134.44878212,4136.85485729,4132.54372305,4135.69407533,4137.01858529,4128.30277078,4102.47992045,4139.65703154,4119.7126243,729.135006461
off_to_on,4135.80603279,4136.42504764,4136.06653991,4133.64073874,4133.94874508,4135.80057685,4131.10182551,4134.23472985,4137.00511519,4127.04495073,4102.33943803,4138.43890727,4119.28155451,723.66665451
off_to_on,4135.62315817,4136.47193417,4135.69048397,4133.61980829,4133.49913729,4134.84969178,4129.72775856,4132.83957643,4136.99212712,4125.92501049,4102.23973094,4137.4179312,4118.9958183,716.304752046
off_to_on,4135.59394369,4136.54839675,4135.4263457,4133.60987798,4133.11346031,4134.03444415,4128.46483618,4131.55423609,4136.98006658,4124.97875322,4102.18776155,4136.62583526,4118.86211146,707.402071773
off_to_on,4135.71504615,4136.64922304,4135.27661421,4133.61084912,4132.80292463,4133.38261321,4127.35248547,4130.41939991,4136.96932117,4124.23505084,4102.18869411,4136.08534292,4118.88196295,697.345593911
off_to_on,4135.97728081,4136.76836095,4135.23930269,4133.6224159,4132.57615091,4132.91666528,4126.42502508,4129.46958426,4136.96020835,4123.71500325,4102.24575465,4135.80951415,4119.05183259,686.536979633
off_to_on,4136.36618084,4136.89934067,4135.30824985,4133.64406626,4132.43896539,4132.65308388,4125.71062839,4128.73212311,4136.95296638,4123.43139591,4102.36016711,4135.80146316,4119.36339278,675.372620032
off_to_on,4136.86275929,4137.03571583,4135.47357928,4133.67508913,4132.39429423,4132.60190172,4125.23050521,4128.22642881,4136.94774859,4123.38847055,4102.53116629,4136.05445472,4119.80397961,664.224081703
off_to_on,4137.44443845,4137.17150192,4135.72229395,4133.7145883,4132.44215792,4132.76644909,4124.99832777,4127.96354296,4136.94462109,4123.58201156,4102.75608499,4136.55237028,4120.35719285,653.419759405
off_to_on,4138.08610615,4137.30159048,4136.03897808,4133.76150286,4132.57976375,4133.14332625,4125.01991805,4127.94598813,4136.94356398,4123.9997385,4103.03050989,4137.27052078,4121.00361825,643.228503021
off_to_on,4138.76125371,4137.4221185,4136.40657537,4133.81463404,4132.80169103,4133.72259926,4125.29320406,4128.16792067,4136.94447574,4124.62198349,4103.34849795,4138.17676961,4121.72164147,633.845911463
off_to_on,4139.4431482,4137.53077501,4136.80721027,4133.87267798,4133.10016054,4134.48821057,4125.80844304,4128.6155735,4136.9471807,4125.4226219,4103.70284265,4139.23291759,4122.4883198,625.383882773
off_to_on,4140.10599123,4137.62702961,4137.22301817,4133.93426366,4133.46537667,4135.41858831,4126.54869989,4129.26796756,4136.95143909,4126.37021587,4104.08537823,4140.39629243,4123.28027612,617.863881329
off_to_on,4140.72601736,4137.71227189,4137.63695056,4133.99799499,4133.88592788,4136.48743088,4127.49056006,4130.09786103,4136.95695912,4127.42932327,4104.48730893,4141.62147812,4124.0745798,611.214234751
off_to_on,4141.28248839,4137.78985455,4138.03352277,4134.06249545,4134.34922932,4137.66463726,4128.60504744,4131.07289695,4136.96341081,4128.56191969,4104.89955004,4142.86211547,4124.84958077,605.271610679
off_to_on,4141.75854411,4137.86503733,4138.39947448,4134.126454,4134.84198988,4138.91734862,4129.85871094,4132.15690379,4136.97044068,4129.72887785,4105.31306773,4144.07270371,4125.58566605,599.786653677
off_to_on,4142.14187632,4137.94483358,4138.7243171,4134.18867014,4135.35068567,4140.21106321,4131.21483733,4133.31129797,4136.9776869,4130.89144859,4105.71920545,4145.21033434,4126.26591237,594.433591914
off_to_on,4142.42520054,4138.03776541,4139.00074741,4134.24809626,4135.86202242,4141.51078471,4132.63474457,4134.49653572,4136.98479419,4132.01268842,4106.10998546,4146.23629256,4126.87661354,588.823459077
off_to_on,4142.60650841,4138.15353816,4139.22491261,4134.30387523,4136.36337023,4142.78216397,4134.07910857,4135.67356071,4136.99142798,4133.05878278,4106.47837588,4147.117468,4127.40766699,582.520425918
off_to_on,4142.68909339,4138.30264866,4139.39651898,4134.35537104,4136.84315634,4143.99259502,4135.50927666,4136.80519619,4136.99728714,4134.00021909,4106.81851489,4147.82752522,4127.85281013,575.060604163
off_to_on,4142.68135156,4138.49594503,4139.51878277,4134.40219082,4137.29120337,4145.11222876,4136.88852358,4137.85743398,4137.00211509,4134.81277097,4107.12588628,4148.34779419,4128.20970318,565.972578752
off_to_on,4142.59636879,4138.74415802,4139.59822875,4134.44419652,4137.69900303,4146.11487151,4138.18320872,4138.80057697,4137.00570863,4135.47826237,4107.3974417,4148.66785239,4128.47986122,554.798847011
off_to_on,4142.45131364,4139.05742448,4139.64434759,4134.48150534,4138.05991772,4146.97873979,4139.36379742,4139.61019796,4137.00792434,4135.9850891,4107.63166744,4148.78578194,4128.66844303,541.117298628
off_to_on,4142.26666227,4139.44482354,4139.66912799,4134.51447846,4138.36930507,4147.68704822,4140.40571411,4140.26788381,4137.00868245,4136.3284837,4107.82859476,4148.70809692,4128.78390922,524.561860207
off_to_on,4142.06528777,4139.91394424,4139.68648412,4134.54369828,4138.62456324,4148.22841341,4141.29000115,4140.76174171,4137.00796795,4136.51051854,4107.98975455,4148.44934823,4128.83756559,504.841453254
off_to_on,4141.87145058,4140.47050124,4139.71160156,4134.56993514,4138.82509766,4148.59706309,4142.00376405,4141.08665255,4137.00582905,4136.53985063,4108.11807871,4148.03142403,4128.84301096,481.756473782
off_to_on,4141.70972993,4141.11801224,4139.76022816,4134.59410493,4138.97221297,4148.79284703,4142.54039137,4141.2442656,4137.00237323,4136.43122067,4108.21775183,4147.48257509,4128.81551141,455.212093057
off_to_on,4141.6039383,4141.85754804,4139.84793753,4134.6172196,4139.06893632,4148.82105341,4142.89954575,4141.24273767,4136.99776091,4136.20472738,4108.29401859,4146.83620338,4128.77132454,425.227798728
off_to_on,4141.57606102,4142.68756263,4139.98939406,4134.6403328,4139.11978107,4148.69204192,4143.08693045,4141.09622941,4136.99219723,4135.88490573,4108.35295316,4146.12946074,4128.72699883,391.942738999
off_to_on,4141.64526236,4143.60380807,4140.1976477,4134.66448327,4139.13046152,4148.42071127,4143.11384364,4140.82417977,4136.98592231,4135.49964489,4108.40119856,4145.40171059,4128.69867295,355.616593863
off_to_on,4141.82699613,4144.5993355,4140.48348581,4134.69063838,4139.10757134,4148.02582464,4142.99653998,4140.45038769,4136.9792003,4135.07898713,4108.44568438,4144.69291036,4128.70139952,316.625870406
off_to_on,4142.13225537,4145.66458098,4140.85486641,4134.71964072,4139.05823883,4147.52922062,4142.75542605,4140.00193697,4136.97230787,4134.65385288,4108.49333237,4144.04197462,4128.74851643,275.455696817
off_to_on,4142.56698999,4146.78753218,4141.31645477,4134.7521601,4138.98977368,4146.95494068,4142.41412196,4139.50800636,4136.96552245,4134.2547404,4108.55076,4143.48517981,4128.85108731,232.687365141
off_to_on,4143.13171568,4147.95397012,4141.86928141,4134.78865336,4138.90931965,4146.32830566,4141.99842685,4138.99861154,4136.95911085,4133.91044919,4108.62399238,4143.05467055,4129.01743045,188.982038869
off_to_on,4143.82133063,4149.14777806,4142.51053562,4134.82933385,4138.82352768,4145.67497553,4141.53522931,4138.50332883,4136.95331857,4133.64687612,4108.71819349,4142.77712424,4129.25275292,145.061191762
off_to_on,4144.62514865,4150.35130793,4143.23350384,4134.87415221,4138.73826322,4145.02002629,4141.0514058,4138.05005131,4136.94836035,4133.48593029,4108.83742693,4142.67262533,4129.55890297,101.684472908
off_to_on,4145.52714911,4151.54579278,4144.02765677,4134.92278953,4138.65835967,4144.38707688,4140.57274966,4137.6638265,4136.94441212,4133.44460782,4108.98445568,4142.75379258,4129.93424914,59.6257948722
off_to_on,4146.50643489,4152.71179164,4144.87888291,4134.97466339,4138.58742762,4143.79749624,4140.12297115,4137.36582106,4136.94160489,4133.53426107,4109.16058879,4143.02519278,4130.37368985,19.6485130141
off_to_on,4147.53788081,4153.82965176,4145.76986,4135.02894683,4138.52772656,4143.26971616,4139.72280495,4137.1724519,4136.94002046,4133.76008877,4109.36558103,4143.48306278,4130.86879148,-17.5193981152
off_to_on,4148.59294654,4154.87997149,4146.6805498,4135.0845997,4138.48010258,4142.81867074,4139.38925559,4137.09471554,4136.93968941,4134.12086376,4109.59758897,4144.11534895,4131.40804769,-51.2092623355
off_to_on,4149.64062106,4155.84404689,4147.58879585,4135.14041123,4138.4439922,4142.45537714,4139.13500468,4137.13773863,4136.94059105,4134.60890552,4109.85318492,4144.90206021,4131.97724772,-80.8338361421
off_to_on,4150.64846004,4156.7042852,4148.47099976,4135.19505219,4138.41748936,4142.18666652,4138.96799652,4137.30056317,4136.94265564,4135.21029463,4110.1274273,4145.8159183,4132.55993727,-105.906847805
off_to_on,4151.58367429,4157.44456987,4149.30284776,4135.24713462,4138.39746988,4142.01506786,4138.89121063,4137.57617023,4136.94576832,4135.90531724,4110.41398428,4146.82327748,4133.13795204,-126.059225144
off_to_on,4152.41422558,4158.05056417,4150.06005816,4135.29527663,4138.37976527,4141.93884163,4138.9026233,4137.95173663,4136.94977499,4136.66911894,4110.70530554,4147.885276,4133.69200263,-141.051416581
off_to_on,4153.10988686,4158.5099438,4150.71911939,4135.33816963,4138.35937623,4141.95215524,4138.9953525,4138.40911026,4136.95448942,4137.47254021,4110.99283569,4148.95917356,4134.20228815,-150.781346871
off_to_on,4153.6432265,4158.81255232,4151.25799003,4135.37464497,4138.33071472,4142.0453874,4139.15797502,4138.9254819,4136.95970167,4138.28309947,4111.26726185,4149.99982273,4134.64911618,-155.287692683
off_to_on,4153.99047968,4158.95047772,4151.65673434,4135.40373707,4138.28786303,4142.2055445,4139.37499838,4139.47422418,4136.96518712,4139.06608492,4111.51878674,4150.96121836,4135.01350742,-154.74830999
off_to_on,4154.13227646,4158.91805204,4151.89807054,4135.42474004,4138.22483811,4142.4167688,4139.62746588,4140.02586343,4136.9707159,4139.78571362,4111.73741848,4151.79806711,4135.27776493,-149.473798436
off_to_on,4154.05420204,4158.7117805,4151.96781406,4135.437255,4138.13584996,4142.66091615,4139.89366959,4140.54914601,4136.97606237,4140.40631506,4111.9132676,4152.46731971,4135.42598981,-139.896353233
off_to_on,4153.74717297,4158.33020963,4151.85520312,4135.4412257,4138.01554381,4142.9181799,4140.14994344,4141.01215867,4136.98101409,4140.89349711,4112.03684212,4152.92961145,4135.44452824,-126.554232111
off_to_on,4153.20762077,4157.77374699,4151.55310014,4135.43696025,4137.85921741,4143.16773827,4140.37150759,4141.38346242,4136.98538009,4141.2152547,4112.09933138,4153.15056096,4135.32233767,-110.072342203
off_to_on,4152.43748308,4157.04444732,4151.0580684,4135.42513731,4137.66300637,4143.38840404,4140.53333465,4141.63319995,4136.98899809,4141.34298533,4112.09287035,4153.10188456,4135.05126407,-91.1396127569
off_to_on,4151.44401034,4156.14578142,4150.37032939,4135.40679555,4137.42403263,4143.55925775,4140.61100984,4141.7341396,4136.99174032,4141.25238115,4112.01077677,4152.76229138,4134.62622558,-70.4839525342
off_to_on,4150.23940359,4155.08240496,4149.49361131,4135.38330638,4137.14051253,4143.66024886,4140.5815582,4141.66262222,4136.99351788,4140.92417285,4111.84775473,4152.11813446,4134.04530224,-48.8456933903
off_to_on,4148.84030473,4153.85994368,4148.43490317,4135.35633011,4136.81182302,4143.67275182,4140.42421488,4141.39938155,4136.99428331,4140.34470734,4111.60005931,4151.16380196,4133.30973424,-26.9504944347
off_to_on,4147.26716542,4152.48481001,4147.20413233,4135.32775732,4136.43852553,4143.58006706,4140.12111706,4140.93021397,4136.99403161,4139.50634725,4111.26561844,4149.90184282,4132.42383478,-5.48272053064
off_to_on,4145.54352431,4150.96406375,4145.81378449,4135.2996371,4136.02234883,4143.36785944,4139.65789935,4140.24647896,4136.99279929,4138.40768651,4110.84410896,4148.3428303,4131.39482587,14.9396920179
off_to_on,4143.69522455,4149.30532625,4144.2784869,4135.27409534,4135.56613363,4143.02452861,4139.0241783,4139.34541794,4136.99066196,4137.05358226,4110.33698557,4146.5049759,4130.23260769,33.7879133617
off_to_on,4141.74960441,4147.51675394,4142.61457476,4135.25324595,4135.07374261,4142.54150807,4138.21391504,4138.23028504,4136.98773028,4135.45500894,4109.74746267,4144.4135142,4128.94947385,50.6415557652
off_to_on,4139.73469358,4145.60707294,4140.83966061,4135.23909892,4134.54994118,4141.91349074,4137.22564958,4136.91029033,4136.98414465,4133.62874609,4109.08045058,4142.09988675,4127.559786,65.2039004647
off_to_on,4137.67844595,4143.58567266,4138.97222429,4135.23346907,4134.0002549,4141.13858085,4136.06260391,4135.40036245,4136.98006878,4131.59691597,4108.34244941,4139.60075894,4126.07962157,77.3124005988
off_to_on,4135.60803659,4141.46275222,4137.031239,4135.23788943,4133.43081018,4140.2183724,4134.73265575,4133.72074357,4136.97568249,4129.38639155,4107.54140484,4136.95690898,4124.52640855,86.9440227837
off_to_on,4133.54924692,4139.24950991,4135.03584603,4135.25353301,4132.84816568,4139.15795544,4133.24818839,4131.8964357,4136.97117407,4127.02809849,4106.68653185,4134.21203128,4122.9185597,94.2151857015
off_to_on,4131.5259568,4136.95836245,4133.00508699,4135.28114665,4132.25914128,4137.96585191,4131.6258254,4129.95652086,4136.96673236,4124.55623746,4105.78811271,4131.41149779,4121.27511744,99.3762604779
off_to_on,4129.55975665,4134.60317793,4130.95769865,4135.32100007,4131.67065158,4136.65388331,4129.88606154,4127.93338136,4136.9625391,4122.0074535,4104.85727643,4128.60112073,4119.6154185,102.800807876
off_to_on,4127.66968605,4132.19950355,4128.91197101,4135.37285281,4131.08954998,4135.23697297,4128.05280292,4125.86184736,4136.95876174,4119.41997949,4103.90576658,4125.82595749,4117.95878482,104.969932954
off_to_on,4125.87209869,4129.7647675,4126.88566467,4135.43594101,4130.52248804,4133.73288634,4126.15283044,4123.77829976,4136.95554688,4116.83277857,4102.9457043,4123.12919469,4116.32424506,106.452329222
off_to_on,4124.18064705,4127.31843362,4124.8959799,4135.50898531,4129.97579407,4132.16191314,4124.21520101,4121.71975538,4136.95301485,4114.28470843,4101.98935252,4120.55114318,4114.73028809,107.880753947
off_to_on,4122.60637479,4124.88208746,4122.95956633,4135.59021993,4129.45537303,4130.54649638,4122.27060108,4119.72295996,4136.95125536,4111.81372666,4101.04888667,4118.12836947,4113.19464779,109.925818606
off_to_on,4121.15790057,4122.47943491,4121.09256031,4135.67744239,4128.96662906,4128.91081424,4120.35066701,4117.82351261,4136.95032459,4109.45615346,4100.13617679,4115.8929829,4111.73411668,113.268087678
off_to_on,4119.84167373,4120.13619772,4119.31063561,4135.76808227,4128.51441032,4127.28032231,4118.48728689,4116.05504233,4136.95024356,4107.2460045,4099.26258471,4113.87209092,4110.36438455,118.569549224
off_to_on,4118.66228031,4117.87989489,4117.62905335,4135.85928668,4128.10297484,4125.68126437,4116.71189851,4114.44845518,4136.95099814,4105.21440353,4098.43877983,4112.0874287,4109.09989806,126.445549205
off_to_on,4117.62277727,4115.7395045,4116.06269706,4135.94801952,4127.73597525,4124.14016082,4115.05479825,4113.03126737,4136.95254029,4103.38908207,4097.67457602,4110.55516302,4107.95373712,137.438268395
off_to_on,4116.72503273,4113.74500642,4114.62608089,4136.03117088,4127.41645947,4122.68328401,4113.54447553,4111.82703719,4136.95479084,4101.7939706,4096.97879168,4109.28586493,4106.93750439,151.992766416
off_to_on,4115.97005149,4111.9268126,4113.33332069,4136.10567274,4127.14688399,4121.33613014,4112.20698723,4110.85490605,4136.95764327,4100.44888444,4096.35913429,4108.28464067,4106.0612253,170.436522502
off_to_on,4115.35826767,4110.31509773,4112.19806072,4136.16861644,4126.92913632,4120.12289723,4111.06538591,4110.12925611,4136.9609687,4099.36930527,4095.82211042,4107.5514061,4105.33325713,192.963270903
off_to_on,4114.88978896,4108.93904896,4111.23335181,4136.21736738,4126.76456306,4119.0659793,4110.13921505,4109.65948942,4136.96462154,4098.56625813,4095.37296103,4107.08128657,4104.76020655,219.621767001
off_to_on,4114.5645808,4107.82605771,4110.45147983,4136.24967236,4126.65400003,4118.18548682,4109.44408345,4109.4499307,4136.96844575,4098.04628188,4095.01562191,4106.86512081,4104.34685667,250.309934233
off_to_on,4114.38258241,4107.00088085,4109.86374678,4136.26375505,4126.59780132,4117.49880388,4108.99132901,4109.49985247,4136.97228144,4097.81148916,4094.75270796,4106.8900459,4104.0961049,284.77463793
off_to_on,4114.34375089,4106.48480068,4109.48020976,4136.25839566,4126.59586429,4117.02019191,4108.78778039,4109.80361875,4136.97597134,4097.8597101,4094.58551988,4107.14013841,4104.00891425,322.617118097
off_to_on,4114.44803344,4106.29481554,4109.30938614,4136.23299141,4126.64764866,4116.7604493,4108.83562255,4110.35094021,4136.97936722,4098.18471232,4094.5140714,4107.59708713,4104.08428109,363.30389875
off_to_on,4114.69527202,4106.44289282,4109.35793604,4136.18759493,4126.75218799,4116.72663528,4109.13236931,4111.12723132,4136.98233566,4098.77648801,4094.5371349,4108.24087326,4104.3192231,406.182784949
off_to_on,4115.08504836,4106.9353157,4109.63033498,4136.12292885,4126.90809322,4116.92186474,4109.67094328,4112.11405725,4136.98476317,4099.62159779,4094.65230309,4109.05043541,4104.70879087,450.50336657
off_to_on,4115.61647999,4107.77215301,4110.12855128,4136.04037527,4127.11354817,4117.34517965,4110.43986049,4113.28965601,4136.9865604,4100.70356015,4094.85606425,4110.00429899,4105.24610655,495.441277793
off_to_on,4116.28798093,4108.94687799,4110.85174365,4135.94194003,4127.36629795,4117.99150079,4111.42351416,4114.62951966,4136.98766526,4102.00327458,4095.14388849,4111.08115181,4105.92243233,540.125321012
off_to_on,4117.0970026,4110.44615837,4111.795995,4135.83019278,4127.663632,4118.85166263,4112.60254974,4116.1070171,4136.98804493,4103.49946674,4095.51032273,4112.26035159,4106.72727071,583.666458554
off_to_on,4118.03977211,4112.2498348,4112.95409869,4135.70818473,4128.00236429,4119.91253271,4113.95432094,4117.69404097,4136.98769658,4105.16914462,4095.94909246,4113.5223545,4107.64849807,625.187607763
off_to_on,4119.11104591,4114.33109939,4114.31541282,4135.57934701,4128.37881414,4121.15721619,4115.45341501,4119.3616612,4136.98664693,4106.98805564,4096.45320849,4114.84905801,4108.67253217,663.853147178
off_to_on,4120.30389659,4116.65687992,4115.86579719,4135.44737335,4128.78879168,4122.5653447,4117.07223367,4121.08076911,4136.9849506,4108.93113606,4097.01507759,4116.22405519,4109.78453373,698.897055916
off_to_on,4121.60954981,4119.18842823,4117.58764529,4135.31609145,4129.22759254,4124.11344747,4118.78161599,4122.82269731,4136.98268737,4110.97294531,4097.62661607,4117.63280129,4110.96864093,729.648663988
off_to_on,4123.01728613,4121.8821043,4119.46002094,4135.18932767,4129.69000621,4125.77540058,4120.55148858,4124.55980255,4136.97995849,4113.08807913,4098.27936588,4119.06269644,4112.20823504,755.555084456
off_to_on,4124.51441974,4124.69034004,4121.4589053,4135.07077005,4130.17034257,4127.5229483,4122.35152881,4126.26600066,4136.97688219,4115.25155653,4098.96461285,4120.50309095,4113.48623361,776.19952525
off_to_on,4126.08636252,4127.56275942,4123.55755556,4134.96383482,4130.66248012,4129.3262878,4124.15182727,4127.91724504,4136.9735886,4117.43917621,4099.67350691,4121.94522155,4114.78540664,791.314835432
off_to_on,4127.71677802,4130.4474251,4125.72697238,4134.87154145,4131.15993863,4131.15470624,4125.92353543,4129.49194176,4136.9702143,4119.62783917,4100.39718397,4123.3820887,4116.08870951,800.791821426
off_to_on,4129.38782546,4133.29217612,4127.93646779,4134.79640129,4131.6559775,4132.97725707,4127.63948558,4130.97129644,4136.9668967,4121.79583475,4101.12688919,4124.80828611,4117.37962532,804.682064654
off_to_on,4131.08048938,4136.04601589,4130.15432119,4134.74032415,4132.14371938,4134.76346021,4129.27476967,4132.33958957,4136.96376852,4123.92308851,4101.85410094,4126.2197944,4118.64250835,803.195175783
off_to_on,4132.77498611,4138.66050692,4132.34850608,4134.70454699,4132.61629707,4136.48400895,4130.8072651,4133.58437828,4136.96095252,4125.99137083,4102.57065481,4127.61375089,4119.86291929,796.690625881
off_to_on,4134.45123415,4141.091126,4134.48746645,4134.68958744,4133.06701985,4138.11146506,4132.21809547,4134.69662398,4136.95855682,4127.98446591,4103.26886614,4128.98820736,4121.02794233,785.664493302
off_to_on,4136.08937193,4143.29853349,4136.54091841,4134.69522438,4133.48955409,4139.62092227,4133.49201571,4135.67074626,4136.95667075,4129.88830137,4103.9416493,4130.34188683,4122.12647412,770.731648278
off_to_on,4137.67030343,4145.24971144,4138.48065019,4134.7205064,4133.87811136,4140.99061842,4134.61771156,4136.50460424,4136.95536172,4131.69103902,4104.58263163,4131.67394949,4123.14947457,752.604058265
off_to_on,4139.17625043,4146.91892844,4140.28129223,4134.76378786,4134.22763661,4142.20247685,4135.58800471,4137.19940747,4136.95467283,4133.38312768,4105.18625931,4132.98377683,4124.09016999,732.066031693
off_to_on,4140.59128833,4148.28849383,4141.92102838,4134.82279141,4134.53398776,4143.24255903,4136.39995632,4137.75955878,4136.95462168,4134.95731943,4105.74789217,4134.27078146,4124.94420017,709.947320902
off_to_on,4141.90184195,4149.34926955,4143.38222007,4134.8946946,4134.79409792,4144.10141205,4137.05486324,4138.19243244,4136.95520007,4136.40865029,4106.26388434,4135.53424829,4125.70970208,687.095071908
off_to_on,4143.09711807,4150.10091548,4144.65191618,4134.97623724,4135.00611155,4144.77429709,4137.55814373,4138.5080912,4136.95637483,4137.73438648,4106.73164709,4136.77321012,4126.38732461,664.345637243
off_to_on,4144.16945285,4150.55185253,4145.72222499,4135.06384579,4135.16948621,4145.26128765,4137.91911221,4138.71894704,4136.95808963,4138.93393665,4107.14969031,4137.98635898,4126.98017063,642.497259257
off_to_on,4145.11455519,4150.71893768,4146.59052858,4135.15377005,4135.28505305,4145.56723027,4138.15064605,4138.83937139,4136.96026761,4140.00873135,4107.51763937,4139.17199233,4127.49366546,622.284585632
off_to_on,4145.93163136,4150.62685594,4147.25952632,4135.24222687,4135.35503066,4145.70156432,4138.26875097,4138.8852625,4136.96281483,4140.96207079,4107.83622508,4140.32799219,4127.93535357,604.35589735
off_to_on,4146.62338114,4150.30724539,4147.73710042,4135.32554568,4135.38298871,4145.67800299,4138.29203509,4138.87357868,4136.96562434,4141.79894286,4108.10724482,4141.45183371,4128.31462838,589.253815853
off_to_on,4147.19586115,4149.79758123,4148.03600338,4135.4003098,4135.37375998,4145.51408237,4138.24110478,4138.82184744,4136.9685807,4142.52581395,4108.3334943,4142.54061892,4128.6424026,577.400117753
off_to_on,4147.65821642,4149.13985444,4148.17337429,4135.46348821,4135.33330164,4145.23059083,4138.13789814,4138.74766145,4136.97156466,4143.15039526,4108.51867008,4143.5911304,4128.9307289,569.085129307
off_to_on,4148.02228728,4148.37908843,4148.17009775,4135.51255227,4135.26850881,4144.85089532,4138.0049747,4138.66817298,4136.97445805,4143.68138805,4108.66724394,4144.59989894,4129.19238185,564.462003749
off_to_on,4148.30210386,4147.56174363,4148.05002579,4135.54557317,4135.18698573,4144.40018487,4137.86478185,4138.59959908,4136.97714838,4144.12821213,4108.78431132,4145.56327925,4129.44041424,563.546006114
off_to_on,4148.51328631,4146.73406486,4147.83908928,4135.56129611,4135.09678209,4143.90465483,4137.73891994,4138.55675037,4136.97953327,4144.50072209,4108.87541688,4146.47752786,4129.68770133,566.218745696
off_to_on,4148.6723731,4145.94042952,4147.56433063,4135.55918884,4135.00610364,4143.39065801,4137.64742873,4138.55259582,4136.98152427,4144.80891702,4108.94636164,4147.33887784,4129.94648789,572.237109339
off_to_on,4148.7961042,4145.22175527,4147.2528934,4135.53946273,4134.92300781,4142.88385016,4137.60811823,4138.59787617,4136.98305013,4145.06265008,4109.00299679,4148.14360584,4130.22795317,581.246466171
off_to_on,4148.90068859,4144.61402532,4146.93100719,4135.50306593,4134.85509613,4142.40835824,4137.63596595,4138.70077764,4136.98405931,4145.27134477,4109.05101075,4148.88808842,4130.54180913,592.797548408
off_to_on,4149.00108688,4144.14698586,4146.62300749,4135.45164901,4134.80921575,4141.98599921,4137.74260198,4138.86667664,4136.98452162,4145.4437258,4109.09571665,4149.56884584,4130.89594638,606.366278025
off_to_on,4149.11034024,4143.84306512,4146.35042922,4135.38750438,4134.79118244,4141.63557627,4137.93590071,4139.09796515,4136.98442904,4145.58757223,4109.14184799,4150.18257322,4131.29614132,621.375713934
off_to_on,4149.23897529,4143.71655609,4146.13121093,4135.31348202,4134.80553696,4141.37227722,4138.21969541,4139.39396409,4136.9837956,4145.70950118,4109.19337043,4150.7261598,4131.7458357,637.219236996
off_to_on,4149.39451135,4143.77309561,4145.97904213,4135.23288454,4134.85534568,4141.2071973,4138.59362793,4139.75093047,4136.98265641,4145.81478951,4109.25331762,4151.19669867,4132.24599774,653.284066253
off_to_on,4149.58109307,4144.00946162,4145.90288071,4135.14934563,4134.94205471,4141.14700464,4139.05314152,4140.16216039,4136.98106587,4145.90724037,4109.3236582,4151.59148936,4132.79507057,668.974208638
off_to_on,4149.79926532,4144.41369834,4145.90666037,4135.0666963,4135.0654046,4141.19376154,4139.58961899,4140.6181874,4136.97909515,4145.98909964,4109.40520002,4151.90803652,4133.38901076,683.731989127
off_to_on,4150.04590186,4144.96556679,4145.98919984,4134.98882376,4135.22341051,4141.3449088,4140.19066303,4141.10707129,4136.97682903,4146.06102543,4109.49753642,4152.14404762,4134.02141588,697.057387605
off_to_on,4150.31429263,4145.63730565,4146.14431784,4134.91952789,4135.41240975,4141.59341385,4140.84050967,4141.61476953,4136.97436233,4146.12211205,4109.59903753,4152.2974325,4134.68373718,708.524516486
off_to_on,4150.59438831,4146.39467624,4146.36114947,4134.86238051,4135.62717633,4141.92807762,4141.52056128,4142.12558026,4136.97179592,4146.16996815,4109.70688835,4152.36630829,4135.36557043,717.794701596
off_to_on,4150.87319471,4147.19825519,4146.62465206,4134.8205924,4135.86109923,4142.33398911,4142.2100213,4142.62264393,4136.96923266,4146.20084812,4109.8171737,4152.34901293,4136.05501576,724.625769918
off_to_on,4151.13530426,4148.00492975,4146.91628169,4134.79689293,4136.10641937,4142.79311161,4142.88661015,4143.08848903,4136.96677327,4146.20983444,4109.92500862,4152.24413138,4136.73909577,728.877293032
off_to_on,4151.36354657,4148.76954387,4147.2148151,4134.79342643,4136.35451733,4143.2849799,4143.52733931,4143.50560664,4136.9645124,4146.19106805,4110.02471169,4152.05053849,4137.40421965,730.511678307
off_to_on,4151.53973617,4149.44663844,4147.49728706,4134.81166925,4136.59624276,4143.78748372,4144.10931936,4143.85703789,4136.96253504,4146.13802259,4110.11001698,4151.76746262,4138.03667979,729.591140362
off_to_on,4151.64549149,4149.992226,4147.74000898,4134.85237046,4136.82227394,4144.27771003,4144.61057699,4144.12695858,4136.9609133,4146.04381736,4110.1743191,4151.39457305,4138.62316694,726.270724847
off_to_on,4151.66309626,4150.365539,4147.91963182,4134.91551849,4137.02349496,4144.73281507,4145.01085586,4144.30124504,4136.95970388,4145.90156183,4110.2109443,4150.93209274,4139.15128837,720.787694669
off_to_on,4151.57637143,4150.53069046,4148.01421391,4135.00033515,4137.19137657,4145.13089644,4145.29237652,4144.36800512,4136.95894612,4145.7047231,4110.21343907,4150.38093583,4139.61007294,713.447721286
off_to_on,4151.37152414,4150.45818752,4148.00425333,4135.10529762,4137.31834585,4145.45183608,4145.4405309,4144.31805868,4136.95866074,4145.44750491,4110.17586627,4149.74286592,4139.99044576,704.608444406
off_to_on,4151.03793872,4150.12624094,4147.87364401,4135.22818771,4137.39812972,4145.678085,4145.44448775,4144.14535107,4136.95884949,4145.12522447,4110.09309753,4149.020668,4140.28565461,694.661066408
off_to_on,4150.56887477,4149.5218186,4147.61051587,4135.36616697,4137.42605737,4145.79536216,4145.2976863,4143.84728377,4136.95949539,4144.73467084,4109.96108964,4148.21832338,4140.49163001,684.010727802
off_to_on,4149.96203847,4148.64139749,4147.20792151,4135.515875,4137.39930745,4145.79324089,4144.99819772,4143.42494646,4136.96056379,4144.27442684,4109.77713216,4147.34117356,4140.60726155,673.056462701
off_to_on,4149.21999598,4147.49137772,4146.66433619,4135.67354731,4137.31708751,4145.66559884,4144.54893694,4142.88323671,4136.9620041,4143.74513573,4109.54005386,4146.39605778,4140.63457486,662.171555641
off_to_on,4148.35040271,4146.08813303,4145.98394391,4135.83514824,4137.18073555,4145.41091141,4143.95771195,4142.23085617,4136.96375212,4143.14969488,4109.25037643,4145.3914077,4140.57879663,651.685111221
off_to_on,4147.3660286,4144.45768563,4145.1766899,4135.99651349,4136.99373656,4145.03237413,4143.23710307,4141.48017648,4136.96573282,4142.4933611,4108.910406,4144.33728467,4140.44829903,641.865605717
off_to_on,4146.28456834,4142.63500783,4144.25808994,4136.15349648,4136.76165068,4144.53784586,4142.40417103,4140.64697289,4136.96786354,4141.7837563,4108.52425561,4143.24534725,4140.25442045,632.907116094
off_to_on,4145.12823491,4140.66296849,4143.24879708,4136.30211244,4136.49195362,4143.93961285,4141.47999923,4139.7500293,4136.97005739,4141.03076712,4108.09779477,4142.12874121,4140.01116488,624.918819121
off_to_on,4143.92314472,4138.5909578,4142.17393764,4136.43867449,4136.19379367,4143.25398079,4140.48908252,4138.81062352,4136.97222677,4140.24633771,4107.63852624,4141.00190854,4139.73478813,617.918225519
off_to_on,4142.69851319,4136.47323778,4141.06223915,4136.55991624,4135.87767388,4142.50070989,4139.45858126,4137.85190739,4136.97428684,4139.44416051,4107.15539338,4139.88031717,4139.44328461,611.828465981
off_to_on,4141.48568845,4134.36707862,4139.94498288,4136.66309627,4135.55507108,4141.70231497,4138.41746559,4136.89820116,4136.9761588,4138.63927518,4106.65852493,4138.78011771,4139.15579291,606.4797835
off_to_on,4140.31705992,4132.33075076,4138.8548223,4136.74608071,4135.23800696,4140.88325863,4137.39557966,4135.97422633,4136.97777289,4137.8475909,4106.15892741,4137.71773851,4138.89194281,601.615216149
off_to_on,4139.22488545,4130.42145035,4137.82451648,4136.80740085,4134.93858862,4140.06907086,4136.42266038,4135.10430475,4136.97907093,4137.08535186,4105.66813757,4136.70943432,4138.67116944,596.900283201
off_to_on,4138.24008589,4128.69323994,4136.88563208,4136.84628415,4134.66853776,4139.2854314,4135.52734743,4134.31155493,4136.9800084,4136.3685691,4105.19784959,4135.77080792,4138.51202278,591.936322329
off_to_on,4137.39105869,4127.19508631,4136.06727022,4136.86265775,4134.4387285,4138.55725248,4134.73622228,4133.61711682,4136.98055591,4135.71244408,4104.75953258,4134.91632609,4138.43150126,586.276973322
off_to_on,4136.70256194,4125.96907398,4135.39487351,4136.85712513,4134.25875317,4137.90779845,4134.07291306,4133.03943617,4136.98070001,4135.13080981,4104.36405446,4134.15885253,4138.44443729,579.447170638
off_to_on,4136.1947178,4125.04886564,4134.88916547,4136.83091745,4134.13653423,4137.35787567,4133.55729881,4132.5936366,4136.98044346,4134.6356143,4104.02132743,4133.5092195,4138.56296067,570.963898763
off_to_on,4135.88217924,4124.45847058,4134.56526832,4136.78582224,4134.07799861,4136.92512124,4133.20484237,4132.29100401,4136.97980471,4134.23646908,4103.73998921,4132.97585844,4138.79606179,560.357885287
off_to_on,4135.77349718,4124.21136939,4134.43203757,4136.7240931,4134.08682788,4136.62341352,4133.02607534,4132.13860291,4136.97881692,4133.94028208,4103.52713253,4132.56450672,4139.14927249,547.195360229
off_to_on,4135.87071694,4124.3100292,4134.49164243,4136.64834477,4134.16429454,4136.46242154,4133.02625219,4132.13903878,4136.97752627,4133.75099014,4103.38809274,4132.27800474,4139.62447696,531.098998487
off_to_on,4136.16922274,4124.74582778,4134.73941108,4136.56143844,4134.3091914,4136.44730503,4133.20518404,4132.29037479,4136.97598993,4133.66940183,4103.3263012,4132.11619304,4140.21985931,511.767185955
off_to_on,4136.6578388,4125.49938899,4135.16394847,4136.46636254,4134.51785682,4136.57857096,4133.5572553,4132.58620484,4136.97427355,4133.69315672,4103.34320854,4132.07591505,4140.92998856,488.990808113
off_to_on,4137.31918405,4126.54131507,4135.74752292,4136.36611409,4134.78429483,4136.8520875,4134.07161986,4133.01587878,4136.97244849,4133.81680158,4103.43827948,4132.15112604,4141.74603578,462.666850365
off_to_on,4138.13026688,4127.83328594,4136.46670626,4136.26358571,4135.10038529,4137.25925055,4134.73256618,4133.56486984,4136.97058891,4134.03197955,4103.60905716,4132.33310402,4142.65611234,432.808218783
off_to_on,4139.06329542,4129.32948019,4137.29324109,4136.16146269,4135.45617535,4137.78729309,4135.52003495,4134.21526828,4136.96876876,4134.32772312,4103.85129244,4132.61075374,4143.64571329,399.54933329
off_to_on,4140.08667042,4130.97826022,4138.19509897,4136.06213434,4135.84024095,4138.41972287,4136.41026747,4134.94638118,4136.96705888,4134.69083733,4104.15913049,4132.97099029,4144.69824555,363.147207158
off_to_on,4141.16611942,4132.72405334,4139.13768535,4135.96762261,4136.24010386,4139.13687056,4137.37655958,4135.7354142,4136.96552427,4135.10635638,4104.52534502,4133.39918562,4145.79561752,323.977900562
off_to_on,4142.265926,4134.50935363,4140.08514068,4135.87953041,4136.64268828,4139.91652742,4138.39009324,4136.55820944,4136.96422166,4135.55805345,4104.94160852,4133.87965853,4146.91886455,282.528414904
off_to_on,4143.3502037,4136.27676548,4141.00168404,4135.79901077,4137.03479934,4140.7346494,4139.42081684,4137.39001226,4136.96319741,4136.02898244,4105.39878594,4134.39618685,4148.0487842,239.384271696
off_to_on,4144.38416332,4137.9710091,4141.85294387,4135.72675682,4137.40360514,4141.56610301,4140.43834493,4138.20624,4136.96248596,4136.5020288,4105.88723842,4134.93251992,4149.16655528,195.213187895
off_to_on,4145.33532249,4139.54081078,4142.6072218,4135.6630119,4137.73710352,4142.38542739,4141.41284834,4138.98322587,4136.96210868,4136.96044713,4106.39712401,4135.47286987,4150.25431619,150.745412149
off_to_on,4146.1746101,4140.94060643,4143.2366389,4135.60759813,4138.02455552,4143.16758753,4142.31590644,4139.69891277,4136.9620733,4137.38836424,4106.91868279,4136.00236132,4151.2956805,106.751417483
off_to_on,4146.87732224,4142.13199546,4143.71811896,4135.55996106,4138.25686834,4143.88869432,4143.12129527,4140.33347377,4136.96237391,4137.77122862,4107.44249525,4136.5074222,4152.27617135,64.0177503126
off_to_on,4147.42389406,4143.084893,4144.03417095,4135.51922791,4138.42691271,4144.52666944,4143.80568809,4140.86983936,4136.9629915,4138.09619071,4107.95970463,4136.97610147,4153.18356021,23.3219093821
off_to_on,4147.80045965,4143.77834155,4144.17344164,4135.48427616,4138.52976233,4145.06183595,4144.34924844,4141.29411531,4136.96389493,4138.35240224,4108.46219636,4137.39830396,4154.0081007,-14.5928315701
off_to_on,4147.9991822,4144.20095776,4144.13101948,4135.45380937,4138.56284594,4145.47741893,4144.7361001,4141.59587989,4136.96504249,4138.53122732,4108.94273003,4137.76593675,4154.74265299,-49.0417384508
off_to_on,4148.01834658,4144.3510051,4143.90848211,4135.42643667,4138.52600656,4145.75994416,4144.95466283,4141.76835384,4136.9663837,4138.62636196,4109.39502201,4138.07296591,4155.38269908,-79.4211797083
off_to_on,4147.8622166,4144.23609898,4143.51369015,4135.4007525,4138.42146574,4145.89952672,4144.99784744,4141.80844112,4136.96786154,4138.63386285,4109.81377949,4138.31538667,4155.92625409,-105.22861229
off_to_on,4147.54066884,4143.87256505,4142.96034071,4135.3754134,4138.25369453,4145.89004443,4144.86310809,4141.71664334,4136.96941482,4138.55208955,4110.19468857,4138.49111352,4156.37368287,-126.079260344
off_to_on,4147.06862348,4143.28448517,4142.26730311,4135.3492085,4138.0291967,4145.72919484,4144.55235414,4141.49685494,4136.97098066,4138.3815678,4110.53436202,4138.59980016,4156.72743481,-141.718876603
off_to_on,4146.46530056,4142.50247744,4141.45776815,4135.32112101,4137.75621314,4145.41843764,4144.07172847,4141.15605044,4136.97249706,4138.12478473,4110.83025347,4138.64260198,4156.99171333,-152.032113288
off_to_on,4145.75333697,4141.56226633,4140.55824941,4135.29037838,4137.44435987,4144.96282835,4143.4312634,4140.70387918,4136.97390528,4137.78592924,4111.08054694,4138.6218963,4157.17209875,-157.046173727
off_to_on,4144.9578044,4140.50310687,4139.59748088,4135.25648899,4137.10421532,4144.37075258,4142.64442986,4140.15218622,4136.97515211,4137.37059319,4111.28403121,4138.54097736,4157.27514471,-156.92956384
off_to_on,4144.10517207,4139.36613064,4138.60525899,4135.21926441,4136.74687444,4143.65357397,4141.72759861,4139.51448063,4136.97619186,4136.88544977,4111.43996897,4138.40374406,4157.30796893,-151.985917457
off_to_on,4143.22225876,4138.19268333,4137.61127818,4135.17882637,4136.38348903,4142.82521149,4140.69943528,4138.80537434,4136.97698797,4136.33792565,4111.54797014,4138.21439796,4157.27785825,-142.643036887
off_to_on,4142.33521758,4137.02272112,4136.64400836,4135.13559844,4136.02481403,4141.90166411,4139.58025257,4138.0400147,4136.97751431,4135.73588282,4111.60787784,4137.97716782,4157.19190679,-129.437469531
off_to_on,4141.46859404,4135.89332898,4135.72965918,4135.0902831,4135.68077927,4140.90050256,4138.39134357,4137.23353402,4136.97775594,4135.08732424,4111.61967414,4137.69607435,4157.05670324,-112.995121343
off_to_on,4140.64449286,4134.83741642,4134.89127108,4135.04382521,4135.36010492,4139.84034788,4137.15431986,4136.40053766,4136.97770948,4134.40013524,4111.58341105,4137.37474602,4156.87808073,-94.0085717263
off_to_on,4139.88188333,4133.88263752,4134.14796583,4134.9973636,4135.06997688,4138.74035565,4135.89047691,4135.55464971,4136.977383,4133.68186997,4111.49917045,4137.0162935,4156.6609387,-73.2118902897
off_to_on,4139.1960655,4133.05057064,4133.51438181,4134.95217317,4134.81579534,4137.61972184,4134.62020738,4134.70813268,4136.97679544,4132.93958942,4111.36705469,4136.62324678,4156.40914225,-51.3538613638
off_to_on,4138.59831146,4132.35618168,4133.00030976,4134.90960028,4134.60100668,4136.49722333,4133.36248058,4133.87159293,4136.97597566,4132.17975387,4111.1872078,4136.19755539,4156.12550032,-29.1705978454
off_to_on,4138.09568796,4131.80758185,4132.61053595,4134.87099465,4134.42702454,4135.39080209,4132.13440308,4133.05377998,4136.97496103,4131.40816988,4110.95986517,4135.74064857,4155.81181982,-7.35856781626
off_to_on,4137.69105814,4131.4060785,4132.34489064,4134.83764135,4134.29324252,4134.31720017,4130.95087217,4132.2614829,4136.97379586,4130.62998831,4110.68542796,4135.25354846,4155.46902894,13.4509413267
off_to_on,4137.38325325,4131.1465057,4132.1984916,4134.81069628,4134.19713631,4133.29165024,4129.82432939,4131.49952288,4136.97252939,4129.84974749,4110.36455685,4134.73702714,4155.09735969,32.71493834
off_to_on,4137.16739858,4131.01781027,4132.1621654,4134.7911283,4134.13444964,4132.32762497,4128.76461789,4130.7708375,4136.97121385,4129.07145346,4109.99827874,4134.19179564,4154.69657713,49.9985224469
off_to_on,4137.03537255,4131.00385948,4132.22302274,4134.7796709,4134.09945448,4131.43664723,4127.77894251,4130.0766483,4136.96990224,4128.29868766,4109.588099,4133.61871205,4154.26624057,64.9905742716
off_to_on,4136.97637346,4131.08442867,4132.36515899,4134.77678548,4134.08527248,4130.6281609,4126.87192799,4129.41670015,4136.96864628,4127.53473149,4109.13611141,4133.01899463,4153.80598094,77.5147124631
off_to_on,4136.977565,4131.23632071,4132.57044708,4134.7826379,4134.08424226,4129.90946059,4126.04576616,4128.78955771,4136.96749437,4126.78269689,4108.64509771,4132.3944255,4153.31577745,87.5350632096
off_to_on,4137.0247696,4131.43456556,4132.81938696,4134.79708929,4134.08831476,4129.28567642,4125.30043995,4128.19294198,4136.96648974,4126.04565196,4108.11860906,4131.74753112,4152.79621734,95.1565866373
off_to_on,4137.10317853,4131.65364622,4133.09197481,4134.81970117,4134.08945835,4128.75980879,4124.63400942,4127.62408848,4136.96566888,4125.32673179,4107.56102216,4131.08172709,4152.2487234,100.619912011
off_to_on,4137.19804836,4131.8686982,4133.36855565,4134.84975446,4134.08005513,4128.33280703,4124.04294334,4127.08010815,4136.96506023,4124.62922591,4106.97756433,4130.40141696,4151.67573632,104.290845891
off_to_on,4137.29535544,4132.0566327,4133.63062489,4134.88628112,4134.05327051,4128.00368537,4123.5224791,4126.55833254,4136.96468322,4123.95663572,4106.37430307,4129.71203782,4151.08084127,106.644925393
off_to_on,4137.38238345,4132.19713858,4133.86154763,4134.92810672,4134.00337969,4127.76966962,4123.06699377,4126.05662594,4136.96454769,4123.31269759,4105.75809781,4129.02004802,4150.46883164,108.247582732
off_to_on,4137.44822273,4132.27352544,4134.04716939,4134.97390156,4133.92603698,4127.62636855,4122.67037014,4125.5736497,4136.96465376,4122.70137001,4105.13651332,4128.33285613,4149.84570606,109.730659729
off_to_on,4137.4841657,4132.27337904,4134.17629761,4135.02223792,4133.81847678,4127.56796444,4122.3263435,4125.10906685,4136.96499196,4122.1267861,4104.51769681,4127.65869374,4149.21859931,111.766156197
off_to_on,4137.48398809,4132.18900996,4134.24104034,4135.07165069,4133.67963882,4127.58741849,4122.02881757,4124.66367926,4136.96554387,4121.59317584,4103.91022263,4127.00643833,4148.59565123,115.038208295
off_to_on,4137.44411201,4132.01768739,4134.23699581,4135.12069858,4133.51021399,4127.67668786,4121.77214081,4124.23949363,4136.96628301,4121.10476532,4103.32291059,4126.38539569,4147.98582199,120.214365903
off_to_on,4137.36365275,4131.76165966,4134.1632938,4135.16802332,4133.31261106,4127.82695196,4121.55133743,4123.83971643,4136.96717607,4120.66566208,4102.76462557,4125.80505412,4147.39866467,127.917269146
off_to_on,4137.24435643,4131.42797283,4134.02249674,4135.21240427,4133.09084813,4128.02884655,4121.36229051,4123.46868146,4136.96818439,4120.27973725,4102.24406692,4125.27482407,4146.84406862,138.697813292
off_to_on,4137.09044029,4131.02810687,4133.82037433,4135.25280619,4132.85037611,4128.27270432,4121.20187666,4123.13171722,4136.96926558,4119.95051535,4101.76955697,4124.80377775,4146.33198786,153.010838728
off_to_on,4136.90835118,4130.57745511,4133.56557023,4135.28841794,4132.59784418,4128.54880118,4121.06805407,4122.83496294,4136.97037527,4119.68108168,4101.34883776,4124.40040287,4145.87216903,171.194289091
off_to_on,4136.70645955,4130.09467787,4133.26918292,4135.31868042,4132.34081941,4128.84760673,4120.95990625,4122.58514471,4136.97146895,4119.47401545,4100.98888439,4124.07238325,4145.47389255,193.452649777
off_to_on,4136.49470817,4129.60096368,4132.94428443,4135.34330219,4132.08747395,4129.1600368,4120.87764494,4122.38932294,4136.9725037,4119.33135407,4100.69574252,4123.82641673,4145.14573865,219.845317435
off_to_on,4136.28423389,4129.11923255,4132.60540136,4135.36226208,4131.84625429,4129.47770449,4120.82257534,4122.25462316,4136.97343985,4119.25459093,4100.47439567,4123.66807814,4144.89538795,250.280364864
do_nothing,4136.08698088,4128.67331544,4132.26798199,4135.37579876,4131.62554683,4129.79316481,4120.79702716,4122.18796144,4136.9742425,4119.24470599,4100.32866667,4123.60173192,4144.72946302,284.513960872
do_nothing,4135.91532163,4128.28714227,4131.94787188,4135.38438784,4131.43335377,4130.10014633,4120.80425535,4122.19577512,4136.9748828,4119.30222598,4100.26115553,4123.63049598,4144.65341475,322.155489339
do_nothing,4135.78170094,4127.98396802,4131.6608182,4135.388708,4131.27699247,4130.39376219,4120.84831429,4122.28376882,4136.97533892,4119.42730891,4100.27321449,4123.75625599,4144.67145453,362.678195599
do_nothing,4135.69831533,4127.78566333,4131.42202058,4135.38959789,4131.1628298,4130.67069177,4120.93390975,4122.45668453,4136.97559682,4119.61984621,4100.36495941,4123.97972648,4144.78653091,405.434979674
do_nothing,4135.67683797,4127.71209143,4131.24574279,4135.3880063,4131.09606145,4130.9293242,4121.06623264,4122.71810339,4136.97565059,4119.87957502,4100.53531517,4124.30055333,4145.00034757,449.678761474
do_nothing,4135.72819658,4127.78058871,4131.14499628,4135.38493814,4131.08054336,4131.16985505,4121.25077836,4123.07028509,4136.97550253,4120.2061928,4100.78209183,4124.71745071,4145.31341794,494.58667048
do_nothing,4135.8624085,4128.00556091,4131.13130274,4135.38139902,4131.11868033,4131.39432862,4121.49315568,4123.51404926,4136.97516289,4120.59946694,4101.10208726,4125.22836404,4145.72515093,539.287169514
do_nothing,4136.08847384,4128.3982015,4131.21453852,4135.37834118,4131.21137381,4131.60661948,4121.79888873,4124.04870145,4136.97464926,4121.05933224,4101.49121138,4125.83065006,4146.23396125,582.889114312
do_nothing,4136.41432419,4128.96633301,4131.40285945,4135.37661363,4131.35802846,4131.8123493,4122.173216,4124.67200425,4136.97398577,4121.58597032,4101.94462675,4126.52126441,4146.8373974,624.511680281
do_nothing,4136.84682108,4129.71436691,4131.70270031,4135.37691892,4131.55661427,4132.01873712,4122.62088943,4125.38019224,4136.97320192,4122.17986548,4102.45689985,4127.29694682,4147.5322798,663.31405771
do_nothing,4137.39179529,4130.64337262,4132.11883946,4135.37977879,4131.80377923,4132.2343843,4123.14597736,4126.16802773,4136.97233137,4122.84183284,4103.02215744,4128.1543945,4148.31484165,698.523829091
do_nothing,4138.05411598,4131.75124232,4132.65451565,4135.38551051,4132.0950053,4132.46899819,4123.75167439,4127.02889314,4136.97141047,4123.5730157,4103.63424256,4129.09041467,4149.18086503,729.462996219
do_nothing,4138.83777695,4133.03293534,4133.31158225,4135.39421508,4132.4247992,4132.73306149,4124.44012194,4127.9549146,4136.97047679,4124.37485031,4104.28686504,4130.10204815,4150.12580557,755.570716635
do_nothing,4139.74598683,4134.48078368,4134.09068268,4135.40577791,4132.78690888,4133.03745668,4125.21224398,4128.9371115,4136.96956759,4125.24899814,4104.97374196,4131.18665757,4151.1448996,776.421935176
do_nothing,4140.78125048,4136.08483985,4134.99143106,4135.41988188,4133.17455582,4133.39305694,4126.06760265,4129.96556663,4136.96871833,4126.1972473,4105.68872404,4132.34197567,4152.23324941,791.741253018
do_nothing,4141.94543016,4137.83324827,4136.01258323,4135.43603191,4133.58067384,4133.81029626,4127.00427953,4131.0296119,4136.96796139,4127.22138694,4106.42590502,4133.56611181,4153.38588375,801.411557529
do_nothing,4143.23977725,4139.71262263,4137.15218479,4135.45358977,4133.99814523,4134.2987331,4128.01878814,4132.11802515,4136.96732473,4128.32305987,4107.17971152,4134.85751703,4154.5977928,805.477132782
do_nothing,4144.6649275,4141.70841346,4138.40768573,4135.47181701,4134.42002562,4134.86662256,4129.10602319,4133.21923382,4136.96683099,4129.50360018,4107.94497228,4136.21491034,4155.86393834,804.1411754
do_nothing,4146.22085558,4143.80525211,4139.77601347,4135.48992394,4134.83975006,4135.52051249,4130.2592511,4134.32152131,4136.96649665,4130.76386316,4108.71696604,4137.63717075,4157.17924161,797.757846944
do_nothing,4147.90678716,4145.98725978,4141.25359911,4135.50712174,4135.25131326,4136.26487824,4131.47014521,4135.41323227,4136.9663315,4132.10405492,4109.49144833,4139.12320082,4158.53855228,786.819194287
do_nothing,4149.72106967,4148.23831301,4142.83635492,4135.52267501,4135.64941849,4137.10180965,4132.72886684,4136.48297271,4136.96633845,4133.52356874,4110.26465822,4140.67176816,4159.93660277,771.937454586
do_nothing,4151.66100541,4150.54225956,4144.51960357,4135.53595194,4136.02959043,4138.03076237,4134.02419169,4137.5198009,4136.96651352,4135.02083434,4111.03330623,4142.28133217,4161.36795271,753.823424665
do_nothing,4153.72265333,4152.88308218,4146.29796338,4135.54646942,4136.38824929,4139.04838376,4135.34367899,4138.51340505,4136.96684613,4136.59318547,4111.79454567,4143.94986309,4162.82692854,733.261711431
do_nothing,4155.90060815,4155.2450103,4148.16519618,4135.55393074,4136.7227448,4140.1484221,4136.67387962,4139.4542639,4136.96731973,4138.23675033,4112.54592952,4145.67466072,4164.30756321,711.083785303
do_nothing,4158.18776746,4157.61258275,4150.11402777,4135.55825404,4137.03135075,4141.32172513,4138.00057805,4140.33378748,4136.96791252,4139.9463682,4113.2853557,4147.4521799,4165.80354027,688.139827599
do_nothing,4160.57509913,4159.97066703,4152.13595267,4135.55959004,4137.31322222,4142.55633125,4139.30906226,4141.14443568,4136.96859843,4141.71553472,4114.01100342,4149.27786953,4167.30814629,665.270393339
do_nothing,4163.05142225,4162.30444281,4154.22103702,4135.55832826,4137.56831957,4143.83765355,4140.58441479,4141.87981342,4136.9693483,4143.53637674,4114.72126372,4151.14603146,4168.81423466,643.278903794
do_nothing,4165.60321585,4164.59935938,4156.35773432,4135.55509129,4137.79730438,4145.14875358,4141.81181735,4142.53474157,4136.97013102,4145.39965702,4115.41466699,4153.04970484,4170.31420322,622.905938833
do_nothing,4168.21446938,4166.84107776,4158.53272922,4135.55071726,4138.00141369,4146.470699,4142.976861,4143.1053033,4136.97091489,4147.29480814,4116.08981056,4154.980581,4171.79998746,604.806218668
do_nothing,4170.86658861,4169.01540905,4160.7308243,4135.54623128,4138.18231958,4147.78299626,4144.06585338,4143.58886636,4136.9716688,4149.20999481,4116.74528896,4156.92895305,4173.26307055,589.529051708
do_nothing,4173.53836916,4171.10826052,4162.93488359,4135.54280666,4138.34198166,4149.06408682,4145.06611497,4143.98408218,4136.97236353,4151.13220335,4117.37962956,4158.88370333,4174.69451067,577.502887189
do_nothing,4176.20604821,4173.10560007,4165.12584466,4135.54171773,4138.48249987,4150.2918936,4145.96625612,4144.29086336,4136.97297283,4153.04735711,4117.99123616,4160.83233098,4176.08498525,569.024454917
do_nothing,4178.84344251,4174.99344884,4167.28280868,4135.54428589,4138.60597484,4151.44440219,4146.75642797,4144.51034177,4136.97347436,4154.9404561,4118.57834253,4162.76102037,4177.42485154,564.252804891
do_nothing,4181.42217837,4176.75790992,4169.38321526,4135.55182135,4138.71438256,4152.5002611,4147.42854091,4144.64480977,4136.97385058,4156.79573964,4119.13897824,4164.65475058,4178.70422245,563.208380387
do_nothing,4183.91201711,4178.38524015,4171.40310573,4135.56556305,4138.80946894,4153.43938413,4147.97644611,4144.69764759,4136.97408925,4158.59687067,4119.67094862,4166.49744557,4179.91305727,565.77707265
do_nothing,4186.28127631,4179.86197009,4173.31747574,4135.58661943,4138.89266869,4154.24353794,4148.39607628,4144.67323941,4136.97418386,4160.32714102,4120.17183089,4168.27216408,4181.0412668,571.719017398
do_nothing,4188.49734457,4181.17507496,4175.10071454,4135.61591281,4138.96505157,4154.89689713,4148.68554295,4144.57688054,4136.97413376,4161.96969692,4120.63898819,4169.96132812,4182.07883303,580.681709362
do_nothing,4190.52728377,4182.31219718,4176.72712431,4135.65412978,4139.02729754,4155.38654856,4148.84518775,4144.41467728,4136.97394401,4163.50778382,4121.06960251,4171.54698783,4183.01594316,592.21684315
do_nothing,4192.33850867,4183.26191676,4178.17150907,4135.70167978,4139.07970086,4155.70292737,4148.87758593,4144.19344084,4136.97362514,4164.92500862,4121.46072715,4173.01111927,4183.84313712,605.800151443
do_nothing,4193.89952908,4184.01406209,4179.40981743,4135.75866389,4139.1222021,4155.84016773,4148.78750116,4143.92057598,4136.97319253,4166.2056162,4121.80935758,4174.33594979,4184.55146621,620.853413485
do_nothing,4195.18073477,4184.56004861,4180.41981917,4135.82485517,4139.15444548,4155.79635371,4148.58179133,4143.60396508,4136.97266577,4167.33477477,4122.1125186,4175.50430383,4185.13265909,636.767747004
do_nothing,4196.1551987,4184.8932283,4181.18179096,4135.89969177,4139.17585765,4155.57365861,4148.26926633,4143.25184791,4136.97206774,4168.29886338,4122.36736385,4176.49995983,4185.57928948,652.927270381
do_nothing,4196.79947011,4185.00922976,4181.67918349,4135.98228345,4139.18574326,4155.17836467,4147.86049997,4142.87269729,4136.97142366,4169.08575251,4122.57128277,4177.308007,4185.88493833,668.732229127
do_nothing,4197.09432685,4184.90626601,4181.89924025,4136.0714315,4139.18339135,4154.62075894,4147.36759948,4142.47509066,4136.97076004,4169.68506835,4122.72200906,4177.91518989,4186.04434281,683.620724111
do_nothing,4197.02545549,4184.58538745,4181.83353839,4136.16566163,4139.16818651,4153.91490553,4146.80393724,4142.06757776,4136.97010361,4170.08843082,4122.81772444,4178.31022796,4186.05352393,697.088257648
do_nothing,4196.58402898,4184.05065841,4181.47842396,4136.26326867,4139.13971825,4153.07829825,4146.18385065,4141.65854462,4136.96948021,4170.28965588,4122.85715166,4178.48409829,4185.90988584,708.704421093
do_nothing,4195.76715472,4183.30923977,4180.83531758,4136.36237119,4139.09788222,4152.13140191,4145.52231672,4141.25607451,4136.96891384,4170.28491425,4122.83963126,4178.43027128,4185.61228105,718.126176429
do_nothing,4194.57817023,4182.37136457,4179.91087164,4136.46097406,4139.04296733,4151.09709424,4144.83460867,4140.86780731,4136.96842574,4170.07284002,4122.76517792,4178.14489088,4185.16103795,725.107326191
do_nothing,4193.02676949,4181.25019933,4178.71696651,4136.55703596,4138.97572348,4150.0000243,4144.13594261,4140.50079928,4136.96803358,4169.65458513,4122.63451313,4177.62689397,4184.55794924,729.503912532
do_nothing,4191.12894927,4179.96158994,4177.27053988,4136.64853924,4138.89740581,4148.86590676,4143.44112278,4140.16138589,4136.96775085,4169.03381747,4122.44907249,4176.87806506,4183.80622148,731.275430995
do_nothing,4188.90677172,4178.52369682,4175.59325039,4136.73355899,4138.80979281,4147.72077488,4142.76419473,4139.85505123,4136.96758643,4168.21666245,4122.21098711,4175.90302515,4182.91038797,730.481886864
do_nothing,4186.38794635,4176.95652986,4173.71098343,4136.81032847,4138.71517686,4146.59021721,4142.11811607,4139.58630778,4136.9675443,4167.21158943,4121.92303939,4174.70915523,4181.87618829,727.276863425
do_nothing,4183.60524082,4175.28139851,4171.65321319,4136.87729839,4138.6163275,4145.49862454,4141.51445478,4139.35859141,4136.96762353,4166.02924593,4121.58859508,4173.30645688,4180.71041966,721.896911663
do_nothing,4180.59573659,4173.52029689,4169.45224078,4136.93318747,4138.51642848,4144.46847337,4140.96312464,4139.17417634,4136.9678184,4164.68224409,4121.21151399,4171.70735417,4179.42076569,714.647705373
do_nothing,4177.3999511,4171.69524719,4167.14233299,4136.97702264,4138.41899098,4143.51967151,4140.47216668,4139.03411516,4136.96811872,4163.18490514,4120.79604289,4169.92644274,4178.01560999,705.887528323
do_nothing,4174.06085322,4169.82762731,4164.75879078,4137.00816744,4138.32774626,4142.66898883,4140.04758381,4138.93820843,4136.96851034,4161.5529695,4120.3466951,4167.98019336,4176.50384217,696.008764748
do_nothing,4170.62280353,4167.93751052,4162.33697935,4137.02633773,4138.24652169,4141.92959374,4139.6932344,4138.88500737,4136.96897581,4159.80328102,4119.86812166,4165.88661891,4174.89466484,685.418145863
do_nothing,4167.13045432,4166.04304561,4159.9113544,4137.03160414,4138.17910511,4141.31071152,4139.41078838,4138.87185183,4136.96949511,4157.95345546,4119.36497978,4163.66491492,4173.1974102,674.516558816
do_nothing,4163.62764597,4164.15990544,4157.51451959,4137.0243814,4138.12910246,4140.81741655,4139.19974724,4138.89494428,4136.97004652,4156.02154363,4118.84180405,4161.33508508,4171.42137426,663.679247524
do_nothing,4160.15633712,4162.30082958,4155.17634966,4137.0054047,4138.09979408,4140.45056485,4139.05752717,4138.9494587,4136.9706075,4154.02569951,4118.3028861,4158.91756325,4169.57567609,653.2372253
do_nothing,4156.75560417,4160.47528276,4152.92321105,4136.97569414,4138.09399498,4140.20686835,4138.97960196,4139.02968154,4136.97115563,4151.98386285,4117.7521674,4156.43284333,4167.66914749,643.460676689
do_nothing,4153.46074323,4158.68924587,4150.77730801,4136.93650837,4138.11392437,4140.07910655,4138.95970015,4139.12918023,4136.97166946,4149.91346417,4117.19314962,4153.9011272,4165.71025658,634.545051728
do_nothing,4150.302503,4156.94514991,4148.75617689,4136.88928967,4138.16108951,4140.05646619,4138.99004904,4139.24099355,4136.97212936,4147.83115854,4116.62882567,4151.34199951,4163.70706696,626.60045224
do_nothing,4147.30647216,4155.24195702,4146.87234511,4136.83560259,4138.23618871,4140.12499514,4139.06165671,4139.35783667,4136.97251826,4145.75259294,4116.06163391,4148.77413654,4161.66723154,619.644780813
do_nothing,4144.49263807,4153.57538617,4145.13316473,4136.77706909,4138.3390377,4140.26815265,4139.16462204,4139.47231341,4136.97282225,4143.69221016,4115.49343678,4146.21505459,4159.59801885,613.600973602
do_nothing,4141.87512734,4151.93827443,4143.54082313,4136.71530301,4138.46852256,4140.467435,4139.288462,4139.57712703,4136.9730311,4141.66309089,4114.92552418,4143.68090149,4157.50636729,608.298474073
do_nothing,4139.462131,4150.32105874,4142.09252645,4136.65184679,4138.62258171,4140.70305323,4139.4224447,4139.66528111,4136.97313856,4139.67683402,4114.3586408,4141.18629275,4155.39896154,603.478932782
do_nothing,4137.25601071,4148.71235732,4140.78084453,4136.58811333,4138.79821799,4140.95463776,4139.55591666,4139.73026188,4136.97314252,4137.74347383,4113.7930356,4138.74419207,4153.28232358,598.805945325
do_nothing,4135.25357552,4147.0996254,4139.59419999,4136.52533541,4138.99154108,4141.20194404,4139.67861285,4139.76619411,4136.97304502,4135.87143206,4113.22853073,4136.36583432,4151.1629106,593.878473721
do_nothing,4133.4465136,4145.46985704,4138.51747932,4136.46452492,4139.19783912,4141.42553397,4139.78093872,4139.76796377,4136.97285209,4134.06750206,4112.66460656,4134.06068815,4149.04721152,588.247442646
do_nothing,4131.82195874,4143.81030282,4137.53274005,4136.40644334,4139.41167753,4141.60740966,4139.85421482,4139.7313026,4136.97257339,4132.3368626,4112.100499,4131.83645454,4146.94183468,581.434867484
do_nothing,4130.36316788,4142.10917375,4136.61998607,4136.35158483,4139.6270223,4141.73157825,4139.89087629,4139.65283166,4136.97222178,4130.68311892,4111.53530502,4129.69909793,4144.85357995,572.954761692
do_nothing,4129.05028396,4140.35630236,4135.75798191,4136.30017209,4139.83738394,4141.78452985,4139.88462215,4139.53006365,4136.97181275,4129.10836934,4110.96809241,4127.65290632,4142.78948986,562.334991123
do_nothing,4127.86115667,4138.54373485,4134.92507747,4136.25216522,4140.03597812,4141.75561397,4139.8305115,4139.36136595,4136.97136372,4127.61329572,4110.39800947,4125.70057714,4140.75687556,549.13919614
do_nothing,4126.77219397,4136.66623166,4134.1000157,4136.20728276,4140.21589826,4141.63730377,4139.72500662,4139.14588891,4136.97089331,4126.1972771,4109.82439091,4123.84332622,4138.76331523,532.987890556
do_nothing,4125.75921764,4134.72165821,4133.26269842,4136.16503407,4140.37029539,4141.42534157,4139.56596531,4138.88346611,4136.97042063,4124.85852557,4109.24685624,4122.08101753,4136.81662415,513.577870405
do_nothing,4124.79829818,4132.71125257,4132.39488806,4136.12476149,4140.49256035,4141.11876389,4139.3525872,4138.57449518,4136.96996444,4123.594244,4108.66539745,4120.41231206,4134.92479741,490.699124333
do_nothing,4123.86654588,4130.63976167,4131.48082636,4136.08569037,4140.57650362,4140.71980848,4139.08532037,4138.21980882,4136.96954247,4122.4008042,4108.080453,4118.83483375,4133.09592729,464.248528841
do_nothing,4122.94283761,4128.51544295,4130.50775414,4136.04698496,4140.61652783,4140.23371024,4138.76573576,4137.82054638,4136.9691707,4121.27394334,4107.49296527,4117.34535046,4131.33809863,434.239732105
do_nothing,4122.00846103,4126.34993272,4129.46631981,4136.00780749,4140.60778859,4139.66839699,4138.3963775,4137.37803568,4136.9688628,4120.20897479,4106.90441884,4115.93996689,4129.65926577,400.808774894
do_nothing,4121.04766136,4124.15798762,4128.35086775,4135.96737793,4140.54633932,4139.03409982,4137.98059768,4136.89369408,4136.9686296,4119.20100845,4106.31685761,4114.61432612,4128.06711564,364.215160467
do_nothing,4120.04807891,4121.95710993,4127.15960162,4135.92503146,4140.4292564,4138.34289541,4137.52238434,4136.36895659,4136.96847875,4118.24517474,4105.73287913,4113.36381588,4126.56892188,324.838260843
do_nothing,4119.00106924,4119.76707154,4125.89462146,4135.88027102,4140.25474162,4137.6082006,4137.02619175,4135.80523694,4136.9684145,4117.33684573,4105.15560562,4112.1837755,4125.1713956,283.169127423
do_nothing,4117.90190149,4117.60935479,4124.5618375,4135.83281226,4140.0221995,4136.84424107,4136.49678197,4135.20392639,4136.96843753,4116.4718472,4104.58863206,4111.06969895,4123.88053842,239.797952626
do_nothing,4116.74983405,4115.50653137,4123.17076704,4135.78261874,4139.73228786,4136.06551707,4135.93908565,4134.56643241,4136.96854509,4115.64665491,4104.03595268,4110.01742977,4122.70150368,195.39759875
do_nothing,4115.54807001,4113.48160182,4121.73422437,4135.72992521,4139.38694068,4135.28628914,4135.35808918,4133.89425762,4136.96873112,4114.85856943,4103.50186818,4109.02334296,4121.63847148,150.703764138
do_nothing,4114.30359814,4111.55731945,4120.26791623,4135.67524794,4138.98936293,4134.52010556,4134.75875294,4133.18911633,4136.96898659,4114.10586342,4102.99087687,4108.08450939,4120.69454282,106.49248881
do_nothing,4113.02692727,4109.75552196,4118.78995779,4135.61938113,4138.54399759,4133.7793903,4134.14596347,4132.45308364,4136.96929991,4113.38789618,4102.50755345,4107.19883798,4119.87165704,63.555806847
do_nothing,4111.73172457,4108.096493,4117.32032499,4135.56337953,4138.05646513,4133.07510688,4133.52451986,4131.68876939,4136.96965745,4112.70519057,4102.05641944,4106.3651907,4119.17053603,22.6764270146
do_nothing,4110.43436962,4106.59837436,4115.88026074,4135.50852766,4137.53347633,4132.41650889,4132.89915288,4130.89950733,4136.97004409,4112.0594681,4101.64180977,4105.58346596,4118.59065714,-15.3976366361
do_nothing,4109.15343773,4105.27664728,4114.49165216,4135.4562971,4136.98271962,4131.81098354,4132.27457273,4130.08954812,4136.97044392,4111.45363947,4101.26773986,4104.85464576,4118.13025587,-49.9775574198
do_nothing,4107.90912677,4104.14369849,4113.1763967,4135.40829343,4136.41272414,4131.26398945,4131.65554,4129.26424331,4136.97084083,4110.8917485,4100.93777783,4104.180803,4117.78635795,-80.4564156494
do_nothing,4106.72264295,4103.2084839,4111.95577446,4135.36619504,4135.83270055,4130.77908499,4131.04695199,4128.43020704,4136.9712192,4110.3788692,4100.65492581,4103.56506589,4117.55483953,-106.329313638
do_nothing,4105.61556125,4102.47629912,4110.84984366,4135.33168635,4135.25236187,4130.35803919,4130.45393533,4127.59544153,4136.97156457,4109.92095676,4100.42151459,4103.0115379,4117.43051279,-127.210150429
do_nothing,4104.60917665,4101.94866213,4109.87687519,4135.30638795,4134.68172696,4130.00101258,4129.88193472,4126.76941311,4136.97186418,4109.52465496,4100.23911466,4102.5251728,4117.40723334,-142.844442175
do_nothing,4103.7238624,4101.62330954,4109.05284107,4135.29178652,4134.13091025,4129.70679309,4129.33678727,4125.96306662,4136.97210757,4109.19706333,4100.10846679,4102.11160607,4117.47802505,-153.117712433
do_nothing,4102.97845141,4101.49430323,4108.39096956,4135.289167,4133.60990156,4129.47306935,4128.82477203,4125.18876781,4136.97228682,4108.94546936,4100.029434,4101.77694515,4117.63521714,-158.059122572
do_nothing,4102.38965617,4101.55224068,4107.9013778,4135.29954984,4133.12834054,4129.2967234,4128.352625,4124.46016661,4136.97239671,4108.77705177,4100.00097653,4101.52752266,4117.87058829,-157.840161989
do_nothing,4101.97154206,4101.78455842,4107.59079055,4135.32363545,4132.6952907,4129.17412488,4127.92751164,4123.791977,4136.97243465,4108.69856264,4100.02115047,4101.36961798,4118.17551265,-152.768374136
do_nothing,4101.73506746,4102.17591539,4107.46235122,4135.36175801,4132.31901847,4129.10141025,4127.55695105,4123.1996737,4136.97240026,4108.71599755,4100.08713016,4101.30915471,4118.54110284,-143.276263226
do_nothing,4101.687703,4102.7086409,4107.51552904,4135.41385074,4132.00678304,4129.07473271,4127.24868949,4122.69911001,4136.97229497,4108.83426422,4100.19525382,4101.35138298,4118.9583457,-129.905707295
do_nothing,4101.83314048,4103.36323053,4107.74612396,4135.47942393,4131.76464293,4129.09047139,4127.01052415,4122.30606572,4136.97212138,4109.05686151,4100.34109133,4101.50055762,4119.41822758,-113.288385011
do_nothing,4102.17109998,4104.11887275,4108.14636795,4135.55755723,4131.59728548,4129.14539098,4126.85008144,4122.03573796,4136.97188268,4109.38558056,4100.51953225,4101.75962405,4119.91184623,-94.1228893468
do_nothing,4102.69724145,4104.95398896,4108.70511905,4135.64690655,4131.50788487,4129.23674653,4126.77455674,4121.90219135,4136.97158214,4109.82024027,4100.72489179,4102.12992458,4120.43050777,-73.1493385359
do_nothing,4103.40318454,4105.84677017,4109.40814182,4135.7457259,4131.49799443,4129.36233142,4126.79042507,4121.91778688,4136.9712226,4110.35846872,4100.95103181,4102.61093791,4120.96580791,-51.1224007138
do_nothing,4104.27663778,4106.77569512,4110.23846612,4135.85190366,4131.56747785,4129.52047031,4126.9031344,4122.09261157,4136.97080627,4110.99554159,4101.19149392,4103.20006445,4121.5096979,-28.7837234611
do_nothing,4105.3016358,4107.72001651,4111.17681412,4135.96301225,4131.71448333,4129.70996153,4127.11679553,4122.43393255,4136.97033455,4111.72428802,4101.43964144,4103.89246933,4122.05453664,-6.83479966077
do_nothing,4106.4588802,4108.66020378,4112.20208413,4136.0763699,4131.93546356,4129.92997629,4127.43388333,4122.9457007,4136.96980815,4112.53507296,4101.68880712,4104.6809935,4122.59313142,14.0886997211
do_nothing,4107.72617689,4109.57833366,4113.29187848,4136.18911265,4132.22524265,4130.17992324,4127.85496519,4123.62812786,4136.96922733,4113.41586279,4101.9324436,4105.55614133,4123.11877037,33.4401392973
do_nothing,4109.07895935,4110.45842093,4114.42306109,4136.29827428,4132.57712994,4130.459289,4128.37847186,4124.47736054,4136.96859233,4114.3523784,4102.16427325,4106.50615001,4123.62524974,50.7817769288
do_nothing,4110.49088421,4111.28668435,4115.57232962,4136.40087173,4132.98307843,4130.76746531,4129.00052492,4125.48526968,4136.9679039,4115.3283366,4102.37843422,4107.51714364,4124.1068991,65.8004834453
do_nothing,4111.93448288,4112.05174417,4116.71678655,4136.49399325,4133.43388426,4131.10357481,4129.7148339,4126.63937269,4136.96716393,4116.3257771,4102.56961905,4108.57337144,4124.55860706,78.3186955103
do_nothing,4113.38185097,4112.74474986,4117.83449361,4136.57488634,4133.91942184,4131.46630696,4130.51267318,4127.92289914,4136.96637611,4117.32546893,4102.73320249,4109.65752633,4124.97584955,88.3001523237
do_nothing,4114.80535611,4113.35943849,4118.90499467,4136.64104274,4134.42890817,4131.85377532,4131.38294623,4129.31500645,4136.96554656,4118.30738661,4102.86535491,4110.75113702,4125.35472178,95.8501647834
do_nothing,4116.1783437,4113.89212554,4119.90979302,4136.69027763,4134.95118846,4132.26340625,4132.31234089,4130.79114607,4136.96468439,4119.25124265,4102.96313784,4111.83502336,4125.69197396,101.21037445
do_nothing,4117.47582019,4114.34163188,4120.83277,4136.72080052,4135.47503438,4132.69186716,4133.28557535,4132.32357445,4136.96380211,4120.13706025,4103.02457852,4112.88980144,4125.98505006,104.748172349
do_nothing,4118.67509365,4114.70915131,4121.66053403,4136.73127554,4135.98944586,4133.13504006,4134.28573055,4133.88199731,4136.96291589,4120.94576761,4103.04872079,4113.89642303,4126.23212767,106.941155695
do_nothing,4119.75635241,4114.99806502,4122.38269078,4136.72086898,4136.48394672,4133.58804383,4135.29466096,4135.43432993,4136.96204558,4121.65979385,4103.03565049,4114.83673124,4126.4321566,108.357194431
do_nothing,4120.70316408,4115.2137099,4122.99202776,4136.68928235,4136.94886463,4134.04530631,4136.29347167,4136.94755132,4136.96121456,4122.26364533,4102.98649424,4115.69401341,4126.58489283,109.630851362
do_nothing,4121.50287912,4115.36310882,4123.48460903,4136.63676972,4137.37558613,4134.50068509,4137.2630467,4138.38862565,4136.96044925,4122.74444123,4102.90339101,4116.45353116,4126.69092414,111.437044202
do_nothing,4122.1469262,4115.45467151,4123.85977813,4136.56413832,4137.75677814,4134.94763371,4138.18460983,4139.72546092,4136.95977846,4123.0923871,4102.78943676,4117.10300743,4126.75168317,114.462948968
do_nothing,4122.63098884,4115.49787468,4124.12006973,4136.47273228,4138.08656834,4135.37940708,4139.04029768,4140.92787207,4136.95923248,4123.30116651,4102.64860298,4117.63305105,4126.7694437,119.379216088
do_nothing,4122.95505668,4115.5029297,4124.27103239,4136.36439978,4138.36067831,4135.78929729,4139.81372276,4141.96851442,4136.95884196,4123.36823282,4102.48563033,4118.03750071,4126.74729588,126.811600443
do_nothing,4123.12334787,4115.48044573,4124.32096688,4136.24144455,4138.57650479,4136.17088866,4140.49050442,4142.82375328,4136.95863668,4123.29498576,4102.30589966,4118.31367227,4126.6890969,137.314094623
do_nothing,4123.14410307,4115.44109559,4124.28058694,4136.10656333,4138.73314667,4136.51831953,4141.05874645,4143.4744367,4136.9586442,4123.08682112,4102.11528277,4118.46249591,4126.59939436,151.344601027
do_nothing,4123.02925611,4115.39529144,4124.16261138,4135.96277124,4138.83137711,4136.82653801,4141.50944207,4143.90654172,4136.95888847,4122.75304605,4101.91997679,4118.48853364,4126.48332105,169.244083926
do_nothing,4122.79399088,4115.35287718,4123.98129943,4135.81331757,4138.87356285,4137.09153978,4141.83679062,4144.11166896,4136.95938849,4122.30665789,4101.72632614,4118.39987199,4126.34646157,191.220010979
do_nothing,4122.45619878,4115.32284516,4123.75194354,4135.66159472,4138.86353478,4137.31057697,4142.03841357,4144.08736656,4136.96015702,4121.76398975,4101.54063744,4118.20788998,4126.19469344,217.334731578
do_nothing,4122.03585506,4115.31308433,4123.49033642,4135.51104309,4138.80641567,4137.48232905,4142.11546198,4143.83727057,4136.9611995,4121.14423217,4101.36899279,4117.92690795,4126.03400693,247.499252874
do_nothing,4121.55433577,4115.33016726,4123.21223018,4135.36505491,4138.70841266,4137.60702707,4142.07261102,4143.37105608,4136.96251318,4120.4688452,4101.21706765,4117.57372766,4125.87030983,281.47266945
do_nothing,4121.03369929,4115.37918278,4122.93280657,4135.22688,4138.57658281,4137.68652442,4141.91794098,4142.70419922,4136.96408652,4119.76088021,4101.08995904,4117.16707894,4125.70922428,318.867287436
do_nothing,4120.49595793,4115.4636199,4122.66617709,4135.09953619,4138.41858083,4137.72430877,4141.66270726,4141.85755672,4136.96589887,4119.04423424,4100.99203008,4116.72699162,4125.55588403,359.159268163
do_nothing,4119.96236583,4115.58530795,4122.42493117,4134.98572716,4138.24239826,4137.72545142,4141.32100547,4140.85677534,4136.96792061,4118.34286303,4100.92677616,4116.27411507,4125.41474083,401.704408461
do_nothing,4119.45274877,4115.74441618,4122.21974936,4134.88777016,4138.05610355,4137.6964936,4140.90934106,4139.73154886,4136.97011349,4117.67998088,4100.89671755,4115.82900958,4125.289389,445.758481047
do_nothing,4118.98490032,4115.93951482,4122.05909638,4134.80753573,4137.86759172,4137.64527115,4140.44611667,4138.51474595,4136.9724315,4117.0772774,4100.9033229,4115.41143594,4125.18241728,490.50138669
do_nothing,4118.57406597,4116.1676975,4121.94900623,4134.7464011,4137.68435203,4137.58068276,4139.95105401,4137.24143663,4136.97482196,4116.55418105,4100.94696678,4115.03966993,4125.09529616,535.064227901
do_nothing,4118.23253325,4116.42476265,4121.89296805,4134.70521862,4137.51326032,4137.51240917,4139.44456928,4135.94784863,4136.97722695,4116.12719873,4101.02692379,4114.7298681,4125.02830813,578.55830693
do_nothing,4117.96934143,4116.70544853,4121.89191731,4134.6843002,4137.36040199,4137.45059345,4138.9471234,4134.67028772,4136.97958508,4115.80935798,4101.14140007,4114.49550965,4124.98052616,620.104981421
do_nothing,4117.79011901,4117.00371361,4121.94433209,4134.68341803,4137.23092934,4137.40549387,4138.4785685,4133.44405667,4136.9818334,4115.60977443,4101.28760176,4114.3469364,4124.94984366,658.865281777
do_nothing,4117.69705222,4117.31305113,4122.04642955,4134.70182168,4137.12895578,4137.38712178,4138.05751241,4132.30240799,4136.98390945,4115.53336247,4101.46183838,4114.29100884,4124.9330566,694.068207351
do_nothing,4117.68898237,4117.62682474,4122.19245319,4134.73827076,4137.05748771,4137.40487734,4137.70072272,4131.27556433,4136.98575339,4115.58070172,4101.65965776,4114.33089243,4124.92599606,725.036673133
do_nothing,4117.76162536,4117.9386105,4122.37503767,4134.79108233,4137.0183935,4137.46719608,4137.4225908,4130.38983811,4136.98731013,4115.74806594,4101.87600798,4114.46598284,4124.92370689,751.210170771
do_nothing,4117.90790216,4118.24253026,4122.58563462,4134.85819097,4137.01240762,4137.58121881,4137.23467502,4129.66687942,4136.98853135,4116.02761506,4102.10542056,4114.69197371,4124.92066616,772.163334046
do_nothing,4118.11836564,4118.53356137,4122.81498093,4134.93721972,4137.03916745,4137.75249693,4137.14533974,4129.12307641,4136.9893773,4116.40774406,4102.34220855,4115.00106484,4124.91103292,787.619755469
do_nothing,4118.38170554,4118.80780846,4123.05358881,4135.02555897,4137.09727907,4137.98474417,4137.15950311,4128.7691276,4136.98981839,4116.8735764,4102.58067222,4115.38230292,4124.88891905,797.460581176
do_nothing,4118.68531083,4119.06272437,4123.29223666,4135.12045052,4137.18440812,4138.27964412,4137.27850262,4128.60979919,4136.98983649,4117.40758293,4102.81530479,4115.82204141,4124.84867002,801.727607298
do_nothing,4119.01586651,4119.29726901,4123.52243959,4135.21907363,4137.29739124,4138.63672128,4137.50008262,4128.64387434,4136.98942571,4117.99030241,4103.04099048,4116.30450195,4124.78514379,800.620805034
do_nothing,4119.35996104,4119.51199765,4123.73687935,4135.31863033,4137.43236331,4139.05328151,4137.81850306,4128.86429399,4136.98859298,4118.60113483,4103.25318736,4116.81241523,4124.69397619,794.490407281
do_nothing,4119.70467976,4119.7090729,4123.92977529,4135.41642713,4137.58489562,4139.52442502,4138.22476434,4129.25848248,4136.98735798,4119.21917589,4103.44808793,4117.32771679,4124.5718217,783.823888926
do_nothing,4120.03816106,4119.89219775,4124.09718032,4135.50995056,4137.75013975,4140.0431329,4138.70693752,4129.80884354,4136.98575277,4119.82405857,4103.62275111,4117.8322705,4124.41655902,769.228356922
do_nothing,4120.35009288,4120.06647025,4124.23718843,4135.5969343,4137.92297239,4140.60042539,4139.25058565,4130.49340639,4136.98382089,4120.39676712,4103.77519974,4118.30859112,4124.22745189,751.409028401
do_nothing,4120.63213011,4120.23816327,4124.35004434,4135.67541581,4138.09813642,4141.1855873,4139.83925778,4131.28659601,4136.9816161,4120.92038933,4103.90447926,4118.74053728,4124.00525661,731.144610801
do_nothing,4120.87821628,4120.41443636,4124.43814974,4135.74378077,4138.27037423,4141.7864536,4140.45503592,4132.160098,4136.97920071,4121.38077553,4104.01067423,4119.11394673,4123.75227003,709.260502356
do_nothing,4121.0847974,4120.60298953,4124.50596505,4135.80079425,4138.43455004,4142.38974566,4141.07911415,4133.08378629,4136.97664361,4121.76707682,4104.09488139,4119.4171891,4123.47231358,686.600799358
do_nothing,4121.25091991,4120.81167198,4124.5598104,4135.84561798,4138.58575884,4142.9814467,4141.69238902,4134.02668107,4136.97401806,4122.07214054,4104.15913986,4119.64161445,4123.17065202,664.000126444
do_nothing,4121.37820959,4121.04806152,4124.60757384,4135.8778136,4138.71942049,4143.5472036,4142.27604144,4134.95790488,4136.97139931,4122.29274713,4104.20632093,4119.78188072,4122.85384808,642.256298492
do_nothing,4121.47073377,4121.31903227,4124.65833924,4135.89733257,4138.83135834,4144.07274125,4142.81209087,4135.8476057,4136.96886212,4122.42967966,4104.23998208,4119.83614831,4122.52955706,622.104778206
do_nothing,4121.53475388,4121.63032983,4124.72195022,4135.90449379,4138.91786287,4144.54427582,4143.28390491,4136.66781866,4136.9664783,4122.48762418,4104.26419133,4119.80613539,4122.20626805,604.195812921
do_nothing,4121.57838079,4121.98617361,4124.80852958,4135.89995024,4138.97574132,4144.94891324,4143.67664941,4137.39324074,4136.96431435,4122.47490635,4104.28332956,4119.69703314,4121.89300093,589.075021506
do_nothing,4121.61114959,4122.38890583,4124.92797645,4135.88464649,4139.00235523,4145.27502101,4143.97766766,4138.00189727,4136.96242929,4122.40307682,4104.3018793,4119.51728558,4121.59897053,577.168064655
do_nothing,4121.64353412,4122.83870549,4125.08946455,4135.85976876,4138.99564822,4145.51256299,4144.17678031,4138.47568372,4136.96087271,4122.28636412,4104.32420927,4119.27824421,4121.33323096,568.769876238
do_nothing,4121.68642377,4123.33338387,4125.30096534,4135.82668953,4138.95416653,4145.65338902,4144.26650149,4138.80077182,4136.95968322,4122.14101955,4104.35436402,4118.99371243,4121.10431478,564.038764658
do_nothing,4121.75058713,4123.86827548,4125.5688194,4135.78690848,4138.87707472,4145.69147338,4144.24217019,4138.96787473,4136.95888719,4121.98458363,4104.3958681,4118.67939979,4120.91988262,562.995514979
do_nothing,4121.84614748,4124.43623578,4125.89737761,4135.74199185,4138.76416854,4145.62309799,4144.1019996,4138.97237151,4136.95849802,4121.83510749,4104.4515538,4118.3523102,4120.78639933,565.527438081
do_nothing,4121.98209459,4125.02775271,4126.28873101,4135.69351219,4138.61588639,4145.44697757,4143.84705031,4138.81429627,4136.95851581,4121.71036464,4104.52342091,4118.03009093,4120.70885217,571.397125996
do_nothing,4122.16585552,4125.63117459,4126.74254396,4135.64299056,4138.43331998,4145.16432517,4143.48113542,4138.49820167,4136.95892748,4121.62708879,4104.61253522,4117.73037068,4120.69052504,580.255489564
do_nothing,4122.40294353,4126.233051,4127.25599978,4135.59184341,4138.21822363,4144.77885739,4143.01066676,4138.03290888,4136.95970743,4121.60027083,4104.71897118,4117.47011372,4120.73284001,591.658487751
do_nothing,4122.69669968,4126.81857743,4127.82386184,4135.54133594,4137.97302057,4144.29673883,4142.44445106,4137.43115768,4136.96081849,4121.64254426,4104.84180154,4117.26501538,4120.83527405,605.086822156
do_nothing,4123.04813678,4127.37212833,4128.43864689,4135.49254374,4137.70080351,4143.72646596,4141.79344435,4136.70917085,4136.96221344,4121.76368232,4104.97913417,4117.12896025,4120.99535507,619.967773855
do_nothing,4123.45588971,4127.87785781,4129.09090127,4135.44632403,4137.40532588,4143.07869139,4141.07047146,4135.88614684,4136.96383671,4121.97022395,4105.12819421,4117.0735607,4121.20873737,635.69830142
do_nothing,4123.91627091,4128.32034332,4129.76956543,4135.40329756,4137.0909798,4142.36599029,4140.2899168,4134.98369496,4136.96562645,4122.26523897,4105.2854469,4117.10778914,4121.4693532,651.668494084
do_nothing,4124.42342526,4128.68524393,4130.46240795,4135.36384145,4136.76275713,4141.60257188,4139.46739179,4134.02522715,4136.96751674,4122.64823659,4105.44675473,4117.23771293,4121.76963337,667.284482281
do_nothing,4124.96957375,4128.95994314,4131.15650659,4135.32809309,4136.42619009,4140.80394017,4138.61938359,4133.03532047,4136.96943995,4123.11521498,4105.60756105,4117.46633648,4122.1007872,681.98995187
do_nothing,4125.54533206,4129.13414588,4131.83875223,4135.29596421,4136.08726921,4139.98650976,4137.76288937,4132.03906389,4136.97132911,4123.65884392,4105.763091,4117.7935508,4122.45312912,695.285487166
do_nothing,4126.14008706,4129.20039996,4132.49635062,4135.26716417,4135.7523372,4139.16718487,4136.9150399,4131.06140284,4136.9731202,4124.26876767,4105.90856038,4118.21618658,4122.81643777,706.74507521
do_nothing,4126.74241285,4129.1545163,4133.11729835,4135.24123085,4135.427959,4138.36291211,4136.09271701,4130.12649505,4136.97475432,4124.93201156,4106.03938316,4118.72816423,4123.18033298,716.029231795
do_nothing,4127.34050756,4128.99586622,4133.69081202,4135.21756743,4135.12077008,4137.59022037,4135.31217068,4129.25709178,4136.97617966,4125.63347345,4106.15136882,4119.320732,4123.53465607,722.894350532
do_nothing,4127.92263277,4128.72754071,4134.20769307,4135.19548321,4134.83730675,4136.86476242,4134.58864314,4128.47395929,4136.97735315,4126.35647956,4106.24090205,4119.98278179,4123.86983995,727.198021262
do_nothing,4128.47753848,4128.35636218,4134.66061481,4135.17423652,4134.58382392,4136.20087381,4133.9360088,4127.79535498,4136.97824175,4127.08338316,4106.30509793,4120.70123102,4124.17725627,728.900207234
do_nothing,4128.99485816,4127.89274582,4135.04432244,4135.15307799,4134.36610668,4135.61116395,4133.3664398,4127.23657198,4136.97882343,4127.79618384,4106.34192705,4121.46145692,4124.44952793,728.06031086
do_nothing,4129.46546017,4127.35041394,4135.35574093,4135.13129252,4134.18928293,4135.10615365,4132.89010655,4126.80956436,4136.97908765,4128.47714449,4106.3503062,4122.24776862,4124.68079648,724.830297385
do_nothing,4129.88174387,4126.74597273,4135.59399004,4135.10823832,4134.05764463,4134.69397139,4132.51492243,4126.5226626,4136.97903549,4129.10938408,4106.33015133,4123.04390079,4124.86693505,719.444183929
do_nothing,4130.23787174,4126.09836664,4135.76030958,4135.0833817,4133.97448489,4134.38011902,4132.24633977,4126.38038661,4136.9786793,4129.67742524,4106.2823912,4123.83351277,4125.00569945,712.204333897
do_nothing,4130.52993109,4125.42823108,4135.85790198,4135.05632643,4133.94195825,4134.16731451,4132.08720338,4126.38336069,4136.97804197,4130.16767808,4106.20894111,4124.60067671,4125.09681191,703.465117582
do_nothing,4130.7560224,4124.7571683,4135.89170229,4135.02683682,4133.96097001,4134.05541698,4132.03766551,4126.52833148,4136.97715588,4130.56884464,4106.1126382,4125.33033907,4125.14197394,693.614602895
do_nothing,4130.9162737,4124.10697512,4135.86808835,4134.99485373,4134.03110027,4134.0414362,4132.09516481,4126.80828689,4136.97606143,4130.87223135,4105.99714034,4126.00874064,4125.14480727,683.055020289
do_nothing,4131.01278319,4123.49885306,4135.79454588,4134.96050331,4134.15056635,4134.11962544,4132.25447013,4127.21267124,4136.97480542,4131.07196094,4105.86679256,4126.6237817,4125.11072389,672.182798848
do_nothing,4131.04949489,4122.95263288,4135.67930487,4134.92409828,4134.31622669,4134.28165386,4132.50778879,4127.72768926,4136.97343914,4131.16507924,4105.72646581,4127.1653212,4125.04672922,661.368993048
do_nothing,4131.03201423,4122.48604508,4135.53096384,4134.88613179,4134.52362751,4134.51685144,4132.84493796,4128.3366903,4136.9720164,4131.15155636,4105.58137405,4127.62540139,4124.96116465,650.940910135
do_nothing,4130.96737254,4122.11406627,4135.35811885,4134.84726426,4134.76709236,4134.81251768,4133.25357683,4129.0206223,4136.97059149,4131.03418609,4105.43687657,4127.99839223,4124.86339848,641.165706031
do_nothing,4130.86375084,4121.84836854,4135.16901342,4134.80830358,4135.03985313,4135.15428363,4133.71949559,4129.75854432,4136.96921718,4130.81839069,4105.2982731,4128.28105253,4124.76347613,632.236644243
do_nothing,4130.73017464,4121.69689477,4134.97122399,4134.77017952,4135.33421986,4135.52651617,4134.22695613,4130.52818487,4136.9679428,4130.5119418,4105.17059962,4128.47250849,4124.6717427,624.262609927
do_nothing,4130.57619232,4121.66357834,4134.77139454,4134.73391319,4135.64178522,4135.91275339,4134.75907744,4131.30653291,4136.96681253,4130.12461146,4105.05843297,4128.57415314,4124.59845221,617.261343793
do_nothing,4130.41155038,4121.74822022,4134.57503183,4134.70058289,4135.95365852,4136.29616001,4135.29825773,4132.07044746,4136.9658639,4129.66776976,4104.9657128,4128.5894742,4124.55337896,611.156712878
do_nothing,4130.24587886,4121.94653021,4134.38637013,4134.67128724,4136.26072287,4136.65999258,4135.82662362,4132.79727148,4136.96512658,4129.15394773,4104.89558841,4128.52382046,4124.54544693,605.780173146
do_nothing,4130.08839957,4122.25033278,4134.20831111,4134.64710696,4136.55390808,4136.98806442,4136.32649585,4133.4654353,4136.96462148,4128.59638477,4104.85029778,4128.38411917,4124.58239222,600.876408971
do_nothing,4129.94766819,4122.64793066,4134.04244084,4134.62906644,4136.82447099,4137.26520018,4136.78085964,4134.05503429,4136.96436022,4128.00857958,4104.83108418,4128.17855817,4124.670472,596.112963706
