label,COUNTER,INTERPOLATED,AF3,F7,F3,FC5,T7,P7,O1,O2,P8,T8,FC6,F4,F8,AF4,RAW_CQ,GYROX,GYROY,MARKER,SYNC,TIME_STAMP_s,TIME_STAMP_ms,CQ_AF3,CQ_F7,CQ_F3,CQ_FC5,CQ_T7,CQ_P7,CQ_O1,CQ_O2,CQ_P8,CQ_T8,CQ_FC6,CQ_F4,CQ_F8,CQ_AF4,CQ_CMS,CQ_DRL
off_to_on,-2.59683982223,-1.71431406267,-1.83412357542,-0.591768042143,-0.151870341302,-1.44006702908,-2.99044281994,-1.98427956128,-0.443710049093,-4.17267747596,-1.27287764615,-3.6565181784,-2.87324884524,-51.3375476007
off_to_on,3.4655789421,2.4310223036,1.52823734592,0.627277752547,0.806612102203,3.54410102825,6.35023283809,3.50033891318,0.408143426957,2.47176170948,1.34651800465,3.34937232118,4.07577859296,107.882717867
off_to_on,1.0501337767,0.174051852932,0.599322021446,-0.204208132301,-0.876733712773,-0.37007556851,1.13815429088,0.983544301716,-0.326730796417,2.72637721445,0.25124654797,1.66343874278,0.821024733552,111.972188112
off_to_on,-2.72539452694,-1.31137462055,-0.991062066344,0.0419952077801,0.15219033238,-3.73722665353,-5.81327493958,-3.05196774309,0.320090451108,-1.66726890542,-0.394464608449,-2.44693685125,-2.8939535295,-169.125613217
off_to_on,-1.68624101463,-1.20214936724,-1.1604294911,-0.273215518435,-0.297050198253,0.597238571086,-1.8598515556,-2.20170203947,-0.359719945484,-4.01405672023,-1.25614668833,-2.42270099484,-1.62916814134,-61.8906778976
off_to_on,3.97395419775,2.52127812535,2.04518981338,0.360938143519,1.1670644552,5.46452273458,7.53056047457,4.90941262647,0.327634303961,3.40031299297,1.43580192459,3.69853929904,4.03226441334,110.30222592
off_to_on,0.37779220011,0.302352289504,0.197113201866,-0.2578963088,-0.555707010616,-2.97677020143,0.407877394987,1.18037927784,-0.227132169899,3.22140256903,0.560970684524,1.45294788766,0.685960072855,135.38729678
off_to_on,-3.87756591614,-2.55538021691,-1.9934581973,0.278435048922,-1.17294103697,-4.98144624447,-8.054432802,-5.70674094356,0.142968954716,-4.35761870191,-1.47301217783,-4.164687777,-4.32282180391,-176.213257279
off_to_on,0.856676305624,0.322685206434,0.463292115159,-0.287208315378,1.03402800634,4.51197724221,1.66471041827,0.557446094489,-0.132730914886,-1.69408066707,-0.124285936731,0.0956009532585,0.541089612935,-81.5044642367
off_to_on,2.84426729069,2.39181130844,1.71042139114,0.121052269499,0.851108639335,3.56884747839,6.99899097451,5.09410362309,0.209432072183,4.15092232236,1.51279012716,3.36892631602,3.79415437197,114.434968497
off_to_on,-1.26094470832,-0.911807714448,-1.09423268887,-0.0622508201623,-1.08119714372,-4.75105903489,-2.99688176437,-1.89175454627,-0.254675404901,0.583409042221,-0.593529167255,-0.912755293923,-1.38757577208,150.796569288
off_to_on,-1.67109930606,-1.84810668651,-0.856175523018,0.137751341788,-0.443964340755,-2.08760878898,-5.08392124931,-3.36784872502,0.0833732722815,-3.5013486049,-0.912058446539,-2.21390363809,-2.84470872519,-170.929279988
off_to_on,0.568563762402,0.757432691158,0.767090621149,0.0246965903187,0.227026669752,3.29021497428,2.51202679458,1.4075038483,0.178720636826,-0.339484230829,0.559295308546,0.453243401495,1.27591402335,-105.46545643
off_to_on,2.06579964535,2.42809021932,0.984133028934,-0.274028059499,1.57572462089,2.84665125408,5.126114322,3.33427650998,-0.13628651463,4.09586747852,1.01962667267,2.95754519963,3.18966339197,119.643830868
off_to_on,-1.45727369314,-2.07653707718,-1.30852586606,0.124346723573,-0.961948508394,-3.54670926936,-3.82974404683,-2.35906268709,-0.165667389056,-1.6396323461,-1.22186837662,-2.18363924816,-2.77725669211,157.570488337
off_to_on,-1.28543836461,-1.64241810958,-0.41374895242,0.147253790706,-1.75832421763,-2.7835904759,-3.80317728381,-2.09158880344,0.160181127767,-2.95395245269,-0.478744911279,-1.85974800716,-1.95180262513,-156.990362153
off_to_on,2.02140287464,2.91503669779,1.5362722513,0.00961866376164,1.73497384676,3.93935855081,4.9088495482,2.74589611978,0.244704220508,2.91110956483,1.55275898786,3.24575841445,3.57822557137,-128.371568449
off_to_on,-0.269621592205,-0.00274952323722,-0.492279587943,-0.226193447591,1.1267644211,1.66945164997,1.10939944937,0.18449892924,-0.39593075118,0.85311555896,-0.346551053418,-0.194483953002,-0.162944689605,123.504476006
off_to_on,-0.934981142102,-1.89800528537,-0.783007945764,0.00726836221219,-1.40103781797,-2.80714753292,-3.5307665047,-1.20714820976,0.0704984225238,-2.01945972616,-0.982210885461,-2.11907702534,-2.20984412598,157.407640901
off_to_on,-0.0686843191402,-0.35434389224,0.118727878929,0.0577065008564,-1.60397456688,-1.88879794249,-0.76764762622,-0.721219351624,0.0740948499715,-0.967128161617,-0.0277814282916,-0.118033234735,-0.0482773096583,-138.111066748
off_to_on,1.38273409287,2.44031162019,1.21014204803,0.520287526576,2.14969889989,2.64947596091,3.68544714171,1.60694756414,0.262484440412,2.63103597914,1.57889029574,2.63200408343,2.39344040352,-147.394125376
off_to_on,-0.528557823795,-0.33516171162,-0.628697381931,-0.837663061901,1.13373094156,1.16489839292,-0.399725779849,0.451054449432,-0.46423841435,0.293268071921,-0.585609661215,-0.248905797447,-0.406518808587,125.45916081
off_to_on,-1.52542022428,-2.44196844248,-1.10023868707,0.218262787449,-2.44606287303,-1.68880643722,-3.57786498929,-2.27814844576,0.222139043436,-3.0117761982,-1.43272479156,-3.28208933379,-2.55050152393,152.256646954
off_to_on,1.44903172822,1.07942239952,0.886103182414,0.24651768695,-0.420988401631,-0.365243986852,2.13991883399,0.60749255349,-0.108108144375,0.661224751859,0.717661904741,1.33904617331,1.31714307762,-118.248518947
off_to_on,1.07937599322,2.08550624533,1.29756430388,0.37114787237,2.29490414116,-0.356231702593,2.16888348046,2.44830080772,0.394865026669,3.06111481358,1.74958753244,3.23051021389,2.150461963,-160.534194756
off_to_on,-2.44320575648,-1.97355358359,-2.05569248041,-0.961267784641,-0.595272675986,0.348277226553,-3.09893056153,-2.26258191517,-0.542087852647,-2.20301273609,-1.7978564965,-2.7177792322,-2.38115679464,125.458952258
off_to_on,0.906176893752,-0.45393010999,0.284001831413,0.412720701166,-0.570694234896,3.56040151523,0.51033867321,-0.562569215105,0.329930751614,-1.06215591235,-0.353537542357,-1.41869661871,-0.263842013705,144.072412525
off_to_on,0.614944129545,0.635140391927,0.924479195434,0.237549450031,-0.874573183166,-3.61690431115,0.68328355946,0.919552269627,-0.269108575022,0.794041461945,0.7228374823,1.40303022201,0.855335920281,-100.488079281
off_to_on,0.249485294003,1.39437939491,0.382563037171,0.227621187203,1.55461246006,-2.85390974296,0.597265408593,1.58711581681,0.516624996142,1.90889058541,0.981517676164,2.36585603329,1.25304118788,-167.281182435
off_to_on,-1.48165650568,-1.81859459903,-1.78988346284,-0.938044289772,-0.177745863795,3.9886124282,-0.822901753634,-1.83785079645,-0.592897408841,-1.73157940467,-1.36582804313,-2.61458721442,-1.92565421039,124.138987339
off_to_on,0.710333200367,0.0717876594095,0.897119835841,0.722111018748,-0.38225018678,3.74155744025,-0.454147416629,-0.809513367617,0.410165200313,-0.687461166298,0.0642068538298,-0.975575011913,0.03246952474,134.5220804
off_to_on,0.733985354629,0.887173665196,0.688494880304,-0.264909215234,-0.356464002991,-5.49635664338,0.075302308549,1.20105116799,-0.415821168717,0.902677449671,0.225838574092,2.09179546613,1.10068968646,-86.8600478608
off_to_on,-0.616341637168,-0.109853649775,-0.479392644812,0.507298444159,0.146154097166,-3.3980016096,1.36858521433,1.14622431157,0.626626381448,0.443427402869,0.590065653536,0.0594976300664,-0.167095489231,-168.306876033
off_to_on,-0.566297063676,-0.675004306298,-0.841685452112,-0.818052732754,0.272971626156,5.97764034401,-0.363440633446,-1.1493912401,-0.627138771393,-0.16549221115,-0.548958022146,-1.05210209762,-0.638588666484,122.749425521
off_to_on,1.21740619347,0.944942212753,1.28149905138,0.520751559922,1.06057032713,3.74863209699,-1.40968287755,-0.923006742963,0.467152924856,-0.0711965744638,0.215314026334,0.833227266546,0.716458482664,122.966975145
off_to_on,-1.22016444503,-1.41639337024,-0.876730328204,-0.289094323624,-2.07126364351,-7.6119017887,-0.60232896204,-0.300753993772,-0.529598670783,-2.07400592508,-1.02301739818,-1.86129553018,-1.43636949666,-70.5114335274
off_to_on,1.07318616712,1.41657010486,0.717131025269,0.58739120247,0.551140594256,-1.7135081653,4.04213673614,3.60456186501,0.707489011904,3.16846944953,1.54358433051,2.08916239892,1.95644282819,-184.170804147
off_to_on,-0.783432930504,-0.345924354928,-0.789152981726,-0.717723972203,0.556068717366,5.89776903644,-2.73177741827,-2.62989353086,-0.652965983679,-0.456191514445,-0.483575124054,0.149696222997,-0.749751859302,148.792557348
off_to_on,0.587565525106,-0.0882067367858,0.643587268429,0.450789699892,1.21757187886,3.30887913536,-1.58931403794,-1.41767084076,0.518035397584,-1.61850306104,-0.130529463003,-0.80326052064,-0.344619366923,102.69777
off_to_on,-0.693591373042,-1.03508619945,-0.444901810366,-0.531983322229,-2.30521279286,-7.94100007224,1.83201458133,1.68257654048,-0.610309499899,-0.442130121837,-0.88036095683,-1.65763683769,-0.529082373708,-99.9520949804
off_to_on,0.421268838338,1.37999295898,0.369490752799,0.950868985576,-0.0521240121914,-1.23697509685,1.54615683747,1.2888357892,0.74418307527,2.24726394116,1.1517688094,1.83974745691,1.09549367018,-109.122404468
off_to_on,0.377641022545,0.25811997285,-0.374077808322,-0.859896335429,1.81401642335,7.4101783384,-1.84806490112,-1.45185690108,-0.657335170579,-0.282149535712,0.149857707456,1.45961560595,0.258653536225,100.634221027
off_to_on,-0.322547640889,-1.03320869891,0.580959370137,0.420272276873,0.365407352099,-0.0268485235768,-1.0238177384,-0.569110436123,0.558505364525,-1.29705218091,-0.249662468959,-1.64957166566,-0.612938500032,80.5464983714
off_to_on,-0.982904156785,-0.750258846654,-0.834187607887,-0.518232173303,-2.60442156298,-7.0335825137,0.889966277618,-0.167962504002,-0.660976894413,-0.621382246995,-1.39054453435,-2.27641850669,-1.34716784594,-57.5661574895
off_to_on,1.69684452009,2.23049123017,0.721151123154,0.847864384058,1.20725533013,2.85893257885,2.43129085105,2.24966344539,0.742426036088,2.17314833508,1.6217460198,2.94730118728,2.0193583541,-109.588222099
off_to_on,-0.978666003748,-1.25608402005,-0.59018652101,-0.544346262035,0.546883221783,2.9458525717,-2.87109240588,-1.33656205992,-0.640493626246,-0.865264339792,-0.0353541678354,0.525907958777,-0.240345394156,82.1073018162
off_to_on,0.450218581414,0.00301739678677,0.983970861427,0.139467532103,0.753499289523,-1.1560040502,-0.158986833211,-0.522029716491,0.582496325761,0.102930486503,-0.105094113404,-0.699182476902,-0.0781326800704,56.8138417138
off_to_on,-0.858465985779,-0.465377124797,-1.19516875579,-0.56397895229,-2.1707414823,-2.51934054161,1.00252411395,-0.573183507048,-0.680891757275,-1.36589211373,-1.46907507865,-2.74945798182,-1.84440308721,-2.08738366805
off_to_on,0.910375325546,1.28783515297,0.508662883215,1.11929598813,0.71796077011,1.96162818678,1.27849412498,2.2399143249,0.713462960513,1.45538879708,1.55844063315,2.43020297096,1.87274351249,-128.377153602
off_to_on,-0.335960641209,-1.03967037883,0.0304434033257,-0.775112057011,0.82444749599,-0.22430407455,-1.88272165334,-1.01251389354,-0.61721475194,0.175755422564,-0.0191120704542,1.365964501,0.381343185661,50.4556231034
off_to_on,0.204903652146,0.261916719186,0.467074383687,0.26694324557,0.173641660309,-0.0537475425395,0.0265242765573,-0.855926257871,0.599130596203,-0.495059995452,-0.230298461114,-1.510125438,-0.79770721712,86.967894994
off_to_on,-0.257274902823,0.411968590181,-0.804050731869,-0.611472531235,-1.23873301219,0.450243772476,0.550550866511,0.603098787728,-0.667677970268,-0.361477492818,-0.78820839541,-1.28486369633,-0.611491117996,-24.7499350082
off_to_on,-0.181955911215,-0.579765120053,0.215414470322,1.03904976551,0.392397028756,-0.336141137743,0.173344918328,0.223773758652,0.629511505923,0.0504435484674,0.725944132139,0.956019727166,0.356388512129,-52.6041325561
off_to_on,-0.0892486352199,-0.595046294133,-0.206578333773,-0.60650382876,0.0318049982127,-1.46681315481,0.194632134021,-0.626393944331,-0.530050875197,-0.0304910898492,-0.148249735231,0.576023086735,0.274419551901,-75.4831596464
off_to_on,1.71560827014,2.39866007678,1.36498569874,0.128363534016,1.19708696618,2.02559239972,0.465946690897,1.97402583015,0.562048601093,2.23383719439,0.969091032106,1.74873810996,1.88875435978,152.70461969
off_to_on,-2.43396432828,-2.22443685885,-1.6589566199,-0.470164136498,-1.67561197768,-0.256857365876,-3.92790775936,-2.90030454678,-0.644647688404,-3.25625671178,-1.7917729804,-3.9178364969,-3.5431027855,33.3869261463
off_to_on,0.78982697402,-0.168631588861,0.309701337339,0.833311273081,0.651398492832,0.242541483059,4.42165294879,0.763853280419,0.574851569528,0.200722130578,0.548884993504,0.496385862301,0.482514499263,-149.256479642
off_to_on,0.832660615286,1.34562493554,0.420662340456,-0.493023945187,-0.293084275782,-2.20926025818,1.8195117391,1.90559614535,-0.435189727677,2.52268416377,0.917432644307,3.14075792953,2.77660618297,-45.4742691958
off_to_on,-0.154541148614,0.414740701247,0.569871264162,0.208149656139,0.767488073036,1.07011384289,-6.01765604873,-0.885829277868,0.437792209903,-0.387876846786,-0.0895449133914,-0.374057544346,-0.356134044642,168.730475458
off_to_on,-1.24109286917,-2.15523836499,-1.23408492599,-0.525646646053,-0.311265344763,2.09893526413,-0.0553016180938,-1.82222291999,-0.540844315742,-2.90476231003,-1.48412393897,-3.6542810352,-3.47983905831,56.0997370149
off_to_on,0.856792001817,1.04525386934,0.325780021551,0.76950641923,-0.461939629421,-0.96626697928,7.37326763062,1.5886665356,0.548689494323,1.89447717676,1.14378860367,1.59675817555,1.72853232215,-226.2150839
off_to_on,0.764665971259,1.32239566838,0.56721959755,-0.60316537164,0.0223148399148,-2.45863172101,-2.98200510725,0.728452699065,-0.436822420703,1.60338964484,0.340176432995,2.80904315464,2.5917690013,29.4777284272
off_to_on,-1.10179827576,-1.59495297517,-0.133042772628,0.507829544143,0.600860357905,1.18215628897,-6.41962746029,-1.23774485995,0.348215419442,-2.34570000481,-0.693812821599,-2.33073240257,-2.21343610857,146.23701863
off_to_on,-0.841359050078,-0.805106957316,-0.938220622064,-0.41167034275,-0.499713009249,1.79821470646,4.38032134552,-0.436606691764,-0.372999935712,-0.520726410358,-0.303247973772,-1.74329279308,-1.91132388447,21.6407996992
off_to_on,2.92671476285,3.09652792046,1.5966121237,-0.0431938414386,1.01414585733,0.550386122124,6.28414353117,2.05604213148,0.448611482081,3.55541468024,1.38123527533,3.78418781915,3.58461980439,-179.101756914
off_to_on,-1.98247365625,-2.2064654304,-1.15666889365,0.177465863648,-1.73869226958,-3.78146893592,-7.44149923475,-2.12693304202,-0.439065690051,-3.16027339695,-1.46299406817,-2.21373121071,-1.41417373657,25.9409113166
off_to_on,-1.40751804318,-1.16067922229,-0.436273381583,0.594489278653,0.290097356316,0.725369457156,-2.61502977414,0.291667483872,0.315734816386,-0.825985572124,0.266868903723,-0.957220256114,-1.14996793395,113.345496996
off_to_on,2.20476218128,2.29680539462,1.28303406106,-1.13018702058,1.72863773955,2.98148053547,6.34956391762,1.66419415182,-0.227413597451,3.37419619834,0.891644319547,2.51286734229,1.40594488363,22.7002581476
off_to_on,1.43903223703,0.836965605489,0.452820114413,0.343805223619,-0.255428601907,-0.17711474803,1.59663826487,-0.660195108495,0.27494348198,-0.186791121643,-0.246054590036,-0.134060414113,0.495515931042,-133.307535808
off_to_on,-3.45723788296,-3.06465284484,-2.25847806758,0.555278111544,-2.61316487752,-2.86172011315,-5.76590828742,-1.95469121924,-0.321131298216,-3.80893674205,-1.16407629339,-2.88494270093,-1.77151375927,2.9292840083
off_to_on,-0.675606430985,-0.0976700698984,0.338563996798,-0.0274283314395,1.06683700469,-0.355107629584,-1.26190765352,0.858814143611,0.233474357822,0.987468240789,0.621138048274,0.67118144319,-0.0868632749493,88.0353891248
off_to_on,4.55896398474,3.59344439438,2.71727834694,-0.959603091019,2.93888400768,2.91023805661,6.14039739236,3.01540773458,-0.133264275903,4.34171411448,1.06392327221,3.82007085311,2.48461035452,27.2406405971
off_to_on,-0.778851815637,-0.818234229345,-1.13881363418,0.627768797415,-1.93113531287,0.768939397249,0.125560005177,-1.95625448152,0.136001693782,-1.90897068245,-0.492954341689,-1.73166052776,-0.66116966149,-86.9467639942
off_to_on,-5.02853505344,-3.84932744423,-3.07370571238,0.42799846953,-3.05382287249,-3.19762547743,-6.64735747911,-3.98219207389,-0.11759440558,-4.91505958433,-1.62420305797,-4.5792109055,-3.16792343078,-27.1536780051
off_to_on,3.00445028125,2.25160958061,2.53262848457,-0.438260832956,3.404550524,-0.255105644252,2.89586758993,4.57469428516,0.0245833160629,3.80236521077,1.21611350442,3.71385858984,2.29353546208,70.9787113272
off_to_on,3.1129758404,2.42712128115,1.99032724801,-0.340468047943,1.42534807421,1.8818102828,4.07922259763,2.2590859123,-0.033356910559,3.38231162368,1.22848391376,3.18880696247,1.94568316597,27.7883964359
off_to_on,-2.57737568502,-1.61019838746,-2.42672070784,0.344364414172,-2.86341513716,1.65764843104,-3.52562885581,-4.98711302124,0.131646755824,-3.48087270741,-1.10353305376,-3.3888489456,-1.80066564255,-42.9812957622
off_to_on,-2.61362568681,-2.39032982463,-1.63472173984,0.31134759386,-0.906721806137,-2.29580515022,-1.986447056,-1.02992111642,-0.0499214107081,-2.9773107664,-1.40015302287,-3.07779579059,-2.12347179288,-55.8799149497
off_to_on,2.07662717097,1.30968689265,2.23043178086,-0.244940189464,2.14742906237,-2.08369099479,3.29181435395,4.6107442327,-0.166328102923,3.01487775221,1.27998049381,3.16717265706,1.68344992329,60.5157821179
off_to_on,3.01076102194,2.78845351745,1.78068767727,-0.44073478748,1.39896751023,2.9469624266,0.853363962976,0.663019767343,0.153912529584,3.50525127543,1.62780033089,3.60872378105,2.83106448005,24.48081886
off_to_on,-2.87857350452,-2.03035478286,-2.82339878484,0.375817052314,-2.77167381377,1.05392922154,-3.93326064283,-4.9315557746,0.0405228186799,-4.05740179686,-2.01354491728,-4.27599917994,-2.95307949339,-10.5620435934
off_to_on,-1.77465977824,-1.69690173171,-0.80897380518,0.471794290966,-0.449119224828,-1.51538571578,1.80979719108,0.956410448581,0.00971828408954,-2.01419677073,-0.869714819183,-2.13848048355,-1.52860951427,-69.5183050762
off_to_on,2.17818824466,1.32665269922,2.33919904348,-0.751586083861,2.13362192355,-1.76927797257,2.48496441131,3.48486010915,-0.270643544585,3.26331198278,1.82603405252,3.57453269749,2.46806141315,49.4146185963
off_to_on,1.18387203284,1.20937598033,0.306378753424,0.160519863997,0.151118907657,0.657340784815,-3.30914824293,-1.62106991674,0.296349833337,1.08868557105,0.464324444443,1.02263098319,0.680340078177,16.5001216278
off_to_on,-1.17427838184,-0.250747585682,-1.73758995966,0.163717243527,-1.41027170633,3.16957487932,-0.231284043521,-1.25693485267,-0.121434604683,-1.52756698019,-1.50264095891,-1.53356806131,-1.04761570731,13.5360708369
off_to_on,-1.15312694089,-1.38872146158,0.159186270665,0.265217210464,-0.268266234727,-0.902652087558,2.97623281166,0.533627529035,0.176414755406,-1.54430974265,-0.109091193269,-1.76962714555,-1.06664091445,-69.4537393772
off_to_on,0.323609216481,-0.654605248204,0.6002890431,-0.607383974635,0.883741441951,-4.11650679594,-0.935433840052,0.244721857291,-0.391682495714,0.320839150636,0.759246798926,0.472625233259,0.0084222036071,35.829413802
off_to_on,1.50492951771,2.10526656245,0.334162689896,0.332202063628,0.688269168408,1.70530562941,-2.33812123358,0.672848774562,0.349225457383,2.73013771951,0.558022206442,2.94524089156,2.15876933979,6.80069071955
off_to_on,-0.35815376471,0.499829304443,-0.536029544689,-0.00964888213529,-1.26618578837,3.85937737021,0.759943477994,-0.680861308031,-0.168712130473,-0.771345671572,-1.05613655218,-0.978230455694,-0.381325236042,29.9747349406
off_to_on,-0.22658301884,-1.24805617091,0.470598084385,0.138202695276,0.568177546758,-0.880398653392,4.02974295375,0.644704720104,0.278132323902,-1.67363553949,0.361287091654,-1.83515112751,-1.34146402351,-60.0068352512
off_to_on,-2.21487052041,-2.63096898959,-1.38920992727,-0.41244537099,-0.833474514977,-5.93719962621,-4.08472874368,-2.04281034148,-0.530342516337,-1.4826822182,-0.433115088049,-1.23632829861,-1.71472742479,21.6898063662
off_to_on,2.11404331781,3.27271989437,1.08268874254,0.493486805981,0.995904889502,3.08072334372,-1.82049276806,1.05571241028,0.480079227875,3.59275828339,0.719723708243,3.59757779557,3.42603647566,-2.51024285682
off_to_on,2.15460696309,2.01040217486,1.0898808311,-0.504097041621,0.635887473939,5.29226672056,4.80415806646,2.75901729038,-0.262559271937,1.04173165034,0.101051036935,0.922630979475,1.09065862526,38.5198925633
off_to_on,-2.80983624329,-3.56971187212,-1.17954455214,0.526855718729,-1.33397765245,-3.98016252985,0.029596452508,-2.09347556811,0.328045669957,-3.85001844589,-0.396836175007,-3.84836165558,-3.82519697646,-44.8240542629
off_to_on,-1.99122754121,-1.88670067106,-1.50828845808,-0.477130368437,-0.89105565289,-4.69870066938,-4.88867510481,-3.44765404891,-0.596528376967,-1.00591295764,-0.886930253478,-0.816436090502,-0.808638933274,9.02553664388
off_to_on,3.2365709824,3.95197845517,1.95983244521,0.493959590958,2.20585900233,5.05202723276,2.04493801518,3.57635573752,0.646363406449,4.02619631544,1.26756434648,3.65238481217,4.00701120373,-10.1893318836
off_to_on,1.14625239537,0.978376240657,0.596356708582,-0.644692390374,-0.100315552766,2.79539172619,3.19104846146,2.74269659432,-0.469154967889,0.443821761908,0.172584025572,0.619040482915,0.0533295525597,39.7766631816
off_to_on,-1.77537349459,-2.45574378818,-0.676281075896,0.548369391618,-1.11432405814,-3.88101850092,-1.85347782062,-3.21737998692,0.400207230562,-2.61467821133,-0.345759403653,-2.06792423399,-2.46956501468,-27.0972513516
off_to_on,-2.9600474112,-2.69119858926,-2.18055645408,-0.15411326959,-1.26708299558,-3.38170253933,-3.56685090889,-4.00523175031,-0.52482300694,-2.4188261726,-1.53579133747,-3.12391474205,-2.00050791217,-2.92648633044
off_to_on,3.32739035909,3.92605145334,2.10871220983,0.19245986671,2.60114203926,5.21869102686,4.12695659078,5.47510626055,0.632650908159,4.52513607681,1.87811513248,4.08844194845,4.26336386722,-6.81365135462
off_to_on,1.6095433265,1.31148679474,0.958559719959,-0.847721935186,-0.141348511262,1.26205348738,0.555555053035,1.66485212884,-0.602254910598,0.692625510854,0.173162305993,1.84337898068,0.301864430059,16.9668636678
off_to_on,-1.83649902731,-2.46065756444,-0.888264091305,1.0749399173,-1.28990081016,-3.6023642445,-2.74698920562,-3.97360090574,0.522599112549,-3.21355206061,-0.822712821516,-2.98940924858,-2.72140327696,8.1330630473
off_to_on,-2.85564562575,-2.44679173662,-2.05053832663,-0.422375958852,-0.920645562159,-2.04845217397,-0.310334140811,-1.98516238926,-0.518699382414,-1.05565922168,-0.930537439769,-2.66233073721,-0.983731118676,-3.66544912474
off_to_on,2.35864845341,3.03608523068,1.70862996387,0.0768681518928,1.8786953435,4.2903087231,2.76233936938,3.6640509842,0.596102458874,3.03714855722,1.48370513524,3.27601978512,2.56827883256,-54.9067747124
off_to_on,2.66658211594,2.01978202046,1.25172741642,-0.732103602513,0.662050729311,1.64957519374,-0.383135988575,1.91346763613,-0.642588551365,0.55451335443,0.0864526677633,2.45269347575,0.732611907861,74.3690210844
off_to_on,-1.88070527682,-2.4840596606,-0.740207205878,1.18302419113,-1.50566732742,-4.79606438884,-2.36252967856,-2.7594756056,0.59532012733,-1.69711146253,-0.429454355676,-2.70303179955,-1.31739023847,-17.435992999
off_to_on,-3.63408447023,-2.7560236915,-2.33628478677,-0.555622161544,-1.58047775508,-1.62612293942,-0.256560458485,-3.474764688,-0.557675002575,-1.83394022843,-1.20765470179,-3.45746877685,-2.22002862639,-21.1678433454
off_to_on,3.62127029541,3.94744511251,2.13346485694,-0.0399051754334,3.3233937176,7.54682039531,4.84587868171,4.91260651167,0.618674031153,2.90658167788,1.69261695175,4.52843764413,2.72042646957,-6.79359968289
off_to_on,0.980987067778,0.220491236142,0.400426969629,-0.361871456627,-1.02693044126,-3.10047732375,-3.55689264559,0.925737105976,-0.665184040155,-0.182598347487,-0.346913191049,0.630304343306,0.199680238782,26.3137399611
off_to_on,-1.04226483719,-1.33221542498,-0.122834554959,0.896597496701,-0.960431305594,-4.57010094624,-2.13553753028,-2.90906712463,0.590705640775,-0.304738141621,-0.086703599286,-1.83553621684,-0.160115737336,9.04204652474
off_to_on,-2.21409587783,-1.62998833034,-1.70783803512,-0.752810482864,0.0261669937199,3.49676197867,2.97057259576,-1.69540008962,-0.526535570405,-1.63712214562,-0.893329134317,-1.88972095732,-2.04236147466,-51.3960168535
off_to_on,1.19276502149,1.7094076464,0.697700704278,0.56004057557,0.855363930762,3.31509709077,1.77075698882,3.18182434159,0.599339190281,0.818967719963,0.984846052814,2.04566027768,0.744761085012,58.9541120561
off_to_on,1.89939113727,1.25156829915,1.25163706844,-0.719045774902,-0.175200253616,-4.1488357368,-2.89178106843,0.963117377605,-0.672818069245,1.67804953707,-0.0111935014002,1.57634345312,1.99110197283,-35.9435305063
off_to_on,-0.400513280899,-1.01895571921,0.037939040343,0.618464038978,0.271657890693,-0.99400540539,-1.175774941,-2.38004163172,0.607101435028,-0.738621511484,0.00298340111978,-1.54634160543,-0.666643258286,3.75051465554
off_to_on,-2.71128081045,-2.05750151793,-2.31430592478,-0.315937317347,-1.35442755465,2.03486655633,1.60900819899,-1.24508043373,-0.518211396536,-2.13182730048,-0.945892359965,-1.98809812095,-2.22045684254,-2.60400849856
off_to_on,1.32321158345,2.08915053797,1.27690138256,0.591368061673,0.797695352911,1.67280057902,2.57288207659,2.91893221756,0.532393818084,1.92497025636,1.09267092379,2.5244077177,1.57879944953,36.1234457908
off_to_on,1.32769407164,0.652045560677,1.0381112063,-0.994562996066,0.80139324248,-1.4023836814,-2.3409506556,-0.451164739661,-0.575408659153,0.185343888314,-0.51868222228,-0.00731178318493,0.313595461158,-19.0671193263
off_to_on,0.335747792545,-0.700542779612,-0.274732700543,0.47009992102,0.0899283454438,-1.83085039194,-1.88782101714,-0.62340226067,0.580388752102,0.0765797629358,0.532648168682,-0.370958215344,0.479254115765,-69.5635240353
off_to_on,-3.08545915963,-2.0462442569,-2.14619227427,0.229996135243,-2.83507930839,-1.16692463033,0.189081385176,-1.56195053217,-0.578920729264,-1.82676774118,-0.900326191093,-1.60749153513,-1.77187405338,77.5184502921
off_to_on,1.69043900308,2.58274949387,1.98773931798,0.324700944317,2.63322063552,6.52994300047,5.14512427838,2.46042276862,0.527782697331,1.6051458368,0.691336776671,2.0051013634,0.97720126636,52.7875107913
off_to_on,1.18865680072,-0.0325642333706,0.323443662899,-1.29472871762,1.00068170665,-1.79550916127,-2.27167782444,-0.104536798459,-0.408844432238,0.143915482006,-0.293454553613,-0.236731734455,-0.158915171651,-101.990669254
off_to_on,-0.932403535517,-1.48366969202,-1.16331305974,0.930158718976,-2.5211201605,-7.58085576269,-5.28292448744,-1.87635834379,0.407418785871,-0.866098518729,0.320419269032,-1.09746788307,0.37324097717,-40.8612522991
off_to_on,-0.671780704169,0.275605445778,-0.0842340039653,0.066100219976,-0.419877375045,4.35978061482,3.46685509847,0.878668561398,-0.580081204785,0.299668011408,-0.281365475764,0.815904612489,0.306853218293,108.155669894
off_to_on,0.300501751335,1.02843218193,1.09064186064,0.129851981788,2.73558732207,7.20233469613,4.4395457072,1.14238231818,0.605351077405,0.405174397801,-0.0522635709682,0.305289093444,-1.06294751469,58.0592501535
off_to_on,0.428765695226,-0.664197304359,-0.839345610011,-0.980089079076,-0.696889023704,-6.47127565448,-3.82025533209,-1.60818171394,-0.333795673108,-0.748256408434,-0.140134065984,-1.08396565218,-0.505126096244,-151.170837663
off_to_on,0.776228849905,0.0412792835143,0.285716588,0.766288693863,-1.57839885732,-4.90457436551,-2.45694426907,0.736523813095,0.170769225258,0.648835335847,0.948049600109,0.846527896342,2.23179561913,-23.8938719357
off_to_on,-2.01971180598,-0.625675133955,-0.226075872166,0.114524868181,-0.331977239267,5.34722801712,1.16233468318,-0.106421222026,-0.382835787163,-0.52360479694,-1.1288784794,-0.494747106325,-1.0915339302,126.134505005
off_to_on,1.1593981692,1.56035905028,0.650565809397,-0.1319919258,3.11280226551,5.54259131204,3.95997707027,0.350709570951,0.56233818218,1.07539040056,0.318908736603,1.27984105533,-0.303222466982,66.2839320285
off_to_on,0.295021539246,-1.17772177804,-1.02498580945,-0.527975861983,-1.68269230238,-6.62383317772,-1.57478812943,-1.00811774207,-0.362589966457,-1.5264622249,0.12489307194,-1.78979200873,-0.8657491366,-179.908508448
off_to_on,-0.378706223517,-0.371200664754,0.544447686745,0.698871860217,-1.71975056104,-3.79619417984,-2.8938131604,1.14172820404,0.145069332798,0.340359708524,0.455326887511,-0.04297747777,1.43636361707,-24.3444630249
off_to_on,-0.270939379975,1.07039033772,0.578003332538,-0.376524093153,1.57435877777,5.71039661047,-0.0253393422768,-0.0712395387875,-0.279047876934,1.42275394604,-0.76110234578,2.05512703036,0.836452578444,140.823160886
off_to_on,0.42875756944,0.0521521961294,-0.725512960382,0.199778049718,1.35866077349,3.47922314309,3.09314540228,-1.34271811383,0.453615274787,-1.06067605458,-0.0298753795198,-0.736165641478,-1.83609232582,79.8532472116
off_to_on,-0.129579622785,-1.16943489431,-0.527394321719,-0.20036167735,-1.80531803859,-5.5140744271,1.26147425605,1.14601783505,-0.314116327951,-0.901099894971,0.60569326797,-1.83683389391,-0.571813690696,-201.287761787
off_to_on,-0.270010266608,0.377207770388,1.12248723012,0.223879576079,-0.76674583175,-2.82938499679,-3.9238095129,0.627142568827,0.130455556752,1.18313131686,0.103702117987,1.07988444649,1.72589133991,-30.0637726222
off_to_on,0.476297510202,1.06323531227,0.0356956775258,-0.288393425159,1.69180578968,5.46300063371,-1.32002602283,-1.41574243854,-0.218218392358,0.439811109524,-0.896200621307,1.52033794362,0.452052951673,149.640317329
off_to_on,0.0737227386157,-0.665247241308,-0.808958692935,0.187171293514,0.597245068039,1.62266563701,4.36426703269,0.378493140866,0.319242068091,-0.696255169601,0.502063537545,-0.930658698059,-1.20866015601,93.8134362985
off_to_on,-1.18595838761,-1.16312969511,-0.37822569895,0.116590318534,-2.21517061915,-5.42085368418,-0.113673508939,0.070148653454,-0.145274658118,-1.12844089518,0.17587877922,-2.06304503847,-1.2077390875,-209.436764433
off_to_on,1.51581397735,1.81463835882,1.44871492507,-0.146033810481,0.738887971115,1.18602733756,-1.97213041481,0.955738235334,-0.0424166581753,1.82104416515,0.0220951585637,2.36639332569,2.02807582861,-46.7311061075
off_to_on,-0.497979008093,-0.560455760677,-0.4432451117,-0.123171942854,1.02006348694,2.61427459779,-1.0124502345,-0.908784711716,-0.0468805476712,-0.108465743499,-0.417831085332,0.242733072318,0.183747771574,159.510863223
off_to_on,-0.677140661437,-0.828304567024,-0.850034982507,0.0901448764403,-0.344489334559,-1.80706127338,0.951556630372,-0.852896796685,0.16544779458,-1.15033786002,0.177447692769,-1.46782904481,-0.974412617438,104.423659539
off_to_on,0.950422983454,1.05488709267,0.403168571395,0.108550578225,-0.81354342464,-0.200432057385,1.69614036166,1.23074262714,-0.015842886481,0.330710350029,0.106945640317,0.454395277686,-0.435188651452,-208.406254652
off_to_on,-0.684993717206,-0.525934952148,0.304983999257,0.18860581098,-0.19789096437,1.48821109044,-0.00866130078506,0.403048846648,-0.174388535666,0.252678254785,-0.0716789761114,-0.0964688895121,-0.0430873909812,-67.8421975392
off_to_on,0.328662417785,-0.0607363745411,0.382504163717,-0.461304320698,1.67452780748,-1.16296463024,-1.63155281908,-0.485535103839,0.101966561852,0.81854133395,0.36682049247,0.789659357962,1.97866970981,169.350459794
off_to_on,0.384625496755,0.437642767404,-0.793897817751,-0.18346894401,-0.564499057764,-1.89593049873,-2.53703109271,-1.40837490361,0.0253248315394,-1.16546099054,-0.688371782955,-0.310761862854,-0.836761909514,109.938983521
off_to_on,-1.01051790479,-0.317243723759,-0.476068054237,0.834743211192,-1.75416290253,3.2547661328,3.34110770557,0.949911542277,0.0975704354588,-0.675646935348,-0.0891989740002,-1.11375474819,-2.20731242473,-200.771304737
off_to_on,0.325239135495,-0.267854654446,1.21480025173,-0.198942294113,1.4367764689,1.79723363395,4.55119673066,2.08007988288,-0.274303752973,1.90505235384,1.1317306466,1.0559860905,1.73758907228,-87.8651528323
off_to_on,1.03881301628,0.450255141179,0.204521701381,-0.619651484347,1.10164943188,-6.02895860702,-6.47859681802,-2.04499319494,0.198317841652,-0.280692495686,-0.433295532481,0.399101023196,1.36994510357,176.417406848
off_to_on,-0.651626050878,0.278587834636,-1.26645676379,-0.0368953521343,-1.60550268671,0.272507838458,-4.29976662258,-1.71060933582,-0.0600259635387,-1.49446818147,-1.21203796006,-0.700191509533,-1.47136448888,110.993629878
off_to_on,-1.16211348693,-0.745887637201,0.0722763432471,1.03104114502,-0.628760172871,7.20930227506,8.62811469843,2.47454979831,0.164818349175,0.453460098187,1.05525358215,-0.443066965152,-1.04135166653,-188.601756761
off_to_on,0.762369610575,-0.323565538436,0.767892460441,-0.466448487233,1.35545951947,-2.82257874732,2.84541175737,1.04865076012,-0.331270952796,0.955525895787,0.536133318324,0.346787001348,0.777747023528,-104.615651266
off_to_on,2.0857180233,1.71830743386,0.680706638793,-0.590085525765,1.0733581941,-6.27331801506,-8.56242159763,-1.52623379581,0.277048047791,0.70224196119,-0.508472705117,1.68671140794,2.05748170495,180.345409563
off_to_on,-2.51930184523,-1.17470944602,-1.58818630495,0.164732020953,-2.58863063856,3.44575994518,-3.06981645144,-2.52577495368,-0.182708408628,-2.75927036953,-1.13697206374,-2.42943855265,-2.10850310104,108.534053944
off_to_on,-0.582145040161,-0.547443124541,0.035997988044,0.828113014148,0.626984323002,6.55360296213,9.77453471148,2.99628957706,0.278445741924,0.837639287692,1.28947122584,0.156910057036,-0.773399480656,-174.640465508
off_to_on,1.58349651278,0.432247942854,0.832985638277,-0.588975099539,1.33774563368,-5.85402485559,1.24679392623,1.75708959446,-0.363779392659,2.23941948693,0.280797311685,1.62773655661,1.19167471672,-116.490421973
off_to_on,1.23410149391,1.28485957807,0.835787829526,-0.0467154198223,-0.218484140796,-3.84674500697,-8.32351843969,-2.90998026587,0.290550577728,-0.819269900103,-0.592240841418,-0.0145776836741,1.47124608628,181.318107418
off_to_on,-1.65930108809,-0.945506110376,-1.44174249443,-0.360327773511,-1.3483546267,5.53056678302,-1.00557681358,-1.47011714296,-0.318612066816,-2.51669913264,-0.614773985634,-1.59841138937,-1.63899130648,103.654378356
off_to_on,-1.99097634462,-1.57306272697,-0.799960360193,0.868690995615,0.402431305404,1.93962135888,6.48989673931,2.50618166162,0.502386398783,1.12485060543,0.664334593823,-0.34920938032,-1.78896996419,-161.192276453
off_to_on,2.26610431956,1.53164675633,1.51750376362,-0.377367107444,0.887885948804,-4.50157502114,1.93686602831,1.42155530678,-0.473499220866,2.55790039641,0.307096101475,2.05892815639,2.45861597789,-123.134293763
off_to_on,2.82634947151,2.05800409358,1.44498379643,-0.0157886074877,0.257670590591,-0.212620237153,-4.80264730879,-1.50684892807,0.246020756366,-0.948831429355,0.249053001789,0.810849443532,1.9846518544,180.242629503
off_to_on,-4.39086074112,-3.40775622217,-3.06459305424,-0.491023368669,-1.98006103831,1.76940879811,-4.61475962241,-3.07584321073,-0.322237354321,-3.73038667932,-1.55409481046,-3.80763215942,-4.4865441992,97.361149975
off_to_on,-0.704518072947,0.0487809841616,0.346830768533,0.698259701137,1.45464242852,1.6828199855,6.49476341192,3.29429315341,0.665137746694,3.08994933224,0.830876583505,1.38446938818,0.663083753199,-150.033568177
off_to_on,3.03999789805,1.99908381676,1.73921276481,-0.170825757462,0.17466413256,-2.41775190749,3.34739262539,1.20162691055,-0.651294126495,1.324648302,0.629956195912,1.96601557112,2.76461086697,-125.039967731
off_to_on,1.5663400493,0.872455125234,0.436958666028,0.239714518817,-0.347776227347,-0.508106557192,-4.97567892197,-1.56523160873,0.299624440697,-1.33886849163,0.293280131133,-0.0578403483908,0.131076152348,178.59792132
off_to_on,-4.0039201149,-2.87392879101,-2.48862477097,-0.962208413153,-0.672619796824,1.12343594834,-4.12088499604,-2.12981509685,-0.307810198209,-1.85884301363,-1.93175275145,-2.76434610569,-3.47953855941,88.5995080862
off_to_on,-0.320454885297,-0.00135447431395,0.700640188938,0.84002659538,1.04805716594,1.11336595157,5.00203543902,1.76967024716,0.690397505122,1.23895980581,0.739948347655,0.506262093044,0.74433674876,-134.729835077
off_to_on,2.99692950513,2.10089652851,1.26300546532,-0.118884086916,-0.351138913628,-1.62382516958,3.37909368129,1.85803661071,-0.736273523868,1.44806226396,1.426164616,2.31527058593,2.85587062633,-141.611267894
off_to_on,0.335895568813,0.467144398576,-0.0577745848003,0.381585152972,-0.492718777822,-0.374713978572,-4.03125052528,-1.47063445443,0.411693073907,-0.377894721013,-0.464369326595,-0.254264496171,-0.673173423792,202.598629759
off_to_on,-2.37715798264,-2.14348366675,-1.49074385133,-1.07486592592,0.415027336067,1.59117705336,-2.90791372999,-1.70403332185,-0.385472116645,-1.85510290734,-2.13320301235,-2.1673985177,-2.76835595397,73.079698747
off_to_on,0.174951379043,-0.116850458647,1.00916180791,0.598318074243,1.01399595952,0.0335566102437,3.75864866987,1.92671221991,0.671089285848,0.854316380747,2.02234330739,0.875692639471,1.47817316321,-168.936904675
off_to_on,-0.243167396155,0.411336721838,-0.618174520423,0.158607117551,-2.48790427787,-3.30540070231,-0.173676984592,-0.907320568776,-0.672467278427,-0.17636701748,0.154357205909,-0.46230358231,0.514454114444,-61.1837466745
off_to_on,3.02345354711,2.89594838124,1.10608003316,0.400723135318,1.82408963272,4.2395116648,1.14389248661,1.68392585479,0.4404107732,2.24660202336,-0.597826204662,2.53130892596,1.24504306675,151.218971049
off_to_on,-1.52266772757,-2.64085183695,-0.468095408319,-1.0915885791,0.439193772522,-0.165054771992,-1.93421095284,-0.834461485361,-0.497067906972,-1.84814581509,-0.793798517655,-1.43744061187,-2.33236984831,43.708164323
off_to_on,-2.41948019267,-1.84435665399,-0.445421930845,0.440057603008,-0.96279093778,-4.17490780884,-2.06893376284,-1.97670465933,0.700551324404,-1.70709605834,1.39776050437,-2.01082536182,-0.247070458004,-111.706930849
off_to_on,0.672812321128,1.94175713666,-0.702325211578,0.00682533824185,-0.89182608891,1.56184441723,1.98749854265,0.563902457148,-0.587822973914,1.2647079133,-0.796333818647,0.623538094769,1.27329291243,-67.2683886987
off_to_on,3.41923025331,2.65951355268,1.70302416,1.03388875038,1.59292796564,4.4915111551,3.93469575423,3.63196900613,0.393902588397,2.70905186767,0.132394463106,2.9979741609,1.1788831189,126.717673635
off_to_on,-0.953389551799,-2.46787723118,0.182217451588,-1.49002782368,0.0998893959476,-3.53820183059,-3.17911784177,-1.67328830607,-0.537970325079,-1.59488074081,0.322623353087,-0.596146343012,-1.39174597942,15.5090687065
off_to_on,-3.38557081406,-2.43076429537,-1.51207023278,0.108831596293,-0.72311612695,-2.9668712775,-4.27974622161,-3.93014110338,0.71124600537,-3.04170909293,-0.127429400166,-3.43456025113,-1.33150485289,-32.7834386989
off_to_on,0.162384410634,1.98263938735,-1.02523014746,0.540797657296,-1.01567905028,3.27638224784,3.3320832028,1.86380961398,-0.536909037017,1.33171773609,-1.15503704549,-0.0429604186251,0.718518386401,-102.346484101
off_to_on,4.78765548111,3.38808851872,3.07854253595,0.940040587842,1.6905411966,2.85163987603,5.3045236913,5.06712497998,0.37398089437,4.39892941922,1.85752460804,5.08844551611,2.84999127383,85.5033481042
off_to_on,-1.75437318998,-3.4255710964,-0.69470203104,-1.69563141053,-0.33908075088,-4.12532662862,-5.59479926477,-4.1547776914,-0.548377037519,-3.44409684645,-0.586779300505,-1.92806847637,-2.59754315789,58.6573569148
off_to_on,-2.7090513201,-1.33967140112,-1.4612110631,0.144130290836,0.346280589075,-0.182484339504,-1.73244629693,-2.14195817194,0.668307047739,-1.81274801249,-0.415463455468,-2.68222400697,-0.58720254397,-47.7459028929
off_to_on,-0.53545775652,1.35304204834,-0.693545631616,0.80102514678,-1.78283289369,0.531921915726,2.42537650039,1.68997903979,-0.466294700879,1.25262919974,-0.747644541986,-0.45803860223,0.383239410227,-38.6984442356
off_to_on,3.97375454867,2.30345600536,2.33298204909,0.588192785256,0.847681433997,2.15555835301,1.80089176095,2.63779402128,0.352500978418,2.36461907523,1.43226612245,3.59887021797,1.53334576302,-47.6748710809
off_to_on,0.444278620857,-1.38032841479,0.184306690958,-1.60670673198,1.52983764729,0.167988154749,-0.48084755092,-0.707882178247,-0.532160373662,-0.713467244968,0.215676700645,0.904015121731,-0.0813527545161,138.088556156
off_to_on,-3.7526155648,-1.73225727945,-1.59515786605,0.562857914277,-0.65576986185,-3.29116749179,-1.58381514048,-2.5986369624,0.590976658272,-1.99241603293,-0.843854494111,-3.51383452676,-1.39471036754,12.7852059299
off_to_on,-1.12794220667,0.097210498626,-1.09483916788,0.243188199022,-1.9977744769,-0.781080083592,-2.12416296786,-0.883203233681,-0.387577900497,-0.640849520585,-1.25111996442,-1.85062348189,-1.0467714486,-143.661860003
off_to_on,3.90366173752,2.23449357171,2.01105219783,0.502619265465,1.06846529863,4.58789591453,2.33733959249,3.47265328748,0.326967034708,2.40721215143,1.81542916163,3.74591887824,2.0548860193,-23.4347174219
off_to_on,1.25699445788,0.244117142602,0.97667002988,-0.813444010837,1.45639958821,0.494052502368,3.99262534651,1.32855858281,-0.486927511509,1.14799272054,0.762048414447,2.17804878588,1.25952985233,165.683123074
off_to_on,-2.67909493165,-1.40487669245,-1.10204487655,-0.0355906204823,0.254031827196,-4.14692918423,-2.27839437219,-2.80914470647,0.48387581591,-1.5029167154,-1.2776089769,-2.51704880061,-1.36103700997,34.5195806885
off_to_on,-3.81505552722,-2.82263697302,-2.77486821368,0.101615382872,-3.36303964322,-2.82185040644,-7.89380458402,-4.01323624368,-0.302064788316,-3.89286791742,-1.9224029026,-5.0406760008,-3.66333905241,-222.737497617
off_to_on,4.50699479775,3.63489002104,2.50860358873,0.846090064605,1.16534766422,6.97444072706,5.88372540579,5.07196097092,0.294390496695,3.69979522407,2.75224819734,4.57385731424,3.76987700119,44.736419466
off_to_on,3.62784958138,2.33168674428,2.45904148137,-0.791557410863,2.85127232097,1.9813579156,7.99310457533,3.8014176953,-0.418645086605,3.56755567397,0.776284395977,4.81823213533,2.74663393569,150.029545694
off_to_on,-4.70502847338,-3.7806051708,-2.52930222637,-0.166293280989,-0.861528446828,-7.64150413429,-7.59234220473,-5.47488722857,0.359614565243,-4.04858492277,-2.16441170316,-4.8016360232,-3.86068544462,2.4974129178
off_to_on,-3.96048423841,-2.66978503827,-2.84236032879,-0.0247508903171,-3.42261870761,-2.07624776278,-7.9943198514,-4.13710149742,-0.211047286788,-3.61345914789,-0.931968480501,-5.03164796847,-2.55473722953,-177.672918229
off_to_on,5.00959281721,4.16186497882,3.07820523784,0.979180537193,1.17545170705,8.71755395551,8.97500575786,5.77621443347,0.245625441639,4.19254669505,2.21584155541,4.93412437208,3.74888180678,35.893248548
off_to_on,4.1591914202,2.71825944526,2.56552693475,-0.577756671437,3.82439638463,1.62757864227,7.59221266117,4.58885131205,-0.326915427222,3.68031895792,0.541169291363,5.24531974335,2.52238417247,119.489356449
off_to_on,-5.30731028044,-4.23825890906,-3.02552435858,-0.564936581357,-1.6514632376,-9.3788790048,-10.0032348319,-6.09032476176,0.228678069147,-4.23459065742,-1.3716106296,-5.07192097297,-3.4788169461,9.06402015145
off_to_on,-4.35188383412,-3.0584361039,-2.76777446043,0.1966311953,-4.34327794843,-1.06417768237,-7.18650218547,-5.4642024349,-0.120512227947,-4.07143483438,-1.46329487598,-5.70541366118,-3.01226591259,-134.476551124
off_to_on,6.40289976899,5.18995622676,3.79625740629,0.952198058739,3.31126625369,10.2666632641,12.1121655539,8.07347048621,0.180178080687,5.60020155113,2.08499655721,6.66176740422,4.54186208481,9.26209463832
off_to_on,2.47501277987,1.54390531512,1.46295275103,-0.472835075823,2.58876182617,-1.48071282824,3.60990861629,3.31531669265,-0.215331630933,1.86816922146,0.873897226383,3.29916862535,1.17108233645,93.3676335939
off_to_on,-4.89564857138,-3.92147185378,-2.80961659217,-0.87720925005,-2.62871154065,-7.80432330328,-10.573561374,-6.99113973404,0.0977255828053,-4.13960974973,-1.59185424566,-5.22067925372,-3.03660610824,20.5471499775
off_to_on,-2.59428661192,-1.69904574257,-1.41921393329,0.471141297725,-2.18656691777,1.58476573618,-1.55328788446,-2.80072539947,-0.0326447774471,-1.43327087184,-1.16876482818,-2.76027868794,-1.10286370783,-90.7593965229
off_to_on,4.30005606503,3.49129495498,2.28546265745,1.08355140532,2.19660156711,5.46350672131,8.03353470253,5.98171680473,0.0998557314595,3.08067783956,1.79738315585,4.26489145908,2.14313155326,-23.0127392314
off_to_on,2.87938469721,1.75504325461,1.57290742002,-0.972894040055,2.1258764533,-0.405284569494,1.13546542964,2.98346873963,-0.0909924638197,1.52106805761,1.01664379663,2.78495340277,1.3859257454,73.6748219649
off_to_on,-4.84642646057,-3.7212259239,-2.36111272967,-0.563972732569,-2.39370609134,-4.26104493367,-6.35612504025,-5.9758732215,-0.0271925382344,-3.05237414032,-2.06900603411,-4.72642398051,-2.27293159616,27.9070884284
off_to_on,-1.62379404341,-0.5967239463,-1.0956642581,0.790224285479,-1.24469198455,-0.231850580416,-0.318657585591,-2.01120026519,0.0517978265874,-0.381684233074,-0.307459459247,-0.979728473608,-0.375898882809,-48.97343014
off_to_on,4.52980258699,2.90999046507,2.1969443565,0.382381025154,1.89146184074,2.78790032285,4.12995813552,5.16495273692,0.00768421871277,2.06558282813,1.78002459646,3.91893862557,1.42127473983,-52.7108914851
off_to_on,-0.0416530761375,-0.409851395321,0.343246629644,-0.515917829196,0.535915233115,1.07309550056,-0.123805013318,0.967871572726,0.0381857031818,-0.577032460038,-0.311875104689,-0.948007368883,-0.440559875179,59.824239726
off_to_on,-3.03353224918,-1.31391054592,-1.51935153177,-0.554436224409,-0.94279864867,-1.30753878404,-1.37345777543,-3.53963536607,-0.141539290543,-0.293579015288,-1.12583636222,-1.67707447975,0.129472893681,29.937631459
off_to_on,0.747802959506,0.328004684269,0.0166624282855,0.65760196723,-0.621155239303,-2.49882588892,-1.01194150182,-0.927126558801,0.132583809004,0.157505569465,0.505104948849,1.09177064877,-0.0115446935355,-17.5468609201
off_to_on,1.72459575786,0.318362008344,0.934131322213,0.284412852878,0.707784868872,1.06990178068,0.511314380922,2.70344994939,-0.0917554272734,-0.346014824899,0.596899416167,0.443770011784,-0.54628847528,-66.6755326704
off_to_on,-1.01520524995,-0.00128817768359,-0.15562799491,-0.25152683062,0.47671487378,2.8292001665,1.17842318836,0.610949170903,0.163916553818,0.176216802809,-0.380171277048,-0.980773791557,0.240836739021,45.4660759707
off_to_on,-1.11823022355,-0.182755747874,-0.85629360304,-0.682315683298,-0.986278536522,-1.1046070253,-0.569462715565,-2.51922824937,-0.242288624883,-0.175338735834,-0.838413057095,-0.412272536132,-0.0393568974341,25.202181854
off_to_on,2.32985934459,0.812557837038,1.13665550308,0.53037662218,1.00169960521,-1.20537637453,1.42962842629,1.54882802764,0.21146087953,1.48401914553,1.44397840226,2.52365445224,1.42162248607,6.94193118116
off_to_on,-1.32192736137,-1.38244545326,-0.48174541571,0.468146725025,-0.724559320324,-1.55569156542,-2.97217988968,-0.392639922664,-0.200334280869,-1.57511506649,-0.390493384141,-1.59189891412,-1.54905118113,-66.7287439758
off_to_on,-1.15561266389,0.18360083285,-0.570380611232,-0.208012884399,-0.372815724266,1.81485167456,-1.01612898375,-1.05623486522,0.294382499539,-1.05523258022,-1.07477284988,-1.85293334542,-1.10670073404,29.3587586384
off_to_on,1.70460400936,1.14030732256,0.425258646919,-1.04988907718,0.92719223512,3.03851840537,5.1536030743,1.86391826738,-0.344205310005,1.90638561337,0.569572597946,1.68415144166,1.66914762424,16.6153738923
off_to_on,0.59818129014,-0.0628200282847,0.849353247084,1.061517064,0.364879334912,-2.19608577799,0.205145611493,0.390555689072,0.281398080023,1.02687021481,1.33365707119,2.05764768426,1.56070916858,24.8849296482
off_to_on,-1.42085741413,-1.01840693273,-0.7002532953,0.113635417736,-1.25025063407,-4.39656633398,-6.29675079226,-2.36034975924,-0.260170483384,-1.84267331834,-1.28474858541,-1.44044810071,-1.88211636149,-57.3919179019
off_to_on,-0.974162355115,-0.547057598291,-0.922530426983,-0.34403319144,-0.199488333888,2.70134989963,0.290012412885,-0.237891956723,0.344552512411,-1.49386021683,-0.829033030551,-3.2233073781,-2.31337134328,13.7473865357
off_to_on,1.44718773224,1.22527823886,0.467872595484,-0.513989309061,1.14810757088,5.35217715101,6.76465330788,2.34746536024,-0.406899914199,1.77883671857,0.990444651479,1.82123510733,2.25819780391,6.59086861619
off_to_on,2.14341620452,1.75089655209,2.16738969195,0.728968039309,0.916600483798,-2.71742154975,0.306054003494,1.45031356199,0.392001058973,2.82808452164,1.53132695289,5.09701287757,3.81145693503,35.5923603947
off_to_on,-3.64515403525,-3.41747195232,-2.29264190772,-0.200829600165,-2.81285959716,-7.49254156161,-8.80123493344,-4.4596600835,-0.37088111372,-3.79892494956,-2.29708204177,-4.85782097509,-4.96321463117,-42.4028113803
off_to_on,0.0845197420417,0.217376521199,-0.692164563239,0.196630236892,1.19590264498,5.64270052977,1.91109887159,0.280634520784,0.36925820665,-0.858739427748,-0.0189352708084,-2.83626863374,-1.60687056459,0.770339124655
off_to_on,2.1471477965,2.22006129962,1.45398977311,-0.53939460952,1.26044101054,5.44227983013,6.94598505022,3.23156545518,-0.388666327286,2.07105256509,0.975475867612,3.84338795831,3.86328687973,-3.15602455418
off_to_on,0.474717495181,0.390466289648,1.19993453901,0.345992073401,-0.832263146478,-5.2932391583,-0.703030573719,0.834085319698,0.463049109844,1.97647783927,1.00073657143,3.18836322328,2.06302172592,39.2039142863
off_to_on,-2.08850963754,-2.56298646241,-1.96523027335,-0.22002747026,-0.999643802938,-4.38887810105,-6.89000159937,-3.79093929112,-0.52887406177,-2.17162954928,-1.63465087642,-3.97103571125,-4.11970191023,-24.989504903
off_to_on,-0.3446299554,0.0582037799068,-0.501785763996,0.827708497382,1.23280997687,4.98535840774,0.0876363764402,-1.10124626654,0.473613888385,-2.4224669676,-0.47381287436,-3.07174031405,-1.83562612715,-10.4225830629
off_to_on,1.29868363261,1.77982983039,1.12039946813,-1.09100462453,-0.355798276715,2.19237878275,6.52878983121,4.07935999809,-0.391871903816,2.2118873019,1.00868746816,3.73560637587,3.83972868578,-2.56895546931
off_to_on,1.21326831498,0.789346052457,1.25632771997,0.295128900323,-0.144770077548,-2.54185750144,0.831910941947,1.43598235394,0.464593183921,3.11988184536,1.24544559211,3.45023684358,2.22886563534,18.3292516695
off_to_on,-1.63860361374,-2.34953192573,-1.77543997071,0.222486476467,0.297308012916,-1.45260547721,-6.77104965003,-4.91018078785,-0.590444586876,-3.411533022,-1.94918645231,-4.46268269263,-4.54505384886,10.0541780596
off_to_on,-0.720192011189,-0.132197170258,-0.281420000306,0.410189890242,0.442669470488,0.654065315516,0.0866472260316,0.0733968179678,0.546912673702,-1.6095025858,0.0535849549241,-2.03641974669,-0.896810343413,-9.48699532057
off_to_on,-0.0390248909866,0.892363526088,0.218331403201,-0.939196271694,-2.3807271342,-0.893287070114,3.43244518739,2.49373318102,-0.433852657593,1.79968803014,0.371642906542,2.52140850683,2.61755376152,-54.2506380462
off_to_on,3.17341141975,2.28618799051,2.01724693359,0.526975347659,2.64844583935,5.41739223703,3.38476453161,2.1400788228,0.487880229805,3.01582476759,1.18752780941,3.87454858101,2.86136426716,77.8135034839
off_to_on,-1.80689849098,-2.74651874308,-1.5221057131,-0.21304914223,0.560007461142,-2.26198147702,-3.69143326866,-3.18841704257,-0.606492017775,-3.00004590274,-0.98714993579,-3.94774989128,-4.09656639109,-15.7601330181
off_to_on,-2.46192756045,-1.40902731436,-1.24286708694,0.587894796712,-2.7631999726,-7.77059015632,-4.92307282276,-2.25636180921,0.557050887461,-1.82035341306,-0.506159146049,-2.78280091439,-1.89521500234,-25.4952170399
off_to_on,1.69603953339,2.54646533082,0.932818610395,-0.784621370355,-0.146853846661,4.96817150029,3.31757168139,2.56199958978,-0.450339036323,2.05698348757,-0.351653083101,3.37640923198,3.50208906878,-9.41629334434
off_to_on,2.4781076542,1.55124901934,1.88851893729,0.532142860784,3.54797105772,9.38315723035,6.99104823517,3.39916482313,0.504284233918,2.04721698058,1.85270202993,2.58497992387,2.08906539755,33.257251612
off_to_on,-1.89680762787,-2.94590719521,-1.66714880587,-0.53563604437,-1.42896014116,-8.88872622732,-4.29252246169,-3.08136678515,-0.597361053187,-1.87322512801,-0.137520886277,-2.94973483879,-3.48602111342,6.92517720808
off_to_on,-1.64016441508,-0.681338121905,-0.968001898746,0.671384968978,-2.41915521628,-7.71709636778,-7.22747874859,-3.14366451873,0.534295045644,-1.62041816521,-1.71985274703,-2.1112806144,-1.59286321302,-52.6789597447
off_to_on,0.175605513372,1.39693107017,0.400342873571,-0.337637949015,0.892435109803,10.1857772241,3.74653621228,1.86589338016,-0.447980404263,0.231066833932,-0.870061939222,1.02333622926,1.85026837981,58.2736672017
off_to_on,3.78092784229,2.69362616779,2.52858892747,0.0974701294035,3.42133018576,6.89546463457,9.20790341453,5.41689215504,0.505144496284,4.15849383915,3.76344497209,4.95632236135,4.12409905084,-36.8077090454
off_to_on,-2.0288531892,-3.23615862973,-1.95031945256,-0.582884457093,-2.95370737021,-12.8372735146,-6.54966713239,-4.33914917797,-0.561971418749,-2.77833296096,-1.15547355541,-3.62406139486,-4.30520753053,8.40709088218
off_to_on,-2.49745596299,-1.45154098311,-1.30391512492,0.899889776383,-1.24512522606,-2.17929946517,-6.51109047218,-3.56082190775,0.484216280018,-2.66008095129,-2.65554321354,-3.68949058497,-2.66950012484,-1.79591246391
off_to_on,1.23123138811,2.48707075856,1.16669873553,-0.361144341373,2.01439688857,10.6320362647,5.54899197651,3.71372761741,-0.425880668825,2.77721646402,0.867218269755,3.81601332227,4.02142065729,24.8589885359
off_to_on,3.03224662929,2.07365046459,1.82092427838,0.073302894588,1.04494997546,0.182046107563,5.36967402762,3.16466123379,0.487894703989,2.20996565883,2.91482144105,3.36508015078,2.63134854967,-10.182674305
off_to_on,-1.8129158638,-3.20997804589,-1.75084252496,-0.721378891793,-2.0466684914,-8.46365423127,-4.70698353615,-3.68015067672,-0.508527426588,-3.37236545981,-1.70684460991,-4.71285195491,-4.71230196633,-64.9626730875
off_to_on,-2.4272316132,-1.4956088737,-1.11659723025,1.03204526307,-0.194556092058,1.34452124249,-4.12089242948,-2.16729881669,0.419244445399,-0.941335415542,-1.77823363527,-2.00514006599,-1.47776490852,73.7382914768
off_to_on,1.67099492533,3.21721989229,1.24894885554,-0.324406725242,1.26269904854,5.52106353648,3.44591000072,2.93095461897,-0.38582491509,3.14748293993,1.03982380061,4.77620506098,4.43959055131,33.5097257529
off_to_on,2.32463176765,1.37389840242,1.46398759717,-0.0895541172701,0.468838945728,-1.07598035619,3.6993129183,2.03687607,0.446774881304,0.359112253367,2.0211076385,1.03034219495,0.940098091562,-68.6424693201
off_to_on,-2.78845016276,-4.40124059825,-2.19196940533,-0.388047228236,-2.17956455489,-4.53750424647,-3.93643400057,-3.82679834608,-0.437393728477,-4.18419740782,-1.81758349623,-5.80249330917,-5.2000989287,-54.1974077869
off_to_on,0.574086757166,1.3528828526,0.345459119739,0.564920092852,1.82980360976,2.841002374,-0.362893491652,1.03044106262,0.346852923508,2.88159358234,-0.424337245587,2.70105734546,1.9992682009,97.5330966103
off_to_on,0.105674106487,2.08550770587,0.568268962469,-0.178594815594,-0.0370335417975,1.04796826964,0.926340123234,1.02084085621,-0.333803937707,1.46128165579,0.381285640428,2.56876977186,2.38431421089,52.8039013565
off_to_on,-0.0993424836293,-0.926765126895,0.124267478007,0.349170608315,-1.3446922062,-1.70533421336,0.187866858746,-0.912017416714,0.384300142686,-2.69033597449,1.05677519724,-2.44407106396,-1.51370121637,-113.996015395
off_to_on,0.62406389235,-1.83078795693,-0.477613706465,-0.814059224503,0.513290186793,-0.0255024220899,-0.00781083865877,0.0397946383211,-0.350617718793,-0.622313370092,-0.829618261032,-1.48818765121,-1.66350181089,-48.3030329373
off_to_on,0.233181589003,1.56437367132,0.226003238338,0.33493401943,1.62421723808,1.77600462544,0.712163668807,1.19001442213,0.268616908605,2.91141445257,-0.310125591376,2.46279565689,1.68550687318,109.023138989
off_to_on,-1.37249631685,1.09673498932,-0.0440217799353,0.315612139367,-1.30985351989,-1.05877812721,-0.615195589526,-0.946678909061,-0.271269921638,-0.0864388118973,0.385153862843,0.917657394066,1.05243982118,77.1064970164
off_to_on,-0.247253292437,-2.00533948197,-0.184124867208,0.342491283092,-1.653860825,-2.05664974082,-2.11705484298,-1.47692436493,0.304315355682,-3.18292183818,0.122715826397,-2.80726846221,-2.07904494656,-144.219116263
off_to_on,1.71505984593,-0.531662879072,-0.0286226550977,-1.11600749279,1.89777432832,2.04577630229,1.27204961541,1.55762981293,-0.252838303353,0.664839696681,-0.451604598307,-0.524258516781,-0.490097443707,-55.6449678046
off_to_on,0.889454432567,2.986389794,1.06227456042,0.196461747358,1.95763176054,2.87854084061,4.35048345864,2.39255725231,0.186062418068,4.01796048102,0.881698869997,3.93939184939,3.15705824303,116.834055572
off_to_on,-3.14209348525,-1.32719245775,-1.18600069079,0.968848893029,-3.3510215372,-4.41534645344,-3.95504870282,-3.55426424879,-0.198786794686,-2.75980117996,-0.819923958271,-1.49104835232,-1.73176178328,105.130590286
off_to_on,0.370763512618,-1.99473979447,-0.365007287684,-0.20461563791,-0.361645418457,-1.17544917187,-3.49126624675,-0.784687864138,0.21075925672,-2.34010298399,-0.182930605925,-2.62676541324,-1.73865068821,-167.270990046
off_to_on,2.12585175078,1.16143765482,0.784234238668,-1.07920208427,2.31412356902,3.98901316805,3.66923796795,2.5275515648,-0.14876326707,2.16892098038,0.517433744984,0.83841715444,1.41662066684,-66.2062917532
off_to_on,0.40023514972,2.45348655254,1.03778429953,0.536820462599,0.723200286221,1.06985595937,4.06286571074,1.24060100768,0.100459837731,2.49861344054,0.504515301299,3.35082658659,2.0237977589,119.03959724
off_to_on,-1.99424834783,-1.7826161607,-1.37053335566,0.607857162711,-2.01234785879,-3.68204379062,-3.2180378796,-1.80759817926,-0.117325925739,-2.23792677497,-0.717656917226,-1.13007178739,-1.76552901829,130.345048148
off_to_on,-1.44207251804,-2.58228569473,-1.139448716,-0.114987524694,-1.32974985482,-1.34302426163,-5.30212384563,-2.58107145993,0.108269219863,-2.82090593026,-0.502137976249,-4.16526698284,-2.30862373045,-175.989827669
off_to_on,2.9202772786,2.60372112124,1.90158976991,-0.886980366506,2.3391517896,3.71393630608,3.42754882872,2.18677936719,-0.0432615731283,2.97845095892,0.635669045592,2.34123518057,2.57404529163,-85.4090277874
off_to_on,1.10287660198,1.78883125745,0.774150579596,0.329801963825,1.30158325846,0.864474019465,5.49513829612,3.06898541464,0.0133904092257,2.06487440636,0.586446372961,3.53030853459,1.57294803484,122.197515895
off_to_on,-2.787150434,-2.18572624908,-1.84782254123,0.721968619432,-2.23000935506,-2.42716006202,-2.30518305826,-2.08540589774,-0.0286687716561,-2.66657201064,-0.408757851297,-2.27765601515,-2.12478517043,147.974226194
off_to_on,-0.865533070846,-1.5663563203,-0.467383318649,-0.368884910043,-1.29089943258,-1.32422964198,-6.30473819973,-3.52382204567,0.00162931170691,-1.51493831165,-0.768051447852,-3.08973857847,-1.38985790783,-172.378758118
off_to_on,1.65370111969,1.05315434691,1.06521946218,-0.47727159099,1.53956760495,0.508257691506,0.264991291137,1.31106407694,0.0593116728727,1.28767085733,-0.101432639685,0.976506636384,0.85276791912,-108.603291663
off_to_on,2.26118607504,2.97195391786,1.27165846368,0.206885961485,2.39915775183,4.10265835459,9.46990334657,5.34692146051,-0.0731090031611,2.84296752899,1.69145202333,4.78388840507,3.07235634655,125.846664995
off_to_on,-1.98830177783,-1.42536474459,-1.06130070006,0.430150054804,-2.03360989254,-1.20097404352,-0.89167247273,-2.2670676685,0.0641136835389,-1.54604525913,-0.256096871078,-1.59069994376,-1.36240394197,157.11330796
off_to_on,-3.13586412603,-4.00143977633,-2.1386035428,-0.241218046664,-2.99655579752,-5.94675851983,-11.5931505044,-6.21132614997,-0.104166209452,-3.8338545915,-2.28336380218,-5.99708116141,-4.30275635746,-160.009063538
off_to_on,3.10800796969,2.89524115115,1.9680404689,-0.125722082461,3.12807561775,3.36059613269,3.29546788706,4.1940474888,0.155363203213,3.1717398831,1.25197499388,3.72097245811,3.28013901149,-130.477464343
off_to_on,2.31526296052,3.0979599305,1.74326087784,-0.0329190915158,2.17737467915,5.30444302267,10.4302772827,4.51978200238,-0.156858574034,2.44765096308,1.64723595571,4.49945227619,3.04644402221,127.792387338
off_to_on,-2.46062862879,-2.68843898885,-1.84828430597,0.118322762256,-2.68588310905,-3.96917167764,-3.44872530083,-3.65576898535,0.157054040757,-2.63110572213,-1.26105286281,-3.55168250276,-3.10222498623,159.221281024
off_to_on,-2.86534241677,-3.18300279262,-2.03636510588,-0.00709993949926,-2.63541197834,-5.02099926725,-9.91776196742,-4.13436009909,-0.204146244366,-2.45735889622,-1.48719807264,-4.11549542095,-2.8521271214,-142.516031769
off_to_on,2.90365769827,3.25735220604,2.46062562687,0.394456288924,3.33785692519,5.1508189645,4.24142006975,3.62209477886,0.241955363538,3.02351616536,1.72074938988,3.89473643446,3.53676185619,-148.284170177
off_to_on,2.56322861563,2.32773113619,1.36506504185,-0.826627272917,2.17831754637,3.1583552498,8.1053263605,3.47284249008,-0.23556291191,1.72707514087,0.526043445985,3.16200682765,1.91871960509,127.70282136
off_to_on,-3.08319016852,-3.12084079189,-2.23626441237,0.307329109339,-3.5629561048,-4.81860675094,-4.43066656704,-3.67473372048,0.245783480754,-3.1095143273,-1.30700782625,-3.9033683839,-3.43143917197,156.053589271
off_to_on,-1.84007510563,-1.41690696845,-1.04497058476,0.355423407708,-1.55354694067,-1.29003582447,-5.27285139128,-2.19897169902,-0.293792644662,-0.661793690482,-0.0740613971529,-1.74679412224,-0.785044527246,-123.798730123
off_to_on,2.8222775998,2.41225994056,2.15704154712,0.159984980939,3.58280574678,3.20276442294,3.2691449326,3.21962164464,0.316778378328,2.65298302976,1.14568099682,2.98949280977,2.69810737391,-160.134620222
off_to_on,0.645020825798,0.632797924751,0.0616499049273,-0.928975617272,0.327534287863,0.0373037124755,2.09119823697,0.302185233521,-0.306837481982,-0.629730770444,-1.01556228943,0.465938474049,-0.441101673985,125.747924404
off_to_on,-0.743120703585,-0.486163831966,-0.44279766284,0.415351447075,-1.82592507942,0.161804949401,0.448076794158,-0.613715229526,0.325952432959,-0.432614943395,0.562412945847,-0.342558973125,-0.183357386578,149.435604648
off_to_on,-2.31636079502,-2.4816251181,-1.46041458281,0.473099342176,-1.65536664383,-2.5452589222,-2.43992719057,-1.4624033201,-0.369346154152,-1.14298561895,-0.172300606374,-2.63703127946,-1.64149366687,-106.921450124
off_to_on,1.72881407704,1.65917436359,1.1481235674,-0.0385930846444,2.56618988998,0.0253427117122,-1.19612145256,0.898769139233,0.378077278824,1.38040935638,-0.0200211176729,1.46936857069,1.26392382794,-165.63001006
off_to_on,1.65499505645,2.00951858782,1.03089641652,-1.04241451448,1.19194510771,3.57114274957,0.962823177954,0.556796662709,-0.368243641481,0.754575843234,-0.289018766714,2.2184719902,1.09815345931,122.751176142
off_to_on,-1.47761401636,-1.73682171716,-0.696505594633,1.05549891894,-2.2344771655,-0.313811305733,3.05445718801,0.110118788024,0.393314513578,-1.33590312701,0.662185286079,-1.61304698959,-1.00254033446,140.960349253
off_to_on,-1.49226117445,-1.96663984725,-1.47727583758,-0.218388302503,-1.52563415561,-4.843641616,-0.31052522021,-0.455179499855,-0.426137271019,-0.725853375615,-0.461807450653,-1.85902492741,-1.10668029248,-93.910476436
off_to_on,1.51998465407,2.31787231049,1.20319122601,-0.070568662948,2.71837170325,1.81534491115,-4.62830628532,-0.77166805406,0.418008799104,1.5397159382,0.103637141536,1.78587905874,1.07216473016,-165.550088172
off_to_on,0.899453397654,1.06520073503,0.798266313471,-0.412196149081,1.03729965776,5.16592237489,-0.0545675846071,0.305747932613,-0.405352080692,0.221864029074,-0.212419601687,0.964908325305,0.606312692317,120.101741209
off_to_on,-0.629577172576,-1.66897798736,-0.377921777189,0.844446225861,-2.21922766292,-3.21873321779,6.64358257797,2.06096018303,0.439947182112,-0.635659429343,0.585895066916,-0.613026702324,0.010235006354,129.976298297
off_to_on,-2.18506700815,-1.89039571236,-1.85294773252,-0.738009411624,-2.19888673738,-6.19599307485,-2.20987986399,-2.39673358661,-0.492863423903,-1.8863775969,-0.959353523224,-2.42602534787,-2.32882867409,-77.9310814609
off_to_on,2.64761431293,3.41775286526,1.82891648511,0.258014365628,4.38232061166,7.50040087007,-4.40056093516,0.374721454573,0.507784979022,2.96847298526,1.19161559748,2.64730180065,2.06368333272,-180.56928963
off_to_on,0.0357829385513,-0.276211207773,0.282277030304,0.0178532229928,-0.0160521332216,2.7627189612,0.645521038469,0.606949786093,-0.471116727673,-0.104879150173,-0.690072672712,0.446864534536,0.753620473181,145.515353668
off_to_on,-1.44944541601,-2.0244514954,-0.739479723249,0.393947551377,-3.25087998307,-7.85053274385,4.65324516632,0.132171652088,0.413796039875,-2.12422249991,-0.338000743683,-1.67967930555,-1.43746687398,109.562718566
off_to_on,-0.347581770246,-0.243265003721,-0.831326192284,-1.02982011368,-0.250963365371,-1.41092661127,-1.00322119312,-0.772821227216,-0.417110112015,-0.103823280199,0.265573425547,-0.721474751938,-1.19773656859,-107.380131254
off_to_on,1.77199549404,2.44392170317,1.27754348819,0.913127926908,3.5954153963,9.00646839501,-3.17241703957,0.680856078157,0.533234687625,2.56121900314,1.0431967505,2.15637635357,2.38824051486,-104.743862096
off_to_on,-0.022913368309,-0.167831357664,0.131486726678,-0.242582518433,-0.302998514258,-0.820662378801,0.511754709093,0.136525032208,-0.624806661004,-0.335942581861,-1.23754491035,0.429891564884,0.588356759387,96.8067993836
off_to_on,-1.9029651751,-2.42768905817,-0.728443169072,0.169051056745,-3.2527707772,-8.78633787736,1.4364184523,-1.08993755225,0.498081763509,-2.68722370223,-0.19974265958,-2.80641111755,-3.04299830711,87.0246886936
off_to_on,0.0904815809317,-0.00118071924931,-0.667929416873,-0.672421245322,-0.145478512495,1.73581770291,0.245020220805,0.0219427933969,-0.288891853595,0.37695183791,0.505724121256,0.0165294218423,0.0977891717361,-64.5691341163
off_to_on,3.18019739233,3.79558186093,1.8869698587,0.66396756884,4.6119338332,9.76229054561,1.42624430321,2.78306033752,0.350690963631,3.96511454986,1.09384796997,4.54046638795,4.41408859034,-104.939290878
off_to_on,-2.60157839456,-2.34765579019,-1.12191554878,-0.196864893908,-1.94565948665,-4.60666996354,-4.04484363863,-2.81625495786,-0.626323986031,-2.91588395988,-1.67754071415,-3.58033533715,-3.31503195889,78.0503418627
off_to_on,-0.993654711787,-1.81385676714,-0.268883832133,0.254733996443,-2.97610873502,-7.60766031143,-0.0846058734887,-0.729883440094,0.647407212512,-1.52583459349,0.354007745431,-1.65703075096,-1.67526787212,62.7917173437
off_to_on,1.57462572718,1.31714217369,0.118837954498,-0.649073915399,1.2286187251,4.01402246338,4.06019275901,1.87048628917,-0.34780172678,1.5633718845,0.140679615183,2.74861117285,2.33067794226,-8.38194669938
off_to_on,1.54901762901,2.57556696403,1.03259894914,0.540603197745,3.67307939938,8.30954387713,1.05585015803,1.33677671048,0.232302703208,1.98292576291,0.80925375538,1.47534242505,1.81600884383,-124.234076476
off_to_on,-2.39296870325,-2.35442550504,-0.962741593551,-0.312581493215,-2.50428263752,-5.60566123916,-5.32006384687,-2.40036598671,-0.482651860292,-1.79347744284,-0.720652465108,-3.02794801021,-2.78587642896,47.3297701534
off_to_on,-0.720659709018,-1.66525646255,-0.323738434086,0.594122903012,-2.68889181538,-7.40366471922,-0.998695172433,-1.08673681823,0.63049675158,-1.66667554633,-0.395934617489,-0.581371195003,-1.07213764725,91.393310254
off_to_on,2.1301471367,2.12465935809,0.568622801088,-0.700454114427,2.70558356949,6.52521518666,5.86315080616,2.32484190637,-0.429150601007,1.48415629437,0.0489605668434,2.36395644651,2.26161935852,-30.0800936264
off_to_on,0.467842748623,1.44652079712,0.643771486636,0.172394138402,2.08434086784,6.33305208444,0.959964299998,1.30697309355,0.274783598726,1.95691532115,1.25096680494,0.478317323108,1.35145021383,-48.0855934629
off_to_on,-2.17946389032,-2.34395289285,-1.16575166502,-0.0104725366468,-3.2498146266,-7.71311375264,-6.49562890242,-2.96958485909,-0.419248907891,-2.0732882975,-0.975973288378,-2.14904672195,-2.69409011156,-78.9476014525
off_to_on,0.795822735882,-0.165718599847,0.403493234496,0.559527979967,-0.148087176976,-3.29899288692,0.597147533942,0.0421504539413,0.53582789757,-0.779372517312,-0.110571805666,0.55011434465,-0.36598235655,155.796044464
off_to_on,-0.22703521929,0.29273016834,-0.282738037268,-0.583196444935,1.11245415882,5.47683605404,3.97607338618,0.984685757406,-0.405210168294,0.392028777046,-0.300476820469,-0.501459653452,0.973846515241,30.2729487708
off_to_on,1.45112819224,2.10303054158,1.08852656624,-0.116663043093,1.52092069652,3.88047424323,1.55380603418,1.85833543061,0.29826268381,2.63657051837,1.15290815044,2.33396556839,2.52385583328,-145.752228729
off_to_on,-0.667471756214,-1.42967864525,-0.693806599769,0.0672050526411,-1.81818799339,-6.25910017555,-4.64913120669,-2.07254410088,-0.381516709566,-1.90592840554,-0.395013414306,-0.852090564928,-2.6341186083,-49.1971860973
off_to_on,-1.69086980187,-1.88791320151,-0.839126005407,0.845849067459,-1.0709460592,-2.13399393379,-1.51415145323,-1.58654634692,0.424254563265,-2.1829541169,-0.611406782131,-2.8159943722,-2.27103429383,171.350503263
off_to_on,0.958521461448,1.69463662997,0.684516215689,-0.948638661997,1.56909403283,5.65250912393,4.32206809948,2.21299749814,-0.319598060743,2.6600294045,-0.0675760766814,1.92030717199,3.51285690481,55.1338665238
off_to_on,1.90621161018,1.92616901269,1.25352595555,0.0364906389176,1.16084940403,0.50339986514,1.40943462455,1.28409655312,0.271789834898,1.31700230426,0.968421891519,2.52370690911,1.63236191189,-225.272990164
off_to_on,-1.42268692759,-2.37839580854,-1.47375312275,0.261371767068,-1.82359279211,-4.38743818198,-3.52032589495,-2.04689206974,-0.331774575784,-2.89893221973,-0.271706025047,-2.57232097646,-3.9057815614,27.4174565243
off_to_on,-1.54687410823,-1.19901198695,-0.665089384254,0.376497702794,-0.580799743104,0.983221614297,-1.31773389695,-0.806582282184,0.315088125544,-0.227479304288,-0.577616507217,-1.8113585818,-0.822014413233,147.89688371
off_to_on,1.0880070445,2.13472041077,1.23567808399,-0.639703009718,1.11850667622,1.91101650831,1.7400900193,0.799810247754,-0.220700068492,2.02190003015,-0.184699318338,2.29483792553,3.35209998812,21.7183199556
off_to_on,2.26417053345,1.60261123523,1.10424585547,0.226245686698,1.36512523244,-0.341443151147,3.20808791644,2.29351250157,0.217662226917,0.872911646459,1.26620546676,2.38254011627,1.52638531742,-179.522395101
off_to_on,-2.38982813229,-3.50175812327,-2.23337631787,0.0109090251133,-2.18404054959,-1.37029713868,-2.54787283606,-2.04589643885,-0.265941490941,-3.25610646855,-0.842609687562,-3.95172603915,-4.73561338059,25.3555103789
off_to_on,-0.797153520247,0.14721596516,-0.0122316787681,0.075170485699,-0.203554033206,1.03858045533,-2.53718583431,-1.28665846469,0.210306867861,0.800473635603,-0.272363580836,-0.309569608036,0.0192000054065,113.668477577
off_to_on,1.51765831319,2.6266845691,1.75048484703,-0.166469158571,1.53150597817,-0.663580038802,1.39620808696,1.370240989,-0.121766393167,2.40226339683,0.410671992376,3.03498391753,3.98612783942,23.8642393047
off_to_on,0.678436349372,-0.370551017204,-0.231479669358,0.426274232969,0.109915871337,0.456245772781,2.85820766224,1.13556460586,0.141092474507,-1.34023558076,0.150846098231,-0.456146236822,-0.311859919222,-134.769008544
off_to_on,-0.652137570187,-2.0158705165,-1.24008068931,-0.648718853394,-1.02355348529,0.902063051025,0.0109299022099,-0.278478332859,-0.176580824823,-1.33034781259,-0.170832233109,-1.66087630262,-3.14045476091,3.62401143036
off_to_on,-1.66742744504,-0.171265106759,-0.0595465780732,0.198324483466,-0.704776916584,-2.24122198626,-4.62474123663,-2.27585200716,0.104316514848,0.727107338516,-0.27364386052,-0.282183465623,-0.498238278486,87.0163128541
off_to_on,1.08059432855,2.35540185291,1.15072218334,0.384410603327,1.49811857905,0.98342136215,0.196778470614,0.326708876449,-0.0275364166168,1.41186724976,0.165090399121,1.56051365301,3.50233259779,29.4207677799
off_to_on,2.21526656758,0.37251724025,0.403962116184,-0.0366969627609,0.748211554606,2.4486273181,6.15544221048,3.37866155217,0.0515233301138,-0.509208617734,0.514285197779,0.817251840737,0.83021182377,-89.2662840368
off_to_on,-2.37039617016,-3.23606189734,-1.56542391415,-0.511024149688,-2.30603254046,-3.56687840688,-1.94855148338,-1.4293499028,-0.0723741860668,-2.05416826092,-0.630610890912,-2.35128105324,-4.44987113122,-25.3040028794
off_to_on,-1.00855007666,0.564640330584,-0.01031909288,-0.0495294663795,0.327927635106,-0.460867608686,-5.63517961503,-3.16143829419,0.00703634564531,1.54086619999,-0.182810192343,0.123737614691,0.196210620916,68.6718744424
off_to_on,1.90687284039,2.92457268948,1.22765748428,0.752294781132,1.76173841979,4.35990321968,2.37810706879,1.49193565421,0.0512630915991,1.19309434129,0.637675701084,1.62452175404,3.91007606732,30.8813591916
off_to_on,0.876132469151,-0.645292727097,0.219890794977,-0.0825025347365,-0.429615542656,-0.969159995606,5.86564173888,3.88661476722,-0.0455602255643,-1.28557389493,0.147250942978,0.153559681346,-0.0960960538647,-45.9620660225
off_to_on,-1.7229859511,-3.03429786477,-1.18417795872,-0.782658539407,-1.52948521604,-4.98214441008,-3.51336912916,-2.46368982331,0.0418928836689,-0.874193365431,-0.757217803639,-1.48319912748,-3.92301075824,-53.1277068463
off_to_on,-1.10165287847,0.634893123482,-0.622682149227,0.136831905717,0.248233949642,2.18244948131,-5.9349527786,-4.49436113863,-0.0608281088431,0.450939162719,-0.303223673468,-0.920085227982,-0.26393743374,57.1581440619
off_to_on,2.48656292468,3.98259738237,1.88658149322,0.783538236277,2.04756745309,5.88851086781,5.93936453046,4.9755403625,0.0844435784159,2.11826395604,1.51339870998,3.06164233041,5.2698119013,28.3452957253
off_to_on,-0.200857741229,-2.2978025739,-0.0737254652557,-0.253487641405,-1.25500908007,-4.42653711914,3.44580545788,2.23085427788,-0.153839758116,-1.5579799428,-0.590979601547,-0.757599516966,-1.58580983389,-14.1292356383
off_to_on,-1.44178608154,-2.93465035106,-1.55379336984,-0.500219936665,-1.10300815157,-4.71407439058,-5.91064149559,-4.90639130723,0.22413812199,-1.72346945562,-1.12295140682,-2.43693176111,-4.42981370914,-66.0227065922
off_to_on,0.0859245708649,2.63302996369,0.198576902258,-0.0731054109572,1.05223740715,4.6504767818,-2.016304499,-0.789042733684,-0.151867184309,1.86837475297,0.690924827928,1.38015687761,2.34640714784,45.282444646
off_to_on,0.77202630373,1.93175119927,1.22568344983,0.758883296177,0.526600744602,3.81173677196,5.3544337457,3.97498961854,0.0380392458807,1.04543719244,0.990046125137,1.38099726319,3.26013680827,20.9047311653
off_to_on,0.73741991817,-2.19137474438,-0.0611832504079,-0.32626536873,-0.343305613996,-3.35013245293,1.91482765039,0.571284984788,-0.170088124621,-1.15024615789,-0.788109434328,-0.645329591827,-2.12043533142,9.50158598017
off_to_on,-1.17750039598,-1.46138395763,-0.983407463231,-0.0408201880055,-0.673099354989,-4.30755037108,-5.95571110521,-3.54001676869,0.423919393913,-1.34760134715,-0.695587032408,-1.48545312985,-2.6837728589,-65.3708045254
off_to_on,-1.03337304557,1.4690983046,-0.369200326032,-0.384903941039,-0.220921151996,1.73491346002,-1.5045687365,-0.718828535854,-0.34703392682,0.686578397965,0.375501503721,0.0959544701888,1.72458327709,31.1910054925
off_to_on,2.09642146027,1.90538682429,1.37802108081,0.379233279157,1.62679406721,6.51384611201,7.51360776709,4.08302118734,0.0400577232348,2.36710846554,1.23914908181,2.41838294811,2.84166223548,11.49401268
off_to_on,-0.231454794466,-2.05933486589,-0.212506583027,0.145639200111,-0.877853129389,-2.06459730947,-1.15916366579,-0.657893371091,-0.111741264997,-1.86593084078,-1.12538344872,-1.15921795765,-2.61806550175,25.6449324718
off_to_on,-0.682969362953,-0.548727691223,-0.261774703404,0.246161967728,-0.422844888368,-7.02461156488,-6.14586226502,-2.59723874042,0.529216835863,-1.0392988322,-0.290540142751,-1.06978114619,-0.889304525583,-55.5423714476
off_to_on,-1.12254098082,0.275993439035,-1.13578762918,-1.04145819366,-0.187509722101,0.66420326601,1.12450549969,-0.250018802944,-0.567418634242,0.386361930081,0.164852609078,-0.539746298305,0.649928801131,16.8257563445
off_to_on,1.56079763013,1.82643085596,1.07173992099,0.481588814598,0.947482198484,9.6687259912,6.86787991681,3.27407809056,0.166919547795,2.15828204406,1.02611059732,2.43706823451,1.81232672879,2.21990492539
off_to_on,1.05259922243,-0.630530415098,1.11003856097,0.451910751825,0.131050699734,-1.57843622598,-2.67028939333,-0.436618808932,-0.107712707214,-0.520351708883,-0.578742807647,0.40851490855,-0.525416140606,34.096051683
off_to_on,-2.08700423792,-2.22390730856,-1.29903575548,0.328588207044,-0.826702411618,-10.9088087208,-6.73100292326,-3.36671300504,0.530280256842,-2.96114152023,-0.826791706203,-3.55337056317,-2.47382945572,-40.2185680669
off_to_on,-0.686773449721,1.29110482922,-1.28877786688,-1.48348956854,-0.513908007841,2.90986551053,4.56709319658,1.58422807215,-0.652061030278,1.33016311782,0.28602721454,0.773271996205,1.13519902632,4.21480838849
off_to_on,2.65955680081,2.28627706849,2.1822880036,0.577989448149,1.23155149287,10.8557873168,5.45135492196,2.7418631863,0.281114810216,3.32760981765,1.55527219687,3.80798758628,2.79885525703,-5.661250483
off_to_on,-0.824870042148,-2.7881826265,-0.0773983172486,0.878009827804,0.0142800195898,-4.35647217991,-6.23401579706,-3.05134531562,-0.164622660355,-3.12077870567,-1.44011970738,-2.79515444789,-2.78912465663,35.4778707581
off_to_on,-1.16603502603,-0.2560974899,-1.00571015318,-0.153086361209,-0.186668771188,-8.34342002585,-2.10096137454,-0.00834690769074,0.508811194538,-1.28083642085,-0.404360814951,-1.4539994419,-0.864916605772,-22.6095030282
off_to_on,0.00019239097176,1.73755283361,-0.54299323574,-1.33640417558,-1.66622134666,2.30605713851,4.07565182887,1.09835753354,-0.624757416073,1.98758955504,0.557461785338,1.63771324863,1.73511141828,-7.45858461241
off_to_on,2.09332391039,0.634504992907,1.70082833705,0.841388523799,1.95512072171,8.94438839391,2.54619033158,0.809978430188,0.330759444447,1.99702542057,1.31810162221,1.91422136896,1.63092318474,-2.53870953839
off_to_on,-1.87925480544,-2.98734734382,-0.946551748132,0.364206483352,0.273538360868,-2.90004824281,-4.57893530576,-1.92644673342,-0.254035769934,-3.48796207343,-1.80862699302,-2.97691700329,-3.35066604862,12.633780095
off_to_on,-0.319785001476,1.3025818744,-0.0486138757293,0.223772589469,-1.21418667221,-7.18915381997,-1.41038143823,0.20155280527,0.526696068559,-0.230905117171,-0.120437888321,-0.00947295548959,0.104874050347,12.7201441471
off_to_on,2.0084481639,2.25216715038,0.445336189665,-1.3299913137,-0.301445108969,1.85588536663,4.28291795562,1.85735056233,-0.579962089321,3.29533523927,1.33891888198,2.60704069175,3.20541335238,-7.63217936746
off_to_on,-1.30363954478,-2.16978111833,-0.515188367388,0.737808534894,0.971845138394,6.16863380658,0.530797878761,-1.02728558648,0.343502640116,-1.16187062192,-0.0122412710402,-1.50098770463,-1.32135326144,-53.2034561005
off_to_on,-1.35115755579,-1.7268967429,-0.416040506552,0.20973961449,-0.00894079825604,-1.32612168758,-4.33418819093,-1.92673415786,-0.330925241488,-2.76742267232,-1.59745655048,-1.73238669378,-2.76660133068,77.1511663901
off_to_on,2.90044367455,3.42847991969,1.95084440615,0.411791675178,0.220709397035,-4.02262110217,1.58513262224,2.87594017838,0.546454787733,2.94671252553,1.26386051457,3.07276924039,2.71418749828,-26.562209541
off_to_on,-1.17391365822,-0.429120754641,-1.58163428087,-1.13450776127,-1.54004996335,-1.13571069082,2.18745606036,-0.22115939034,-0.528236159561,0.299816679113,-0.0380518213491,-0.833068267434,0.79260038354,-9.6034196242
off_to_on,-1.3085169824,-1.90094016383,-0.700004679934,0.273885111203,1.09793949824,4.18733418,-1.25740283611,-1.99800451327,0.335637363936,-1.7410664393,-0.166108614454,-1.67550417034,-1.55392384692,-7.67326591888
off_to_on,0.627156154954,-0.424671491018,1.07716950561,0.522136053199,0.41065187168,1.42036324689,-2.27051803035,-0.112841869891,-0.381030821727,-0.895415917,-0.596123101047,0.234883002495,-1.52697448182,7.5791104825
off_to_on,2.11437757428,3.09385190109,1.4423093445,0.39313646662,0.14972988364,-2.23115041294,3.40199432921,3.54197319698,0.548692728736,3.31436707993,1.12884180249,3.11653985362,2.97346550041,32.5412246174
off_to_on,-2.37854822113,-1.37727840931,-2.4607293415,-1.35319390597,-1.71867169533,-4.38382336067,-0.874117489757,-2.50290357873,-0.474766091499,-1.19371523135,-0.834116133128,-2.31803352031,-0.366445040017,-54.9377311864
off_to_on,-0.423485244766,-1.7042392223,-0.148689291439,0.645878864675,0.800349237868,3.41128157257,-2.37360667697,-2.0450791416,0.321104619399,-2.51982090006,-0.00540745001672,-2.21304778347,-2.03922048836,51.2307530282
off_to_on,2.22413887248,1.43041114473,2.08308024623,0.301785906936,1.43663622476,5.24288607101,2.73040943608,3.46404093347,-0.402963602335,2.09167445646,0.509502634622,3.29264257346,1.09210745838,-57.3255403599
off_to_on,-0.785482187962,0.702848338737,-0.132043572219,0.199295017828,-0.989333972805,-4.71958035446,0.162698214253,0.154753111136,0.524416029153,1.42491227215,0.05829413308,0.833132654361,0.817989760048,58.6539992406
off_to_on,-1.64260268507,-1.28819393987,-2.28295027295,-1.09189875558,-1.47433747743,-4.84640101204,-2.93406794903,-3.41350351426,-0.420517441063,-2.38898301411,-1.12181192533,-3.5429710209,-1.31625472484,-34.6884598551
off_to_on,2.22809834968,0.950423552914,1.42160516102,0.79882374477,1.88264070466,6.14572714313,2.64634299932,2.3412829798,0.31008926923,0.45669647482,1.26226783415,1.47006013431,1.37978823179,11.7314485771
off_to_on,-0.810996295058,-0.840802756268,0.618076807456,0.0724912913335,-0.172147129675,1.84759764434,-0.252612163631,0.458836281759,-0.405665545126,0.155342435885,-0.344960638216,0.905459038397,-1.23188775854,10.7325927683
off_to_on,-0.623762448239,-0.00672757198483,-0.355878861811,-0.146870371859,-0.16435770826,-3.55289004535,-1.06045075457,-0.976354983929,0.474269726004,0.859514129873,-0.204733675721,-0.267417356079,-0.21958366222,-50.4783302598
off_to_on,0.12127035244,0.489927002394,-1.25590926977,-0.480582119578,-1.17509900896,-2.71573313175,-0.179832182811,-0.704480002925,-0.357308287967,-0.776085338621,-0.320414053851,-1.2622307543,0.995469347091,48.789009137
off_to_on,1.6592468336,1.39966586254,1.32640041285,0.816843352295,1.14739964041,3.84512991435,1.93272733601,1.74002487404,0.295431792079,0.18394800026,0.917664512304,1.56906803907,1.20552079909,24.244908929
off_to_on,-1.48415809041,-2.44186893723,0.165424875896,-0.564175187953,0.641902192138,1.94073636694,-0.999063966841,-0.53234337373,-0.386665262637,-0.588276035277,-0.625179389257,-0.650753397328,-2.71541886204,-43.9983976387
off_to_on,-1.34427250328,-0.903454353167,-0.998061315638,0.234179931935,-1.21469478009,-3.5417477797,-1.90879003614,-1.50468107328,0.373463405395,0.159537324191,-0.139930310674,-1.2377692368,-0.491508537739,-49.6866946953
off_to_on,2.40545351843,3.52946711413,0.139871252998,-0.24943430891,-0.406842707431,-1.44138496991,1.9552539642,1.48495829372,-0.217492126078,1.54771970552,0.432156968852,2.23367027643,3.65538334356,78.4625667178
off_to_on,0.778015994386,0.223954383971,1.14843638339,0.411087261093,1.54833337821,3.79886468716,1.75129228056,0.975625834659,0.219783719748,-1.0027373215,0.0427320795538,0.04761146477,-0.648473417282,44.8744546597
off_to_on,-3.26373248345,-4.35121808825,-1.09445566919,-0.283755328798,-0.468563303667,0.235420181797,-2.98563490488,-2.3717534197,-0.39035467739,-1.97033676079,-0.792239807398,-3.05948928581,-3.87963927614,-92.6453308724
off_to_on,0.801599306037,1.27504631339,-0.1177309785,-0.00124202528322,-0.786456596063,-3.51651236288,-0.823696057939,0.48698344111,0.374507190152,2.38836564517,0.988743899712,1.96944361435,2.26660841211,-44.4979739469
do_nothing,2.04304314585,3.17238295845,0.424790424921,-0.10805405182,-0.131782086986,0.29309651644,2.42323019292,1.32607632861,-0.148789907539,0.424679708328,-0.327936088467,1.28193359527,1.91326954063,93.3214638614
do_nothing,0.000791238840757,-0.56237490325,0.806234410082,0.455744616587,1.81801636666,4.66488634081,2.12355135364,0.419880336513,0.109270606327,-1.03620340725,-0.282635716659,-0.793084638922,-0.817634412078,70.1165248766
do_nothing,-3.01797987953,-3.72474987754,-1.38639218223,-0.259886703274,-1.30238687754,-3.14446483862,-4.48073229695,-2.67049480942,-0.32635693995,-1.51930929591,-0.178265575347,-2.13366222514,-2.82879287393,-128.442918401
do_nothing,1.22759639873,1.26888213661,-0.00743803150508,-0.284965451673,-0.851741380575,-3.16650256859,-0.838185667092,0.863999473114,0.386173613436,1.72473332779,0.921557977215,1.40697681182,1.57937097256,-50.1447789034
do_nothing,2.41688348947,3.05220672421,1.27165877352,0.0482566407275,1.33310605485,4.05087151082,4.99755378985,2.59820214647,-0.144985472764,1.51317334974,-0.290333228068,2.01994479334,2.46556268988,105.220056548
do_nothing,-2.06490354103,-1.43066633699,-0.446078208694,0.820932501976,0.225430493558,2.06730944997,-0.976768004438,-2.25779309592,-0.00595121827328,-2.49902311789,-1.08615297429,-2.07329302505,-2.25836585824,97.8512682602
do_nothing,-0.934505584987,-1.94853825622,-0.94008370425,-0.76314181945,-0.818153701196,-4.03596114847,-3.36537038449,-1.09578849359,-0.14662645512,-0.56136404654,0.738057126,-0.953316440205,-1.24294431734,-158.541599578
do_nothing,1.78030301076,0.743515839874,0.760514237794,-0.35351262184,-0.26216101705,-1.96654450704,1.05101405626,2.36826166795,0.260264970686,2.44075905995,1.23994116357,1.68963655468,2.0676626321,-55.7164706724
do_nothing,-0.309753799752,1.24792763345,0.232222161763,0.72141513387,0.431971974224,4.14150895759,1.5839401524,-0.53752278396,-0.0741121754759,-0.464855256066,-1.61233207589,0.160536464994,0.0820738962965,108.969006327
do_nothing,-0.657760489244,0.356933480329,-0.311141382142,0.179734781609,0.84560878485,2.62009726556,0.395805246976,-1.15769394885,-0.106336699225,-1.47871795873,-0.554941058418,-0.577707556549,-1.12665984358,122.946835342
do_nothing,0.16179284699,-1.60595812857,-0.362357605384,-0.620748210725,-1.14326336666,-5.64547021826,-1.44179725698,0.695367225899,-0.0388674165765,0.326300074653,1.71715299092,-0.789303254579,0.00738415276211,-172.134559554
do_nothing,1.03688176562,-0.0871705725311,0.720135377551,-0.12410802254,-0.0147282039288,-1.42135139648,-0.396691398907,1.13230939241,0.245181003739,1.68324399,0.266072895372,1.24849440372,1.36157072496,-72.184413903
do_nothing,-1.50497497479,0.578416513568,-0.47356769843,0.550452660608,0.596465052769,5.60557815646,-0.230418674746,-1.97340535157,-0.111698954687,-1.4424633287,-2.05288109974,-0.436112838199,-1.5094068998,113.83761
do_nothing,-0.156684591854,0.906887803944,-0.242676651086,0.0499940747622,-0.253129857018,0.563727210527,1.74838139088,-0.112738900337,-0.185590405836,-0.755041492157,0.355060181242,-0.554296946321,-0.167741635157,140.817885693
do_nothing,2.46886226454,0.0862225026121,1.01200256497,-0.394799954594,0.254474875544,-4.87640454819,1.54690467235,3.10349639325,0.193415554248,2.29091514019,2.19471450215,1.57524882189,2.48723002243,-171.382425391
do_nothing,-1.77384117723,-2.48574711993,-0.859690510847,-0.077079265132,-0.414773333506,-0.595087424927,-4.31281959281,-2.24121863714,0.0453335340048,-1.39968570062,-1.46238583126,-1.70694480015,-2.22652348524,-95.9357695903
do_nothing,-1.42616158751,0.963925595307,-0.339944583333,0.304495379884,0.128421775505,5.1205522075,-0.5027866541,-1.85593012687,-0.106662772435,-0.790635046418,-1.10933520803,-0.165275477072,-0.991063581797,120.640957382
do_nothing,2.12575467906,2.38744791072,0.994454839736,-0.00811069575684,-0.134873621649,-0.744874112212,4.91357676035,2.64379120968,-0.0980489437198,1.53829949522,1.31866931848,1.94458989992,2.56277172526,149.965435579
do_nothing,0.627375494377,-1.43281254351,-0.141439318847,0.0917478935036,0.33925658695,-4.10954663569,-0.400485652673,0.997180427812,0.272416841587,-0.393454484314,0.498201483371,-0.898867140135,-0.216772301844,-160.19054662
do_nothing,-1.820208302,-1.78424860682,-0.804275680377,-0.462869167728,0.477648366593,1.92816752583,-4.18056854899,-2.16426006683,-0.253014910527,-0.386933010367,-0.851453252639,-1.12548024413,-1.79385846781,-120.749662696
do_nothing,-0.502953887363,1.28304794256,0.415495348583,0.241740485429,-1.24117021389,2.1148883437,0.159152999155,-1.24400772555,0.128110156702,0.0585872648015,-0.312690662758,0.767734157223,0.427469778844,126.54985154
do_nothing,2.05835661393,1.27133864062,0.448106065899,0.156397452201,-0.0933444508764,-1.95352833243,3.62483898821,2.48474730853,-0.024031373466,-0.0846307629007,0.328194048488,0.857122420714,1.11460058594,151.936062857
do_nothing,-0.272750322371,-0.925069075219,-0.310431883605,0.175450978819,1.71119631312,-0.606654252269,0.247748016092,1.09631054367,0.0690043669356,0.387517748605,0.668294517571,-0.680853191143,-0.264530995988,-142.531087037
do_nothing,-1.99757240894,-1.03404947569,-0.661323116994,-0.559174704962,-0.694666407639,1.56999771902,-3.28145079373,-3.25807508819,-0.287541885294,-0.00352730416527,-0.578185223455,-0.967330418462,-0.826933988974,-142.950640349
do_nothing,2.06909172237,1.32525998643,1.2268584874,0.0412685175756,-0.832298114178,0.356278594865,0.407690283898,0.790932865324,0.411625932386,0.319427585937,-0.0775255199565,1.86516584963,0.977735602434,130.563036434
do_nothing,-0.580495572042,-0.93919816271,-0.706416277899,0.469374882261,-0.395896705508,-3.16691538816,0.435749874959,1.44571661732,-0.226161117257,-1.92712003265,-0.427144308094,-1.35047918671,-1.53057498859,148.575583436
do_nothing,-0.907901142285,0.823507999267,-0.30569449611,0.138031329311,1.80734105181,2.22236044792,2.23118536812,-0.284744276871,0.0470987111277,1.64222424615,1.10162484002,-0.0232391656818,1.42867465746,-122.749449583
do_nothing,1.03252317622,0.355443304571,0.442076983198,-0.934915535482,-0.0380712759149,2.7308940678,-0.296051718727,-1.2420086652,-0.25098667728,1.3068224579,-0.329386841427,1.08580757494,0.870444037919,-159.533550436
do_nothing,0.623811710257,-1.34394221318,0.511795594003,0.681186374378,-1.72725020809,-3.71108569924,-3.94116951581,0.66903614265,0.531326098072,-2.12858626899,-0.620344953926,-0.588044243267,-2.25243513701,132.040499236
do_nothing,-1.55291369841,-0.0493381867335,-0.769607796481,-0.0387468552328,0.0414517192198,-2.20489155316,1.26070701079,0.745615904084,-0.401507038528,-0.611957340002,0.142299324803,-0.436782806129,0.042631813048,141.857468253
do_nothing,-0.408292996975,1.37899058266,-0.428274810402,0.0562793846858,1.55563015953,4.49548380703,3.75241428616,-1.32266533807,0.127608818546,1.62581409944,0.626622102838,-0.0136553955406,2.00087847082,-104.246054081
do_nothing,1.79116958623,-0.253824204849,0.685323314136,-0.344530793087,-0.0613236120266,1.83965077653,-1.66745348545,0.110849126538,-0.244385641995,0.407208682163,-0.51230894156,0.324078189186,-0.673734183179,-169.305369794
do_nothing,1.08161673004,-0.191101299895,1.29587850659,0.351782650304,-0.56526279267,-4.18526280048,-1.74752822824,2.45803560313,0.527680625548,-0.169240506075,0.519288145415,1.74902177344,-0.46936755805,131.268378685
do_nothing,-3.62198219543,-1.52608252052,-2.25269050783,-0.434900680145,-1.62445794436,-3.46754451039,-0.957631424758,-2.81845574701,-0.447787024681,-2.36087200692,-0.911275720448,-2.6811672839,-0.974453301977,133.518783771
do_nothing,0.491905007178,1.16768470085,-0.0221913878675,0.57889640566,1.76656304516,6.15823755481,2.23808262334,-0.823317265979,0.206076363922,1.25889728518,0.334022953061,-0.719080601169,1.27098284085,-89.3676402185
do_nothing,2.79428372975,1.31186476639,1.61957124754,-0.210848018095,0.940497709178,2.52865975536,1.77173224401,2.70135453029,-0.29777637903,1.8423514789,0.564893741464,2.54857022271,0.504355671163,-172.597562109
do_nothing,0.626339473654,-0.0352243865619,0.697668251843,-0.193244531049,-0.594016801538,-5.30284556668,-0.444953966723,1.60171572844,0.52810658257,0.028675128693,0.299103003947,2.07489386877,0.150680728939,129.529236874
do_nothing,-4.32762056725,-3.45235288083,-2.65516328797,-0.339995066347,-2.29068962245,-3.96701633347,-5.65806370055,-4.475448496,-0.453969210533,-3.47041247503,-1.60662854144,-4.84146254812,-2.38554017322,122.882241699
do_nothing,-0.0840556902082,1.01729596708,0.0456947956139,1.13852435417,0.721612318701,5.79891905843,1.16605561608,-1.26888043493,0.274782262649,0.12210117187,0.408887408929,-1.53710138294,0.243083255543,-71.4857014476
do_nothing,5.28377441919,4.49381324395,2.6392178724,-0.81901116141,3.12274226869,4.74168714405,9.09403296634,6.21816095777,-0.36981739457,4.72562088555,1.50132643175,6.62906566609,3.67082011689,-190.011295944
do_nothing,-0.855629572114,-2.05765168654,-0.129005298015,-0.0861928188555,-0.685891654389,-5.80378950142,-3.24983315601,0.290452259886,0.525669923619,-0.605072025639,-0.207039221995,0.20712231292,-1.03547802016,154.812265388
do_nothing,-5.95140180262,-5.33264511788,-3.29685122897,0.0719393294468,-4.46857797071,-5.93654428397,-11.5798127671,-7.95880997528,-0.430869320657,-5.9958262779,-2.34336715438,-7.81042804509,-4.73647135886,103.14159787
do_nothing,2.96840085002,4.14532568896,1.50665507633,0.568656447503,2.07417076854,6.54139025685,7.010300001,2.47595436199,0.317323351217,2.40014906066,1.3744247081,2.3231740794,2.9345837131,-100.09471651
do_nothing,3.76742371826,3.51234526963,1.85245306668,-0.565767698062,3.48848433226,5.21438836651,9.93533563096,6.4211055501,-0.429494007891,4.61138184322,1.27503652879,5.83884151004,3.19785669953,-113.798041328
do_nothing,-1.66663175794,-2.95060684867,-0.404167586394,0.192739409927,-0.705598028453,-3.93439511699,-6.52303602613,-1.82549945067,0.516707749805,-0.936400045548,-0.286147048405,-1.02609653776,-1.47628181588,102.684662081
do_nothing,-4.42371553409,-4.45850429074,-2.7009432758,-0.403439140215,-5.31443645098,-8.32661144594,-11.0079102288,-7.65978336542,-0.397088645159,-6.39740916698,-2.55504424107,-7.15655726419,-4.92844132638,83.805687058
do_nothing,2.4593540837,3.78966355345,1.20715621116,0.729963836203,2.03246887706,4.4201114406,7.7362184545,3.55040305954,0.336018625012,2.22512839694,1.43071631084,2.15098710956,2.7132559331,-57.3470547901
do_nothing,3.35573188966,3.76925083531,1.92888330272,-0.401729606543,4.86927932293,9.72182324533,10.5773968726,6.83794139282,-0.459020514548,6.25008413619,1.99356748204,6.93170588041,4.90120378199,-116.242707358
do_nothing,-1.81621728257,-3.38031371185,-0.631465845392,0.101813780056,-1.92706479324,-4.47922764612,-8.17986845811,-4.12611499562,0.493645501835,-2.83695835207,-1.35253827023,-2.7233070944,-3.36075881784,87.2054262294
do_nothing,-3.17702083618,-3.75224851671,-2.23017649835,-0.526155676977,-5.09815251472,-10.9690924371,-9.62374189993,-6.02710577807,-0.364534626073,-5.84773694047,-2.20606647464,-6.60408738103,-4.76279935859,55.9998974244
do_nothing,1.5489224681,3.37035476983,0.947766513115,0.840666020814,2.42155381628,4.81666706254,7.81914331352,4.47920982818,0.341858137763,3.4410553623,2.17029930018,3.52039251821,4.32410240796,0.991158089551
do_nothing,2.44300527253,2.90104906582,1.40378517943,-0.357495576893,4.1575129167,11.0318904858,8.21480612128,4.44198208473,-0.456272517117,4.28554135523,0.917729940771,4.97445269831,3.16167653639,-135.975850939
do_nothing,0.362235214916,-1.68234348425,0.487863428471,-0.0691146908303,-1.00718002204,-3.35687338971,-5.38577694376,-2.64473412311,0.449047857897,-1.8011726335,-0.892756544121,-2.05913684593,-2.97888903055,57.7169880943
do_nothing,-4.69562587809,-4.44754194707,-2.91864266621,-0.210448230251,-5.75341481823,-13.2481501326,-9.88801140084,-5.9751929594,-0.329073257732,-5.45383885619,-1.91033124025,-6.06406647508,-4.10505293599,82.3338197425
do_nothing,1.26749486031,2.70251810088,0.525432494939,0.467425989371,2.49205008159,4.57312309433,6.44602825168,4.08444616316,0.335525963372,2.89037644312,1.67237218853,3.46890413387,4.23893366754,-21.5703965943
do_nothing,4.08234028339,3.47803883813,2.38190924134,-0.297136200969,4.65736935555,12.4912521182,8.27317673856,4.75031221232,-0.425165672918,4.24255228657,1.17815035262,4.43259861247,2.41420918332,-53.7375111769
do_nothing,-1.30595040615,-1.77574029347,0.0447077805762,0.37463195524,-2.10596207311,-3.41505319009,-5.19853346895,-3.69911158015,0.385099033795,-2.16582710269,-0.894316976352,-2.78699645777,-3.20952376948,-76.295378303
do_nothing,-4.18697634693,-3.83713278742,-3.23164606244,-0.720966834083,-4.57572711366,-13.0354520399,-7.69188589822,-4.41330426391,-0.287752207289,-4.28070680577,-1.96939693609,-3.87868622405,-2.16083029565,152.579795655
do_nothing,1.82497928239,1.60937857074,0.635237367423,0.488941789668,2.37461299171,2.9156789281,4.16493563792,3.60642239928,0.31496570664,2.1429886623,1.47279655859,2.09590755783,2.58045635335,34.2569135285
do_nothing,3.96998892757,4.08214858732,3.22721682345,0.0796732069924,3.87956478405,13.1476865172,7.14985298003,4.03352144231,-0.370798761275,4.21795716391,1.81190774667,4.11837594704,2.26205642515,-147.124926491
do_nothing,-2.28717844045,-1.73081689328,-0.800404042289,0.0924541506305,-2.08084795944,-2.08085563343,-3.04399794671,-3.43959437248,0.30774500299,-2.28116369149,-1.47002720528,-2.1375218778,-2.36641775969,-49.8029105384
do_nothing,-4.08998218237,-4.57577870314,-4.10382180476,-0.646584310354,-3.89327823349,-14.1361936237,-7.35160139563,-4.27725761919,-0.239662833986,-4.69353727126,-2.32835151059,-4.89056122245,-2.78376984798,170.428651222
do_nothing,4.28820597583,3.50810940905,2.83567153311,0.371859469379,3.11252740566,3.42757044138,3.79519796993,5.06886816979,0.278469418976,4.50385117667,2.75282273001,4.64197769532,3.99025791674,56.5174878339
do_nothing,1.35087715991,2.27944876233,2.45822988043,0.247933074597,1.86530656864,12.134689606,4.82409499496,1.59337288485,-0.298476101711,1.77484260997,0.9342486175,1.90986802731,0.317950131987,-223.986983189
do_nothing,-3.17006798795,-2.60294925306,-2.73715872878,0.113977561838,-1.9217808099,-2.35758643689,-1.82854709059,-3.64638710298,0.223404156094,-3.32462052381,-2.11255293696,-3.67104722326,-2.55144277991,25.1377993852
do_nothing,-0.736577054272,-1.59338754219,-1.9320293774,-0.839370102138,-1.52111907308,-11.5409807213,-4.33266894775,-0.930686845716,-0.184992047069,-0.965819681517,-0.825350989754,-0.889543491171,0.139680114092,148.438948166
do_nothing,2.80899323647,2.29180545977,3.07834858371,0.446805347539,1.47739563208,2.33231474429,0.913674290048,2.85470404384,0.225488778512,2.6580366243,2.05780101443,3.1100994957,1.69222196188,20.7382413775
do_nothing,0.232704826447,0.71817959118,1.01272877924,0.37004094597,1.28724168648,10.0891863719,3.96962729222,0.609919990714,-0.213105350115,0.610696442754,0.439295941751,0.210255658636,-0.226241801197,-175.88042739
do_nothing,-2.84789387771,-1.87348228825,-3.01417713901,0.0180553475662,-1.57148587423,-2.24061441993,-1.16040059972,-2.8070065914,0.137356875935,-2.66605767649,-1.77538330922,-3.04977309031,-1.41694938492,21.6503002014
do_nothing,0.75209937273,0.253997115936,-0.148444677033,-0.870350268163,-0.540449505116,-7.75196220894,-2.18792325436,0.443174842091,-0.124861600843,0.270201987725,-0.23788793695,1.08649264806,0.655300326663,115.721696925
do_nothing,2.54547257434,1.16062421122,2.73593654784,0.378303656277,1.47431584708,1.14752761498,0.769916185643,2.47388463773,0.157814025725,2.51718543244,1.75285728846,2.43378743603,1.19950113193,20.6747724491
do_nothing,-2.14761717599,-1.27380604379,-0.933619316183,0.731609811997,-0.622095425043,5.33734076572,-0.477074382609,-2.2157122507,-0.119784845865,-1.69757262185,-0.614591127984,-2.64330514867,-1.6908976317,-129.43683923
do_nothing,-0.599861851884,0.572772876094,-1.34087260278,-0.425972329505,-0.11009104284,1.83612867399,2.04773083362,-0.205786270092,0.0531903839699,-0.937650071061,-0.568466853718,-0.134731121934,0.364273763132,-0.822871275238
do_nothing,1.11430757633,0.382776413841,0.414746239224,-0.730673169813,-0.0883075493208,-6.20266459244,0.192336567538,1.55792664136,-0.0604348307512,1.17221554212,0.146454303836,1.55357725326,0.744703778778,90.1593741947
do_nothing,0.735185376197,-0.387767327556,1.18282810535,0.568511424633,0.413353104584,-1.86544761549,-2.94213392049,-0.384819585726,0.0790006968686,1.11731343159,0.32969806852,0.19244211425,0.0594712097678,24.5014985129
do_nothing,-1.03067296284,-0.526297971569,-0.339494991883,0.559785156144,0.0222138483206,6.16608587077,-0.217272723058,-1.27895180018,-0.0238521056356,-1.70679598137,-0.0681469620006,-1.60277843085,-1.00184904331,-82.7530917625
do_nothing,-1.06192610616,0.10320937746,-1.20387634769,-0.456538278909,-0.854821562983,0.71893415569,3.38622433067,0.553502763889,-0.0267544661097,-1.13604287351,-0.00322509669881,-0.455777923251,-0.47007494917,-30.3638658712
do_nothing,1.96062594296,1.66604117367,0.743557516412,-0.670930868896,0.726358121963,-4.46064867047,0.654159817936,1.73431604148,0.00713547814587,3.17738908821,0.0126591668441,2.97487392912,2.40113085977,72.9835499842
do_nothing,-0.128622096392,-1.34652469964,0.6069828193,0.592926763168,0.405912203682,-0.389600324489,-4.58073101991,-1.9522364626,-0.00643355283403,-0.8231476603,-0.655938820114,-1.36643840498,-1.07938105815,24.4374447367
do_nothing,-1.32046756556,-1.29195887073,-0.490702604529,0.624487350813,-0.66519132921,2.79643726092,0.473125117727,-0.410375871558,0.0695686237022,-2.56377008065,0.876216249916,-2.33270015411,-1.80307611593,-38.566525034
do_nothing,0.300462444495,1.811716018,-0.517848991797,-0.752727662025,-0.387674714748,-0.0314619962117,4.20567211252,1.90890613532,-0.100909412241,1.99356742194,0.344159416507,2.3898333511,1.6727608732,-58.8456543112
do_nothing,0.741712713999,0.617917904327,0.395476420382,-0.272447630599,0.499660588685,-0.642722598922,-1.48828696186,-0.95938740623,0.076385027375,1.01612845823,-1.35232473379,0.874935489964,0.612481717144,62.7589644379
do_nothing,0.302244498667,-1.35750128387,0.652227419379,0.326262734273,0.931962125752,0.0577549854199,-2.1309051967,-0.288391289496,-0.0935332677973,-1.57989187887,0.333099109735,-1.86099681939,-0.780700690128,20.6014742856
do_nothing,-1.21070551468,-0.701422793572,-0.69797754674,0.632903652424,-1.11970252576,-1.92975060661,0.302983581651,0.542162611577,0.155970271404,-0.327831824294,1.26812467768,-0.475263685138,-0.605499037592,-6.15235379914
do_nothing,-0.18100133733,1.15967632129,-0.561470097633,-0.552789224493,-0.854447206137,1.08533584847,0.961350616446,-0.795414379641,-0.168128150198,0.934825226084,-1.03260328669,1.49007199364,0.115934908153,-72.3436018941
do_nothing,1.63342497835,0.930951233118,1.26939422638,-0.46725931256,1.81362158792,3.88187955807,2.05028960739,0.919905930568,0.14532259044,0.415387947078,-0.398627154898,0.465354966229,1.17881559236,52.056905039
do_nothing,-0.731587921558,-1.53815435549,-0.452672671112,0.322545740185,-0.35193629597,-3.60932657357,-2.34506797882,-0.00416736673635,-0.17735173176,-1.17584592928,0.631837450794,-1.88513990626,-0.478408431985,12.2691846812
do_nothing,-0.423639738416,0.12405507214,-0.356662141693,0.783982179275,-0.553397066237,-2.67775095508,-1.88166553151,-0.486953423924,0.231769543819,0.7174860989,0.514026818631,1.04430613616,-0.322634065144,17.6973898352
do_nothing,-0.481000996812,-0.100284053093,-0.201599302264,-0.67657134308,-0.499215035139,3.11164116187,2.24087618006,-0.780437266452,-0.227468870572,-0.496922177852,-1.10717554245,-0.115109474507,-1.09635622901,-72.1322505694
do_nothing,1.08412547871,0.972298840633,0.794713042901,-0.363373851656,0.821614313759,2.98397929306,2.23026025288,1.2989894931,0.211387621944,0.388416782571,0.329234782653,-0.0470486691314,1.60638090182,38.8295570676
do_nothing,0.79954241166,0.337766913343,0.105088674346,0.103831375108,0.541548230238,-3.04088437955,-2.43135263684,0.75729654674,-0.253290987202,0.683233825302,0.563320650344,0.788582218729,1.13424860477,2.4960906121
do_nothing,-1.97619611838,-1.85071423201,-0.939272064156,1.0758399348,-0.883182842098,-3.09288727828,-2.16898049587,-1.94670912265,0.294427365364,-1.50444633247,-0.306940667225,-1.29823965405,-2.59334474296,33.6557535873
do_nothing,-0.327975122483,-0.0126209211062,-0.233081809839,-0.817921869386,-0.438585814246,3.11085616208,2.65997905011,-0.222911854894,-0.278076802136,0.22548478479,-0.620798788907,-0.301154234961,-0.443663402906,-62.4644669142
do_nothing,2.47083131371,2.30584480018,1.58016988583,-0.497627526479,0.842646710388,2.47223174518,1.17109229755,1.92030544611,0.27161418222,1.72407741212,0.787612469081,2.06416209076,2.85039615797,24.847807441
do_nothing,-0.899319319277,-0.818890868042,-0.61454870845,0.379023208118,-0.111591980843,-2.70558343666,-2.02120602078,-0.475827520425,-0.31738613857,-1.67595296106,-0.0985141573439,-1.0529806179,-0.661911835591,-6.53873251694
do_nothing,-0.978893082769,-1.12160272153,-0.715569295219,0.946523447342,0.587371346082,-0.690275053999,0.885502081229,-0.164353389205,0.342399659417,0.427733036888,0.0966893009171,-0.4965035265,-1.08883576961,41.5074029493
do_nothing,-0.470027541652,-0.690728260464,-0.38179921676,-0.965319751578,-1.64018899284,-0.874840361281,-2.2022330769,-1.83832587401,-0.319108076227,-0.300819764097,-1.1059673605,-0.758842742409,-1.28357609618,-46.9417876738
do_nothing,1.94935600356,2.29205957266,1.70468386507,-0.315837096117,0.621834392833,2.89786756376,1.51851762209,1.66155346246,0.322920145493,0.514287137825,1.11954325451,2.0130776412,2.32546871006,12.0495393636
do_nothing,-0.231469327582,0.234609144374,-0.298183773441,0.451201972343,1.15943073816,1.42464706435,3.35214801926,1.54955252759,-0.366546144094,0.343365737695,0.466713033747,0.221399638902,0.981965209278,-13.5890783732
do_nothing,-1.0870575641,-1.8406564733,-1.21381050278,0.853752992417,-0.272051183672,-3.73513381493,-2.87897022218,-1.47455906598,0.375001421356,-0.403329904609,-0.952879895,-2.04000013122,-2.07945977988,41.9123421921
do_nothing,-0.622255085517,-1.18571466833,-0.245964453911,-1.34671562131,-1.87810517029,-2.63001973767,-4.61303670082,-2.12493137817,-0.349696127701,-1.22014669669,-0.828123145288,-0.441664087286,-1.65750414383,-28.7542911893
do_nothing,1.08545787948,2.46309387949,1.60427553042,0.340992471486,1.0477618131,5.74930931656,4.48213538656,1.46800737466,0.362426970032,1.03800998557,1.64867461559,2.20930299528,2.46430156903,-0.36057402893
do_nothing,1.52935961871,1.62422435844,0.167371661668,0.369137533744,1.68115040385,2.31946909752,5.59483901191,2.96487562037,-0.398711289814,1.78625406882,0.262220065281,0.903802568822,1.99631623658,-9.19922928198
do_nothing,-1.49932749892,-3.04477734941,-1.37343045947,0.174546871761,-1.24668212475,-7.13804978449,-6.15845300108,-1.55601607613,0.392233108446,-1.80945768485,-1.31372760898,-2.5057097008,-2.66699910889,17.9409601545
do_nothing,-2.81142135434,-2.31225175216,-1.01447793964,-0.808252810339,-2.17732143108,-1.6262794619,-6.81640131007,-4.786367885,-0.368970050936,-2.5787276626,-0.848864800408,-2.04780844165,-2.86136102387,7.32060317779
do_nothing,3.98214454912,5.04181385758,2.65963497189,0.563019880124,3.08746058375,8.94205123171,9.7101007396,4.16773256418,0.387750447032,4.25286439866,2.43041365682,4.89864268605,4.52184925455,-1.89474244135
do_nothing,0.539003430857,0.0999762588008,-0.328983854563,-0.0459944023061,-0.226274868643,-1.87720805427,4.38035678217,3.17599234329,-0.412906972084,0.049861359581,-0.479301383066,-0.317916580366,0.647253210376,-56.5063482186
do_nothing,-2.74468386921,-3.52637382041,-1.43213196994,0.0938123116569,-1.5402112427,-6.48506490279,-9.43539478029,-3.69987138122,0.394604594329,-2.82571792695,-1.33909071125,-3.30567122551,-2.67888551606,74.9672914998
do_nothing,-0.839265738428,-0.662146639923,-0.548505463667,-0.508197114708,0.0236164641208,2.21234541352,-4.35173314245,-3.63907632245,-0.376125287455,-0.430926166725,-0.245741774191,-0.421491635422,-1.36387175874,-17.8467873602
do_nothing,2.72508695354,3.45298121304,1.72673263495,0.626265182433,1.22993040217,5.04362407289,10.2800468119,4.62431548638,0.397226646895,2.64290957076,1.82437364944,3.17659237847,2.18853630804,-20.7389110899
do_nothing,0.572681030015,0.678143073964,0.557485063411,-0.398104931255,-0.223618288064,-2.7497662297,3.43632389669,2.98068468801,-0.409195358321,0.814456696205,-0.174391142259,1.06520344614,2.04654294908,-6.80239932201
do_nothing,-2.17070991816,-2.9788992723,-1.40846409824,0.329314090215,-0.430511203474,-2.70881810519,-10.2681128825,-4.86116387426,0.382981227414,-2.749104487,-1.32609483228,-3.43401319419,-2.033490867,26.9489285941
do_nothing,-0.979895257113,-1.41710861402,-1.45218682048,-0.506649952817,-0.547725526575,1.88499173641,-2.85167322107,-2.43855426179,-0.370536702062,-1.42845722505,-0.475701393393,-1.72225223075,-2.9840239932,7.18447814475
do_nothing,2.55497277582,3.71987806837,2.59106678169,0.392593337786,0.892005187215,1.36843189634,10.4828784026,5.34955937743,0.390057602541,3.97569330151,2.15481871488,4.65461633268,3.15806532956,-51.3979933689
do_nothing,-0.11353719644,0.404343663601,0.331877997412,0.066891798962,-0.0835278995348,-1.86999011653,0.688842939834,0.376589617476,-0.38854573595,0.0343597084747,-0.594029823039,0.345069662365,1.79032308894,64.3840522175
do_nothing,-0.680014346565,-2.22424066483,-1.64140136861,-0.056180735754,0.472220871713,2.09586529159,-7.14665876001,-2.78262288145,0.358466067892,-2.59294902219,-0.868643075289,-3.0793681395,-1.70286199139,-45.3411083874
do_nothing,-1.61054051628,-1.88003230823,-1.18802851563,-0.634494010111,-1.80648250965,-2.05475303612,-2.73519339073,-1.84544777063,-0.351892403641,-1.35848967383,-0.56890205529,-1.93213520185,-3.32357983733,11.6562441156
do_nothing,1.59917806568,3.07394005016,2.51271207295,0.910728304552,0.953285856566,-1.60850324201,6.72175421377,2.84027272484,0.366372943761,3.585313405,1.51152200301,4.09224174578,2.87116141029,-4.68106385936
do_nothing,1.19680515963,1.47878694066,0.338782650245,-0.229649911485,1.60735045832,4.33190074633,3.82638005289,2.0882194832,-0.352655607541,0.836462392851,0.317435844562,1.55305805878,2.66686157364,33.0039087225
do_nothing,-1.33332232712,-2.59177805842,-1.9275416168,-0.227401930476,-1.50287971235,0.492963621938,-6.3562461111,-2.57772798598,0.322325933079,-3.30829805478,-1.12040208979,-3.83216317795,-2.60421397387,-18.3801613543
do_nothing,-1.14268064703,-1.91234101,-0.484750373711,-0.417761473511,-1.54233608515,-6.19416466269,-5.12740241932,-2.44988839131,-0.320322755322,-0.904343559722,-0.981241426955,-1.64697807461,-2.56854922129,-60.2592755771
do_nothing,0.985733686091,2.47222012231,1.87852562695,1.05106022539,2.28007547815,2.02679000721,6.8859425813,2.5857771269,0.32721079068,3.0029023214,1.66310985809,3.30483998049,2.22347048249,67.1156940241
do_nothing,1.04487031447,2.28229383898,0.170222386774,-0.480463420669,0.777389777855,6.12567870802,5.36360237659,2.31391349245,-0.303754241318,1.0782359824,0.701699964081,2.16222475517,2.69739720972,43.5440454153
do_nothing,0.204955801981,-2.03149416136,-0.891964439042,-0.428826256576,-1.97732967913,-3.9571731767,-6.62679012544,-1.74372336222,0.275960846619,-2.05399581431,-1.23826710872,-2.38997088136,-1.40872367958,-76.5872875228
do_nothing,-2.95518060121,-3.96009909942,-1.52867390366,0.259982645273,-1.39025911746,-5.90532300361,-6.64916910842,-3.64798834869,-0.276501218944,-3.18057694571,-1.59149856988,-4.56398466355,-4.5231979181,-47.9470435595
do_nothing,1.39600402245,4.11596629521,2.02519151078,0.577405558044,3.43469127318,7.23843111677,8.71068040069,3.14084885937,0.274427666078,4.1355520317,2.39848520456,4.68613845906,3.46195808742,87.7027647487
do_nothing,2.19823911213,2.62802981682,0.907500107175,-0.727784682865,-0.0900788548914,2.21347589953,4.27511940006,2.25756181585,-0.244414080033,2.04719046342,0.55486334475,3.55513510371,3.25609891515,63.9105706107
do_nothing,-1.11128626217,-3.92741106868,-1.70207195887,0.164625885676,-2.90782328884,-6.89100192396,-7.35013833528,-2.05517583842,0.220908243819,-3.88214987431,-1.74087233016,-4.76113059235,-3.37173432672,-121.378835503
do_nothing,-2.55990234211,-2.23832135394,-1.2651133046,0.0895280550589,0.316374609705,-0.136758419711,-3.313856884,-2.27212923096,-0.221699252969,-1.78786691532,-0.76184636115,-3.03244769417,-2.70814775555,-40.7391238589
do_nothing,1.43740626002,3.8014180054,2.09214792364,0.189091862873,2.64481972312,6.04915645966,4.90726603695,0.846241015655,0.210552514541,3.34471485927,1.67300016854,4.21686799309,2.99015738174,96.8864588864
do_nothing,2.89097493212,1.96670051784,1.1441726076,-0.375139969518,-0.147296301831,-0.842456380235,4.65782229273,3.5663284697,-0.177386887661,2.2369428706,0.735408164562,3.32214220499,2.8008607891,88.3378773121
do_nothing,-2.44624742037,-3.76714455268,-2.28803733788,0.287145173772,-2.84703710711,-5.78216053935,-3.95894112463,-0.866848590928,0.158867318101,-3.33107519475,-1.34873963583,-4.27596469793,-3.17419878793,-150.738037288
do_nothing,-2.42741932429,-1.66303311731,-1.19614060579,-0.210929965447,0.0178811747909,1.78205895934,-6.62605716869,-4.99289820286,-0.15778517173,-2.74386334744,-1.25089876007,-3.41066757777,-2.72256345886,-47.203861687
do_nothing,3.76072890692,4.10807973281,3.16952911807,0.0682606862667,3.80132090183,6.24798161274,5.35677477576,2.71408568206,0.138603604537,4.21031014803,1.94035604471,4.91782285265,3.92543374015,103.56698205
do_nothing,0.0176727903947,0.259238687366,-0.140391716884,0.267479861683,-1.53597487459,-4.61101488716,6.18081015338,3.88994115268,-0.105473036463,1.60653029259,0.621969124854,2.00187662674,1.25307413061,115.512252651
do_nothing,-2.3797609681,-2.8623861741,-2.46093552883,-0.306866491306,-2.69114230343,-3.94948460457,-5.45223532355,-2.66017598601,0.0917262738324,-3.20472849771,-1.4778945563,-3.64972833049,-2.85541915132,-172.724900567
do_nothing,0.419722345479,-0.324513692231,0.396306684348,-0.268187329292,1.48167497927,5.36543801058,-6.37011262724,-3.66708456604,-0.0871650692364,-2.02775023331,-0.748068543997,-2.24248065081,-1.39534312494,-57.3000282474
do_nothing,1.53193429187,2.50744841746,2.09200576878,0.695592091588,2.06832224169,1.69501021089,6.49827279741,2.96353969762,0.0618884483613,3.12259741967,1.52082035229,3.37463562208,2.6710005123,105.757894656
do_nothing,-0.326947670179,0.259926630678,-0.542632834187,-0.214985507518,-1.02064766495,-4.65766181961,5.65285373848,3.37968478826,-0.0314252128271,2.37553787627,0.557359432537,2.43571012291,1.63440261874,139.008306875
do_nothing,-1.47465497442,-2.78545395477,-1.95288352252,-0.497028804891,-2.13153519336,-0.64335342803,-8.08821016637,-3.87872161437,0.0215763117305,-3.99042033668,-1.5568644203,-4.18485356627,-3.52508502715,-180.101433417
do_nothing,0.823830834038,0.990354320181,0.961792711056,0.312725525295,1.12532681139,4.00479412962,-2.73262317255,-1.75588947857,-0.0126714974916,-1.04335526332,-0.00764810430476,-0.801100249031,-0.312581147712,-76.6201352471
do_nothing,0.975412607883,1.81986143805,1.49481911047,0.41235745967,1.77127964749,-0.12599510502,7.53251639422,3.51650773147,-0.0161943385763,3.32593081918,1.13699862114,3.44251735036,3.02346400405,109.938541465
do_nothing,-0.956413762322,-1.59209463985,-1.17865405362,-0.402887110851,-0.909824399034,-2.87091235115,0.169172306272,0.505169215989,0.0421175735353,0.256999879114,-0.394609151691,-0.513945678258,-0.558324089846,154.292645895
do_nothing,-0.411886438671,-0.474318415097,-0.863063499234,-0.345263941715,-1.46614578736,-0.106287560406,-5.48842937521,-2.43773583913,-0.0492998421541,-1.97394430618,-0.3753496957,-1.52872876611,-1.7719929562,-174.91684882
do_nothing,0.200570512768,0.986080066058,0.796819589889,0.586813015749,0.232297799814,1.93793085287,0.225252824112,-0.704284216559,0.062588288776,-1.0463181866,0.147758067754,-0.251908021839,-0.219110414937,-100.572058799
do_nothing,1.27749219318,0.330535560229,0.934999798999,0.00431645884054,2.14368584474,1.64008712971,5.11630553218,2.90291376376,-0.0923356469349,2.26005204841,0.128034489001,1.43746321255,2.24214356773,115.479390024
do_nothing,-0.479119811618,-0.743966187834,-0.736123654527,-0.373359303447,-0.57101399835,-2.92547366129,-1.12011790147,0.0743062348485,0.112673297055,1.17390328744,0.118279632555,0.510825102557,0.114367692761,160.733123855
do_nothing,-2.31298381845,-0.799584862464,-1.37221827244,0.0104638854827,-2.59476592987,-2.32596402202,-5.53134705113,-3.87315577274,-0.118471405999,-3.34828768493,-0.455833898416,-2.30370996255,-3.07283152413,-160.829725156
do_nothing,2.25127515796,1.63256526932,1.69991305882,0.286833766168,2.01373417944,5.16526290004,3.79073661675,2.40693422157,0.135408733508,0.426769695898,0.454961204777,0.953726326611,1.30653910434,-123.789126299
do_nothing,1.03891235233,-0.0368315575514,0.381962330084,-0.0153385470636,0.935269881361,0.0312609267372,3.61332682719,2.29140445569,-0.163468033936,2.69577223625,-0.120762060073,1.31583925545,2.19855385779,119.925572434
do_nothing,-1.67899825899,-1.00335966814,-1.18976469858,-0.157303936525,-1.34415193159,-4.12389336127,-4.12019850749,-2.62649950701,0.177946725213,-0.646083733045,-0.050633513027,-0.560418350541,-1.03316264793,160.061661808
do_nothing,-1.47133192823,-0.80295941809,-0.547933186821,-0.27079000092,-0.555417815453,0.240006515608,-3.36087510773,-1.96309954977,-0.183435471742,-3.23570714288,-0.298642159236,-2.09351550714,-2.83151447807,-141.564616733
do_nothing,1.88992999255,1.75211285677,1.30601579114,0.681922114289,1.01527804719,3.10520883494,5.06809102744,3.17637599207,0.20266969659,1.9468730595,0.472348762999,1.40515654136,1.92836599912,-143.407818646
do_nothing,1.96536296335,1.09516876612,0.559512472932,-0.425652539744,0.386107843014,0.932198489103,3.43261857253,1.7103819618,-0.226883653218,3.20350962305,0.169775031528,2.67083330345,2.95445974388,122.658995796
do_nothing,-2.75055080635,-2.9392547275,-1.50799857497,-0.0978563103865,-1.0511185605,-3.60570737786,-7.20193461875,-4.11303487362,0.235854646801,-3.76707488477,-0.569290425901,-3.24636729877,-3.31460676787,154.26514544
do_nothing,-1.72569940938,-0.434639571076,-0.530000539686,0.130826122452,0.0115624681095,-1.70925928527,-1.7239863583,-0.651256074979,-0.241720346884,-1.73379858078,-0.32796357311,-1.65421210059,-1.90042153565,-121.106788362
do_nothing,3.64540912398,3.75085766049,2.08369123473,0.30364686548,1.3330450793,5.09295676318,8.31226454921,4.54809574234,0.261493661106,4.73007370052,1.26681024275,4.37383640653,4.17654303308,-157.369157478
do_nothing,0.0295785113828,-1.43121455086,-0.62140557051,-0.551667254949,-1.47081511374,0.737782931904,-1.36189142067,-1.51214220148,-0.280054377022,-1.10719164539,-0.778921395512,-0.87659823648,-0.585736334603,123.561398993
do_nothing,-1.99704980996,-1.97119108688,-0.883856756126,0.2944005504,0.267616255736,-4.92670841094,-5.92571592405,-2.01584908389,0.282936406076,-2.28190622208,-0.0687012983031,-2.0896495034,-1.92007547978,145.341901306
do_nothing,-0.907885000874,0.645856356077,-0.10129840719,0.0743603513609,0.700431985372,-1.12000892213,0.985414077554,0.152316817034,-0.285800571217,0.507976877682,-0.189562768531,-0.0450366590259,-0.0911317899394,-102.589813226
do_nothing,2.37955028184,1.97788210485,1.23936793739,-0.00487265473143,0.166159049052,6.68516990124,5.67549245614,2.09550315702,0.30098496759,1.72992507657,0.701543384219,1.9310786015,1.68355100149,-165.083777094
do_nothing,0.0578865498104,-1.11115375139,-0.5083967451,-0.481470364996,-1.60679393403,-1.79748842508,-2.11590070224,-0.121077220208,-0.3200881366,-0.5342132058,-0.312681319177,-0.0468466773988,-0.307795089994,123.198929125
