label,COUNTER,INTERPOLATED,AF3,F7,F3,FC5,T7,P7,O1,O2,P8,T8,FC6,F4,F8,AF4,RAW_CQ,GYROX,GYROY,MARKER,SYNC,TIME_STAMP_s,TIME_STAMP_ms,CQ_AF3,CQ_F7,CQ_F3,CQ_FC5,CQ_T7,CQ_P7,CQ_O1,CQ_O2,CQ_P8,CQ_T8,CQ_FC6,CQ_F4,CQ_F8,CQ_AF4,CQ_CMS,CQ_DRL
off_to_on,-3.56979817667,-4.85098300825,-0.537820993329,-2.3592318859,-4.3042373946,-8.26189855047,-12.3328616991,-11.8079585799,-1.61873104446,-2.98240589082,-53.9411768445,-9.70934498993,-9.29853126649,51.574343845
off_to_on,-10.6853318726,-8.675880589,-1.13330729192,-1.91509867689,-11.3844277895,-19.7970608174,-28.3125691357,-25.956872669,-1.18780737162,-5.49377797166,-64.9066449705,-22.1911921415,-19.5596701127,55.6716003476
off_to_on,-16.9563228759,-11.7975989237,-1.71923893092,-1.33617790879,-17.5312412786,-29.6276429271,-41.9698853164,-37.9855475997,-0.716947341558,-7.65232875886,-70.1964710596,-32.8764228184,-28.2897791144,59.3930039534
off_to_on,-21.8397362918,-13.9610942138,-2.23195573736,-0.650530778655,-22.2051832972,-36.8947720645,-52.1709532603,-46.8073924052,-0.222264537606,-9.26527050164,-68.772713733,-40.9072028136,-34.7558003663,61.7326963578
off_to_on,-24.9117140661,-14.9952279901,-2.61191469162,0.101141267551,-24.9935168234,-40.9771005387,-58.0805950165,-51.6169846924,0.27967778345,-10.1808749857,-60.2471767284,-45.6522055032,-38.4180464654,61.2970247512
off_to_on,-25.9101411762,-14.8281570209,-2.80973506141,0.868764057857,-25.6526950894,-41.5527536062,-59.2424918085,-51.9757669646,0.77201124323,-10.3041286805,-44.9774955626,-46.7654162782,-38.9833403386,56.5243703985
off_to_on,-24.7617605465,-13.4932920749,-2.79118131105,1.59759169509,-24.1347614072,-38.6306812235,-55.6236512278,-47.8622347393,1.23774054823,-9.60747491512,-24.0839054541,-44.2184066676,-36.4347944467,45.9806151238
off_to_on,-21.5906926066,-11.1252930269,-2.54063442526,2.23378826972,-20.5945208551,-32.5479913613,-47.6182410733,-39.6803102855,1.66003112331,-8.13536440901,0.620946442304,-38.3025248642,-31.0347579109,28.6855128279
off_to_on,-16.7071621124,-7.94656781905,-2.06277720916,2.73019028051,-15.3762844561,-23.9335846822,-36.0099933564,-28.2240068265,2.02265869484,-6.00193732493,26.7867875316,-29.6004776606,-23.300238421,4.41589377371
off_to_on,-10.5773507564,-4.24568110192,-1.38240622724,3.05149800104,-8.98116739503,-13.6421049259,-21.8966338989,-14.6012247549,2.31063766445,-3.38185606229,51.7524261487,-18.929907596,-13.9530084986,-26.0694915672
off_to_on,-3.77734290035,-0.349859944236,-0.542461454226,3.17819771659,-2.01804672344,-2.66544313639,-6.5837219874,-0.12405260516,2.51100326818,-0.49502489827,72.8223101613,-7.26446488762,-3.8493130383,-60.9309466337
off_to_on,3.06411865583,3.40566722636,0.39948252301,3.10867068896,4.8568900335,7.96857700683,8.54152793951,13.8232479795,2.61368185918,2.41340763315,87.5636269949,4.3597760399,6.10369541759,-97.3062049216
off_to_on,9.32810056718,6.70849623312,1.37590429449,2.85917902159,11.0057578638,17.2994138317,22.1437661744,25.9247589805,2.61235142798,5.09583895748,94.0905447492,14.9431580564,15.0362060228,-131.535797393
off_to_on,14.4666012145,9.29707155252,2.31477001864,2.46170141614,15.8728530127,24.5279416971,33.0668995119,35.0669675301,2.50517663869,7.32553426984,91.3019243092,23.616571727,22.1995527152,-159.539938456
off_to_on,18.0558754958,10.9832716389,3.14525181204,1.95988368452,19.040005746,29.0916812565,40.4424931007,40.4519211202,2.29530290916,8.91811678865,79.0426060078,29.7213789584,27.0368835964,-177.306994553
off_to_on,19.8363407407,11.6674970583,3.80327573554,1.40362841127,20.2674723454,30.7135291143,43.7682718068,41.6771494987,1.99101321975,9.74901219939,58.1659238364,32.8671101686,29.2333982158,-181.433479367
off_to_on,19.734897283,11.3449719736,4.23648460302,0.843037970922,19.5159560657,29.419415731,42.9489051701,38.7735529739,1.60548718207,9.76502243412,30.4856778153,32.961242317,28.7410420671,-169.643004746
off_to_on,17.867416489,10.1028477528,4.40826390728,0.322517300623,16.9473763927,25.5237906755,38.2951766767,32.1970067911,1.1561494945,8.98879639226,-1.38175389712,30.2082989469,25.7752966403,-141.208978563
off_to_on,14.5213189181,8.1085978016,4.30055813272,-0.124176851709,12.9043184238,19.5853515221,30.4819671962,22.7745027149,0.66364733028,7.51569995218,-34.2715918446,25.0787423475,20.784712275,-97.2139872077
off_to_on,10.1203426851,5.59102807172,3.91529347302,-0.477283452226,7.87043238009,12.338603175,20.469769278,11.6106740612,0.150545600462,5.50338680662,-64.7957674917,18.2513065222,14.3967677568,-40.5970898737
off_to_on,5.1755423264,2.81591941681,3.27431707726,-0.732347606909,2.41615400673,4.60931318023,9.39824119294,-0.0350402901205,-0.360132153681,3.15514872162,-89.7044115669,10.5352056896,7.34617960213,24.0334655286
off_to_on,0.228043246257,0.0588027642662,2.41785942369,-0.899344977659,-2.86425900353,-2.77654275617,-1.53679513497,-10.887049293,-0.846367352173,0.698793015536,-106.243735957,2.78074502569,0.393643138513,90.8137148542
off_to_on,-4.21006069964,-2.42239674099,1.40162296956,-0.999778353063,-7.41741844934,-9.08031727932,-11.2098192204,-19.7927523255,-1.288462784,-1.63671891183,-112.469468491,-4.21196950716,-5.75604004534,153.223959007
off_to_on,-7.71013494442,-4.41214364521,0.292694286292,-1.06219028174,-10.7900843299,-13.7253622872,-18.6821475766,-25.8467752858,-1.67007938066,-3.64439146056,-107.478955256,-9.77640574582,-10.5275158467,204.80827544
off_to_on,-9.97081476273,-5.75709638298,-0.835435233284,-1.11675937874,-12.6765076584,-16.3511741675,-23.2962736479,-28.4865728149,-1.97889860511,-5.15961551864,-91.5334794085,-13.4461933539,-13.5321933008,239.927257587
off_to_on,-10.8465092336,-6.37905071687,-1.90837866456,-1.18977746208,-12.9486675062,-16.8418331523,-24.7381829916,-27.5488929404,-2.2068665493,-6.07572550444,-66.0543657357,-14.9979632727,-14.603291904,254.449318609
off_to_on,-10.3576819486,-6.27984780062,-2.85647356694,-1.29882120605,-11.6661708399,-15.3265318864,-23.061305542,-23.2810190275,-2.35003243847,-6.35306188459,-33.490690154,-14.4661410092,-13.8051414236,246.290033266
off_to_on,-8.68208072382,-5.5378899336,-3.62006205973,-1.44933268061,-9.06488854726,-12.1531164176,-18.6699400606,-16.3058172186,-2.40804826789,-6.02062496373,2.92877046995,-12.1285239268,-11.416179203,215.725458883
off_to_on,-6.12825462637,-4.29675695955,-4.15398302435,-1.63312166699,-5.52581021217,-7.83849461144,-12.264393172,-7.54484243316,-2.38343971098,-5.17022672604,39.5331016359,-8.46471896913,-7.88805615848,165.432281728
off_to_on,-3.09469256939,-2.74721566486,-4.43087119516,-1.82902731099,-1.52783826916,-3.00218582916,-4.75423932792,1.89150637813,-2.2807847119,-3.94388116258,72.5993362525,-4.09252228594,-3.78593487254,100.241593114
off_to_on,-0.0195165825787,-1.1045846307,-4.44294288986,-2.00566643729,2.40994779791,1.7090587885,2.85042650341,10.8340856949,-2.10594130489,-2.51592565767,98.7515338137,0.310248751293,0.282860994171,26.6296746038
off_to_on,2.67331604695,0.416109792398,-4.20207284249,-2.12589472846,5.78985310348,5.69690252871,9.55748754312,18.1904198977,-1.86544933525,-1.07195068295,115.323848717,4.08937991138,3.74344159663,-47.9965214133
off_to_on,4.62501786576,1.62452405676,-3.73812280092,-2.15235780555,8.19384946759,8.47891380539,14.5077644018,23.069958141,-1.56619435921,0.213035416535,120.646407337,6.69369575839,6.12251030377,-116.13413277
off_to_on,5.58429494607,2.37631850461,-3.09565641116,-2.05334754574,9.33188990297,9.74063874938,17.0735791763,24.8849586805,-1.21537153556,1.19470665945,114.221536277,7.74119853995,7.10412977945,-171.037668836
off_to_on,5.43617062455,2.58911192172,-2.32934808961,-1.80812784788,9.07475465872,9.36691619225,16.9299337639,23.4156665168,-0.820730465586,1.77549790035,96.7704955122,7.06437117012,6.56576915035,-207.485528807
off_to_on,4.21410770793,2.25133618766,-1.49854521536,-1.41096091091,7.46774678902,7.4495487413,14.0904056886,18.8326261815,-0.391027462667,1.91485070228,70.145872493,4.72952955,4.5906569968,-222.364632002
off_to_on,2.09420080988,1.42301199599,-0.661552375453,-0.873240560014,4.723793237,4.27114245937,8.90384751812,11.6739513654,0.0634317944599,1.63250047076,37.1203836272,1.02811442227,1.45525830603,-215.000680584
off_to_on,-0.627691016799,0.228336003336,0.129743883107,-0.223398463204,1.1969032107,0.26756931254,2.01240395687,2.7805737951,0.530301766901,1.00449324427,1.07712153263,-3.5589443043,-2.40639604686,-187.193773304
off_to_on,-3.57302180612,-1.1591360408,0.834312594227,0.49544440747,-2.66079073595,-4.02619655817,-5.72426410456,-6.80269261818,0.99490421666,0.152470251226,-34.3624533064,-8.41954914676,-6.45711033866,-142.956597722
off_to_on,-6.3273657045,-2.53710248655,1.4249760641,1.22979824672,-6.35329732395,-8.04040710432,-13.3298333432,-15.9485704737,1.44025771141,-0.772456134223,-65.7296118347,-12.8845845133,-10.1230846216,-87.9902751174
off_to_on,-8.49137718217,-3.69865683187,1.88962753132,1.92154323453,-9.39994578133,-11.2376178472,-19.8256953421,-23.5770470831,1.84751189701,-1.60928240243,-90.0737285865,-16.3092146127,-12.8646933255,-28.9660933924
off_to_on,-9.72989134461,-4.45726628551,2.23054092337,2.51433993449,-11.3925628549,-13.1749854868,-24.3457791276,-28.7784412981,2.1968108167,-2.20779898312,-105.260837775,-18.151835661,-14.2431089704,27.2945476241
off_to_on,-9.81341881327,-4.66976703574,2.4618828147,2.95987559308,-12.0440162053,-13.5549716923,-26.2387096623,-30.9157936855,2.46854361352,-2.44790904009,-110.172895757,-18.0414751454,-13.9749510476,74.6377864909
off_to_on,-8.64722400739,-4.25473786648,2.60577038878,3.22313779903,-11.2225504257,-12.2590817117,-25.145662155,-29.6951436101,2.64487668065,-2.25528114278,-104.787659045,-15.8257857018,-11.9686054958,108.290194123
off_to_on,-6.28466122478,-3.20409587851,2.68741726925,3.28604541765,-8.9680412675,-9.36125824088,-21.0450733737,-25.1961363367,2.71140822461,-1.61147868605,-90.1336776908,-11.5940446296,-8.33805838815,125.379733996
off_to_on,-2.9233001589,-1.58649195561,2.73004309273,3.14899602987,-5.48842867748,-5.11985846162,-14.2591806615,-17.8601082866,2.65875244664,-0.557369612486,-68.1298641325,-5.67247565965,-3.39275271888,125.203951548
off_to_on,1.11562030283,0.45800902621,2.75027137691,2.83017613537,-1.13690351396,0.0504964533025,-5.42173389085,-8.43775974181,2.4838517582,0.810580769016,-41.3325660472,1.40758520534,2.39521023537,109.21840866
off_to_on,5.42195114459,2.73149798815,2.75469290179,2.36278412322,3.62735924131,5.62375517035,4.58934527408,2.09685195115,2.19083386907,2.35068925628,-12.6233980056,8.96503091226,8.44257859664,80.7551213917
off_to_on,9.54153765673,4.99863469112,2.73813047233,1.790593549,8.2902675123,11.0187910743,14.7466156539,12.6555243454,1.79127469035,3.89187835512,15.1229578566,16.2415015077,14.1190926506,44.5154415609
off_to_on,13.0260889263,7.01170433916,2.68392065595,1.16249689548,12.3397383629,15.6610100833,23.9842962202,22.155424194,1.30379262753,5.25308392443,39.3508403623,22.4828266669,18.8168052787,5.90985302541
off_to_on,15.4823380638,8.53756821586,2.56625559443,0.526788778833,15.3219706768,19.0425521862,31.3134198546,29.6351494351,0.752976886333,6.26398092086,58.0795362882,27.0201970193,22.0166375602,-29.6650795215
off_to_on,16.6149910666,9.38351959109,2.35433839805,-0.0740426768306,16.8907506838,20.7747710408,35.9281088045,34.3543760613,0.167731890341,6.7846278929,70.0754617776,29.3420063454,23.3446838995,-57.5170166281
off_to_on,16.2587677511,9.41915900758,2.01783792402,-0.60734619945,16.844407453,20.6276915485,37.2913090053,35.8664270801,-0.42080868735,6.72178268896,74.9246564399,29.1484951638,22.6121083314,-74.2272868667
off_to_on,14.3961689044,8.59183891032,1.53292046985,-1.05268020563,15.1465704916,18.5526971228,35.1908380139,34.0565909228,-0.981591013525,6.04005666858,73.0028787898,26.3834086928,19.8344949388,-78.0303117485
off_to_on,11.1592907449,6.93394701292,0.888017890279,-1.40230271951,11.9288228316,14.6865950187,29.760127655,29.143239293,-1.48593723204,4.76669842003,65.3536498905,21.2395953212,15.2289723191,-68.9614342122
off_to_on,6.815842786,4.56121660779,0.0884834088913,-1.65983203936,7.47544748374,9.33722621153,21.4621404265,21.6432124137,-1.90959275449,2.98955165912,53.4957808641,14.1384792874,9.19001801914,-48.7637778758
off_to_on,1.74128726789,1.66226127522,-0.8406069022,-1.83739519044,2.19247620538,2.95269739381,11.0391085865,12.3070058015,-2.23431815968,0.848522076876,39.1898296621,5.68627680576,2.24724784884,-20.5770879395
off_to_on,-3.61949894973,-1.51948915784,-1.85403775852,-1.95179092381,-3.43507075079,-3.92209025644,-0.565512384623,2.0325198366,-2.4488739661,-1.47838174246,24.1966242556,-3.38766181265,-4.98957827887,11.5404554524
off_to_on,-8.79660228388,-4.70944157236,-2.88866338689,-2.02032052431,-8.89270647667,-10.6968196049,-12.3036042763,-8.23184484967,-2.54931969697,-3.79278418264,10.0601125997,-12.3032004758,-11.8918667649,43.1863864845
off_to_on,-13.3405683234,-7.62848306024,-3.86814741483,-2.05696601786,-13.68719417,-16.7897012642,-23.1264901033,-17.5833479134,-2.53863060613,-5.89543458984,-2.05837174885,-20.3043778438,-17.8729313937,70.2033600045
off_to_on,-16.8641982346,-10.0197395879,-4.70980629612,-2.06951948668,-17.3930468779,-21.6786965836,-32.0852561919,-25.2497328743,-2.42571547644,-7.6053136165,-11.4759562613,-26.7289887852,-22.4416972552,89.2048436106
off_to_on,-19.0764825249,-11.6726364538,-5.33283937538,-2.05810212627,-19.6901754765,-24.9453479139,-38.4169459731,-30.6541770466,-2.22398664917,-8.77634661732,-18.0064805527,-31.0658132308,-25.244065846,97.9705603398
off_to_on,-19.8056083539,-12.4418329536,-5.6670230714,-2.01528338965,-20.3893218855,-26.3076075155,-41.6084140094,-33.4548121965,-1.94968021157,-9.31007980453,-21.9047966977,-32.9943004398,-26.0883736372,95.6661399533
off_to_on,-19.0093647942,-12.2592574807,-5.66085340262,-1.92775404404,-19.4434959114,-25.639414359,-41.4326021767,-33.5567320058,-1.62014425783,-9.16321136358,-23.7511032354,-32.4038036354,-24.9534314142,82.8677182487
off_to_on,-16.7727621796,-11.1383027267,-5.28815436853,-1.77926095577,-16.9453097811,-22.9762405247,-37.9554001059,-31.0978839884,-1.25230418823,-8.349504847,-24.2972050181,-29.3919393346,-21.9797294409,61.3998998042
off_to_on,-13.294087551,-9.17014480584,-4.55232709627,-1.55431267421,-13.111658385,-18.5072354749,-31.5146307954,-26.413274293,-0.861477874885,-6.93626174106,-24.3010232691,-24.2439934681,-17.4462624328,34.0206256075
off_to_on,-8.86176980319,-6.51301039162,-3.48767728973,-1.24204277097,-8.25843800904,-12.5557796393,-22.6756363424,-19.9841157921,-0.460655592124,-5.03611221988,-24.3761091478,-17.3972215442,-11.7368403003,4.00563309579
off_to_on,-3.82519948566,-3.37592752257,-2.15759354478,-0.839590112167,-2.76879713066,-5.55110345041,-12.1700858269,-12.3796773566,-0.0602881511458,-2.79532901478,-24.8793928722,-9.39517331619,-5.30055076394,-25.3040787295
off_to_on,1.43702911296,0.0010225081827,-0.649714123621,-0.354425333959,2.94129618233,2.00592560039,-0.82577027941,-4.19956201319,0.331448320318,-0.380132239036,-25.8535458407,-0.837693707585,1.38883439383,-50.9271966674
off_to_on,6.54811613682,3.36772979833,0.931431424186,0.19479029229,8.45659570141,9.57969715821,10.504778834,3.9769604182,0.708010719868,2.03748643705,-27.0312291141,7.66799629665,7.8702313266,-70.5829658826
off_to_on,11.1604824735,6.48421390261,2.47353069263,0.779007559024,13.3922849257,16.6365773324,21.0099252404,11.6298776456,1.06362234861,4.29302415619,-27.8985372495,15.5506507544,13.7261447772,-82.9072383801
off_to_on,14.977624077,9.13810388853,3.8663787534,1.36119782554,17.4178299085,22.679135678,29.9735750734,18.323350605,1.39236237956,6.24070515239,-27.8056128357,22.3096852325,18.6051986921,-87.5236601277
off_to_on,17.7693513839,11.1581479356,5.01150750845,1.90006933903,20.2739990801,27.2762213657,36.8157231628,23.7168578285,1.68739488739,7.76198153641,-26.1050809924,27.5397189951,22.2358416143,-84.9723603101
off_to_on,19.3803210711,12.4230785886,5.83056161488,2.35459469387,21.783066799,30.0878824236,41.1180060402,27.5649877318,1.94049660039,8.7710081301,-22.2946995862,30.9450672844,24.4320764767,-76.5192014423
off_to_on,19.7325705377,12.8657813655,6.27159460906,2.68872701341,21.8530125643,30.8846585361,42.6353317618,29.7098244233,2.1419951586,9.21719922134,-16.1400419049,32.345563987,25.093033027,-63.8846435738
off_to_on,18.8233144184,12.4732485311,6.31271628086,2.87564815338,20.4770168185,29.5611255053,41.2960793726,30.07052489,2.28116600361,9.0852843655,-7.75617933508,31.6759087951,24.1986996679,-48.9404060228
off_to_on,16.7194979714,11.283175625,5.96283576445,2.90095428402,17.7296896572,26.1437022355,37.1940697464,28.6343935388,2.34706503933,8.39346425967,2.3662831742,28.9809793662,21.804109492,-33.4233389931
off_to_on,13.5505206117,9.37823489916,5.2595729038,2.76433324432,13.761268194,20.7926737555,30.5754629605,25.4526118155,2.3297057658,7.19031145906,13.3968170878,24.4092348401,18.033772274,-18.7094512296
off_to_on,9.50019464699,6.87903176181,4.2647117596,2.47950191844,8.79055977024,13.7982061659,21.8230291313,20.6420066521,2.22143315455,5.55097444327,24.2586132212,18.2055685729,13.0772823356,-5.67825336783
off_to_on,4.79848439875,3.93654742914,3.05780869773,2.07241893816,3.09681539025,5.56993263893,11.439080083,14.3921783184,2.01830985785,3.57305983615,33.7675147491,10.7039318527,7.18599583879,5.31923641087
off_to_on,-0.28699792208,0.724552316686,1.72871757767,1.5780318945,-2.98986183836,-3.38041355913,0.0270273728137,6.97534444262,1.72131845669,1.37233527799,40.796218103,2.31898198851,0.669676134137,14.3934872639
off_to_on,-5.46025161442,-2.56788205523,0.369843640302,1.03602321138,-9.10038981229,-12.4637510117,-11.7296353326,-1.24522937025,1.33719801506,-0.92182911088,44.439390484,-6.4648488315,-6.10873614971,21.9714074288
off_to_on,-10.4077084534,-5.74395720761,-0.931112421827,0.486155057907,-14.8418250834,-21.0458632175,-23.0928525913,-9.81304499499,0.87877233728,-3.17152570075,44.1546403706,-15.1089035484,-12.7423893125,28.6062466475
off_to_on,-14.8114435659,-8.60718767634,-2.09729299848,-0.0361384115103,-19.8164932603,-28.486511135,-33.3020324942,-18.1870041544,0.36468588945,-5.2361854582,39.8573176764,-23.0423860321,-18.7957770153,34.7814426818
off_to_on,-18.3653264059,-10.9703149615,-3.06727056125,-0.503310065085,-23.6453622473,-34.1840056092,-41.6139178121,-25.7641777057,-0.181466304221,-6.97950446711,31.9534973134,-29.6921792945,-23.8271967736,40.7466017528
off_to_on,-20.7941123948,-12.6653479473,-3.79786952946,-0.897942746663,-25.9950727598,-37.6227835896,-47.3503004972,-31.9179353318,-0.732555458521,-8.27747225361,21.304305263,-34.5203466287,-27.4184314175,46.4165421434
off_to_on,-21.874737627,-13.5546621777,-4.26522505874,-1.21340991415,-26.607073571,-38.4205276098,-49.9517454739,-36.050011548,-1.25975684849,-9.02727051585,9.12470908182,-37.0676707301,-29.210207795,51.3519891112
off_to_on,-21.4582780143,-13.5426602222,-4.46426309737,-1.45292558463,-25.3263591702,-36.3705549743,-49.0334768345,-37.6522910415,-1.73463169141,-9.15648202577,-3.17043451486,-36.9998987238,-28.9404810563,54.8252538683
off_to_on,-19.4903198279,-12.5870364744,-4.4069143751,-1.62719456756,-22.1265599961,-31.4747622989,-44.4377597075,-36.3716160506,-2.13124616935,-8.63173727751,-14.1523223002,-34.151883213,-26.4813123423,55.9586552148
off_to_on,-16.0270103851,-10.7082973975,-4.11943918193,-1.75107940997,-17.1277614903,-23.9624944617,-36.275865935,-32.0691914825,-2.42811550466,-7.46569732529,-22.5703168306,-28.5638382323,-21.8693045103,53.9101524099
off_to_on,-11.2439403496,-7.99595577312,-3.63924091369,-1.83984178541,-10.6035558433,-14.2914088866,-24.9523660543,-24.8655435739,-2.60978085216,-5.7211840516,-27.5230038571,-20.5037086222,-15.324432322,48.0718458181
off_to_on,-5.43533026377,-4.60981974282,-3.01149558256,-1.90557261885,-2.97451929409,-3.12774028901,-11.1652526102,-15.1626825404,-2.66786870299,-3.51136447583,-28.5834783257,-10.4703292359,-7.2527584791,38.2441061423
off_to_on,0.998232493341,-0.775076141272,-2.28584041675,-1.95438904933,5.21346564729,8.69474140124,4.12268128144,-3.63714971661,-2.60154086646,-0.995187705312,-25.8602474632,0.826354394174,1.77003978425,24.7515741674
off_to_on,7.57409099088,3.22957836799,-1.51326952589,-1.98485311766,13.325970656,20.2355173942,19.7428428248,8.79918451093,-2.4173103743,1.63225539154,-19.9840054351,12.5093426449,11.0353225584,8.47654851347
off_to_on,13.762994795,7.09072332486,-0.743299984669,-1.98787539808,20.6899012342,30.5238848035,34.4082013135,21.069729128,-2.12826643791,4.15417700026,-12.0209207076,23.6013277134,19.7568030849,-9.20117538966
off_to_on,19.0333667898,10.4849644115,-0.0214145990439,-1.94813530289,26.6526466005,38.6450958004,46.823080843,32.0300842307,-1.75281172607,6.35040931398,-3.32351544351,33.1094410558,27.1404112492,-26.5533524928
off_to_on,22.9005579396,13.1077621307,0.61323249716,-1.84681292939,30.6450381191,43.828105235,55.8058241758,40.5821922482,-1.31306083186,8.01803599316,4.66078283085,40.1204654558,32.4622488698,-41.7214562297
off_to_on,24.9762026978,14.7036472233,1.12984408775,-1.6652202818,32.2415672467,45.5259558271,60.4119704546,45.7935822549,-0.833075078976,8.99228477043,10.5970693019,43.8968026589,35.1464562128,-52.9720713927
off_to_on,25.0122181195,15.0945833587,1.50769276092,-1.3887732503,31.2109528324,43.479790223,60.0441053406,47.0078479588,-0.337113613373,9.16534703367,13.4574038859,43.9623586683,34.8339923798,-58.9504599935
off_to_on,22.9340624029,14.2030585141,1.73741034359,-1.01068170025,27.5506286549,37.7585049879,54.5347068468,43.9324858723,0.151935354346,8.50078630725,12.6747385825,40.1676728311,31.4336111541,-58.8922796553
off_to_on,18.8586320064,12.0667409465,1.82169342115,-0.534763151686,21.5000542995,28.7681225777,44.1902540781,36.6920179709,0.613813073872,7.04149823138,8.23412688083,32.7251628147,25.1477378877,-52.7588781377
off_to_on,13.093587888,8.84223220015,1.77523806452,0.0230979489768,13.5298294075,17.227885768,29.7884818157,25.8378029603,1.03175475119,4.90977683036,0.687507544815,22.2081909875,16.4684177315,-41.2726461317
off_to_on,6.11682701376,4.79653434676,1.62373166687,0.635135116748,4.30619858896,4.11358172793,12.5256052527,12.3107363168,1.39292855051,2.2988707411,-8.91114844848,9.51150213046,6.14175860741,-25.8438853749
off_to_on,-1.46295686836,0.286208857724,1.40179340879,1.26358577217,-5.36662737238,-9.42770876063,-6.08394510423,-2.64141017831,1.68846919599,-0.543612911893,-19.1424991111,-4.22499316078,-4.89703987877,-8.39720894193
off_to_on,-8.96141461954,-4.27431942478,1.14986521186,1.86409126087,-14.6211870252,-22.1838068567,-24.3469405079,-17.5846425048,1.91317076948,-3.33909790252,-28.4124290949,-17.722645654,-15.6123480621,8.87896256777
off_to_on,-15.6841615087,-8.4524546252,0.910199811509,2.39020422694,-22.6111213511,-32.994200479,-40.5564507602,-31.0450705675,2.06493576523,-5.80596275855,-35.171072634,-29.6903190204,-24.9716072836,23.8241657111
off_to_on,-20.9961550225,-11.8411151818,0.722250710561,2.79843264686,-28.5962917668,-40.865321,-53.1653772019,-41.6649604364,2.14409477158,-7.68906556329,-38.1305891949,-38.9571968486,-32.0526223559,34.596587077
off_to_on,-24.3873476479,-14.1016905567,0.617913532965,3.05316517809,-32.0193182437,-45.0719171965,-60.9493265634,-48.3507897833,2.15271232293,-8.78758661938,-36.4519268926,-44.597473855,-36.1426544932,39.920137789
off_to_on,-25.5272336107,-15.0013738772,0.617171617093,3.13082924605,-32.5648253661,-45.2331873047,-63.1401288102,-50.3959467961,2.09398064459,-8.97794383406,-29.8748098057,-46.0325845543,-36.8178084801,39.25169823
off_to_on,-24.3019003178,-14.4403976987,0.724736061634,3.02273047022,-30.1943864479,-41.3547716899,-59.5140018962,-47.5632372969,1.97177716476,-8.22897537301,-18.7727342352,-43.0987068934,-33.993115137,32.8442513247
off_to_on,-20.828988831,-12.4656944065,0.92822553938,2.73619570283,-25.1527542079,-33.8312761233,-50.4231203227,-40.1167904611,1.79042807184,-6.60738768236,-4.12481709303,-36.0709285837,-27.9368507365,21.69731033
off_to_on,-15.4483696787,-9.2689675526,1.19829946232,2.293867411,-17.9441668387,-23.4082983299,-36.7656291168,-28.7987664652,1.55468379401,-4.27254735279,12.5924785069,-25.6402774681,-19.2466544914,7.40305879867
off_to_on,-8.68907352776,-5.16892845386,1.49094858403,1.73124248853,-9.28094090264,-11.1074718215,-19.896220481,-14.7527640653,1.26987799413,-1.46092607286,29.5799476894,-12.8452289412,-8.78942571533,-8.08769417576
off_to_on,-1.21575340535,-0.579310522072,1.75188231515,1.09277940733,-0.0097893157611,1.87772140704,-1.48639197556,0.597805214577,0.942213776836,1.53826124565,44.9339072505,1.03534528288,2.38873815305,-22.7437317722
off_to_on,6.23964005169,4.03400998412,1.9226652983,0.427081885609,8.97606895399,14.3042043783,16.6504465572,15.7026721622,0.57910242257,4.41360923079,56.8796653469,14.6161997832,13.1726992374,-34.7335407819
off_to_on,12.9535184185,8.20210436507,1.94798710108,-0.218220116175,16.8292455157,25.0063017631,32.7495329344,29.0514804934,0.189472775376,6.86486822947,63.9898319581,26.5518174891,22.4962051249,-42.665389948
off_to_on,18.2852903154,11.5027987379,1.78323906087,-0.801244889983,22.8346627957,33.0135378496,45.2794806506,39.3351723531,-0.216026435229,8.63530403262,65.3592937531,35.6781463408,29.4542530625,-45.7523600203
off_to_on,21.7426882657,13.6055471112,1.40145681806,-1.28970392313,26.4805668363,37.6463121738,53.1002504902,45.5834495742,-0.624994829322,9.53936364422,60.7146330892,41.1339417765,33.3971634714,-43.8796784755
off_to_on,23.0305674013,14.3062484555,0.798690238852,-1.66337261531,27.506307693,38.5790784821,55.5765617515,47.2627061455,-1.02346074273,9.48246481285,50.4446428298,42.4480404813,33.9957769787,-37.5675655175
off_to_on,22.0778807081,13.5480437421,-0.00300695236067,-1.91493955669,25.921897574,35.8644345472,52.63423542,44.3236662566,-1.39628879698,8.47064486189,35.5491325979,39.5829048777,31.270616203,-27.8396022992
off_to_on,19.0400891856,11.4257759787,-0.95552648947,-2.04921291479,21.997716176,29.9160882496,44.7537801185,37.1940906957,-1.7278020262,6.60900318558,17.5139787897,32.9299593889,25.582140642,-16.0216882101
off_to_on,14.2771341204,8.1737286864,-1.98781169558,-2.08088434024,16.2262561971,21.4534418029,32.9030184268,26.718551509,-2.00258017301,4.08920271888,-1.87012856229,23.2579445586,17.5838350741,-3.50752674922
off_to_on,8.30992859836,4.13823383956,-3.01194703357,-2.03123782934,9.26104907364,11.4149433279,18.4177629667,14.0535768089,-2.20637467086,1.16759172064,-20.7208174941,11.6210310073,8.14423176852,8.46851039951
off_to_on,1.76076753504,-0.261489648737,-3.93166670033,-1.9243178983,1.84047782892,0.85085085158,2.84557971227,0.531638802217,-2.32706628157,-1.86339494808,-37.2810806471,-0.76192653593,-1.75246942105,19.0121762615
off_to_on,-4.7151886129,-4.57956358863,-4.65238051064,-1.78312211578,-5.29424344213,-9.19178826018,-12.2282339158,-12.4891439531,-2.35558436936,-4.70713420206,-50.1125782169,-12.6424284397,-11.1151908211,27.6732537182
off_to_on,-10.4993412452,-8.39129298442,-5.09157990376,-1.62635265383,-11.4772486801,-17.7785743798,-25.3516761982,-23.7714994262,-2.28670751971,-7.0942607888,-58.2415601177,-22.8757460095,-19.0513694569,34.4556588754
off_to_on,-15.0721063579,-11.3371064886,-5.18838972694,-1.46615689723,-16.1834937874,-24.1793190247,-35.354258036,-32.3246737912,-2.11967305621,-8.81004663978,-61.2408651646,-30.5374291027,-24.8569238116,39.7334763768
off_to_on,-18.0615920344,-13.1576938446,-4.91109105072,-1.30712556395,-19.0745505727,-27.9320039913,-41.4560114186,-37.4954472128,-1.85853681866,-9.71468240592,-59.2405674584,-35.0101216928,-28.0810114544,44.0896006818
off_to_on,-19.2735851619,-13.716646285,-4.26165418776,-1.14662316818,-20.0204457699,-28.8730962057,-43.3262771468,-39.0154873122,-1.51224283913,-9.7543779684,-52.8696556255,-36.0319184354,-28.5591903429,48.1080627512
off_to_on,-18.7003604936,-13.0085375154,-3.27666550339,-0.976328797574,-19.0964119965,-27.1325067571,-41.0878770303,-37.0018389706,-1.09438364535,-8.96238323155,-43.1402672709,-33.7024824043,-26.4126832835,52.1605145238
off_to_on,-16.5084754295,-11.1522196384,-2.02446405382,-0.784693456092,-16.5565809901,-23.0958795775,-35.2692357119,-31.913345027,-0.622654202508,-7.45029407268,-31.2932062842,-28.4484382008,-22.0156795289,56.230002761
off_to_on,-13.0082415263,-8.3709075466,-0.598768910365,-0.559897499038,-12.7894201352,-17.3407913484,-26.713399768,-24.4711847702,-0.118024468405,-5.39118521472,-18.6277959494,-20.9544644456,-15.9364384263,59.8104198355
off_to_on,-8.60964819785,-4.96215440397,0.890486134074,-0.292833944567,-8.26173838835,-10.5563461489,-16.4578810261,-15.5558110022,0.396324155285,-2.99705051192,-6.34005014237,-12.0704092575,-8.86090136303,61.908390032
off_to_on,-3.77090077595,-1.2618888636,2.32804549936,0.0203432932944,-3.45912308755,-3.45720427297,-5.60220663596,-6.0948593918,0.896235705837,-0.493614798239,4.60934099572,-2.70716408938,-1.50921363692,61.1574929781
off_to_on,1.05373160824,2.39283249837,3.60467421704,0.376487467827,1.16938913942,3.29686997122,4.81934289128,3.04314890567,1.35791344736,1.90425680189,13.5811463188,6.2653118489,5.44417336042,56.0352071648
off_to_on,5.4604207229,5.69784794201,4.62762311482,0.764792442493,5.25570794545,9.16627903449,13.9440890111,11.1362470221,1.7592651746,4.01359468365,20.2892833674,14.1055463983,11.4372907974,45.1538723127
off_to_on,9.13146497262,8.40890442818,5.32901359442,1.16727732191,8.54141034211,13.7746677745,21.1544887462,17.6679837492,2.08117110741,5.69849650419,24.7779064269,20.264101456,16.0671476031,27.5814725773
off_to_on,11.8567691285,10.3590620674,5.67121795338,1.56033872205,10.8885549735,16.9262614345,26.1121809511,22.3528736715,2.30858787835,6.87805222192,27.3518045286,24.4173445543,19.1119296688,3.13884700576
off_to_on,13.5398657053,11.4653473518,5.64870809333,1.91713671253,12.273042784,18.5977086909,28.7517926419,25.1283480395,2.43141078237,7.5267072357,28.4745739989,26.4700641842,20.5284489731,-27.381128731
off_to_on,14.1894026082,11.7250321688,5.28630578053,2.21047024846,12.7634512421,18.9082316991,29.2394727209,26.1179873071,2.44503126977,7.66780311,28.6531492164,26.529871606,20.4277964608,-62.1191437331
off_to_on,13.8989369573,11.2032785371,4.6342282141,2.41574235807,12.4901836337,18.0747222424,27.9058388398,25.5746361822,2.35054705494,7.36192935599,28.3284226011,24.859989641,19.0349476357,-98.2108394593
off_to_on,12.8192710422,10.0149101959,3.76072040065,2.5136201969,11.6108709341,16.3601560447,25.1660941354,23.8143543156,2.15460706588,6.6923316443,27.7897756843,21.8195307588,16.6398810159,-132.013186096
off_to_on,11.1282672532,8.30362176164,2.74334663412,2.4920567724,10.2781077311,14.0241102656,21.4411006975,21.1527477818,1.86890108394,5.7498737104,27.1267490044,17.8014023937,13.5483772776,-159.480230004
off_to_on,9.00301341763,6.2219578079,1.66013988297,2.34744773139,8.61480437268,11.2832415707,17.0920979665,17.8540300117,1.50933211917,4.6199180727,26.2245640892,13.1774570391,10.0400314553,-176.648389547
off_to_on,6.59841977795,3.91491149608,0.581764837885,2.08482986176,6.70084291335,8.28748912955,12.3787528621,14.1004115119,1.094935778,3.37300709107,24.8028131041,8.25856753491,6.33927434259,-180.171599217
off_to_on,4.03495978014,1.50910337751,-0.434353193811,1.71716640906,4.5725982758,5.11485190983,7.44582752644,9.98557676723,0.646632435657,2.06047446278,22.4895018896,3.27429772297,2.60266252669,-167.834284094
off_to_on,1.39654600224,-0.891638033695,-1.34731344469,1.26388665005,2.23456777865,1.78431288516,2.33865359272,5.53169006968,0.185912450482,0.715219738893,18.9168616973,-1.62675053764,-1.07722920184,-138.967636773
off_to_on,-1.26226628345,-3.20467163665,-2.13322908627,0.74893557312,-0.319793856876,-1.71664713242,-2.95739285641,0.725257511873,-0.266439996254,-0.64302361777,13.8218040123,-6.35843165786,-4.65383351899,-94.7028598123
off_to_on,-3.90215276345,-5.36235862468,-2.78313829858,0.198632297249,-3.08257578014,-5.39600439805,-8.46233974364,-4.43610119314,-0.6914836834,-1.99936254249,7.13310269968,-10.8659583228,-8.09939679688,-38.0132834607
off_to_on,-6.48152768557,-7.30350456065,-3.29893535559,-0.360370926025,-6.00666621625,-9.22016216815,-14.1435212908,-9.89584501228,-1.07303203108,-3.33430976152,-0.970553140443,-15.0898103438,-11.3749025565,26.4765714285
off_to_on,-8.93977586505,-8.96498155218,-3.6881986998,-0.902789480844,-8.98715350954,-13.0837267961,-19.866156385,-15.499826802,-1.39827798853,-4.61536984942,-10.0429183046,-18.9329620161,-14.4038366594,92.9062204838
off_to_on,-11.1851386067,-10.2759609933,-3.95892887816,-1.40591356693,-11.8533367361,-16.7928414469,-25.363492519,-20.9754872818,-1.65810112024,-5.79159740404,-19.3978700939,-22.239034134,-17.0557705467,154.778902071
off_to_on,-13.0903578271,-11.1566238971,-4.11518345075,-1.85027238819,-14.3741164937,-20.0666582926,-30.2342465895,-25.9348060064,-1.84705989336,-6.79256986649,-28.1801198504,-24.7869752349,-19.1439800408,205.678826515
off_to_on,-14.4978252588,-11.5223087928,-4.1544139635,-2.21980887091,-16.2773341345,-22.5585550717,-33.9705691658,-29.9029746376,-1.96310558081,-7.53245702709,-35.4697604086,-26.3049015337,-20.4388289445,240.019983589
off_to_on,-15.2343077731,-11.2929591639,-4.06700075507,-2.50170248206,-17.2812525462,-23.8953743689,-36.0145962387,-32.3704099702,-2.00708294549,-7.91897569306,-40.4058822211,-26.502250356,-20.6958229544,253.732313903
off_to_on,-15.1335887551,-10.4066274455,-3.83809299726,-2.68602883832,-17.134190995,-23.729794733,-35.8366281612,-32.8616136761,-1.98210330474,-7.86613139593,-42.3111140919,-25.1159814442,-19.6945278051,244.79529695
off_to_on,-14.0638523622,-8.83486719772,-3.45145433167,-2.76545499017,-15.656684315,-21.7984261595,-33.0238753005,-31.0111566455,-1.89288494744,-7.3089100248,-40.7982841963,-21.9637440275,-17.2823796334,213.545513282
off_to_on,-11.9555847129,-6.59725903696,-2.894652277,-2.7351378308,-12.7797015521,-17.9767628122,-27.3661918162,-26.6352376815,-1.74515279485,-6.21761092416,-35.8425697156,-16.995177345,-13.4161492808,162.711608786
off_to_on,-8.82534858227,-3.7721770174,-2.16466935816,-2.59292664926,-8.57258371509,-12.3219763122,-18.9247137034,-19.7871556676,-1.54517386807,-4.60939043725,-27.8072023421,-10.332132512,-8.19367606597,97.1639480139
off_to_on,-4.7910870004,-0.501248771655,-1.27289772614,-2.33988220123,-3.25545700224,-5.09575605938,-8.07096158192,-10.78670566,-1.29947942288,-2.55484069207,-17.4173390912,-2.28969260365,-1.86951293181,23.4026716516
off_to_on,-0.0756004047586,3.01424320027,-0.248527467173,-1.98103055633,2.80718497933,3.23814109492,4.51241871289,-0.21676262923,-1.01479189132,-0.178035490887,-5.68413583824,6.62769901795,5.1498012887,-51.1579938618
off_to_on,5.0036082538,6.52563981022,0.860452406408,-1.52618826424,9.13251764475,12.0436059614,17.8730011198,11.1152863863,-0.698139470413,2.35064716258,6.21171507558,15.7572465738,12.3322914844,-119.024127819
off_to_on,10.0580316733,9.75717977343,1.98908084063,-0.990642020008,15.1630775876,20.5673252511,30.8698461824,22.2486752129,-0.357108277283,4.82859109218,17.0617632771,24.3342246481,19.0671764063,-173.473662829
off_to_on,14.663342825,12.4323071205,3.06009710577,-0.395452313036,20.3235568603,28.0138234198,42.2866928154,32.1656198569,-0.000156242301689,7.04053672114,25.7778585303,31.5681902243,24.7267604201,-209.320105935
off_to_on,18.4022544964,14.3029926445,3.99103330598,0.232818807104,24.0840922013,33.6317864899,50.9641465631,39.9016889216,0.363101710487,8.78147135403,31.5263419689,36.7301012171,28.7362641258,-223.493685664
off_to_on,20.9099619145,15.1783874633,4.70290545293,0.863083597046,26.0222336571,36.8010774739,55.9346409952,44.6565282743,0.721728630248,9.87999251562,33.8299886598,39.2393524458,30.6427269783,-215.367847082
off_to_on,21.9164678115,14.948973118,5.12939297089,1.46143240244,25.8756075893,37.1092780045,56.5428052266,45.8906781937,1.06349877381,10.2191110496,32.6237109335,38.7391301892,30.1737838034,-186.79118956
off_to_on,21.2802556106,13.602769654,5.22526176011,1.99347070063,23.5782084704,34.4075359471,52.5350952343,43.3955696092,1.37518097832,9.75166959009,28.256419587,35.149507573,27.2780801966,-141.822384498
off_to_on,19.0087120611,11.2310716776,4.97282920242,2.42707949243,19.2751593057,28.8378674065,44.1060242259,37.3269403521,1.64308812804,8.50816239532,21.4389068135,28.69025523,22.1412445996,-86.2033634196
off_to_on,15.2622901008,8.02248630427,4.38548909185,2.7352969764,13.3134289961,20.8275546977,31.8936220286,28.1964656416,1.85386787772,6.59567811257,13.1450899969,19.8691016277,15.1743993792,-26.6391231366
off_to_on,10.3414362137,4.24556903197,3.50768277468,2.89896690113,6.20903612142,11.0504384061,16.923167473,16.8217402683,1.9954697991,4.18782372448,4.48037165802,9.43564187587,6.97575599982,30.0235163414
off_to_on,4.65750915151,0.221880799258,2.411169852,2.90879694304,-1.40570694821,0.359161719935,0.504907170887,4.24015663706,2.0581907114,1.5066708607,-3.4646822348,-1.69435055348,-1.73059063685,77.6140800494
off_to_on,-1.30901279008,-3.70739634613,1.18795241279,2.76652221328,-8.84875955822,-10.3037918656,-15.9025106016,-8.40304901965,2.03567822812,-1.20116896165,-9.75528744057,-12.5354444238,-10.171475384,111.351306045
off_to_on,-7.05808605409,-7.21723768613,-0.0593302526857,2.48496954353,-15.4607659155,-20.0056405271,-30.8466245048,-19.9789132616,1.92576613466,-3.6914353284,-13.7289324231,-22.1382425878,-17.6077393131,128.363684573
off_to_on,-12.1214614753,-10.03253151,-1.22836098989,2.08695472314,-20.6745765084,-27.9213958635,-43.0350855217,-29.4957620997,1.73102571966,-5.74875396868,-15.0719907753,-29.6912207324,-23.4133108323,127.956973518
off_to_on,-16.1096729068,-11.9556258831,-2.22808134564,1.6030984978,-24.0735047951,-33.4186513729,-51.470261456,-36.2022970174,1.4589439161,-7.20951888578,-13.8468112486,-34.6060661765,-27.1404931061,111.601817535
off_to_on,-18.7490750204,-12.8842858676,-2.98821512395,1.06879572064,-25.4314087575,-36.1189510584,-55.5483464771,-39.6603203986,1.12167907703,-7.97829263215,-10.4667035989,-36.5759534727,-28.563440239,82.6512956695
off_to_on,-19.9046811658,-12.8179525546,-3.46616735782,0.52069338954,-24.7300479041,-35.9286824704,-55.1114070427,-39.778709868,0.735393485973,-8.03574494257,-5.62356128453,-35.59970879,-27.6946664648,45.8328567256
off_to_on,-19.5864325091,-11.8517576478,-3.65043453437,-0.00689139416056,-22.1521049489,-33.0364064181,-50.4468971146,-36.8053730765,0.319212054492,-7.43726505495,-0.17939883244,-31.9692851856,-24.7729833819,6.58709170322
off_to_on,-17.9386996068,-10.159381171,-3.56013039561,-0.485165744608,-18.0513788825,-27.8778691774,-42.2359433497,-31.2794148599,-0.106097601823,-6.30261138001,4.96208899185,-26.2227831549,-20.2250108332,-29.6564641232
off_to_on,-15.2149782943,-7.96731489097,-3.24075586835,-0.893265699241,-12.9045312302,-21.0740528055,-31.4582164999,-23.9508742883,-0.519593620144,-4.79813485552,8.98538162061,-19.069742728,-14.605839885,-58.1709543182
off_to_on,-11.7415979366,-5.52420194009,-2.7568479765,-1.21957299262,-7.25101493702,-13.3509500554,-19.2665901887,-15.6794435044,-0.901627616542,-3.11406811144,11.2760649301,-11.2989859587,-8.52706908147,-75.503158794
off_to_on,-7.87556140715,-3.06950790127,-2.18255949466,-1.46179314942,-1.6291401134,-5.45185916616,-6.8483263714,-7.32602117068,-1.23516179276,-1.43998066034,11.5013437643,-3.68141441743,-2.581927291,-79.8546198357
off_to_on,-3.96221244182,-0.80575941423,-1.59148966865,-1.62581532271,3.48353247015,1.94638945942,4.70923682154,0.348532080946,-1.50680379598,0.0583212230956,9.64763310621,3.11942183459,2.72265951404,-71.2312968577
off_to_on,-0.298210566751,1.12203059207,-1.04716866879,-1.72354478449,7.7181439073,8.30279793459,14.5317165762,6.76452178093,-1.70746260977,1.25744396151,6.01112330548,8.61751526395,7.01841124012,-51.3522644406
off_to_on,2.89566798181,2.63725401547,-0.5954832501,-1.77004411294,10.8453360528,13.2590106579,22.0360825779,11.5747032786,-1.83257575803,2.08828145623,1.14406557158,12.5467895669,10.1061821256,-23.340249495
off_to_on,5.48894306369,3.73187959815,-0.260035341459,-1.78041752994,12.7859148399,16.6587990919,26.9662050122,14.6804385245,-1.88191095839,2.53978320335,-4.23416954554,14.871168141,11.9615351835,8.75518067832
off_to_on,7.44201920136,4.45645691562,-0.0409918220539,-1.7669095927,13.6012420931,18.5393822764,29.3834470588,16.2125037763,-1.8589969716,2.65444359609,-9.3473487561,15.7624084879,12.7159087886,40.5308924022
off_to_on,8.79391804448,4.90198270907,0.0825248524111,-1.73665834631,13.4659917026,19.0976675431,29.6164056491,16.4812783409,-1.770281802,2.51650292523,-13.4773017713,15.5502982471,12.6172987702,67.8193648983
off_to_on,9.63992477953,5.17681625525,0.146965957477,-1.69044768036,12.6282185221,18.6378607638,28.1793477386,15.9051921436,-1.62414576652,2.23485192016,-16.0666187435,14.653587038,11.9771646534,87.2148968497
off_to_on,10.1032620674,5.3824960833,0.196705419668,-1.62265695427,11.3632282316,17.5092379099,25.6728209524,14.9290807031,-1.42990836356,1.92333173763,-16.7944422481,13.5025475594,11.1120334566,96.4703227424
off_to_on,10.3056060428,5.59239022824,0.275412465187,-1.52242852316,9.92830555285,16.0438795544,22.6818188462,13.9451224069,-1.19695993772,1.68142422702,-15.6149969536,12.464974705,10.288780133,94.7186282776
off_to_on,10.3412288147,5.8365980278,0.417778791505,-1.37589087297,8.52490022557,14.5037329174,19.686531425,13.2282021039,-0.93412316386,1.5781947332,-12.7542473717,11.7866299088,9.68175520314,82.5000503658
off_to_on,10.2588097596,6.09549286618,0.642862519331,-1.16911302789,7.27347636276,13.0445777316,16.9982150628,12.895012306,-0.649309211727,1.64180598173,-8.66637698757,11.554753599,9.34794234539,61.6028513832
off_to_on,10.0536262378,6.30290814763,0.950058338568,-0.891348393418,6.20412497915,11.701621691,14.7284820525,12.8923666945,-0.349484949046,1.85604990025,-3.9577018894,11.68966212,9.22346606407,34.7510358877
off_to_on,9.6711203076,6.35843233336,1.31830375364,-0.538070780341,5.26354374646,10.3979770178,12.7949904275,13.0156407099,-0.0409177190844,2.16427425528,0.709698422588,11.9651508941,9.14146064208,5.19140865944
off_to_on,9.0210022618,6.14682465727,1.70864403307,-0.113320848492,4.33647498154,8.97369426349,10.9609062266,12.9536480431,0.270379710735,2.47996997827,4.7196001157,12.0540728784,8.86804628706,-23.7568816652
off_to_on,7.99937002106,5.56141080109,2.06977488181,0.369033597258,3.27753104314,7.22988252071,8.90043784705,12.3522848815,0.57811313642,2.70229497826,7.59301512555,11.5916848773,8.15041633837,-49.1259447235
off_to_on,6.51504570958,4.52764246912,2.34573569595,0.885376283891,1.94783677797,4.9801863234,6.27893868122,10.8865008247,0.875203819926,2.73408432885,9.05571152161,10.2467012016,6.76922029132,-68.6395401272
off_to_on,4.5156452908,3.02291090205,2.48460270819,1.40383022044,0.250290635757,2.10084180659,2.83407623673,8.32897913274,1.1534381438,2.49953885983,9.07213020393,7.78884577794,4.58679314909,-80.9295399269
off_to_on,2.00890299851,1.08920992048,2.44687754955,1.88702816295,-1.84243219955,-1.42916102358,-1.55536240331,4.60448444538,1.40336725171,1.95884408143,7.84123033717,4.14221097667,1.58341894294,-85.6083495023
off_to_on,-0.92453451,-1.1637223479,2.21230503199,2.29585662272,-4.27180234424,-5.50468716438,-6.82436056365,-0.178939473488,1.61451605129,1.11743761168,5.75566270004,-0.584167803334,-2.12437514347,-83.1994786012
off_to_on,-4.12935459266,-3.56574301919,1.78407850937,2.59372073322,-6.89204826283,-9.89207727042,-12.707804222,-5.72720932736,1.7759132535,0.028445314248,3.33124079964,-6.0937403328,-6.28678957065,-74.949074509
off_to_on,-7.38571103698,-5.90350500484,1.18976902037,2.75079338928,-9.48391554158,-14.2487462486,-18.7605157394,-11.5868623226,1.87690341706,-1.21217495794,1.11812269259,-11.9289428777,-10.5450790562,-62.5571805676
off_to_on,-10.4302811674,-7.9453833973,0.478790236415,2.74769989222,-11.7816713588,-18.1623079917,-24.4085976847,-17.1976819033,1.90815555098,-2.47715796184,-0.392221566384,-17.52352628,-14.4740991251,-47.8766077343
off_to_on,-12.9856066271,-9.47076980119,-0.283284518725,2.57815109015,-13.5093917971,-21.2037253449,-29.024666845,-21.9639181639,1.86274741593,-3.6245075456,-0.8496814467,-22.2736093442,-17.637164147,-32.628568344
off_to_on,-14.7937733435,-10.2996314836,-1.0227778484,2.25016570817,-14.4211141065,-22.9867588497,-32.0158670321,-25.3339111732,1.73718542589,-4.51675392221,-0.104955554507,-25.6175242372,-19.6453985987,-18.1778215087
off_to_on,-15.6497524422,-10.3180806435,-1.66721416242,1.78569916755,-14.3387985121,-23.2249161464,-32.9115352648,-26.8766097067,1.53221988465,-5.04011357555,1.76343010769,-27.1131238156,-20.2129974072,-5.39738447256
off_to_on,-15.4296693014,-9.49617066395,-2.15456914472,1.2186979738,-13.1823151712,-21.7773441342,-31.4373474298,-26.3438535097,1.25333441976,-5.12077280054,4.45872148593,-26.5014618152,-19.2003023552,5.36384483341
off_to_on,-14.1099022238,-7.89516882999,-2.44116092526,0.591798625799,-10.9868068769,-18.6766213146,-27.5646822516,-23.7092918284,0.910824419059,-4.7359204939,7.51071025965,-23.7476007013,-16.6382785307,14.2151157117
off_to_on,-11.7741442696,-5.66300360598,-2.50707419586,-0.0479387320737,-7.90460513489,-14.1339730914,-21.5275226891,-19.1781442725,0.519427218618,-3.91790598471,10.3488535023,-19.0524817516,-12.7305933159,21.5802709274
off_to_on,-8.60721349188,-3.01824201221,-2.35836155344,-0.653751666746,-4.19112324068,-8.52066879451,-13.8039243286,-13.1661795307,0.0975202763588,-2.75088337554,12.3925769827,-12.8338482139,-7.83267896586,28.0093561701
off_to_on,-4.87622933947,-0.224579695155,-2.0257277164,-1.18378831999,-0.17648176104,-2.32778879057,-5.06422087739,-6.25068143494,-0.33404458792,-1.36038107767,13.1449632285,-5.67856036957,-2.41043600284,33.9841117343
off_to_on,-0.901521977492,2.44081340706,-1.55990469861,-1.60506816585,3.77330448598,3.89033075873,3.9070510674,0.899850050367,-0.753359484763,0.102752819501,12.275473917,1.72734397855,3.01586722336,39.7552744357
off_to_on,2.97894448691,4.72085423163,-1.02439651191,-1.89633655052,7.3002370035,9.58131579903,12.3047470892,7.60752860621,-1.13899071825,1.48177870018,9.67896452847,8.68138343252,7.93484283096,45.2424060008
off_to_on,6.44697596029,6.40948014713,-0.486642364646,-2.04950520492,10.0972700265,14.2597325083,19.399271576,13.2671392852,-1.47146906969,2.63414365797,5.50177005327,14.5489441509,11.9057226873,50.0147012715
off_to_on,9.23850177484,7.37576725494,-0.00886430791889,-2.06955382435,11.944354384,17.5629679912,24.6220330751,17.4171880599,-1.73459565046,3.44940794992,0.130542838226,18.8377888301,14.6101720178,53.3560710206
off_to_on,11.1704668355,7.57798885041,0.360101910758,-1.9729626036,12.7326802654,19.2904767465,27.6285549727,19.7903859295,-1.91644377923,3.86254319546,-5.85492670207,21.2528311311,15.8872025173,54.4023222712
off_to_on,12.1569319657,7.06577473094,0.590849193269,-1.78492650832,12.4739234809,19.4212545884,28.3308896477,20.3370434818,-2.00997583829,3.86080569607,-11.7583059858,21.7240821758,15.7466397592,52.3250628347
off_to_on,12.2125846496,5.97019819093,0.676490558687,-1.53574569843,11.2934608448,18.1075224804,26.895452486,19.2187861166,-2.01324060876,3.4833218465,-16.8617394337,20.4044906844,14.3596608838,46.5282174332
off_to_on,11.4436231394,4.48330517536,0.632412031499,-1.25687507324,9.40880998529,15.6459867144,23.7073728094,16.7742550473,-1.92916471763,2.81357282721,-20.5255309764,17.6386357278,12.028165329,36.8201888081
off_to_on,10.0277105963,2.83006654673,0.492788174194,-0.977139362701,7.0966315798,12.4311942494,19.3072180382,13.4624127803,-1.76499513562,1.96597928045,-22.2779956846,13.9072809856,9.13770350467,23.5281835534
off_to_on,8.18615436466,1.23676924478,0.304431308278,-0.719577475207,4.65320530385,8.89796534319,14.3097905789,9.79215222926,-1.53148267078,1.06861641921,-21.8823884364,9.75608413607,6.10094006768,7.53046590622
off_to_on,6.15244350036,-0.0996824231027,0.118927703462,-0.499278700952,2.354129758,5.46130681586,9.31707062104,6.24867766868,-1.2419153376,0.244616676019,-19.3711443832,5.71881242369,3.2998504387,-9.80421671983
off_to_on,4.14164278554,-1.03727143349,-0.0157466229599,-0.322429162089,0.418986515893,2.46239112424,4.83795068169,3.22734177571,-0.911113746729,-0.405033716598,-15.0424228402,2.24596504935,1.03487437853,-26.7652829793
off_to_on,2.32485235307,-1.50569472142,-0.0628754234748,-0.18662012589,-1.01413942472,0.128115465985,1.22611679029,0.984274945281,-0.554488982112,-0.814844518239,-9.41942971998,-0.351314964043,-0.511912478299,-41.5172880297
off_to_on,0.812053646454,-1.51232162435,-0.00278441395417,-0.0823032718744,-1.90094124542,-1.45039743576,-1.35550987328,-0.389550195427,-0.187239654971,-0.962461139008,-3.17839635788,-1.93457470267,-1.29471724858,-52.3534326981
off_to_on,-0.354683307465,-1.1366907009,0.164088433817,0.00486632360679,-2.28864865431,-2.31790015497,-2.93949265511,-0.967799897215,0.17626659939,-0.869605863468,2.94437760791,-2.54461555151,-1.40099440948,-57.9467615987
off_to_on,-1.19725245985,-0.514617671304,0.417268829161,0.0911627004456,-2.30011544776,-2.63448605117,-3.7281839679,-0.962793541836,0.522915660611,-0.596335802283,8.25301318322,-2.38123845434,-1.02851487141,-57.5592950676
off_to_on,-1.78805114075,0.18552037543,0.719431381996,0.191811820439,-2.10710319855,-2.63823679241,-4.04259985935,-0.678829805598,0.84109268993,-0.229622680282,12.1856380686,-1.76002131323,-0.446498396921,-51.1748141198
off_to_on,-2.22961064945,0.790657241625,1.02219465366,0.31831407897,-1.89718164193,-2.59730657848,-4.25459232437,-0.452619031374,1.1207934396,0.131909813355,14.3877125559,-1.05324712414,0.052956817045,-39.5320697111
off_to_on,-2.63087071132,1.15084560087,1.27364098605,0.476416829164,-1.83953321838,-2.7591620483,-4.71341990981,-0.590416405524,1.35365586414,0.394705512041,14.7547562583,-0.624268818281,0.205591348349,-24.0501202902
off_to_on,-3.0840364342,1.16285223451,1.42642379997,0.664984662461,-2.05500789201,-3.30498009952,-5.67847890658,-1.31178105706,1.53296736245,0.485876614713,13.4386451275,-0.765363138636,-0.179893207182,-6.65398898262
off_to_on,-3.64573290103,0.78607490932,1.44524264413,0.875884784712,-2.59502520073,-4.31627782465,-7.26882543516,-2.70871370374,1.65369249529,0.365306134834,10.8169806777,-1.64839929295,-1.18908353421,10.4757148083
off_to_on,-4.3253848449,0.0485036912101,1.31256498282,1.09486519019,-3.43248482673,-5.75886058578,-9.43737970266,-4.72644131929,1.71254711544,0.0324220023089,7.43040674305,-3.29555690508,-2.78629180207,25.1935877212
off_to_on,-5.08252676168,-0.958035592381,1.03173802617,1.30327342557,-4.46594807581,-7.48643470551,-11.9737841309,-7.16870734628,1.70812147791,-0.473367070492,3.89737875663,-5.57419938219,-4.81834365924,35.6784266673
off_to_on,-5.83328623986,-2.09250306871,0.627023953127,1.4803602827,-5.53628166092,-9.2631598063,-14.5353880726,-9.72661177622,1.64103166748,-1.07861696717,0.819104943674,-8.21631958008,-7.03693503209,40.6780825032
off_to_on,-6.46480836621,-3.18680432623,0.140549392067,1.60584811727,-6.45302707193,-10.8014792781,-16.7014383852,-12.0264055309,1.51406005768,-1.6872488044,-1.31128296684,-10.859278137,-9.13598115398,39.6742236406
off_to_on,-6.85512934218,-4.07204438284,-0.373382955295,1.66242418946,-7.02626499181,-11.8092096671,-18.0419330012,-13.6887268573,1.33223508988,-2.19565220912,-2.18199425884,-13.1013993486,-10.79815256,32.9430153526
off_to_on,-6.89515534466,-4.60484009602,-0.85578372551,1.63784558612,-7.09890889617,-12.0384456242,-18.190290767,-14.390011135,1.10280055159,-2.50917721962,-1.70760926749,-14.5638370184,-11.7434579493,21.5033988369
off_to_on,-6.50908650204,-4.68967170601,-1.25116690143,1.52640795079,-6.57430875173,-11.3285588722,-16.9083517981,-13.916470332,0.835035041677,-2.55748778205,-0.0394139940278,-14.9492815866,-11.7724849185,6.96162340822
off_to_on,-5.66989068041,-4.29387551853,-1.51524013673,1.32962450767,-5.43477941297,-9.6364762094,-14.1333432288,-12.2021702652,0.539901867591,-2.3064164053,2.46029211667,-14.0886602064,-10.7977750419,-8.72369912048
off_to_on,-4.40723291701,-3.45301074855,-1.620973128,1.05607060468,-3.74807459442,-7.04937253448,-9.99915499038,-9.34515781708,0.229535045469,-1.76448051343,5.2759490671,-11.9688808823,-8.85865113244,-23.5199284352
off_to_on,-2.80647659563,-2.26580346293,-1.56216533017,0.720456992549,-1.66069030133,-3.77761232867,-4.82815928938,-5.59893722767,-0.0834059073553,-0.983018575278,7.81989058811,-8.73759230901,-6.11734797919,-35.5998564425
off_to_on,-0.998801785894,-0.87945814238,-1.35400667956,0.342088078515,0.621083323414,-0.128806464166,0.905711614724,-1.34035710369,-0.386455754481,-0.0498593775879,9.52483169204,-4.68442508125,-2.83713748903,-43.5804775836
off_to_on,0.85608910095,0.532406097091,-1.03057048482,-0.0570719085748,2.85954604608,3.53324056431,6.6375186963,2.98142163558,-0.668064685909,0.922591344878,9.93398571201,-0.201718128323,0.654144880259,-46.6862393943
off_to_on,2.59201104768,1.79581279358,-0.639629981374,-0.454468658968,4.81912272604,6.83857729786,11.7867434627,6.90729813916,-0.918241595314,1.81312079022,8.77547289396,4.26921496903,4.00958241308,-44.8143649755
off_to_on,4.05963283615,2.76248376479,-0.2355821693,-0.828909651562,6.29994808141,9.46261430907,15.8364885801,10.0325981197,-1.12904634083,2.50902178484,6.00998653641,8.29811607689,6.91075522971,-38.4957159255
off_to_on,5.14742000513,3.33188938915,0.128463405956,-1.16217971852,7.16636093585,11.1712907472,18.4046689884,12.0637315729,-1.29487563133,2.92238920949,1.84458080876,11.5230878476,9.11023499484,-28.7614601432
off_to_on,5.79683415807,3.46588920201,0.408257469403,-1.44016320274,7.36591585241,11.8530087851,19.2965003796,12.8585510362,-1.41251435222,3.00297511071,-3.28963562911,13.696667011,10.4626440965,-16.9408262472
off_to_on,6.00931118789,3.19367759732,0.574530939176,-1.65339295556,6.9359438086,11.5324162017,18.5302986656,12.4442382875,-1.48095676559,2.74567208212,-8.79289045989,14.7139564252,10.939719004,-4.42603547069
off_to_on,5.84381539329,2.60622207692,0.616771746197,-1.79702834094,5.99657961578,10.3638485905,16.3325304174,11.0099132637,-1.50103513342,2.19147755903,-13.9774374086,14.618909006,10.6273001186,7.55466874126
off_to_on,5.40524810328,1.84098766726,0.544123946295,-1.87033961143,4.7312379552,8.60532585487,13.1026189091,8.87496971504,-1.47492169903,1.4217482772,-18.1621183656,13.5882331509,9.7049654538,18.1169462245
off_to_on,4.82545000351,1.05923965207,0.383308058488,-1.87583488058,3.35744984465,6.57696823526,9.35253430272,6.43782670394,-1.40558895653,0.546543594786,-20.7673823695,11.8958249648,8.41170723558,26.8227990652
off_to_on,4.2397482962,0.41938110052,0.17390820682,-1.81820165576,2.09247343678,4.61010513214,5.63000365828,4.11278885053,-1.29631938278,-0.311267178483,-21.3972838551,9.86360513877,7.00320994997,33.6887861038
off_to_on,3.76277102739,0.0504336604345,-0.0382352180155,-1.70324428784,1.11893657917,2.99482744574,2.43669441914,2.26457575192,-1.15034781745,-1.0338243947,-19.8968441594,7.80669651696,5.70759466717,39.0999751781
off_to_on,3.46745440411,0.0298067682947,-0.208507524032,-1.53698224557,0.55582067692,1.93405060271,0.153570233684,1.15052410125,-0.970698137358,-1.52541838287,-16.3766663383,5.98170982911,4.6867449934,43.6465617531
off_to_on,3.37076288257,0.368909780228,-0.300729031682,-1.32503574052,0.439341463413,1.51125313171,-1.01534670743,0.879407424778,-0.760243594436,-1.72642869421,-11.2013318719,4.54638311952,4.00948114302,47.9144852753
off_to_on,3.42867694238,1.00902488868,-0.292989497908,-1.07237146646,0.716828711503,1.67705910429,-1.07221676273,1.39340402946,-0.521981755422,-1.6219956984,-4.94320970963,3.5370231347,3.64102298968,52.270736484
off_to_on,3.54161647911,1.82833939697,-0.181215963268,-0.783420224904,1.25476588285,2.25703122239,-0.222981110742,2.47632234273,-0.259476105253,-1.24411857014,1.69185530355,2.86739563121,3.4506516958,56.6866523491
off_to_on,3.56986184113,2.65935580288,0.0200732071447,-0.462518561465,1.86000907002,2.97984664732,1.1566594806,3.78726495475,0.0226169383051,-0.66682958072,7.95661964554,2.3493302364,3.23662240682,60.6376770236
off_to_on,3.35694967518,3.31430523095,0.279948487863,-0.114576097716,2.31118150782,3.52191372404,2.58215093432,4.91505768708,0.318039196846,0.00489325780726,13.159530635,1.73185756898,2.76462962426,63.1063534341
off_to_on,2.75769813502,3.61492196757,0.555858558571,0.254164779293,2.39563956088,3.56192048228,3.53908421324,5.44556083185,0.618551090019,0.650892324287,16.7534891756,0.752707867581,1.81390228145,62.698366961
off_to_on,1.66666197244,3.42218690479,0.800306479804,0.635425919585,1.9464722159,2.83717397186,3.56868896747,5.03189832959,0.913782734067,1.15399753119,18.4042355099,-0.806068753218,0.223652310991,57.8618653512
off_to_on,0.0425726796288,2.66153438888,0.968400403798,1.01839128195,0.873875556221,1.1931466582,2.34709807492,3.45700671343,1.19139155671,1.41794979731,18.0292667133,-3.06742562676,-2.06766340831,47.1811318628
off_to_on,-2.07526576777,1.3395671094,1.02512772339,1.38952570504,-0.814036027283,-1.38152779515,-0.253614502908,0.678828545582,1.43756303881,1.38245181962,15.8023855748,-6.02209334675,-4.99692509741,29.7001510532
off_to_on,-4.56162397156,-0.450532710839,0.95123495868,1.73279473224,-3.00445570503,-4.7403786049,-4.13213052939,-3.14916323648,1.63784365024,1.03311448377,12.1237973415,-9.51143585843,-8.36951743996,5.22239645024
off_to_on,-7.21252564201,-2.53612790057,0.746796896076,2.0303152441,-5.48861975329,-8.58763897087,-8.95792374071,-7.68595265014,1.77824554919,0.40479014348,7.56042815236,-13.2340935045,-11.8731429963,-25.4678799812
off_to_on,-9.76466790428,-4.68422592315,0.431898193875,2.26341187832,-7.98527553825,-12.509556481,-14.2054800055,-12.4392359296,1.84651810792,-0.422271027171,2.76517063579,-16.7765634219,-15.1112831946,-60.509835684
off_to_on,-11.9250001023,-6.63024316507,0.044278893614,2.41400142819,-10.1759333444,-16.0246909964,-19.2186118981,-16.8255866586,1.8334483155,-1.33297405852,-1.61348484602,-19.6642091856,-17.6523178585,-97.0268685809
off_to_on,-13.4068293052,-8.11267083186,-0.365751195035,2.46618247702,-11.7471787551,-18.6465808225,-23.296381943,-20.2466261894,1.73403570393,-2.1932046805,-5.01886371883,-21.4259732337,-19.0878356413,-131.353378513
off_to_on,-13.9677466075,-8.90893686681,-0.74241260426,2.40787527224,-12.434206866,-19.9502346372,-25.7889265529,-22.170833846,1.54839063229,-2.868722593,-7.05865230116,-21.6637728727,-19.0920753791,-159.411838674
off_to_on,-13.4442332907,-8.86746886629,-1.03254558357,2.23234063634,-12.0594517768,-19.6331847781,-26.1898934275,-22.2096205822,1.28222792035,-3.24446226271,-7.55295978216,-20.1165481432,-17.4739819031,-177.200263835
off_to_on,-11.7780853664,-7.93137731212,-1.19350417838,1.93940824234,-10.560773585,-17.5624322428,-24.2125026851,-20.1768869584,0.946868615838,-3.24150351256,-6.55186905607,-16.7093679923,-14.2141266069,-181.330204512
off_to_on,-9.03076313611,-6.15024732727,-1.19968474227,1.53626380035,-8.00505256686,-13.8004504897,-19.8383810329,-16.1234193075,0.558716330539,-2.82928634263,-4.32079562789,-11.5798499384,-9.48064380702,-169.543013201
off_to_on,-5.38330476622,-3.67810763553,-1.04670542675,1.03767991094,-4.58503237971,-8.60623962603,-13.3319998099,-10.3408542488,0.13823447906,-2.03130202,-1.29645823318,-5.0771612051,-3.62111412422,-141.129574807
off_to_on,-1.12133332619,-0.757520542403,-0.752586067765,0.465623394365,-0.599568727988,-2.41083729039,-5.21825212988,-3.33408983241,-0.29149066983,-0.923401924106,1.9797424735,2.26737240821,2.86939866063,-97.1868652251
off_to_on,3.39332391277,2.3083539611,-0.355708844556,-0.15177149949,3.58025270425,4.22978620859,3.77423353655,4.23464142453,-0.706466486386,0.37510243666,4.94118539395,9.79505084468,9.40064043406,-40.6629565644
off_to_on,7.76107259533,5.19219081633,0.0901933836099,-0.781814566051,7.55469464878,10.6983932618,12.796741157,11.6229077374,-1.0836209415,1.7163669352,7.07704793355,16.7933580753,15.353396549,23.8317185637
off_to_on,11.5883309854,7.58269366983,0.523339971071,-1.38934842961,10.9428563111,16.388359912,20.9800887084,18.0963514607,-1.40255634858,2.94294736172,8.00367125874,22.5789291971,20.1512366097,90.4382793264
off_to_on,14.531180618,9.223249353,0.882477078781,-1.93915691385,13.4277434519,20.7743004265,27.5370847697,23.0164791644,-1.64705338107,3.90815837528,7.51668350496,26.5790898877,23.3284646496,152.64878005
off_to_on,16.333391543,9.94390214481,1.11551137815,-2.39849758831,14.7929396032,23.4721573854,31.854359064,25.9164014091,-1.80617700116,4.49508661441,5.61719938763,28.4011560887,24.5853543705,204.024207113
off_to_on,16.8540406987,9.68237273333,1.18697121353,-2.7395422137,14.9460810133,24.2809632544,33.5616458923,26.554606004,-1.87488149279,4.63168006381,2.50916553204,27.8802107959,23.8233705406,238.945032414
off_to_on,16.0813000272,8.49130219682,1.08322191028,-2.94150762405,13.9261872897,23.2010388814,32.5697710678,24.9398602712,-1.85406900586,4.29988851219,-1.43103018444,25.0989035014,21.1557122588,253.299989775
off_to_on,14.1307862617,6.53074708725,0.814675352989,-2.99227927003,11.8941492111,20.4266617503,29.0729363406,21.3242843216,-1.75011767788,3.53766088587,-5.70779187388,20.3765557648,16.8917989481,245.022911925
off_to_on,11.2288876277,4.0469339898,0.414657708596,-2.88936946395,9.10800273519,16.3147453369,23.5157887141,16.1659625806,-1.57395380412,2.43359547336,-9.77451344806,14.2289831753,11.4978004461,214.403912721
off_to_on,7.68343649847,1.34012778061,-0.0649275342346,-2.64010952709,5.88669215674,11.3343220327,16.5305123532,10.066558653,-1.33979050547,1.11504811751,-13.1070589737,7.30438314995,5.53850512337,164.128035042
off_to_on,3.84571456101,-1.27407675383,-0.560549135917,-2.26104478625,2.5675522305,6.00415742377,8.85312301438,3.69269909984,-1.06368717907,-0.268610451205,-15.2724325822,0.303839209778,-0.391718454045,99.028335739
off_to_on,0.0688395811189,-3.50486480763,-1.00564697858,-1.77657726429,-0.536494090644,0.827290727664,1.23073711893,-2.30805845859,-0.76209617723,-1.56525679719,-15.9835374661,-6.10299051288,-5.73972026382,25.5768266014
off_to_on,-3.3320498041,-5.12237981382,-1.33968254432,-1.2169753661,-3.17412102103,-3.76850158719,-5.66751316292,-7.38533138173,-0.450554708722,-2.63915772925,-15.1331330494,-11.3558782545,-10.0568516408,-48.8291307621
off_to_on,-6.11276528589,-5.98520563076,-1.51637918837,-0.615934854155,-5.18220193352,-7.47639773666,-11.3241382504,-11.1478039036,-0.142652623748,-3.38741937971,-12.8031755931,-15.0655825673,-13.0465977433,-116.700110524
off_to_on,-8.12219800836,-6.05560237786,-1.51000545605,-0.00792334979108,-6.49849207104,-10.1366398215,-15.4222636677,-13.4010814128,0.150635369904,-3.75158912087,-9.24921102912,-17.0511820609,-14.5906728189,-171.306138442
off_to_on,-9.31117900303,-5.40063520084,-1.31883208587,0.57443473322,-7.15913940443,-11.7402835214,-17.8644194348,-14.1571947004,0.421215531105,-3.72297096149,-4.86288039328,-17.3488328863,-14.7507238708,-207.441453443
off_to_on,-9.7275142104,-4.17926541392,-0.965293004868,1.10267850634,-7.28200067314,-12.4111137288,-18.7600904632,-13.6154900669,0.663754516379,-3.34111643525,-0.118430514669,-16.1915789271,-13.746176619,-222.007667273
off_to_on,-9.49854173043,-2.61737767702,-0.492845121697,1.55431277777,-7.03879046012,-12.3694117519,-18.3854437825,-12.1186479501,0.875236291561,-2.68591164257,4.48897480078,-13.9638282503,-11.912025634,-214.3430532
off_to_on,-8.80423244244,-0.974333953727,0.0400154032728,1.91392568815,-6.62066682794,-11.8838206183,-17.1225078822,-10.0909724423,1.05429792072,-1.86456077923,8.50459977964,-11.1375369854,-9.64306245947,-186.257792544
off_to_on,-7.84506839683,0.494244645525,0.56772737419,2.17353296651,-6.20273284402,-11.2191510754,-15.3877835586,-7.96841484182,1.20046798744,-0.995444327152,11.5670541105,-8.19953684092,-7.33278040573,-141.772399178
off_to_on,-6.80952485887,1.57231134536,1.02650423666,2.33214961454,-5.91298831532,-10.5883806956,-13.5614476964,-6.13072407506,1.31343635068,-0.191213975206,13.4462470947,-5.58047921843,-5.31575801046,-86.5942739085
off_to_on,-5.84587979166,2.11294111263,1.36280341995,2.39468112696,-5.81050001617,-10.1162759271,-11.9278315979,-4.84554564041,1.39247156985,0.456472434897,14.0622123257,-3.5954165812,-3.8216391594,-27.4004083687
off_to_on,-5.04230584561,2.05761493008,1.54025452739,2.37030801219,-5.87609134814,-9.82014652404,-10.6358177903,-4.23232431296,1.43607498534,0.88847312174,13.4834569617,-2.40418160521,-2.94700745178,28.9817082555
off_to_on,-4.41788515602,1.44272329652,1.54410556947,2.27059867919,-6.01690515838,-9.61051786712,-9.68453272426,-4.25080756329,1.44192228771,1.0844314241,11.9063438303,-1.99673654205,-2.64876602337,76.3910661112
off_to_on,-3.92552235139,0.392559633908,1.38260724531,2.10761802146,-6.08405659588,-9.31138922561,-8.93572030465,-4.71525159224,1.40709984324,1.06307544203,9.6195014129,-2.20498614021,-2.75947199955,110.045877798
off_to_on,-3.4659586463,-0.90005770422,1.0851942407,1.89229689297,-5.90058268098,-8.69669999773,-8.15006364131,-5.33163990616,1.32859992666,0.876709960352,6.9590471208,-2.7387079267,-3.02189082353,127.065055272
off_to_on,-2.91046386022,-2.20270574801,0.697776271887,1.63329002326,-5.29530773887,-7.53710307481,-7.04108958274,-5.75188162839,1.20400188803,0.600896812375,4.26129011758,-3.2398013839,-3.1372822648,126.737605836
off_to_on,-2.12853325779,-3.27770755778,0.275855303742,1.33648032583,-4.1373117334,-5.64951706687,-5.33767202382,-5.63653749565,1.03223968964,0.320992006526,1.81947909054,-3.34647943848,-2.8199937988,110.512848544
off_to_on,-1.01621513332,-3.91709672218,-0.123518036429,1.00519406849,-2.36554766987,-2.94143625824,-2.84491862823,-4.71646103062,0.814343186292,0.117624582881,-0.149850144403,-2.75767906484,-1.85008533981,81.7209652958
off_to_on,0.479364441325,-3.97334248049,-0.449787445654,0.641085715794,-0.00882427246065,0.55730971825,0.506454543286,-2.84399092754,0.554042153154,0.0533085467761,-1.52709415202,-1.28803103657,-0.116052620482,45.0679836509
off_to_on,2.34313114843,-3.3816097009,-0.665791176979,0.245547425388,2.8072477029,4.68084117703,4.63035114874,-0.0259343289942,0.258137664585,0.162166252792,-2.29467939733,1.0948222015,2.35880513331,5.97726683042
off_to_on,4.4855647171,-2.17052506336,-0.75255940539,-0.178589315895,5.86785514275,9.13440659837,9.28020985686,3.56670809501,-0.0634274073003,0.44424630947,-2.52758172866,4.25615789021,5.41043451472,-30.1326379945
off_to_on,6.74777626554,-0.46001637722,-0.711365325404,-0.625350562664,8.89051179077,13.5222097591,14.0699404296,7.61390848996,-0.397831965111,0.865218389695,-2.37180822591,7.90555663555,8.74959552805,-58.5385147728
off_to_on,8.91768304937,1.55343708601,-0.562790816007,-1.08422502402,11.5578493887,17.3925570947,18.5182795893,11.6846808102,-0.729969041227,1.36142629283,-2.01487060817,11.6322575082,11.9969464754,-75.7834224179
off_to_on,10.7551988575,3.62210255827,-0.343000139557,-1.53936240082,13.5573240047,20.2943699852,22.1104286868,15.2927568412,-1.04332432706,1.8494966539,-1.65308093582,14.9595564006,14.7328410969,-80.0589226814
off_to_on,12.0230554782,5.47939484866,-0.0978136738294,-1.96958234884,14.6224261212,21.8373215602,24.3682126356,17.9620510073,-1.3210663015,2.23904651924,-1.46054767193,17.4105958118,16.5549209716,-71.3568289616
off_to_on,12.5190489607,6.87501463599,0.124518695327,-2.34930807382,14.5696857388,21.7471749443,24.9186688108,19.2927078331,-1.54725009536,2.44660038788,-1.56409213432,18.5762727429,17.1354584358,-51.3807308875
off_to_on,12.1052734442,7.60813747542,0.28077117254,-2.65041171522,13.3262757853,19.9084206354,23.5511201954,19.0184563704,-1.70802475652,2.40867431265,-2.02709219179,18.1756900306,16.2704119923,-23.2397200902
off_to_on,10.7302903517,7.5542790046,0.339332651904,-2.84482465838,10.9442642322,16.3879622709,20.2543762287,17.0472376655,-1.79273273063,2.09212791206,-2.84371435289,16.1006237954,13.9132863521,9.02531085747
off_to_on,8.44112061522,6.68235248877,0.284985002597,-2.90764289907,7.59936853202,11.4361473892,15.2284950646,13.4794308964,-1.79480064816,1.50029835522,-3.94337381445,12.4377134499,10.1889742195,41.0123654837
off_to_on,5.38330505611,5.05977300937,0.12119529086,-2.82036321001,3.57416818108,5.46452039984,8.86911812286,8.60113182286,-1.71234029019,0.674048979376,-5.20381385298,7.4651735707,5.38549631318,68.5458935306
off_to_on,1.7888604729,2.84505957699,-0.130382941194,-2.57383478447,-0.77216531875,-0.997148316099,1.72622871385,2.85338107789,-1.5484054382,-0.312403504488,-6.47012514869,1.62433526173,-0.0754380485219,88.2026304876
off_to_on,-2.04645343488,0.269023094874,-0.433096514376,-2.17051277005,-5.04375228857,-7.35917892388,-5.55726344291,-3.21848977463,-1.31088125205,-1.3602820916,-7.57646223327,-4.53024682033,-5.68527485474,97.7093753216
off_to_on,-5.79376420877,-2.39291455337,-0.740677531442,-1.62565747054,-8.8523686022,-13.038189447,-12.3189556979,-9.02858523186,-1.01201478502,-2.35842390191,-8.36719879129,-10.3955129006,-10.9067813526,96.1670811963
off_to_on,-9.12583705381,-4.85363596877,-1.00402516481,-0.967231402387,-11.8606053263,-17.5226964227,-17.9526719026,-14.0187821391,-0.667625334816,-3.19714700942,-8.71474663991,-15.3909061064,-15.2359987801,84.0816377757
off_to_on,-11.7516995513,-6.8482573504,-1.17839174786,-0.234394145428,-13.8183723448,-20.4297398261,-21.9765448322,-17.7227540722,-0.296059068733,-3.78191799804,-8.53211945157,-19.0264031472,-18.2600337691,63.209147981
off_to_on,-13.4469901543,-8.16482896138,-1.22993492444,0.525335514466,-14.5882639603,-21.545432553,-24.0847364111,-19.8175386935,0.0830281378713,-4.04499545793,-7.77937558866,-20.9588435447,-19.7034047282,36.248437544
off_to_on,-14.0765106868,-8.66809341999,-1.14070203678,1.26001054953,-14.1568644595,-20.844554231,-24.1764606518,-20.1563736015,0.449963672485,-3.9535443776,-6.46413025241,-21.0295481084,-19.4572882936,6.43258148499
off_to_on,-13.6065275356,-8.31357901501,-0.911350141252,1.9178917744,-12.6309932211,-18.4871563584,-22.3591924233,-18.7792009949,0.786326973469,-3.51323639152,-4.6372060855,-19.278840703,-17.588359875,-22.9180343281
off_to_on,-12.1057074243,-7.15061105291,-0.561238778762,2.4522947125,-10.2198970844,-14.7932147081,-18.9265155288,-15.9003238433,1.07609809459,-2.76699136329,-2.38505846399,-15.9362351068,-14.3266531982,-48.8173049632
off_to_on,-9.73500289118,-5.31426165701,-0.125913237356,2.82610415938,-7.20621093552,-10.1992251729,-14.3144698784,-11.8757429077,1.30660133383,-1.7891822372,0.179202955819,-11.3882732577,-10.0345938852,-68.9537059311
off_to_on,-6.72812702461,-3.00763369934,0.347632127202,3.01543078708,-3.90987845745,-5.20289782628,-9.04301930131,-7.15528979428,1.46917688421,-0.67622223262,2.92456759102,-6.12885619818,-5.16171933336,-81.9087814628
off_to_on,-3.36530666767,-0.477010378609,0.807211394964,3.01196793153,-0.649975219695,-0.303461048345,-3.6510033524,-2.22645001381,1.5595360814,0.465100752177,5.70952105883,-0.699012946673,-0.191271718866,-87.2336565407
off_to_on,0.0563460677268,2.01683899987,1.20232261363,2.82374838479,2.29057975167,4.05462258563,1.36655955657,2.44247796883,1.57778171111,1.52994050439,8.38763137421,4.37585927641,4.41436249301,-85.3854467524
off_to_on,3.25231582636,4.22760472808,1.49066828759,2.47418427101,4.69308247606,7.52751471587,5.61071628549,6.45258155833,1.52810210944,2.42675406963,10.8115699875,8.6432908963,8.26256966732,-77.5458158164
off_to_on,5.97676176085,5.94921236169,1.64341859257,1.99947573042,6.42074879794,9.90214223117,8.81415076742,9.51192206983,1.41817441642,3.08632316453,12.836384092,11.7686997307,11.068063596,-65.3596904193
off_to_on,8.0425955423,7.03560129169,1.64851413338,1.4446708682,7.42453776762,11.1077133837,10.8565488418,11.4566435118,1.25833625568,3.46745189401,14.3231528845,13.5631421486,12.6751515736,-50.6411558987
off_to_on,9.33390178156,7.41259422699,1.51160101535,0.858825088267,7.73729757604,11.2083876855,11.7592881295,12.2542597862,1.06060431068,3.55887381261,15.1441498219,13.9915447598,13.0630154257,-35.0948073805
off_to_on,9.81010860701,7.08104104073,1.25453901736,0.289820833464,7.45805050307,10.3794738948,11.6619685142,11.9903443105,0.837630967079,3.37745181072,15.1902884461,13.1618443446,12.3346472142,-20.0945287315
off_to_on,9.50235490433,6.11154030401,0.911772130966,-0.220546416659,6.72949805291,8.87166754008,10.7857613312,10.8420763039,0.601694996392,2.96325636045,14.3810113847,11.2979847313,10.6921913595,-6.54917641307
off_to_on,8.5033732823,4.63203693448,0.525148946401,-0.640640067462,5.71257460277,6.96922818459,9.39015056233,9.04368088362,0.363818337533,2.37249007953,12.6760081027,8.70167607579,8.40304784834,5.13178043363
off_to_on,6.95280971077,2.81034263734,0.137985892319,-0.951738540622,4.56202005547,4.94846540475,7.73016207485,6.84953374879,0.133088288487,1.66943946451,10.0873709555,5.70896452236,5.76198571708,14.9771829998
off_to_on,5.02017557329,0.834047611273,-0.210748895018,-1.14916397895,3.40648474266,3.04242011711,6.02059061958,4.50051965166,-0.0837564118146,0.918656198773,6.69018463174,2.64786829501,3.05461404456,23.3180441062
off_to_on,2.88757241044,-1.10964136849,-0.491299114674,-1.24167389918,2.33571830382,1.41630466729,4.41217219196,2.19821260638,-0.282444430794,0.1784091921,2.62923474088,-0.197367783957,0.526890929256,30.6083785257
off_to_on,0.733990690618,-2.85186707657,-0.686366154139,-1.24922271308,1.39609637557,0.15633250874,2.98239021686,0.0897858862315,-0.460995767336,-0.503859152055,-1.88038595576,-2.61130730081,-1.63593852206,37.2407556897
off_to_on,-1.27755253185,-4.25615334099,-0.792332849264,-1.1994035941,0.594318035637,-0.727658515613,1.7410261396,-1.73544689659,-0.619283178303,-1.09373548067,-6.56046946183,-4.45950889441,-3.31926914137,43.3933904083
off_to_on,-3.00939751901,-5.22745943157,-0.818374736977,-1.12304566544,-0.0922116794193,-1.2875569269,0.648085949,-3.23897702218,-0.758393302301,-1.56977641606,-11.0854636259,-5.68785114583,-4.47802696949,48.9383564118
off_to_on,-4.35510951098,-5.71596294894,-0.783687958303,-1.04954572137,-0.700813700333,-1.6138563252,-0.360254428432,-4.41835532416,-0.879873499477,-1.921635024,-15.1064146605,-6.31094246583,-5.12627030029,53.4283613656
off_to_on,-5.2422731612,-5.71596578134,-0.713340419392,-1.00254413268,-1.26784055321,-1.80875539244,-1.34323442667,-5.28870772407,-0.984965267741,-2.14708065313,-18.2813813704,-6.39306443474,-5.32049045414,56.1646073079
off_to_on,-5.63294953699,-5.26085592942,-0.633447505905,-0.996507162742,-1.81494626449,-1.96051031502,-2.3303972066,-5.86485003963,-1.07392874691,-2.2487356395,-20.3094270096,-6.02593055924,-5.14027607116,56.3331345651
off_to_on,-5.52260891651,-4.41538560279,-0.566457908908,-1.03465861017,-2.33992456528,-2.12358032142,-3.30478998941,-6.14794622759,-1.1455542418,-2.23131047295,-20.9643978686,-5.30761187248,-4.67003507427,53.1842604145
off_to_on,-4.93822961436,-3.2666213196,-0.52729819186,-1.1085277597,-2.81380715028,-2.30789117877,-4.197876344,-6.11956697552,-1.19693623792,-2.09993388908,-20.1242649804,-4.32631547295,-3.98488666103,46.2214090482
off_to_on,-3.93598183299,-1.91480164711,-0.520974104376,-1.19917064266,-3.18473373974,-2.47881418169,-4.89738049375,-5.74442533422,-1.22355486721,-1.85988422934,-17.7919418144,-3.15144788182,-3.14276881014,35.3631635451
off_to_on,-2.59857440166,-0.465052226199,-0.541986734689,-1.279904538,-3.38785605339,-2.56750944855,-5.26689643982,-4.9812712335,-1.21967236748,-1.51768867283,-14.1042206346,-1.83278815372,-2.18345471146,21.0461596076
off_to_on,-1.03202026424,0.979472653374,-0.575629865005,-1.32019931517,-3.35942521369,-2.48943219297,-5.17389520821,-3.79972846211,-1.179011969,-1.08323060535,-9.32672896171,-0.406922486006,-1.13377327686,4.24586194656
off_to_on,0.638643537699,2.32284744537,-0.600936170572,-1.2902187229,-3.05241928096,-2.16734880284,-4.52111613464,-2.1995498582,-1.09564861146,-0.572252494879,-3.83444835687,1.09135757844,-0.0171236779023,-13.5942278127
off_to_on,2.27520306113,3.48019211229,-0.594779593726,-1.16541917882,-2.4507248539,-1.55438908409,-3.27550913243,-0.228078326519,-0.965009722848,-0.00850919818304,1.92085026848,2.61597097106,1.13543709845,-30.7190027844
off_to_on,3.73407102296,4.3804273847,-0.53645856376,-0.93060371024,-1.57905158575,-0.652602536075,-1.48904931946,2.00823924835,-0.784864151137,0.57515926971,7.45316303728,4.09840045042,2.27553966514,-45.2831670374
off_to_on,4.87612557341,4.96842062667,-0.412006998746,-0.582895384685,-0.50640729304,0.476801420644,0.693136139126,4.34162542548,-0.556171227971,1.13740507322,12.2902916535,5.44176325527,3.33200345968,-55.6053396707
off_to_on,5.5782249941,5.20690255393,-0.217518575563,-0.133229004127,0.658007268565,1.71398094544,3.03996939432,6.55192541957,-0.283671240736,1.63088580545,16.0219658513,6.52240582858,4.21141838564,-60.4159368612
off_to_on,5.74555308884,5.0783479245,0.0390815397029,0.393855397427,1.77637396044,2.89240266627,5.25716268059,8.38677384845,0.0238771968662,2.00664002115,18.342433358,7.19989331749,4.80555698253,-59.0594821662
off_to_on,5.32351262759,4.58676260983,0.338147037278,0.962122278231,2.69992205442,3.82088693298,7.02314721792,9.5910347652,0.353870638963,2.21987732736,19.0824051774,7.33461024449,5.00501811036,-51.6178886201
off_to_on,4.30759119792,3.75906858222,0.650344187265,1.52704725807,3.29021458138,4.31265928104,8.03354652298,9.9418066185,0.690457695746,2.23641195364,18.2264229526,6.81060004429,4.71721110858,-38.9326275729
off_to_on,2.7495532464,2.64559031904,0.940353321274,2.04032976021,3.44086458098,4.21697698998,8.04789630146,9.28401804016,1.01552337284,2.03875521246,15.9134267689,5.56002514679,3.88577890547,-22.518810603
off_to_on,0.758509202648,1.31907157249,1.17172135422,2.45498533842,3.09625189891,3.44824465522,6.9315738767,7.56110180439,1.30997902587,1.63082147905,12.4203279425,3.58495140412,2.50801059762,-4.38071269575
off_to_on,-1.50412015708,-0.12828094889,1.31216253056,2.73042169903,2.26410930664,2.00767402991,4.68621719911,4.8355397659,1.55523843572,1.04031351617,8.1304677181,0.972187829896,0.646816744344,13.2464341227
off_to_on,-3.83603209696,-1.59001973796,1.33852157007,2.83690608372,1.01964772419,-0.00652314514081,1.46327003283,1.29520968911,1.73473584682,0.318127936345,3.49069526061,-2.10232997322,-1.56554866693,28.1918712321
off_to_on,-6.01131596611,-2.95291102698,1.24064637402,2.75890713191,-0.499917130381,-2.40282205902,-2.44248866308,-2.75670479902,1.83533337551,-0.465474832066,-1.03781875872,-5.38172907872,-3.93371437066,38.6392828135
off_to_on,-7.80216538028,-4.10619852359,1.02356230651,2.49693111369,-2.11016390116,-4.91433217237,-6.61979502461,-6.92820806478,1.84847424679,-1.22771688402,-5.02918618582,-8.54924203072,-6.21559039267,43.3689566563
off_to_on,-9.00286491739,-4.95186779004,0.707576262968,2.06765264035,-3.60189975614,-7.22922194678,-10.5855567479,-10.7789689633,1.770963943,-1.88247138753,-8.13699277153,-11.2603818399,-8.14756486052,41.9166466887
off_to_on,-9.45335964505,-5.41479396455,0.326232386833,1.50234077037,-4.76832860436,-9.02986961325,-13.8420744393,-13.8702067627,1.60530055662,-2.35065851622,-10.1280037504,-13.1826677434,-9.47564604363,34.6260040533
off_to_on,-9.05951384236,-5.45148754727,-0.077649922595,0.843778005649,-5.43323842204,-10.0355188187,-15.9395855008,-15.8178244968,1.35952372401,-2.57051322317,-10.9017016769,-14.0378987794,-9.98857359976,22.5874070324
off_to_on,-7.80734521011,-5.05617024271,-0.457345743916,0.142038365554,-5.4762070928,-10.0424799156,-16.535860597,-16.3418550691,1.04660265757,-2.50629560595,-10.4938092342,-13.6412277431,-9.54834391672,7.4731212431
off_to_on,-5.76908535325,-4.26313156205,-0.768282700911,-0.550388020881,-4.85112442895,-8.95603894425,-15.4446988992,-15.3054685075,0.683431804138,-2.15414820609,-9.06397975923,-11.9313631756,-8.11366959265,-8.70570147886
off_to_on,-3.09981272953,-3.14472075172,-0.973958839046,-1.18357570926,-3.59517968655,-6.80921871707,-12.6664358011,-12.7379313105,0.289541791738,-1.54413515314,-6.86979320396,-8.98714442313,-5.75263672188,-23.883060339
off_to_on,-0.0245258067411,-1.80486982575,-1.05089910683,-1.71470730684,-1.82675557361,-3.76525395606,-8.39583769383,-8.83787557122,-0.114340974853,-0.737985263798,-4.23081991483,-5.02739133464,-2.64214980975,-36.2202224847
off_to_on,3.18327104323,-0.368648860564,-0.991952500967,-2.11170495131,0.267779108067,-0.102858799194,-3.00571039203,-3.95576947625,-0.507743232941,0.177360148291,-1.48760369839,-0.393109335819,0.946512371905,-44.343839492
off_to_on,6.2292702187,1.03106385225,-0.807454158939,-2.35559645184,2.45679759735,3.81423303469,2.99221353827,1.44276181016,-0.87176687097,1.09970492368,1.03915890565,4.48646760292,4.67480597448,-47.5054354259
off_to_on,8.82926406677,2.26824654939,-0.524066864339,-2.44141992893,4.49268934515,7.57973250436,9.00446760608,6.82851713994,-1.19017139107,1.9238570912,3.08423939849,9.14023017145,8.1736751019,-45.6404927399
off_to_on,10.7396395683,3.23790712952,-0.181433987151,-2.3776442491,6.14371284352,10.7937842927,14.424001647,11.668881017,-1.45013889454,2.55462277438,4.46420571505,13.1083446579,11.0854958588,-39.3215820733
off_to_on,11.7837883899,3.867906085,0.17292356438,-2.18425098475,7.2240207179,13.1119906068,18.7006299018,15.4889947164,-1.64268538247,2.91881503134,5.09177027752,15.9954968599,13.1059074619,-29.616983074
off_to_on,11.8711682235,4.12680149498,0.489792150886,-1.88976737804,7.61763929578,14.2878713901,21.4047462819,17.9261262949,-1.76272524494,2.97464176518,4.9771604558,17.5173208824,14.0200914741,-17.8812995446
off_to_on,11.0066025997,4.02656255492,0.724708522676,-1.52764304948,7.29298503699,14.2029840035,22.2761300492,18.7702476439,-1.80883461909,2.7171533758,4.21725285503,17.5338553145,13.7286768912,-5.51524775299
off_to_on,9.28859511544,3.61965908443,0.843801541834,-1.13241575354,6.30580680901,12.8805708274,21.2516322489,17.9856038479,-1.78278898864,2.17894115583,2.97476393301,16.0654892099,12.2597458334,6.26366211827
off_to_on,6.8968093993,2.99079548507,0.828254170615,-0.736109675385,4.79007567568,10.4808477109,18.4683463807,15.7105609275,-1.6889675686,1.42591412072,1.45095261238,13.2891395064,9.76522253158,16.6002081344
off_to_on,4.0702478539,2.24431358065,0.676794740056,-0.365256562294,2.93807200583,7.27857687626,14.2421403001,12.2359046498,-1.53372012524,0.54865786122,-0.144072878498,9.51503243369,6.50200247789,25.0999283649
off_to_on,1.07886490556,1.48893082902,0.40589353703,-0.0388342976933,0.972494851767,3.62602811813,9.02470981543,7.96464085897,-1.32478140083,-0.349500630231,-1.61930199266,5.14708150386,2.80023300749,31.8307711374
do_nothing,-1.80779079076,0.82191175248,0.0476503006176,0.232707193805,-0.885390092853,-0.0935279212479,3.34515556854,3.35881998334,-1.07079661204,-1.16612232248,-2.8253947084,0.63209699089,-0.977096076502,37.2288033186
do_nothing,-4.35091735158,0.314920799778,-0.354332447245,0.447300444434,-2.44691975149,-3.51532400882,-2.2559076804,-1.11936844692,-0.780992432179,-1.81311878274,-3.66923024217,-3.59539271028,-4.47790073794,41.9260887955
do_nothing,-6.36792822271,0.00364148537659,-0.750528561946,0.610096855707,-3.58191344439,-6.33870856483,-7.29080199446,-5.06425335243,-0.464996200875,-2.22818225078,-4.11906491953,-7.16530440734,-7.40227401574,46.5333550136
do_nothing,-7.7498402236,-0.117219680165,-1.0917702032,0.731501113302,-4.23536764244,-8.36253150451,-11.3792229501,-8.17347914176,-0.13277676191,-2.38257450382,-4.20032829279,-9.81414308224,-9.53580056551,51.419350362
do_nothing,-8.4684555247,-0.0926410572966,-1.33539838478,0.824702817513,-4.43236656179,-9.50542790456,-14.2856027383,-10.2787473829,0.205342306708,-2.28415423673,-3.98339669855,-11.4114962508,-10.7705326422,56.5311496761
do_nothing,-8.57258865168,0.000325343488575,-1.45047761699,0.903048298833,-4.27031689979,-9.80828619773,-15.9348248817,-11.3565872894,0.538659021879,-1.97517811159,-3.56573213642,-11.9674257033,-11.1109601997,61.2944577565
do_nothing,-8.17407748935,0.065601932249,-1.42140835804,0.977597031063,-3.89949638803,-9.41875275892,-16.4048223566,-11.518067822,0.856122022766,-1.52514424272,-3.05143167926,-11.6199793375,-10.6644051373,64.6207694471
do_nothing,-7.42571566776,0.0048612345826,-1.24949757439,1.05516822685,-3.49469353679,-8.56023146528,-15.897885654,-10.979352374,1.14646528466,-1.01965709135,-2.53142996357,-10.6048557423,-9.61746029297,65.0308000687
do_nothing,-6.49436117624,-0.264301567631,-0.952330418565,1.13711057825,-3.22214897068,-7.49011433125,-14.6955296666,-10.0177295497,1.39848192369,-0.546879251444,-2.06733328632,-9.21180458302,-8.20207157393,60.8835458174
do_nothing,-5.53315642028,-0.791451052907,-0.561085309392,1.21893157922,-3.20686967005,-6.45359922792,-13.104094522,-8.91984717045,1.60144476668,-0.183513441572,-1.68120043623,-7.73427481232,-6.65634671637,50.6808378467
do_nothing,-4.65693904839,-1.58026418264,-0.116209199675,1.29081442617,-3.5055339483,-5.64017338552,-11.39955715,-7.93003281316,1.74565362267,0.0176303771612,-1.35263532801,-6.41985007032,-5.18595193976,33.4015250191
do_nothing,-3.92450275278,-2.58156421143,0.337917872392,1.33894277363,-4.08959174832,-5.14955045767,-9.78011971073,-7.20663079503,1.82306379324,0.0366041235831,-1.02346430761,-5.42897776199,-3.93190932192,8.81020514552
do_nothing,-3.33043089267,-3.69391496359,0.758578080227,1.34745851018,-4.84185222203,-4.97256881326,-8.33399725972,-6.79320157243,1.82793119363,-0.109605348188,-0.609190899461,-4.8083918267,-2.94972754249,-22.3154401013
do_nothing,-2.80789182986,-4.77228040796,1.10980433844,1.300805137,-5.56799912226,-4.99045288672,-7.02760001756,-6.60934947337,1.75739940024,-0.368670801975,-0.0154949565269,-4.48358484995,-2.20319672787,-58.0865582535
do_nothing,-2.24222768788,-5.64415963984,1.36628634448,1.18616632901,-6.02232555309,-4.9931894432,-5.7162962646,-6.46314176528,1.61195444062,-0.660169489358,0.842616585421,-4.27197113987,-1.57406639816,-95.5658510316
do_nothing,-1.49359552118,-6.13153394679,1.51560178657,0.995699474336,-5.94482411019,-4.71493884274,-4.17656222989,-6.0839327751,1.39568405028,-0.887650008647,2.02172504427,-3.91536459561,-0.886490137514,-131.000261679
do_nothing,-0.425545405756,-6.0760550211,1.55852939512,0.728287483331,-5.10490870728,-3.88178216234,-2.15504344717,-5.17134122748,1.11629775333,-0.953970857955,3.5336686624,-3.12748861638,0.0571160580529,-160.207343458
do_nothing,1.06456462387,-5.36428940126,1.50747952427,0.390585613641,-3.34575310416,-2.26507112189,0.572670820392,-3.4535735809,0.784889574088,-0.777829147653,5.33429200377,-1.64984818598,1.43397759555,-179.074291759
do_nothing,3.01786779516,-3.94960786999,1.38334747485,-0.002782727318,-0.62271343845,0.267500853127,4.14253009078,-0.746606392672,0.415452792581,-0.309135559148,7.31897843016,0.69222747741,3.35894699128,-184.108361267
do_nothing,5.39339408296,-1.86751679155,1.21131701365,-0.42993462887,2.97033435986,3.71106608852,8.55128265301,2.99480859979,0.0241820869295,0.459058212391,9.32586772397,3.94198403748,5.84917798463,-172.964884645
do_nothing,8.05820793651,0.758136187756,1.01628560202,-0.863295840586,7.19167374554,7.89991191949,13.6232532606,7.64266348128,-0.371380762925,1.4840078801,11.1467865372,7.97992329168,8.80145845487,-144.876631561
do_nothing,10.7906132621,3.71964941704,0.818628918471,-1.27188943409,11.6623880005,12.5058503867,19.0013345467,12.8842102793,-0.753288212404,2.67338782227,12.5450691654,12.5147095702,11.9866709953,-100.916684203
do_nothing,13.2970978561,6.7409607547,0.630964308167,-1.62412559814,15.8974005002,17.0606984161,24.1658175656,18.2371024516,-1.10414157781,3.89251166759,13.2787041751,17.0994417979,15.0636585063,-44.0456796713
do_nothing,15.2418599224,9.5030994421,0.456419293341,-1.89081468306,19.354635813,21.0017184902,28.4809693096,23.0913209134,-1.40798958865,4.97817409471,13.1266709032,21.1730710311,17.6121632221,21.0790175958
do_nothing,16.2859949397,11.6772454756,0.28868398286,-2.04809492051,21.4974417466,23.7356543557,31.2653748013,26.7743879189,-1.65111323168,5.75771678651,11.9159663694,24.1232546476,19.1818167006,88.5233488905
do_nothing,16.131951689,12.9619643157,0.113857105335,-2.07996676911,21.8633124745,24.7142115075,31.8785076407,28.6330028453,-1.82265590937,6.07115746834,9.54668193491,25.3637805876,19.3517413132,151.685286637
do_nothing,14.5678900944,13.1204667964,-0.0861777510105,-1.98015802466,20.1306295092,23.5118587744,29.8132549268,28.1216003156,-1.91507657276,5.79370518125,6.01256537914,24.4172961451,17.7935108233,204.024187731
do_nothing,11.5062322312,12.0134912909,-0.329347855646,-1.75310510176,16.1747980783,19.8959506071,24.7825877583,24.8868001094,-1.92442112153,4.85579119085,1.41478032295,20.992776938,14.3292699222,239.823272215
do_nothing,7.01105737817,9.62366627264,-0.628631713416,-1.41392078853,10.1058913756,13.8795410621,16.7884818406,18.8365266664,-1.85042147923,3.25790761329,-4.03297368534,15.0471814797,8.97688719885,254.889399561
do_nothing,1.31003321474,6.06797486747,-0.98769451952,-0.987319374975,2.28168151247,5.74887594616,6.16262268574,10.1837978722,-1.69644071103,1.07805503567,-10.0092182133,6.82210204435,1.97514367323,247.098632752
do_nothing,-5.21180527241,1.59613709861,-1.39764190464,-0.505576621348,-6.70744032536,-3.93975253797,-6.428743186,-0.542282560418,-1.46928583029,-1.52959748029,-16.0998502972,-3.15118080451,-6.21596252144,216.712847369
do_nothing,-12.0370964793,-3.42577437982,-1.83548512805,-0.00570386248986,-16.0819586224,-14.3956254813,-20.0195224396,-12.5222139634,-1.17890816644,-4.34523271686,-21.8234087884,-14.0812870971,-14.941910592,166.419927687
do_nothing,-18.558486526,-8.54552717201,-2.26469393222,0.473898024381,-24.9420527586,-24.6596741137,-33.4171791802,-24.708129166,-0.838005952057,-7.10239069595,-26.6653099013,-24.9799308692,-23.4062585042,101.084459201
do_nothing,-24.1346216695,-13.2661734764,-2.63793718277,0.896977576887,-32.3554607418,-33.6952285937,-45.3092413313,-35.9174502959,-0.461537383385,-9.51372201756,-30.1190445434,-34.7535386461,-30.7448298766,27.2327890175
do_nothing,-28.1543889379,-17.0948166909,-2.90181205149,1.23280827717,-37.4555174446,-40.4944319809,-54.3930464402,-44.9494476964,-0.0661472500404,-11.3008827873,-31.7315150865,-42.3144227141,-36.1143082979,-47.6690519164
do_nothing,-30.1027740617,-19.5937891624,-3.00307913361,1.4590518447,-39.538841115,-44.1890409455,-59.5155537924,-50.7128351398,0.330491556855,-12.2253758652,-31.1489936751,-46.6998590656,-38.7859368438,-116.058488308
do_nothing,-29.6211956585,-20.4288600104,-2.89569108131,1.56380535197,-38.1516511343,-44.1533094558,-59.808129327,-52.3506510574,0.710417388519,-12.1169100501,-28.1596875832,-47.1859123125,-38.2339089789,-171.137794723
do_nothing,-26.5554538815,-19.409200561,-2.54775703905,1.54660706317,-33.1544730324,-40.0870253496,-54.8009521136,-49.3483125946,1.05618773834,-10.8960055709,-22.7286821109,-43.3828304839,-34.2081034541,-207.647442834
do_nothing,-20.985489416,-16.5145248081,-1.94754474891,1.41828148126,-24.7569737996,-32.068531325,-44.5031808919,-41.6119732324,1.3517311712,-8.58810930467,-15.0211728228,-35.3003442649,-26.7820891636,-222.455452797
do_nothing,-13.2328847213,-11.9060312532,-1.1076938422,1.1996258893,-13.5176763306,-20.5705367738,-29.4381403785,-29.5070660795,1.58320426883,-5.32734049747,-5.41045014307,-23.3741102785,-16.3696929887,-214.889738429
do_nothing,-3.84427521799,-5.91937940487,-0.0669906617966,0.919065843767,-0.307006159197,-6.43539613424,-10.6272331729,-13.8508977601,1.73980057153,-1.34907360332,5.53192100492,-8.44853285352,-3.70664046904,-186.772985527
do_nothing,6.44866366606,0.960227829366,1.1106830644,0.60952179453,13.763882853,9.18913323928,10.4784103823,4.14205039734,1.81444803929,3.02824145462,17.0649039355,8.28415203189,10.2025019907,-142.157474497
do_nothing,16.789496761,8.13891045432,2.34029887747,0.304819994039,27.4422259807,24.9483196542,32.1139365783,22.9583782629,1.80432750437,7.43045308042,28.325254705,25.3838603752,24.168045671,-86.7954326811
do_nothing,26.2722081845,14.9672719503,3.52226506756,0.0360369779507,39.4512021832,39.4039194471,52.354549444,40.9190403631,1.71114904687,11.4616951103,38.39084773,41.2926562687,36.9220508936,-27.413914004
do_nothing,34.0242217304,20.8008414061,4.55107105108,-0.171819437678,48.6141726291,51.1706360416,69.2928358521,56.3351068509,1.54113710295,14.7416629407,46.3557818575,54.4822209567,47.2381080555,29.112562043
do_nothing,39.2892274386,25.0619267425,5.32516623703,-0.302421442667,53.97285441,59.0519161023,81.2224573785,67.6707582249,1.30469785343,16.942461697,51.4113178574,63.6040716053,54.0521029605,76.5864878344
do_nothing,41.5016243736,27.2967481311,5.75708301083,-0.349728495663,54.88706602,62.1612491658,86.8098449456,73.6971195787,1.01577197315,17.8213101456,52.925459182,67.6271799282,56.5716142158,110.205771623
do_nothing,40.3450810568,27.2220912082,5.78275703495,-0.318404854422,51.1054204022,60.0164362894,85.2362614522,73.6211263199,0.690908780997,17.2457767583,50.5133736114,65.9486539147,54.3624825027,127.088249389
do_nothing,35.7891848349,24.7566873589,5.36905557312,-0.222996010371,42.7992526448,52.5969266919,76.2951928429,67.1758797399,0.348129980655,15.2089645401,44.091008913,58.4656987896,47.4032193354,126.541095227
do_nothing,28.1002486357,20.0339957934,4.51868929656,-0.0859555582899,30.5558367228,40.3580035761,60.4342360725,54.6626665587,0.0056780120156,11.8330670028,33.9052494405,45.6008953431,36.1010660074,110.048077816
do_nothing,17.8248505132,13.3948787266,3.2719363304,0.0652512441547,15.3311551896,24.1999328188,38.7360434371,36.9395917401,-0.319238562116,7.36087945233,20.5357670034,28.2775149031,21.2673387793,80.9846509211
do_nothing,5.74733818633,5.36063918055,1.70492093491,0.20163065433,-1.63332640148,5.39470541631,12.8388974578,15.357103474,-0.611585277578,2.13604315487,4.86621134933,7.84662812989,4.05379613342,44.1058030036
do_nothing,-7.17493651689,-3.41117346735,-0.0754710197899,0.296321610002,-18.9217223643,-14.5227732735,-15.1964989016,-8.35399063393,-0.859419250659,-3.42610025139,-11.9746590263,-14.0273782816,-14.1442987722,4.87980209354
do_nothing,-19.8927380762,-12.18409102,-1.93962786594,0.328001544675,-35.0716477538,-33.8887078511,-43.0620530301,-32.2316665693,-1.05449809667,-8.87427273344,-28.6981843668,-35.5120999541,-31.8093895449,-31.2411725682
do_nothing,-31.3549545983,-20.2078078754,-3.74550149146,0.283630375279,-48.7063818291,-51.0569133081,-68.4029828397,-54.2549503687,-1.19252815315,-13.7602699952,-43.9606846792,-54.7694138703,-47.4356538976,-59.517175852
do_nothing,-40.5992187037,-26.7848988673,-5.35023866511,0.160202115982,-58.6583713744,-64.5439740924,-89.0254678173,-72.5230264551,-1.27304071117,-17.6775914925,-56.4789306728,-70.1193559923,-59.6631396518,-76.4946579186
do_nothing,-46.8348801529,-31.3329295427,-6.62212035365,-0.034709901599,-64.0722424986,-73.1595646812,-103.091842447,-85.4243180482,-1.298927758,-20.296172261,-65.1455351845,-80.1901223934,-67.3993480352,-80.3890162916
do_nothing,-49.5108803421,-33.4362054177,-7.4517531611,-0.283684761264,-64.4777767149,-76.1100865509,-109.285165478,-91.7797766627,-1.27570786688,-21.3901458249,-69.1330714859,-84.0402545826,-69.916920509,-71.233707159
do_nothing,-48.3625925721,-32.8824555263,-7.76153408296,-0.561380054329,-59.82653379,-73.0665522186,-106.928023674,-90.947276204,-1.2106230533,-20.8562963556,-67.9763775526,-81.241943758,-66.9185158841,-50.7865210466
do_nothing,-43.4337394168,-29.6812369173,-7.51257439545,-0.837425604752,-50.4895949472,-64.1912270884,-96.0449034003,-82.8779126795,-1.11168448973,-18.7217844481,-61.6243163034,-71.9182917657,-58.5632341297,-22.2161662188
do_nothing,-35.0718617506,-24.0626216277,-6.70850136207,-1.07994083292,-37.2178274195,-50.1215321095,-77.3629084178,-68.1197340635,-0.986786523035,-15.1407536984,-50.4550744127,-56.7318704713,-45.4526961461,10.3794845711
do_nothing,-23.8982502737,-16.4566014635,-5.39583287458,-1.25925605136,-21.0697051619,-31.9136959803,-52.251447749,-47.7694632193,-0.842994198203,-10.3804392939,-35.2526154887,-36.8265492677,-28.5787281644,42.551941739
do_nothing,-10.7555186292,-7.45542888042,-3.66091310148,-1.35139345186,-3.31467912529,-10.952226193,-22.6071662636,-23.3776096507,-0.686081406465,-4.79830649434,-17.1457817285,-13.7288407771,-9.23813259219,70.0962133345
do_nothing,3.36211649568,2.23737033343,-1.62368017182,-1.34089344868,14.6779164002,11.1658923485,9.30471633288,3.18348691866,-0.520358768375,1.18753546336,2.48466496972,10.7814680889,11.0770919416,89.5810141065
do_nothing,17.3894438625,11.8664664552,0.571213586623,-1.22265279767,31.5535754547,32.7615040833,41.0378172273,29.876065736,-0.348787790939,7.13192689298,22.1224825991,34.8191953566,30.8037530856,98.7481093889
do_nothing,30.2746601312,20.6872220737,2.76521080447,-1.00256247287,46.0804096061,52.2065741101,70.1637733026,54.6634534087,-0.173336735235,12.5973439983,40.2448827887,56.5467799969,48.4344666147,96.7349415602
do_nothing,41.0604606107,28.0256910692,4.79773640901,-0.696880396421,57.2408408759,68.0492948025,94.4657594557,75.6720212162,0.00450016761097,17.1868383512,55.4517224966,74.319206105,62.6366452955,84.1011006778
do_nothing,48.9553409454,33.3310492697,6.51824911579,-0.330428255639,64.3002329077,79.1211817065,112.110099616,91.3350366474,0.183120225077,20.5727082947,66.5827657392,86.8089726192,72.3536967152,62.6670074654
do_nothing,53.3897984689,36.2162898445,7.79755052166,0.0661566229733,66.8482415598,84.6184606675,121.782366713,100.507150642,0.360273188241,22.5188923729,72.8121624221,93.1016199168,76.8807254268,35.1984151642
do_nothing,54.0536778021,36.4842584254,8.53751781587,0.459771844867,64.8116055479,84.1526907447,122.778113388,102.541454038,0.532662900736,22.8957141516,73.7117508682,92.7554047257,75.9096876098,4.98956580602
do_nothing,50.9126754982,34.1375415386,8.67855467423,0.818393021363,58.4398869461,77.7684269691,115.042794942,97.324747747,0.695763322484,21.6863042275,69.2780822288,85.8221499593,69.5418773427,-24.5913890961
do_nothing,44.2038215053,29.3722050007,8.20422771205,1.1143841833,48.2680120692,65.9285136283,99.160067603,85.2704989032,0.843888100019,18.9847105313,59.9218029655,72.829728314,58.2685257848,-50.5299059292
do_nothing,34.411423071,22.5567603375,7.1427598106,1.32718872749,35.0611365377,49.4700623729,76.2920112869,67.2725187877,0.970512883795,14.9863234515,46.4217860925,54.7297428721,42.9228904983,-70.5088086614
do_nothing,22.2263522097,14.1988923317,5.56527310104,1.44510043309,19.7482466805,29.5361233157,48.0785424816,44.6253789043,1.06881013687,9.97174386452,29.8497526686,32.816485415,24.6092818648,-83.1273535799
do_nothing,8.49258608907,4.90331813109,3.5808999685,1.46593665081,3.35100445759,7.48939175218,16.5060574788,18.9197530785,1.13232315848,4.28558339923,11.4737136328,8.6250125347,4.6158741676,-87.975397602
do_nothing,-5.85447634174,-4.67538285649,1.32909724949,1.3965781965,-13.086261903,-15.1850220225,-16.2429884806,-8.07788102295,1.15568437699,-1.68810145739,-7.34986553943,-16.1828927723,-15.6811770302,-85.5648875208
do_nothing,-19.8531983314,-13.881037076,-1.03030532778,1.25148400888,-28.5606501748,-36.9806556721,-47.9473405151,-34.5514335661,1.13527581859,-7.55196938191,-25.2848399113,-39.9359900524,-34.9148168151,-77.141590398
do_nothing,-32.5798402542,-22.101565527,-3.32862781317,1.05041459533,-42.1655201672,-56.4679213427,-76.4993560027,-58.758063948,1.06973796906,-12.9214286599,-41.1154433557,-61.0657917309,-51.8185110248,-64.4159770386
do_nothing,-43.2075718755,-28.8089522891,-5.40061819554,0.815690593684,-53.1342293548,-72.3836427198,-100.042299771,-79.139680744,0.960255582609,-17.4489751295,-53.8296149933,-78.2065744834,-65.3062375793,-49.2612925273
do_nothing,-51.0569794027,-33.5910875243,-7.09660108421,0.569360013205,-60.8722643942,-83.7071062849,-117.084299298,-94.4166949144,0.810581771578,-20.8454793935,-62.6799184522,-90.2775671788,-74.5366666002,-33.4280719296
do_nothing,-55.6354999913,-36.1739205167,-8.29360125968,0.330644623064,-64.9782854044,-89.718997701,-126.583138374,-103.659513492,0.626799757996,-22.8973272956,-67.2190865926,-96.5433846906,-78.9586502314,-18.3179021242
do_nothing,-56.6640735141,-36.4332141456,-8.90459874919,0.113984049363,-65.2552080516,-90.0407690358,-127.998561442,-106.335151726,0.416859020538,-23.4785963035,-67.3099504805,-96.6504807371,-78.3366146371,-4.84647674578
do_nothing,-54.0901354316,-34.3959851853,-8.8851880447,-0.0720965746102,-61.7126330721,-84.6530977657,-121.311123693,-102.328085063,0.189953412565,-22.5577352408,-63.1119328253,-90.6389776588,-72.7557723757,6.59075965953
do_nothing,-48.0868422552,-30.2323872048,-8.23708986015,-0.225189763478,-54.5617596961,-73.893124185,-107.00869227,-91.9359502718,-0.0441715943758,-20.1984981795,-55.0481486416,-78.9306145665,-62.6081838478,16.0549991339
do_nothing,-39.0391008811,-24.2393103549,-7.00819046392,-0.348304918041,-44.2035146976,-58.4310908092,-86.0433899778,-75.8418907638,-0.275890008577,-16.5551627048,-43.7583035905,-62.2947023324,-48.5615672191,23.9232870418
do_nothing,-27.5175614791,-16.8173241375,-5.28904687818,-0.448412657152,-31.2101534871,-39.2278754249,-59.7630502045,-55.0662327712,-0.49626169199,-11.8623380721,-30.0429694272,-41.7948879661,-31.5134000647,30.7032748012
do_nothing,-14.2422384021,-8.44278446601,-3.2060770274,-0.534483204873,-16.3002091067,-17.4757326774,-29.8221492195,-30.9008245251,-0.697433499388,-6.41993922118,-14.8045113873,-18.7202407108,-12.5333109562,36.8420931135
do_nothing,-0.0378558400869,0.36301170459,-0.911929463405,-0.61533090498,-0.306518383838,5.47464877581,1.92223775724,-4.8298376143,-0.872846421692,-0.574163998936,1.01090046586,5.49528450148,7.20292689156,42.5670321176
do_nothing,14.2166183946,9.06578161049,1.42622705909,-0.697595394886,15.8627705501,28.1969135025,33.5235742432,21.5588153985,-1.01725549928,5.30444615178,16.4669304614,29.3605422013,26.4842722385,47.7884074797
do_nothing,27.6414893843,17.1495916051,3.63956229552,-0.784162192815,31.2697892622,49.2770927124,63.0620568986,46.6670041153,-1.12660250345,10.8445725684,30.6843564354,51.4172989022,44.13649198,52.0826673721
do_nothing,39.4099258761,24.145999956,5.57054311332,-0.873256177014,44.9979152955,67.4018647159,88.7578201939,68.9801646076,-1.19780658018,15.6978677054,42.8811035405,70.3278355916,59.0916933881,54.758629461
do_nothing,48.7985449222,29.6596229918,7.08491726028,-0.958340974622,56.2059196052,81.4416207986,109.07523799,87.1565041646,-1.22855074808,19.5613603364,52.404977812,84.9551500409,70.4515883785,54.9943236256
do_nothing,55.2319489736,33.3889491186,8.08171854628,-1.02884000086,64.1821289403,90.5229170223,122.812713626,100.10675544,-1.21713992438,22.1970087815,58.7594888695,94.4310766506,77.5409174967,52.0188458191
do_nothing,58.318388866,35.1414571196,8.50045540563,-1.07157718862,68.3946500965,94.085253182,129.172877706,107.059784401,-1.16248908924,23.4470208523,61.6232037325,98.2081194205,79.9477930968,45.3050723127
do_nothing,57.874140314,34.8423558916,8.32489262194,-1.07273346006,68.5332765153,91.9179034407,127.808918442,107.609814059,-1.06427090809,23.2438035272,60.8628089064,96.0915678196,77.5482745591,34.7364491222
do_nothing,53.9348010086,32.5365586899,7.5831438345,-1.02004239604,64.5387650356,84.1737280557,118.843893095,101.741823095,-0.923215415279,21.6137595655,56.5396116666,88.2495443418,70.5132847095,20.7147842042
do_nothing,46.7525223662,28.3838379899,6.34413073067,-0.904914764947,56.6157984682,71.3584670565,102.861316406,89.8328346867,-0.741516485493,18.6745915725,48.9087531216,75.1999858196,59.2970056404,4.18541319138
do_nothing,36.7791398153,22.6474710677,4.71079946855,-0.72419051903,45.2271230019,54.2958443145,80.8670501058,72.6282945367,-0.523267524023,14.6262725213,38.4101043023,57.7751133636,44.6071054548,-13.4302700071
do_nothing,24.6361882012,15.6770650319,2.81078098201,-0.481266610493,31.0679685769,34.0707361092,54.2244295367,51.1944600143,-0.274828212739,9.73635100792,25.6498082928,37.065581528,27.3584585046,-30.3893632285
do_nothing,11.0737948018,7.88661713963,0.785407775606,-0.186432088247,15.0217512581,11.9544924763,24.5665117058,26.8495442286,-0.00501972188419,4.32072936293,11.3717927145,14.3480679255,8.61331284449,-44.8485811862
do_nothing,-3.07866786886,-0.270811563585,-1.22186888104,0.143653366021,-1.90000688684,-10.6819560232,-6.30886965431,1.07810160029,0.274940462878,-1.27856691646,-3.58069153566,-8.99859235603,-10.4880052598,-55.1195750929
do_nothing,-16.9666106038,-8.33018988562,-3.07659502343,0.487289428677,-18.6288702551,-32.4604998216,-36.5540992065,-24.5653887391,0.55182195266,-6.71686253569,-18.3124250363,-31.5826626367,-28.8009134122,-59.9192440599
do_nothing,-29.7649954727,-15.8416301568,-4.66298538534,0.819721583824,-34.1158248329,-52.0865883473,-64.3887518393,-48.5567711212,0.811096524034,-11.6696988136,-31.930215305,-52.0876328741,-45.2495424702,-58.5752393811
do_nothing,-40.7298641073,-22.3957835967,-5.89136052622,1.11554934082,-47.4061066351,-68.4313477301,-88.2102032665,-69.4989070972,1.03794663665,-15.8533360358,-43.6001479447,-69.3528309594,-58.893509352,-51.1526717557
do_nothing,-49.242970531,-27.6459335542,-6.7028258159,1.35127063997,-57.7059223425,-80.5990104906,-106.690014953,-86.2076925283,1.21847819503,-19.0413965351,-52.6038172586,-82.440847158,-68.9836843718,-38.479399138
do_nothing,-54.8465193653,-31.3254940063,-7.07097973002,1.50766348963,-64.435250526,-87.9750639252,-118.849427774,-97.7812195066,1.34100619508,-21.0765567065,-58.388788607,-90.6873495073,-75.0031393652,-22.0624579091
do_nothing,-57.2659322896,-33.2600215766,-7.00075880101,1.57173060966,-67.262357075,-90.2524209438,-124.109120965,-103.647444469,1.39725592011,-21.8766958176,-60.6086175537,-93.7305146395,-76.6908195265,-3.90483901269
do_nothing,-56.4196520592,-33.373317174,-6.5248172493,1.53799121667,-66.1175848442,-87.4350190397,-122.310654851,-103.587698131,1.38331781285,-21.4354477506,-59.1484146805,-91.519161768,-74.0470525468,13.7527099655
do_nothing,-52.4161222502,-31.6876750779,-5.69806706508,1.40898731059,-61.1861446038,-79.8203147936,-113.70947348,-97.7355607635,1.30021330239,-19.8176160459,-54.1331571661,-84.3005450561,-67.3216151735,28.7283070426
do_nothing,-45.5391253304,-28.3187768108,-4.59114378273,1.19496822283,-52.8817688128,-67.963923026,-98.9417225887,-86.5527765233,1.15397044634,-17.150343296,-45.9175793476,-72.5904170544,-56.9865345563,39.1910743534
do_nothing,-36.2235070189,-23.466073686,-3.28360070454,0.912813856792,-41.804923643,-52.6309497535,-78.969172451,-70.7857450177,0.955167500743,-13.6112247966,-35.0583251384,-57.1292370105,-43.6969432352,43.9060825178
do_nothing,-25.0238747448,-17.3997180614,-1.85756964274,0.584341676478,-28.6905835501,-34.7392513154,-55.0080015971,-51.4074973859,0.717971743047,-9.41469305853,-22.2708747209,-38.8291308734,-28.2440084512,42.3961654698
do_nothing,-12.5790863248,-10.445171226,-0.392472548695,0.234204996339,-14.3512073324,-15.2998692324,-28.447950191,-29.5507965005,0.458770417788,-4.79796632022,-8.37532052138,-18.7163570679,-11.5041556304,34.9970108601
do_nothing,0.42475729519,-2.96654064298,1.03884949704,-0.112376092391,0.379537744087,4.64071432354,-0.768343468474,-6.43804442943,0.194550360239,-0.00766616759883,5.7638501963,2.12638097781,5.61148988963,22.797945392
do_nothing,13.2904866688,4.65049110679,2.37247251461,-0.431807145925,14.6975258117,24.0529508405,26.5432255145,16.6869198184,-0.0587765601434,4.71209609315,19.2983539552,22.6143027357,22.2042317913,7.47804373105
do_nothing,25.3434587446,12.0155422124,3.55431717597,-0.704017662043,27.8699173201,41.9690666992,52.0650223622,38.6211571378,-0.287890409389,9.12973419205,31.4517089012,41.7092797453,37.4292848961,-8.93708480129
do_nothing,35.9614901188,18.7498781957,4.53999652589,-0.913897860497,39.2660307884,57.5196496191,74.5051496053,58.2565343086,-0.483225493621,13.0342444266,41.5653226669,58.461837864,50.5304926768,-24.3606937599
do_nothing,44.6006754433,24.5021150278,5.2940458749,-1.05217186354,48.3771377768,69.9625154666,92.7540404771,74.6241007728,-0.639624113524,16.2415606208,49.1319400497,72.0464386441,60.8681824987,-36.929350184
do_nothing,50.8171215446,28.9632846695,5.78904213588,-1.11567596825,54.8264384969,78.7052602411,105.925535024,86.9291182667,-0.756394550102,18.5996646425,53.8149952536,81.7908177139,67.9408345392,-45.2440489993
do_nothing,54.2848881168,31.8812567776,6.00507219469,-1.10707735931,58.371515615,83.3232503113,113.387572071,94.5778145083,-0.83676752007,19.9929721624,55.4541330842,87.2004814119,71.4016465822,-48.5329641318
do_nothing,54.8104280339,33.0743598899,5.92987826666,-1.03412302864,58.9020396155,83.5745883199,114.783926225,97.1972991753,-0.886830383061,20.3464245298,54.0586748249,87.9792939704,71.0710620526,-46.7136291787
do_nothing,52.3435807367,32.4437796752,5.55981450598,-0.908545262984,56.4353636675,79.412871201,110.048216855,94.6498914352,-0.914094838734,19.6294961335,49.7918930549,84.0464748209,66.9459170055,-40.3485842641
do_nothing,46.9847572059,29.9839814098,4.90152519968,-0.744766385222,51.1119565809,70.9974836611,99.410704472,87.0424344897,-0.925910322327,17.8600142771,42.9494837693,75.5494056875,59.2051541129,-30.5056041033
do_nothing,38.9874717589,25.7900805387,3.97403785888,-0.558542259383,43.1915319756,58.6999712516,83.3973610128,74.7301813962,-0.927962871798,15.1073458086,33.935538113,62.8706255237,48.2112111265,-18.548797229
do_nothing,28.7549551685,20.0608512307,2.81079154505,-0.365664955206,33.0494646138,43.1039758774,62.8196207049,58.3137662431,-0.923092849282,11.4942014244,23.2386775245,46.6265108302,34.5054180803,-5.89768529803
do_nothing,16.8293581266,13.0959973572,1.46102338898,-0.180815438862,21.1719008508,24.9955528362,38.7523837584,38.6268965924,-0.910624253919,7.19611331606,11.4099769363,27.6546397563,18.7952360606,6.20393862177
do_nothing,3.87213467565,5.28647483707,-0.0100644508211,-0.0166236034284,8.14712212943,5.34063292007,12.4975316391,16.7119744952,-0.886328121458,2.43761050731,-0.956918401006,6.98691636674,1.93111363067,16.8698153689
do_nothing,-9.36535127331,-2.90292036309,-1.5228321178,0.117038517487,-5.34958881427,-14.7529318036,-14.4693773376,-6.21892839843,-0.843051782903,-2.51571812079,-13.2442234187,-14.1937003204,-15.1287666363,25.6729951128
do_nothing,-22.0811205075,-10.9588073513,-2.98670020163,0.213529106808,-18.5799833349,-34.0898878245,-40.570343036,-28.8393540382,-0.771946948599,-7.36971747793,-24.8285652265,-34.6135563515,-31.3665104908,32.6509886653
do_nothing,-33.4707487188,-18.351552128,-4.30562545672,0.269688231066,-30.7771804747,-51.4577869868,-64.2132256141,-49.7799356,-0.664136693208,-11.8186254844,-35.1015644013,-52.9844098279,-45.7644038398,38.2147749868
do_nothing,-42.7820488908,-24.572930908,-5.38525541066,0.28588757473,-41.1901371417,-65.709598622,-83.8937273527,-67.7137792068,-0.512588068187,-15.5657629818,-43.4940904153,-68.0915671513,-57.3739072528,42.9794089792
do_nothing,-49.372557528,-29.1764240555,-6.14116557196,0.26589395762,-49.1362017055,-75.85300076,-98.3049289217,-81.4509677312,-0.313914541431,-18.3465535695,-49.5049899425,-78.8879403847,-65.3890693642,47.5485517087
do_nothing,-52.7649762145,-31.8166501414,-6.50733839139,0.216554890277,-54.0577678937,-81.1385202996,-106.445727469,-90.0350195465,-0.0698279954446,-19.9518845628,-52.7337844013,-84.5858859447,-69.2180139762,52.2946331547
do_nothing,-52.6949962848,-32.2839659001,-6.44389210605,0.147307067623,-55.5774074128,-81.1373058458,-107.717661899,-92.8322642637,0.21200436378,-20.2494099111,-52.915298823,-84.7373812391,-68.5450566319,57.1788322715
do_nothing,-49.1458062522,-30.5301951706,-5.94303980825,0.069505862953,-53.5448272616,-75.7989618375,-101.998829349,-89.6041236554,0.517870747336,-19.200248044,-49.952706426,-79.2928281778,-63.3757305844,61.6499747117
do_nothing,-42.3641644465,-26.6818789986,-5.03236868022,-0.00442112160646,-48.0688193312,-65.4807452695,-89.6842019915,-80.5525041836,0.828766102449,-16.8686980695,-43.9443585529,-68.6297342348,-54.057719229,64.6493691598
do_nothing,-32.8542402086,-21.0383708676,-3.7747720863,-0.0619791205794,-39.5281833332,-50.9415665197,-71.6837816943,-66.3300705435,1.12194286736,-13.4231026788,-35.1992903643,-53.5447514529,-41.2724455875,64.7312481373
do_nothing,-21.3474111425,-14.0534784501,-2.26472011488,-0.0917298682113,-28.5574070377,-33.2975060275,-49.3736096412,-48.0100497399,1.37310704329,-9.12679599553,-24.2366378984,-35.2059135399,-25.9947568721,60.2884843566
do_nothing,-8.74867442015,-6.301051998,-0.620977640748,-0.0844658946178,-16.0055274539,-13.9396477474,-24.4993864385,-27.0141899911,1.55900941486,-4.31911452347,-11.7654383336,-15.0660890659,-9.4215154793,49.8537829934
do_nothing,3.93697739974,1.57324159828,1.02367852955,-0.0343393172866,-2.8697812831,5.58051730988,0.962137849395,-5.00216409929,1.66011652262,0.612394500057,1.35666498666,5.25679358569,7.12640502467,32.4308124127
do_nothing,15.6922745054,8.90995960399,2.53478749822,0.0601733391046,9.79101495948,23.6885973507,24.9734175813,16.2694821291,1.66302153845,5.26630066956,14.1846492687,24.1228503132,22.3206738532,7.800480765
do_nothing,25.581393825,15.0982874786,3.78931017569,0.195599207349,20.955388372,38.9346879518,45.6226890668,35.1064006501,1.5622760366,9.26492780261,25.7632146921,40.0232068789,34.9496366989,-23.2533635004
do_nothing,32.8402163207,19.6364218177,4.68807453759,0.363212643661,29.7401959623,50.1353863994,61.3082036697,50.0378531108,1.36138812116,12.2914272475,35.2129811413,51.7270960163,44.0371973652,-58.8465177595
do_nothing,36.9532692958,22.1832969356,5.16611887328,0.549291228741,35.4922876615,56.4946228132,70.9000603957,59.9631632368,1.07283271408,14.1221856145,41.8168742177,58.4068037661,48.943156614,-96.0568111759
do_nothing,37.7082749417,22.5955388606,5.19966735304,0.735936365645,37.8596899266,57.6888234087,73.8605172878,64.2662620062,0.717043158787,14.6507199404,45.0966589,59.725553434,49.4328430726,-131.155480939
do_nothing,35.2211404598,20.9448159294,4.80881279892,0.902450303921,36.8328343635,53.9050987028,70.3070065344,62.8838301086,0.320483368304,13.8999534859,44.8697025483,55.876688191,45.7065684725,-159.991381358
do_nothing,29.9271354991,17.5127052468,4.05545156629,1.02719205948,32.7493688222,45.8259116502,61.0076100748,56.3169498944,-0.0869809443639,12.0209322075,41.2775424368,47.5674187892,38.3834891858,-178.487202754
do_nothing,22.5376222646,12.7626154675,3.03656139677,1.08976510977,26.2601274723,34.5595374368,47.3059428802,45.5821316511,-0.475101154791,9.27751757078,34.7806152123,35.946442561,28.4394460888,-183.186669276
do_nothing,13.9656344502,7.29093214838,1.8734696072,1.07332982837,18.25843802,21.5219163371,30.9804568654,32.1044353727,-0.816291520109,6.01821088151,26.1173012329,22.4812363433,17.1037227893,-171.779212278
do_nothing,5.22737878124,1.76207263918,0.698256863756,0.966792970803,9.77954262414,8.2814671148,14.051167623,17.5623673972,-1.0883335859,2.63783453829,16.2298028342,8.79700033455,5.72475985506,-143.526148609
do_nothing,-2.67011722955,-3.16576244217,-0.361183102784,0.766612929909,1.88090735123,-3.61668739021,-1.44628716328,3.7004248552,-1.27641427413,-0.466881347451,6.16375467684,-3.50570262105,-4.38096436887,-99.5208182194
do_nothing,-8.84288986857,-6.9159558952,-1.19570588078,0.477977636899,-4.48295579378,-12.8274905228,-13.6944557953,-7.87023133361,-1.37425898765,-2.94285998892,-3.04774296841,-13.0342963388,-12.0800022734,-42.7337758375
do_nothing,-12.6324049707,-9.06128607722,-1.72738117978,0.115162551469,-8.57625520077,-18.3632046895,-21.3087957926,-15.860137652,-1.38423881386,-4.52209837296,-10.5023291577,-18.7672368011,-16.5553125762,22.1792092351
do_nothing,-13.6841535533,-9.37604105253,-1.91835210585,-0.2990446111,-9.97391327151,-19.7121497772,-23.5073765776,-19.4563953676,-1.31646433278,-5.05394379932,-15.5344186148,-20.1770149533,-17.4056522459,89.2973596985
do_nothing,-11.9925337451,-7.86582150332,-1.77498154987,-0.734865900597,-8.61778994341,-16.9038054089,-20.2138486541,-18.4245876925,-1.18700961922,-4.52412755724,-17.7954183357,-17.297388526,-14.6980915123,152.042750761
do_nothing,-7.90567928663,-4.77080887136,-1.34672294788,-1.15790618482,-4.82910378781,-10.5110121414,-12.0790332466,-13.1438744276,-1.0155210324,-3.05789562808,-17.2970596379,-10.7251970749,-8.96587614814,203.907808986
do_nothing,-2.08841147677,-0.541269488085,-0.719777433568,-1.53217630274,0.725856419574,-1.58720348917,-0.415656521861,-4.56890830233,-0.822541297987,-0.906393916994,-14.4109544539,-1.55460604178,-1.15013998725,239.215083484
do_nothing,4.55359352544,4.21267684488,-0.00622901890841,-1.82347773875,7.11395930841,8.45569659166,12.9490154639,5.87918452669,-0.626910015164,1.58254758005,-9.82277279572,8.75034073068,7.50931876949,253.813678553
do_nothing,10.9806022291,8.79186205872,0.670093478842,-2.0028021855,13.2490986231,18.0157951356,25.8878125107,16.4818605776,-0.443583114714,4.00616979501,-4.44519287829,18.5313742491,15.6226556507,245.621119955
do_nothing,16.1448111448,12.4916654771,1.18936426026,-2.04937967223,18.0287273487,25.4973030169,36.2320779681,25.4337087857,-0.282148801687,5.95640760333,0.700746009951,26.1401466573,21.8213025406,214.936237122
do_nothing,19.1210779831,14.6888447944,1.45123535325,-1.95303181785,20.4768822195,29.5114405059,42.0442568138,31.0703048801,-0.146215387718,7.07161699386,4.62179420997,30.1471236739,24.9320162388,164.475943792
do_nothing,19.2269345312,14.9213695352,1.38816166613,-1.71555113849,19.8762404483,29.0582405261,41.8723062263,32.08630171,-0.0337215162964,7.08421742008,6.48923833934,29.5302017454,24.1327145884,99.1231511392
do_nothing,16.1172350727,12.9515574306,0.974933083181,-1.35092679116,15.8726037411,23.6669559627,34.9546861592,27.7170209474,0.0619109244186,5.85837512245,5.75861147777,23.8197541364,19.0707243191,25.409961582
do_nothing,9.84139887919,8.80452909068,0.233205590192,-0.884360614853,8.53814176491,13.4771511183,21.3496247556,17.8604182962,0.149978293089,3.4128902873,2.25627619448,13.1814101235,9.92803331665,-49.2051632876
do_nothing,0.855332325759,2.77671686218,-0.769590779431,-0.350150467568,-1.61556947132,-0.750802801008,1.97063437633,3.12282463167,0.240336489578,-0.0738975316567,-3.77952053739,-1.57514119337,-2.57590556944,-117.180085513
do_nothing,-10.0146961802,-4.58741500684,-1.92692299198,0.211355248435,-13.6777582479,-17.6989595006,-21.4790407717,-15.2194047349,0.341214559548,-4.27829211856,-11.7100921332,-19.0644522517,-17.2460112423,-171.748733861
do_nothing,-21.6533115494,-12.5485585567,-3.10469428781,0.757422731857,-26.4285368587,-35.6231895076,-46.6684810131,-35.3402886704,0.457332732326,-8.76335535078,-20.5607123582,-37.464695865,-32.5325357837,-207.691740429
do_nothing,-32.7740761367,-20.250198097,-4.15635497958,1.24683776563,-38.4693342673,-52.5389623329,-70.8814497352,-55.054718154,0.588609527981,-13.0256246382,-29.131640155,-54.7134642789,-46.6984150134,-221.922265733
do_nothing,-42.0614386617,-26.8122328466,-4.93985397906,1.64364331819,-48.3790844679,-66.4410453359,-91.3128877466,-72.0584225053,0.729654974994,-16.5512865682,-36.1432603944,-68.7382933009,-58.0144356208,-213.814333134
do_nothing,-48.3206113277,-31.4300778679,-5.33447072733,1.92032188697,-54.8781934169,-75.5322757148,-105.386336203,-84.1904002542,0.870131870394,-18.8754273464,-40.398080966,-77.6956567069,-64.9599327842,-185.233598296
do_nothing,-50.6181556185,-33.4679040386,-5.25556993922,2.06009844354,-56.9810690779,-78.4350857884,-111.055876969,-89.6875694556,0.995940785001,-19.6374916763,-40.9396581873,-80.1906898366,-66.405632821,-140.268366778
do_nothing,-48.3968432012,-32.535181061,-4.66555589005,2.05814015358,-54.1190789972,-74.3610915932,-107.05726833,-87.4017287366,1.09106504317,-18.6264073035,-37.188332945,-75.4517130504,-61.7569451113,-84.6968200801
do_nothing,-41.5511061009,-28.5374808138,-3.5797399944,1.92155366788,-46.2190858436,-63.218625359,-93.0782697384,-76.9528456624,1.13981602213,-15.8099438256,-29.0360302757,-63.4385566487,-51.0403188666,-25.2597547932
