label,COUNTER,INTERPOLATED,AF3,F7,F3,FC5,T7,P7,O1,O2,P8,T8,FC6,F4,F8,AF4,RAW_CQ,GYROX,GYROY,MARKER,SYNC,TIME_STAMP_s,TIME_STAMP_ms,CQ_AF3,CQ_F7,CQ_F3,CQ_FC5,CQ_T7,CQ_P7,CQ_O1,CQ_O2,CQ_P8,CQ_T8,CQ_FC6,CQ_F4,CQ_F8,CQ_AF4,CQ_CMS,CQ_DRL
off_to_on,4.77855917279,6.81969659523,7.91814419113,11.2965375536,8.23426724287,8.20362002952,5.87696998523,6.1820694538,9.4277932473,3.14829958577,5.96459456408,4.31930162789,3.75989124752,78.8797969589
off_to_on,2.80380057921,5.16619261679,5.43127990489,8.40621478437,6.82255999532,6.64608119395,4.63583229052,4.14583994806,6.87725242829,1.4026102465,4.14174193856,2.76284413829,2.30696221568,89.4367104227
off_to_on,0.837146590374,3.39011890821,2.83919915529,5.27283568391,4.97740092431,4.73863018124,3.09831012932,1.92700794048,4.17813360832,-0.217934778303,2.30739886693,1.23518136834,0.986132343235,91.0447788984
off_to_on,-1.02275660888,1.58850505403,0.315199463231,2.13531232596,2.78558025696,2.58455552694,1.32757833419,-0.333797173256,1.52302730949,-1.63179916155,0.561598647237,-0.156906967267,-0.150200686617,84.2850615034
off_to_on,-2.69815836438,-0.158248772018,-1.99774956545,-0.798702002561,0.366959724212,0.303719556815,-0.587647346778,-2.49791702749,-0.927976814489,-2.79431374794,-1.02481528201,-1.33767932516,-1.08911901889,70.6059248872
off_to_on,-4.1366039245,-1.79183638037,-3.9992846194,-3.3732397965,-2.13543405083,-1.97798605507,-2.54045851133,-4.44172944086,-3.06242207709,-3.6989683912,-2.41471621246,-2.26940051096,-1.85396354906,52.1026435125
off_to_on,-5.31173759577,-3.27734214298,-5.63685804149,-5.4957379376,-4.56789064331,-4.13934346783,-4.41541032496,-6.06741143943,-4.82275279781,-4.37290395885,-3.60364820925,-2.95336851322,-2.49539244563,31.2318297763
off_to_on,-6.22057999778,-4.60042110388,-6.90352089679,-7.13881859038,-6.77962068156,-6.07338878741,-6.09926729682,-7.31011769983,-6.20498875621,-4.8673884973,-4.61352519085,-3.42493851097,-3.07817819524,10.4990926461
off_to_on,-6.87787957825,-5.76109586891,-7.82907705523,-8.33241984019,-8.63593461773,-7.69479178307,-7.49150258012,-8.14082430977,-7.2493883456,-5.24482541868,-5.48222348213,-3.74340142061,-3.66586051684,-7.84003878041
off_to_on,-7.30857712966,-6.76546301988,-8.46641223529,-9.14800484426,-10.0295427146,-8.94430428529,-8.51327988049,-8.56471307623,-8.02489025863,-5.56437984559,-6.25087112642,-3.97836881041,-4.30571749321,-22.0294735795
off_to_on,-7.53970095729,-7.61694855201,-8.87550665656,-9.6777282037,-10.888797108,-9.78998110182,-9.11388058153,-8.61559719436,-8.61004478083,-5.868538594,-6.95101297612,-4.19486358813,-5.01649364094,-30.9838789029
off_to_on,-7.59308404684,-8.30882861016,-9.10793702107,-10.0121272948,-11.1821049004,-10.2253355565,-9.2739035604,-8.34742388994,-9.07364290582,-6.172801268,-7.59386625092,-4.43953039727,-5.7809305966,-34.3650722252
off_to_on,-7.48014886807,-8.81952388702,-9.1945214965,-10.2200364306,-10.9182264095,-10.2650070308,-9.00500732512,-7.82425771472,-9.45825156906,-6.46024728371,-8.16356801735,-4.73022472571,-6.54443795604,-32.5596815206
off_to_on,-7.19966015896,-9.11171387427,-9.13818881051,-10.3339806133,-10.1426700669,-9.93883160799,-8.34642052026,-7.11029956804,-9.76936898913,-6.68199885816,-8.61569886976,-5.05073466613,-7.22032046654,-26.5672065193
off_to_on,-6.73885244656,-9.13567187218,-8.91325321912,-10.3433676632,-8.93084152144,-9.28537667578,-7.35885447795,-6.26141422834,-9.9720029647,-6.76370680023,-8.88153820893,-5.35160674403,-7.70097805382,-17.8186960124
off_to_on,-6.07777243373,-8.83649432049,-8.47119490536,-10.1965117459,-7.37894529205,-8.34600560177,-6.11675603387,-5.31934105336,-9.9952874504,-6.6172544197,-8.87759158599,-5.55710280739,-7.87356510332,-7.95409478977
off_to_on,-5.1961246358,-8.16420402978,-7.75195181434,-9.81108832058,-5.59383500181,-7.16038313624,-4.70000200018,-4.30929800338,-9.74447071244,-6.15604269464,-8.51906970679,-5.57735008362,-7.63787443658,1.40998084639
off_to_on,-4.08145895502,-7.0851581344,-6.69879646118,-9.0912615115,-3.68304522101,-5.76404304329,-3.1861410836,-3.24113144144,-9.11842755226,-5.3116121378,-7.73532510103,-5.3239074079,-6.923809614,8.89099908956
off_to_on,-2.73726415903,-5.59287886694,-5.27424650588,-7.94864805291,-1.74611824291,-4.18826252365,-1.64413994069,-2.11359890853,-8.02994841703,-4.04906769081,-6.48487213801,-4.72638644364,-5.70579073142,13.5035808421
off_to_on,-1.18947868001,-3.71640392869,-3.47423919223,-6.32365094656,0.131913297761,-2.46208111165,-0.130314055003,-0.920884426849,-6.42557674428,-2.37885141825,-4.76759144056,-3.74752989483,-4.01181212233,14.7567166176
off_to_on,0.509886447969,-1.52453416592,-1.33802208166,-4.20360546637,1.88437227322,-0.615926202607,1.31323523738,0.339892113746,-4.30177625055,-0.362849906597,-2.63205988973,-2.39430078433,-1.92558613911,12.6769929783
off_to_on,2.28292066529,0.875096430033,1.04815764357,-1.63464191123,3.46398383664,1.31398086124,2.65774498384,1.66154987785,-1.71471137698,1.88642768006,-0.176606319321,-0.723061729977,0.418834535801,7.76020839453
off_to_on,4.03013608412,3.34246742296,3.55454232761,1.2748888302,4.84137376994,3.2814224165,3.88490510135,3.02140865266,1.218157957,4.21391105685,2.45642382395,1.16225115371,2.84949934812,0.863304963034
off_to_on,5.63865984874,5.71665791521,6.01840160708,4.36030428907,6.0015883684,5.22717461198,4.98267542098,4.37856204338,4.32526903324,6.4365544182,5.09273317539,3.11904620522,5.17459351739,-6.94414012474
off_to_on,6.99340310026,7.83111992895,8.26038638412,7.41525517336,6.93942747121,7.07802823413,5.94068404412,5.67445326993,7.3962409289,8.36277904062,7.54307557114,4.98112673516,7.20376759651,-14.5454119016
off_to_on,7.98980973529,9.53087305238,10.104538187,10.2132867263,7.65448208701,8.74839334593,6.74611433846,6.83682138269,10.2033518609,9.81436468721,9.62306469916,6.57798586065,8.76996183199,-20.9349946588
off_to_on,8.54647534293,10.6893962191,11.3991822216,12.5333562497,8.14673904804,10.1446610884,7.38087778314,7.78655337296,12.5263795091,10.6479600414,11.1732119151,7.75578357494,9.74880997394,-25.3482993777
off_to_on,8.61585651657,11.2229497433,12.0357340235,14.1857441228,8.41346742478,11.1720746616,7.82064009339,8.44651646298,14.1774552328,10.7733451553,12.0765394131,8.39712785649,10.0730041241,-27.346846314
off_to_on,8.19148016964,11.100345913,11.96269588,15.0347054221,8.44786034422,11.7434577765,8.03595441494,8.75112357669,15.0225516521,10.1659372981,12.2714172356,8.43687463026,9.73967063647,-26.8503496489
off_to_on,7.31049030066,10.3467635048,11.1927747611,15.0146632526,8.23960789156,11.7888198391,7.99540507905,8.65525072297,14.996683209,8.87174140489,11.7579123582,7.87165586468,8.80975360047,-24.1152458081
off_to_on,6.05097898221,9.04099070589,9.80202107194,14.1376731817,7.77726449096,11.2646501083,7.67033020384,8.14119652918,14.1107817115,7.00391368682,10.5968232488,6.76167497925,7.39949333947,-19.6668255468
off_to_on,4.5242546192,7.30637007105,7.92102283013,12.4911497274,7.0519904374,10.1616593082,7.0404202579,7.2226394557,12.4493818403,4.73120128889,8.90157571025,5.22435887223,5.66516792237,-14.1982222429
off_to_on,2.8629035816,5.29658047384,5.71932361522,10.2262502433,6.06202978083,8.50983776394,6.09932186317,5.94496675416,10.1595411753,2.25959308102,6.82413022508,3.42057838471,3.78318255425,-8.45330665473
off_to_on,1.20609996296,3.17809981315,3.38519628433,7.53864802085,4.81716340737,6.37996360018,4.85933586114,4.38185827973,7.43263541299,-0.190580056491,4.53685660541,1.53518460005,1.9282150199,-3.11164931167
off_to_on,-0.315975004681,1.11164536116,1.10355556547,4.6444957773,3.34236171486,3.88108228756,3.35439200806,2.62853249613,4.48163435699,-2.40924671953,2.21285297903,-0.245590723838,0.25236748848,1.30784622023
off_to_on,-1.59658825779,-0.764980142923,-0.96496377554,1.75502527619,1.67995599095,1.15394302984,1.64069671705,0.792524762822,1.51703901495,-4.21981592174,0.00734971471334,-1.7568709638,-1.13189688707,4.51186154953
off_to_on,-2.56389304211,-2.35041871182,-2.70093407003,-0.946643973249,-0.110162455925,-1.63913883213,-0.205244767901,-1.01679741156,-1.27523506326,-5.49811053358,-1.95737557286,-2.87497073335,-2.16281350079,6.45874662686
off_to_on,-3.18784512781,-3.58796703143,-4.03684441788,-3.32331819601,-1.95254716969,-4.32708110002,-2.09117692079,-2.69861805822,-3.75111741688,-6.18466664571,-3.60170307359,-3.5316815524,-2.8330179152,7.3444564257
off_to_on,-3.48169074098,-4.46752653367,-4.96029232796,-5.29386576641,-3.76034323604,-6.74423637671,-3.91580548846,-4.16962784095,-5.81866583835,-6.28892120968,-4.89194184229,-3.72110985719,-3.18558121541,7.55286861108
off_to_on,-3.49784707172,-5.02123733081,-5.5094557489,-6.83457640442,-5.44122343006,-8.74453017533,-5.57696097208,-5.37044739117,-7.44033846195,-5.88486956575,-5.83706287461,-3.49818648548,-3.30314709433,7.57979168228
off_to_on,-3.31875123237,-5.31362174136,-5.76175583858,-7.97198739007,-6.90451275347,-10.2140308654,-6.98029114246,-6.26879253503,-8.62743261358,-5.09888069095,-6.47973455453,-2.96910361783,-3.29189256922,7.94309116887
off_to_on,-3.04393121714,-5.42781731934,-5.81758183304,-8.76870604177,-8.06872521896,-11.0805836294,-8.04746887112,-6.85912728887,-9.42802538097,-4.09136262518,-6.88330099794,-2.27503353398,-3.26273148798,9.09249712678
off_to_on,-2.7750585398,-5.44999844765,-5.7816201478,-9.30478935195,-8.86865805472,-11.3194394545,-8.72294461005,-7.15904820549,-9.91068024997,-3.0347402719,-7.11688431761,-1.571390609,-3.31252453241,11.3318055717
off_to_on,-2.60100690419,-5.45429746556,-5.74461612096,-9.65786595908,-9.2612168134,-10.9542383279,-8.97844444428,-7.2030944367,-10.1467496892,-2.09064275775,-7.24099712475,-1.00548865293,-3.50800680674,14.7636368769
off_to_on,-2.58492876629,-5.49041406525,-5.7682628943,-9.88531156496,-9.2292774049,-10.0532149348,-8.81469202329,-7.03501749418,-10.1942255378,-1.3892446032,-7.29589689129,-0.695640217094,-3.87470733726,19.2631775076
off_to_on,-2.75507529348,-5.57566726125,-5.87538518711,-10.011401854,-8.78311206306,-8.72102703939,-8.26017884934,-6.699726293,-10.0857555898,-1.01336425176,-7.29442827271,-0.714519292938,-4.39238186833,24.4830481356
off_to_on,-3.10056661549,-5.69256469747,-6.04675148907,-10.0215303885,-7.9591888793,-7.08709992228,-7.36717617156,-6.23612371108,-9.82271296868,-0.989247614641,-7.22036124558,-1.07899936386,-4.99752363219,29.8872709709
off_to_on,-3.57264203361,-5.79214130981,-6.22483606164,-9.86442425783,-6.81646416093,-5.29177720744,-6.20552399351,-5.67187444959,-9.37619155654,-1.28505010772,-7.03235677162,-1.74777382845,-5.59249631496,34.8088276262
off_to_on,-4.09117891914,-5.80247473094,-6.32381570629,-9.46199650489,-5.43058526039,-3.47182208129,-4.85500303354,-5.02081999118,-8.6946641917,-1.81700526577,-6.67281157343,-2.62699433788,-6.05989621253,38.522915473
off_to_on,-4.55556689187,-5.64104099066,-6.24417967344,-8.72524078881,-3.88667145892,-1.74689221062,-3.3972582471,-4.28333534596,-7.71695612114,-2.46227063836,-6.0800821694,-3.58307492813,-6.28002910537,40.3269202785
off_to_on,-4.85845603134,-5.22903701575,-5.88968582609,-7.57358951563,-2.27151034092,-0.208505144459,-1.90827660552,-3.4494675439,-6.38832034017,-3.07660432969,-5.20207707979,-4.46085620446,-6.14898078992,39.6182976738
off_to_on,-4.90053948819,-4.50554012909,-5.18410170222,-5.95457216396,-0.666074737415,1.08727167522,-0.452323382509,-2.50427450039,-4.67688550174,-3.51445515568,-4.00900890997,-5.10463317365,-5.59472033651,35.9627734469
off_to_on,-4.6044265013,-3.43943075953,-4.08526026285,-3.86051480485,0.860779027146,2.12260099396,0.921975894243,-1.43445565207,-2.58765838729,-3.64881376614,-2.50324030421,-5.37921244256,-4.58899988177,29.1471766341
off_to_on,-3.9258198085,-2.03735817325,-2.59441295853,-1.33942935137,2.2567232005,2.9158484359,2.18302673967,-0.235178299238,-0.171613370195,-3.38829170355,-0.724613397014,-5.18821822342,-3.1534493245,19.2133981988
off_to_on,-2.86060347491,-0.346622233063,-0.75959958704,1.50191005275,3.488015448,3.51503782997,3.31510276531,1.084019778,2.47186407556,-2.6893419993,1.24965182107,-4.48729528743,-1.35911022868,6.47203615483
off_to_on,-1.44701323247,1.54741484601,1.3273432234,4.50354454706,4.53903914194,3.98762140591,4.31495445179,2.49523020842,5.19990697375,-1.56223697304,3.31057743803,-3.29059220497,0.680416306053,-8.50404413198
off_to_on,0.237280910027,3.52899541007,3.53958540898,7.46610445783,5.40949382289,4.40785058638,5.18682138403,3.9507743707,7.83807332763,-0.070272800555,5.3278212179,-1.66984044262,2.82115416226,-24.9048853011
off_to_on,2.08269331508,5.46362078444,5.72855630728,10.1710824888,6.10971313416,4.84334319975,5.93669673163,5.38472468127,10.197763016,1.6774440809,7.16338898651,0.253659792809,4.90451331647,-41.7254173819
off_to_on,3.95878964511,7.21207925167,7.73970464599,12.4049150999,6.65484041016,5.34257012534,6.56679185595,6.71724964801,12.0968234485,3.53847617868,8.68672827671,2.32291650091,6.7744423997,-57.8221175207
off_to_on,5.72744617103,8.64495849891,9.42855567384,13.983581782,7.05875329779,5.92490917199,7.07111661159,7.86128829178,13.3805109613,5.35304022429,9.78908059264,4.36303525223,8.2936844732,-71.9821863386
off_to_on,7.25645384211,9.65575775694,10.6749283797,14.774317059,7.32867498302,6.57463971423,7.43293118986,8.73073878401,13.9398837659,6.96139426086,10.395105817,6.2005421854,9.35707492791,-83.0029260654
off_to_on,8.43195498586,10.1709879104,11.3935643126,14.711416099,7.4613314081,7.23980472449,7.6245591592,9.24914516232,13.7250440989,8.22047214597,10.4702241688,7.68177261163,9.90033286802,-89.778526864
off_to_on,9.16834651953,10.1561391652,11.5400503501,13.8039434155,7.44131753379,7.83629464034,7.60971379329,9.35780945012,12.7513697605,9.01784566518,10.0227783669,8.6881052593,9.90350920544,-91.3905541376
off_to_on,9.41469446148,9.61702387323,11.1116820334,12.1343010113,7.24204284535,8.25687340248,7.34812550093,9.02234748329,11.0978693935,9.28156495404,9.10089742159,9.14635805332,9.3890529897,-87.1971232683
off_to_on,9.15721358918,8.59666753308,10.1436855915,9.8479063564,6.82927175055,8.38424377955,6.80191556773,8.23692696852,8.89791253443,8.98505536706,7.78472273049,9.03339664124,8.41521984256,-76.914250193
off_to_on,8.41789609445,7.16852242615,8.70187242822,7.13547975898,6.16690239572,8.10671086011,5.94288630219,7.0257396065,6.32365825326,8.14693685748,6.17531749001,8.37482859098,7.0661597046,-60.6815108847
off_to_on,7.24984815511,5.42722800655,6.87323930451,4.21046090591,5.22428588119,7.33461620399,4.7597273383,5.44161744573,3.56637649097,6.82628108719,4.3820224177,7.23844381732,5.44039866065,-39.1033409249
off_to_on,5.73025003215,3.47837897019,4.75618874635,1.28471703596,3.98412308066,6.01553216241,3.26409622868,3.5620545807,0.815396963769,5.11434425534,2.51018009474,5.72370526913,3.63952349252,-13.2574650463
off_to_on,3.95205142044,1.42876028889,2.45191294955,-1.45412075634,2.44982648995,4.14625591432,1.49462605694,1.48319005779,-1.76144490346,3.12414613691,0.651007257974,3.94900925027,1.75868520579,15.3366196512
off_to_on,2.01553362263,-0.621718758443,0.0580952412675,-3.86067167197,0.651224778664,1.77992912702,-0.481866328189,-0.687491691265,-4.03328230638,0.979375981875,-1.12502323029,2.03857539631,-0.119898880553,44.7933340156
off_to_on,0.0207254751637,-2.58556424164,-2.33448697693,-5.84289991876,-1.3523739524,-0.972892650643,-2.57237681653,-2.83890253483,-5.91568902219,-1.19600352093,-2.77055097771,0.110688540614,-1.92986665942,72.9809365801
off_to_on,-1.93861310792,-4.39039095133,-4.64251883542,-7.3650907466,-3.47246848575,-3.94973724345,-4.66293842118,-4.86373002272,-7.37315635128,-3.28637683211,-4.25943226555,-1.73136362617,-3.62014229421,97.6805840258
off_to_on,-3.77907409278,-5.97897066888,-6.78852779847,-8.44273461599,-5.59532440918,-6.94804698757,-6.62670022782,-6.66479119941,-8.41463952931,-5.19066085979,-5.5812757652,-3.4048598934,-5.1515779575,116.773909856
off_to_on,-5.42974612061,-7.30728334682,-8.69820205219,-9.13054252993,-7.58948303133,-9.74235737227,-8.33412587596,-8.15991409327,-9.08326220763,-6.8258609205,-6.73368894939,-4.84954553963,-6.49197383547,128.443330044
off_to_on,-6.83273118584,-8.34151861612,-10.2979820526,-9.50580329744,-9.31623596729,-12.1051677998,-9.66429448741,-9.28515232836,-9.44210532656,-8.12823948605,-7.7138773252,-6.02628079877,-7.61088729439,131.365303523
off_to_on,-7.94256310351,-9.05508060772,-11.5142053562,-9.64992743871,-10.6420713232,-13.8293471499,-10.5161198601,-9.99638349834,-9.55853460712,-9.05267834039,-8.51132384827,-6.91333090355,-8.4756253941,124.874748504
off_to_on,-8.72515298189,-9.42654832487,-12.2747634135,-9.63121216055,-11.451789032,-14.7496477114,-10.818272946,-10.2695413498,-9.48966375147,-9.57100762146,-9.10307030718,-7.50147825524,-9.04954427831,109.07932264
off_to_on,-9.15685063296,-9.43925977356,-12.5136942209,-9.49158487635,-11.6608205414,-14.7609051382,-10.5367029823,-10.0998567316,-9.27129218413,-9.67010121839,-9.45265931147,-7.78920050071,-9.29330214636,84.9055963209
off_to_on,-9.22405879582,-9.0827751416,-12.178478762,-9.23938738319,-11.2252986195,-13.8307886422,-9.67889202493,-9.50051835942,-8.91204167523,-9.3504049676,-9.51314910599,-7.77899850913,-9.16911116934,54.0651871631
off_to_on,-8.92360439208,-8.35600895965,-11.2391478095,-8.84926007432,-10.1486125266,-12.0055104537,-8.29431855108,-8.50111366044,-8.39354395364,-8.62530651189,-9.23388761109,-7.47561275995,-8.64741024601,18.9371796656
off_to_on,-8.26380573668,-7.27138900413,-9.69775931556,-8.26903191943,-8.48353580438,-9.40765067495,-6.47100886949,-7.14608967987,-7.67653811067,-7.5214280958,-8.57004400213,-6.88640204406,-7.71484164477,-17.6272433474
off_to_on,-7.26592894134,-5.85908112474,-7.59648028013,-7.43239522489,-6.32949088478,-6.22612095019,-4.32847384489,-5.49331363334,-6.71177599285,-6.07959097842,-7.49335793106,-6.02365909718,-6.38205435506,-52.5622305094
off_to_on,-5.96554819525,-4.17017582674,-5.02247234517,-6.27521653442,-3.82506199186,-2.69917872967,-2.00771501886,-3.61264827144,-5.45385330328,-4.35592696737,-6.0022676873,-4.90819224605,-4.68974150951,-82.8823134459
off_to_on,-4.41324794583,-2.2777965853,-2.10806292622,-4.75274690805,-1.13642007633,0.907791357782,0.340705079852,-1.58432509642,-3.87560250623,-2.42245187802,-4.12957194613,-3.57318840872,-2.71147596206,-105.984265687
off_to_on,-2.67414641875,-0.27535859825,0.974742825449,-2.8548340125,1.55718721136,4.32738904814,2.56933318989,0.5031712522,-1.98057312253,-0.366400442312,-1.94607270153,-2.06724605344,-0.552320888982,-119.921950135
off_to_on,-0.825874409825,1.72835826189,4.02556513384,-0.616527223888,4.07936332265,7.31549919466,4.54597198844,2.55598298349,0.188599208217,1.7122402674,0.440799933101,-0.455550598954,1.65719664959,-123.621356039
off_to_on,1.04511441744,3.61712511221,6.83203395022,1.87784086068,6.27220017674,9.674023124,6.16410766488,4.47870371708,2.5475152133,3.70529086954,2.89364785,1.18155242758,3.77144288509,-117.008226319
off_to_on,2.84873661086,5.27742646476,9.18966633108,4.4980245311,8.00992655518,11.26854881,7.35061939669,6.17916108437,4.97374117266,5.50296387423,5.25651474773,2.75289438137,5.6433438526,-101.029658739
off_to_on,4.49752504156,6.6096639169,10.9229669478,7.07848109012,9.20908232842,12.0390307349,8.07007229968,7.5739598514,7.31668061784,7.00201119683,7.36976129655,4.16351902791,7.13974129666,-77.5628988595
off_to_on,5.91324694479,7.53889587126,11.9050897376,9.43492111356,9.83412773322,12.0023463608,8.32526515191,8.59437016757,9.41238016507,8.11461944783,9.08654170697,5.32368884072,8.1564345742,-49.2178605496
off_to_on,7.03307930697,8.02353122122,12.0733736606,11.3845693186,9.89792658787,11.2465334236,8.15410134297,9.19196223995,11.1012952867,8.77698328482,10.2886999532,6.15870887211,8.63080512267,-19.053067971
off_to_on,7.8145183648,8.06056657399,11.4384322691,12.7673324598,9.45714356176,9.91747964987,7.62323240975,9.34327866313,12.2465698732,8.95638307811,10.8999020819,6.61815502951,8.55013049462,9.76399703061
off_to_on,8.23832360404,7.68636318768,10.0852017082,13.4649083655,8.603194665,8.19971726519,6.81924750626,9.05282789958,12.7502758154,8.65566664192,10.8941422624,6.68304916951,7.95419666789,34.3132810163
off_to_on,8.30903831429,6.97254984196,8.16534613298,13.4151484074,7.44991246885,6.29366090157,5.83841593164,8.35379108146,12.5653306315,7.91428602932,10.2983629762,6.3697117325,6.93154680604,52.2531174448
off_to_on,8.05295449203,6.01732864727,5.88155106142,12.6196607169,6.11946746427,4.39203377583,4.77611090159,7.30605517635,11.7014202044,6.80544162866,9.18872955748,5.72942466239,5.60956262466,62.0854837283
off_to_on,7.51375109212,4.93315040267,3.46534658413,11.1436103637,4.72827602428,2.65830133564,3.71704142362,5.99149563768,10.2241073189,5.42938481493,7.68098114359,4.84360010862,4.13944009058,63.3223082499
off_to_on,6.7463756328,3.83230863005,1.15103386708,9.10778920092,3.3745990914,1.20966255803,2.7272991324,4.5067916681,8.24727611573,3.90345780545,5.91611518054,3.81479437601,2.67786917033,56.5310146671
off_to_on,5.81000595884,2.81238318681,-0.851098677232,6.67412485666,2.1292966737,0.106567906153,1.8490044008,2.9544167533,5.92000260743,2.34992858717,4.04332765324,2.75453726048,1.36774663136,43.2520051069
off_to_on,4.76107781966,1.94357875418,-2.37888562666,4.02671251961,1.03078143359,-0.650089987175,1.09803730078,1.43275179723,3.40971245043,0.883037356677,2.20252667094,1.76946871807,0.320460855391,25.7965969535
off_to_on,3.64736841697,1.25982188671,-3.33659500852,1.35105065098,0.0846636246207,-1.11393028447,0.464997360797,0.0264677728273,0.883976273359,-0.403148672595,0.508802319269,0.947605416975,-0.397849698017,6.94903664915
off_to_on,2.50398157229,0.755017548358,-3.70500184583,-1.18564272666,-0.732030237194,-1.38098422586,-0.080811930663,-1.20161889279,-1.50656951495,-1.44450672986,-0.959041727815,0.346642509131,-0.774136500465,-10.3913480588
off_to_on,1.35180486806,0.385179518986,-3.54182244856,-3.4503870859,-1.46277307068,-1.57222544468,-0.584896473339,-2.21612163266,-3.64191839222,-2.21293868732,-2.16437167455,-0.0139910591423,-0.849203017634,-23.5836954447
off_to_on,0.198641638445,0.0763312056345,-2.97235173084,-5.35464028203,-2.16079059129,-1.81308288192,-1.09936292272,-3.01125993864,-5.44130578055,-2.71788048462,-3.11230343728,-0.156045627897,-0.711142703442,-30.5880697554
off_to_on,-0.957185571523,-0.262761008168,-2.17143271731,-6.85761864371,-2.87719182615,-2.21265991981,-1.67394054637,-3.60920720913,-6.86583509038,-3.00293564878,-3.84317086345,-0.139694193249,-0.482190534143,-30.233343612
off_to_on,-2.12134825023,-0.724690070437,-1.33904075563,-7.96266490568,-3.64965033866,-2.84540934205,-2.3472580613,-4.05466824805,-7.91512926326,-3.13796416963,-4.42095936857,-0.0552241510415,-0.300628354278,-22.3759115689
off_to_on,-3.29703531153,-1.38653180639,-0.672625598408,-8.70763358526,-4.49322481337,-3.73769096578,-3.13936696221,-4.40625591373,-8.61890992637,-3.20757143513,-4.91851250418,-0.0100657698611,-0.300081101211,-7.92808666167
off_to_on,-4.47855875816,-2.29439881778,-0.33980249987,-9.15113511366,-5.39461544847,-4.86100789149,-4.04637037615,-4.72570266403,-9.02513921455,-3.2974485417,-5.40178816009,-0.112723437388,-0.588934294082,11.2486499365
off_to_on,-5.64613688405,-3.45172299501,-0.454955170456,-9.35705296298,-6.31069178284,-6.13285818433,-5.03779926778,-5.06629661916,-9.18682579704,-3.48034384537,-5.91557999214,-0.455664532533,-1.232636294,32.5732517559
off_to_on,-6.76281155302,-4.81312616269,-1.06281071512,-9.37993938699,-7.17155873619,-7.42516051881,-6.0570980857,-5.46211808591,-9.14972965839,-3.80354750274,-6.47290713362,-1.09944834426,-2.24131389362,53.0695392492
off_to_on,-7.77417284877,-6.28502526484,-2.13113674535,-9.25368128779,-7.88782525508,-8.57923923788,-7.02526704541,-5.91963629227,-8.94298428796,-4.27962691099,-7.04974119673,-2.06030571143,-3.5644688991,69.7451498637
off_to_on,-8.61117526994,-7.73322462513,-3.55351681392,-8.98524610643,-8.36118258681,-9.42551006875,-7.84738807698,-6.4129984005,-8.57412812107,-4.88177484251,-7.58596059003,-3.30301087972,-5.09362284358,79.9774627424
off_to_on,-9.19588896678,-8.99679415756,-5.16184388818,-8.55446207338,-8.49695909953,-9.80539951046,-8.42146578959,-6.88392311629,-8.02928448256,-5.54456818967,-7.99251039223,-4.74026251646,-6.67275544499,81.8577505646
off_to_on,-9.4495994145,-9.90665041481,-6.7469103765,-7.91979208449,-8.21705219614,-9.59273544955,-8.648770749,-7.24654575813,-7.27836979843,-6.17025353345,-8.16383277714,-6.2389878407,-8.11537456959,74.4498260382
off_to_on,-9.3023103213,-10.3065704732,-8.08443598686,-7.0290804438,-7.47157856864,-8.71190051107,-8.44470225432,-7.3969186144,-6.28437767588,-6.63996255014,-7.99384977402,-7.63310422349,-9.22619368219,57.9300674124
off_to_on,-8.70246843512,-10.0739747216,-8.96319792905,-5.83343775264,-6.24773780462,-7.1504348966,-7.7491074308,-7.22623132915,-5.01511053823,-6.82860703759,-7.3932395922,-8.74142965095,-9.82478933338,33.5905765554
off_to_on,-7.62564896139,-9.13777191121,-9.21169736573,-4.30190587554,-4.57472930637,-4.96446034194,-6.53501090153,-6.63626542048,-3.45531483639,-6.62169475124,-6.30552737469,-9.38873686865,-9.76834343344,3.70443803614
off_to_on,-6.08102833624,-7.49087853692,-8.72003525982,-2.43439152836,-2.524052049,-2.27618300799,-4.81482430159,-5.55521112489,-1.61708380218,-5.93201014695,-4.71964249075,-9.42748759418,-8.97067524387,-28.730605666
off_to_on,-4.1147155266,-5.19566520327,-7.45433920658,-0.27059601991,-0.205086095866,0.736292813206,-2.64330884292,-3.95181120527,0.453363425143,-4.71405889797,-2.67705833764,-8.75762458718,-7.41521992147,-60.3384994743
off_to_on,-1.80938079758,-2.38146109673,-5.4620822561,2.10673752037,2.24357018804,3.85567003014,-0.116840646983,-1.84588588893,2.67387412933,-2.97439034633,-0.272360723845,-7.34196416044,-5.16035214754,-87.7584816658
off_to_on,0.71993755086,0.76575277242,-2.86782407374,4.57508091342,4.66602625826,6.84672844095,2.63114535615,0.68636535438,4.93011586552,-0.776363728736,2.35301665213,-5.21520230288,-2.33638630265,-108.037465802
off_to_on,3.33351143614,4.02034370901,0.139879346525,6.98171372026,6.90293217492,9.47967029918,5.43830941541,3.51332961351,7.08462624188,1.76144173639,5.02322256585,-2.48526756762,0.865412623737,-118.973163234
off_to_on,5.87733735918,7.13875971801,3.32857134898,9.15851297676,8.80566179861,11.55283398,8.12459654848,6.45554298633,8.99007065561,4.47323261982,7.54508306453,0.673364564508,4.21052846147,-119.366429886
off_to_on,8.19522314503,9.88344510971,6.44636490622,10.9399953453,10.2492874495,12.912185881,10.5056006761,9.29939256473,10.5049565135,7.15972620331,9.72773484706,4.03384588282,7.44355516305,-109.153018576
off_to_on,10.1413032562,12.0461339881,9.24772432317,12.1821489575,11.1429757458,13.4654350563,12.4070120018,11.8157398791,11.5096489563,9.60621673765,11.402341599,7.33719342081,10.312668761,-89.4002387531
off_to_on,11.5917122926,13.4678222257,11.5174777145,12.7794390228,11.4367839881,13.1893050219,13.6789181522,13.7816073951,11.9204508397,11.6030814684,12.4394446633,10.3164579688,12.5934775158,-62.1709611013
off_to_on,12.4542708646,14.0531681161,13.0903615184,12.6776054602,11.124296603,12.1293502349,14.2086995492,15.002632486,11.6997610371,12.966520961,12.7618372951,12.7222323743,14.1096700186,-30.2737625607
off_to_on,12.6752916306,13.7778004046,13.8641096504,11.8804563966,10.2410485621,10.3926094781,13.9313443241,15.333818188,10.8608718224,13.5572797319,12.3514680931,14.3467552397,14.7483358315,3.06829732851
off_to_on,12.2429579693,12.687918524,13.8050283979,10.4497098004,8.85917028557,8.13422917284,12.8362040412,14.6962243704,9.46672546746,13.2953045885,11.249683428,15.0440310682,14.4685225367,34.5884511822
off_to_on,11.1871157154,10.8925302347,12.9460066587,8.49791938224,7.07909461026,5.53986194501,10.9695040525,13.0876386011,7.62280786563,12.1687428416,9.55099558502,14.7438486807,13.3024218329,61.3408813273
off_to_on,9.57569911307,8.54955839761,11.3778580306,6.17549336557,5.019442799,2.80606944705,8.43228700328,10.5858999585,5.4651843626,10.2363067029,7.3913899795,13.4582767802,11.3494371358,81.0155904486
off_to_on,7.50833950273,5.84774621079,9.23565083539,3.65363183794,2.8063247376,0.121087806008,5.37387231087,7.34434835279,3.14535678448,7.62275926335,4.93284825466,11.2800625223,8.76416882172,92.1672673116
off_to_on,5.10794353066,2.9867123985,6.6821618319,1.10555061108,0.563242599979,-2.35185706328,1.98132059348,3.57974257758,0.814041606333,4.50802581098,2.34617725351,8.37325339333,5.73996870696,94.3337365627
off_to_on,2.51115575862,0.157607872063,3.89074139147,-1.31145045721,-1.59740585345,-4.48693546511,-1.53423937656,-0.446171179981,-1.39392319529,1.11111544423,-0.205652557727,4.95719890423,2.49009672992,88.0341050544
off_to_on,-0.14136631448,-2.47339813627,1.02970417288,-3.47070273378,-3.58053250076,-6.20269108532,-4.95326963502,-4.44955237098,-3.3715536136,-2.32942495012,-2.58164714985,1.28577063623,-0.771372334092,74.6520066047
off_to_on,-2.71402773188,-4.77707868651,-1.75009146038,-5.28582507753,-5.3119469102,-7.46324690473,-8.06412767455,-8.14944281818,-5.04709665867,-5.57646780842,-4.67285400487,-2.3759078188,-3.84689259575,56.2234068862
off_to_on,-5.08405641469,-6.6675377561,-4.32345386121,-6.71426744608,-6.73937439604,-8.27413202262,-10.6786140356,-11.2922337249,-6.3860463346,-8.4145183372,-6.40744953906,-5.77475073402,-6.56941654324,35.159485414
off_to_on,-7.14750304639,-8.10280930395,-6.5945611261,-7.75461503094,-7.83127818072,-8.67378341369,-12.6454320428,-13.6731124506,-7.38785309142,-10.6671729917,-7.75068930496,-8.69065626612,-8.81190393787,13.9418380856
off_to_on,-8.82327012454,-9.0802323454,-8.49655210024,-8.43844998591,-8.57409796299,-8.72226237155,-13.8604297286,-15.1523477316,-8.07817289934,-12.210173963,-8.7002869913,-10.9531136152,-10.4919057673,-5.1710692548
off_to_on,-10.055177626,-9.62782547374,-9.98795991936,-8.81835008877,-8.96863952068,-8.48897831849,-14.2728043911,-15.6648804538,-8.4981485545,-12.9789441203,-9.27839285077,-12.4520533253,-11.5713797836,-20.3906396004
off_to_on,-10.8122487688,-9.79333130906,-11.0472934659,-8.95412887017,-9.02634814875,-8.04120966866,-13.8868388317,-15.2224590045,-8.69262081339,-12.9701252798,-9.52174352907,-13.1422314633,-12.0524353602,-30.5703058068
off_to_on,-11.0875187457,-9.63278511646,-11.6671765143,-8.89961471907,-8.76608360598,-7.43496495369,-12.7591649123,-13.9083989002,-8.69927181215,-12.2373094776,-9.47170359354,-13.0411895546,-11.9701046326,-35.2863349597
off_to_on,-10.8957279991,-9.20036922318,-11.8493150831,-8.69210335503,-8.2118132442,-6.7092825406,-10.9919698944,-11.8658540299,-8.54049559412,-10.8817704657,-9.165803432,-12.2215349253,-11.3834551434,-34.8231076056
off_to_on,-10.2702654613,-8.54097266837,-11.6012216378,-8.34612928698,-7.3913921496,-5.88449443005,-8.7229298361,-9.28116558118,-8.21930590478,-9.03950136945,-8.63202690039,-10.7988594313,-10.3663842797,-30.0711975652
off_to_on,-9.25968949871,-7.6863451989,-10.9351512572,-7.85246700837,-6.33634851079,-4.96436406178,-6.11293343176,-6.36432637818,-7.71990723925,-6.86619083965,-7.88657727465,-8.91699661566,-8.99928194593,-22.3573108614
off_to_on,-7.92409238754,-6.65510240064,-9.86918786862,-7.18240778008,-5.08238108669,-3.94143755332,-3.33282057306,-3.32881218684,-7.01277891732,-4.52189259344,-6.93523746606,-6.73247238273,-7.3624520828,-13.2327779553
off_to_on,-6.33150555837,-5.45620196536,-8.42994874177,-6.29649750016,-3.67013705979,-2.80450044218,-0.550387646664,-0.372970049606,-6.06337454701,-2.1570555825,-5.77783604906,-4.39992611519,-5.53179878754,-4.25097428659
off_to_on,-4.55448201082,-4.09496432471,-6.65603092283,-5.15619778774,-2.14579266972,-1.54676567761,2.08119332024,2.33516570118,-4.84293629355,0.0986969175863,-4.41482603008,-2.05999075245,-3.57686965724,3.23651319583
off_to_on,-2.66694815892,-2.58033198206,-4.60115811412,-3.73645619212,-0.561009519494,-0.173363646731,4.43261616978,4.66828704624,-3.33955779793,2.14407991487,-2.85465219157,0.169330103624,-1.56096735766,8.23964665072
off_to_on,-0.741392332749,-0.931901290099,-2.33602243689,-2.03701373602,1.02802629123,1.2931390764,6.40472620057,6.54477492627,-1.56755746807,3.90951223861,-1.12047068008,2.19729600727,0.457258818877,10.2278985839
off_to_on,1.15355242994,0.814665256252,0.0519601961016,-0.0904608589634,2.56258344769,2.81012899436,7.93159025719,7.92823750977,0.426543903052,5.35644079464,0.745097638034,3.96114824303,2.42151073956,9.15819117606
off_to_on,2.9550758517,2.60494754975,2.46139370586,2.03445394166,3.98427096495,4.31571707499,8.98045275333,8.82231074648,2.56264637702,6.47322900409,2.67817456017,5.42349772382,4.27564393337,5.43459585521
off_to_on,4.60765728457,4.36644175877,4.7821110337,4.23503222506,5.2385213156,5.73284824511,9.5490007301,9.26193801291,4.73080734581,7.26860830225,4.59531145678,6.5673576676,5.9623040315,-0.189315430836
off_to_on,6.06399685545,6.01269432533,6.90237033051,6.38227301816,6.27821810971,6.97620729726,9.66060632601,9.3026828414,6.79982466958,7.76393223732,6.39862286939,7.39002117711,7.42292893237,-6.74755737883
off_to_on,7.28540773254,7.45043308166,8.71719177489,8.33304444607,7.06694929836,7.96097280336,9.35835785546,9.00973768083,8.62965349327,7.9855346425,7.98379183634,7.89701980888,8.59937469135,-13.2162580443
off_to_on,8.24171434287,8.58875082048,10.1367600381,9.94516382569,7.58139197659,8.61221010727,8.69871925984,8.44816885848,10.0860433927,7.95837410929,9.2499212717,8.09725021475,9.4371163938,-18.6628494528
off_to_on,8.91075938355,9.34906182237,11.0937655215,11.0933126654,7.81244832608,8.87361280693,7.74557579929,7.67561134384,11.0554192787,7.7018677329,10.1099126675,8.00005088052,9.88968115501,-22.3695799207
off_to_on,9.27767966905,9.6744113568,11.5486897339,11.6835664035,7.7649362641,8.71440554357,6.56525006996,6.73815140088,11.4579583909,7.22841974643,10.4999590744,7.61459962002,9.92373054408,-23.9161036702
off_to_on,9.3341536668,9.5367899159,11.4923332226,11.6645039107,7.45586297395,8.1334891311,5.22283726818,5.66958435201,11.2570474492,6.54469236613,10.3868541597,6.95154839156,9.52405665186,-23.2127777326
off_to_on,9.07783861929,8.94137430172,10.9452886199,11.0333489593,6.91153737414,7.16029909702,3.77995000037,4.49369023219,10.4638036045,5.655211863,9.77212214959,6.02638382767,8.69770938842,-20.4838634009
off_to_on,8.51219243862,7.92704430451,9.95450919015,9.83630974123,6.16397015067,5.85230170633,2.29372064169,3.2287104754,9.13603508255,4.5675167376,8.69241616749,4.8636639038,7.47653740643,-16.2069756742
off_to_on,7.64681125951,6.56304231343,8.58754099313,8.16311416101,5.24713367049,4.28950165617,0.816719126447,1.89289804517,7.37179858618,3.29779182589,7.21614692174,3.5010845451,5.91759173246,-11.0208663084
off_to_on,6.49831176829,4.94217744947,6.92530658387,6.13656229293,4.19368593797,2.56671962519,-0.60266718451,0.509892626946,5.29846407059,1.87583045991,5.43681303781,1.9923055612,4.10108746617,-5.61724547563
off_to_on,5.09166060823,3.17144861499,5.05449928905,3.8986097643,3.03269428684,0.784664033628,-1.91986355416,-0.887245827757,3.05881181403,0.34824269761,3.46393458429,0.40761932521,2.12591304633,-0.633476171913
off_to_on,3.46172074678,1.36130551245,3.06064400403,1.59495471324,1.78873343361,-0.959063478038,-3.09414707328,-2.25424510363,0.796071847632,-1.22092716643,1.41278226028,-1.16814149282,0.102981587822,3.43837101754
off_to_on,1.65467037124,-0.385063776643,1.02270682099,-0.639739374234,0.482501878627,-2.57793577795,-4.08934588676,-3.53656251818,-1.36008300421,-2.7526282423,-0.605791628498,-2.64063208003,-1.85300304925,6.31406776525
off_to_on,-0.271122313087,-1.98105663324,-0.990176423196,-2.69401190321,-0.867164551737,-4.00254332443,-4.87525320601,-4.67306885673,-3.3047736397,-4.15826289813,-2.49418851057,-3.91365075416,-3.63257553868,7.9442590193
off_to_on,-2.24519510397,-3.36344446941,-2.91967871248,-4.4876407075,-2.24026120843,-5.18412521008,-5.42960260508,-5.60199795478,-4.96502103918,-5.34767897299,-4.17457804345,-4.89864459019,-5.14041406812,8.50441157031
off_to_on,-4.18642157743,-4.49584947347,-4.71720542404,-5.9746877835,-3.61215302344,-6.09537773289,-5.74026837074,-6.26827470129,-6.30201045884,-6.23875822878,-5.59247787913,-5.52490718147,-6.30317560489,8.35148069429
off_to_on,-6.00599936383,-5.3686029213,-6.34135818768,-7.14147742521,-4.95039417712,-6.72871705766,-5.80723133733,-6.6310613755,-7.30853963831,-6.76734465919,-6.71722719423,-5.74907652379,-7.07539885967,7.95551367183
off_to_on,-7.61202123966,-5.99518042981,-7.75477666272,-8.00020026917,-6.21255489954,-7.09251381554,-5.64381121367,-6.67027044106,-8.00239320737,-6.8961033816,-7.53962645166,-5.56249742618,-7.4427962923,7.81732887324
off_to_on,-8.91541484781,-6.40587297767,-8.92128233513,-8.57948214923,-7.34567896874,-7.20606599689,-5.27672199172,-6.39089745434,-8.41697124968,-6.62094509051,-8.06739623366,-4.99517688653,-7.42252283939,8.38454248372
off_to_on,-9.836793704,-6.63971402283,-9.80416469402,-8.9136789663,-8.28778622395,-7.09420033194,-4.74465314029,-5.82431740697,-8.5908684533,-5.97389572332,-8.31937154475,-4.11542141214,-7.06032984907,9.97755961447
off_to_on,-10.3135523949,-6.73589504166,-10.3662107529,-9.03279622895,-8.97154480033,-6.78237888632,-4.09529614292,-5.02612073198,-8.55819842271,-5.02171136726,-8.31946103078,-3.02476307319,-6.42485369399,12.7349622287
off_to_on,-10.3063994419,-6.72593874573,-10.5717249298,-8.95476729421,-9.32990755157,-6.29304459294,-3.38099106571,-4.07057853676,-8.34127434235,-3.86008410913,-8.09135326627,-1.84839299953,-5.59961250188,16.5844720204
off_to_on,-9.80448186407,-6.62776041287,-10.3903786393,-8.68138718686,-9.30318358366,-5.64369324162,-2.65342077588,-3.04234460306,-7.9468242557,-2.60388527824,-7.65475924257,-0.721947635992,-4.67355506474,21.2419117196
off_to_on,-8.82833303094,-6.44245667338,-9.80233813646,-8.19856058882,-8.84674708219,-4.84685051553,-1.9579888074,-2.02644650305,-7.36630672044,-1.3744671823,-7.02367737714,0.22395121409,-3.73119154097,26.2369146539
off_to_on,-7.43007046041,-6.15426130461,-8.80381372484,-7.48078507194,-7.93841350171,-3.91180922163,-1.32864302011,-1.0979213163,-6.58019748771,-0.285511580865,-6.20680575608,0.879597031778,-2.84341235655,30.9610407878
off_to_on,-5.69056535844,-5.73365611616,-7.41200850829,-6.49907040448,-6.58446698924,-2.84769263296,-0.783924292044,-0.312563839325,-5.56544909771,0.570797644036,-5.20986366594,1.17054504294,-2.06005684271,34.7317975472
off_to_on,-3.71366677965,-5.14318401513,-5.66845274865,-5.23090486808,-4.82341485334,-1.66719695993,-0.3249162389,0.299845296399,-4.30478709465,1.13543812435,-4.03927623517,1.06847355668,-1.40512636603,36.8649944848
off_to_on,-1.61794350185,-4.34513949497,-3.6398944991,-3.67051222362,-2.72676798756,-0.390258999926,0.0644448344322,0.738769090584,-2.79618247412,1.39039494123,-2.70646702701,0.596952415024,-0.875261086249,36.7478471442
off_to_on,0.473247219261,-3.31005648203,-1.41625296204,-1.83755559841,-0.396474840576,0.95309283509,0.414546122724,1.03200966183,-1.06078015501,1.36145520253,-1.23192150147,-0.168935269304,-0.441740783015,33.9060888156
off_to_on,2.44229496842,-2.02480490895,0.894423279806,0.217349085469,2.04097008834,2.32131928223,0.764961518927,1.23065179279,0.852223004028,1.11532740306,0.351763407027,-1.10944787652,-0.0558648753118,28.0597443153
off_to_on,4.18727571665,-0.499155314172,3.17358431092,2.41147915163,4.44331486941,3.66177808314,1.15755637451,1.40043307059,2.86480270609,0.751187519886,1.99845541819,-2.07303845571,0.342841364804,19.1638272995
off_to_on,5.63012071481,1.23013586139,5.30156225295,4.63372139113,6.66343974211,4.91307539666,1.62868860584,1.61065355148,4.87386101539,0.387502965445,3.64903856847,-2.89393797311,0.816511512234,7.43173809533
off_to_on,6.72202608328,3.09835817056,7.16757150842,6.75292222336,8.5612724918,6.0091813959,2.20155986954,1.92213191857,6.75923607484,0.14565795924,5.23398298901,-3.41253156687,1.41810607423,-6.6596466109
off_to_on,7.44544420381,5.0152515176,8.6790475008,8.62991474384,10.0155018643,6.88486120693,2.87983244756,2.37590860835,8.3950267476,0.13240536403,6.67767167605,-3.49613621533,2.18120566632,-22.3833677856
off_to_on,7.81243169355,6.87063250899,9.76910013349,10.1316816349,10.9338565729,7.48176774981,3.64353461749,2.9843561385,9.6627585482,0.42342527521,7.90396897082,-3.0576166398,3.11176892858,-38.7939318193
off_to_on,7.85960955853,8.54271382473,10.4011034608,11.1457554421,11.2608624083,7.75443157086,4.44803329681,3.72608187692,10.4646014069,1.05023430269,8.84234704204,-2.06942239802,4.18303241364,-54.7763420211
off_to_on,7.64045267565,9.90828052565,10.5698443804,11.5928817385,10.9822666964,7.67537868006,5.22648320959,4.54553074265,10.7347996522,1.99235351145,9.43382515758,-0.571087877291,5.33441618836,-69.1115480469
off_to_on,7.21600133331,10.8536842665,10.2991501448,11.4361882665,10.1256927382,7.23870940493,5.89571152925,5.3575759605,10.447698604,3.17603926585,9.63602549899,1.33103758305,6.4748622552,-80.5565800409
off_to_on,6.64531998281,11.2855356936,9.63643026065,10.6855817075,8.75750937244,6.46166310591,6.36502437469,6.05670726723,9.62121731571,4.48007880815,9.42679492457,3.47215204004,7.49051770366,-87.9365492059
off_to_on,5.9770787911,11.1400191692,8.64502154793,9.39676123865,6.97631897717,5.38394689736,6.54699109899,6.52978018045,8.31525384246,5.74824964885,8.8060563168,5.6447925096,8.25613781448,-90.2441705884
off_to_on,5.24348808305,10.3899099501,7.39554289394,7.66499411969,4.9038289348,4.06488519424,6.36893550586,6.67076673136,6.6252227125,6.80715427683,7.79579872834,7.62045347495,8.64908965316,-86.7406250695
off_to_on,4.45748832341,9.04861776564,5.95759601346,5.61452986911,2.67413296554,2.57871249829,5.78368976238,6.39562192862,4.67160751943,7.48738710173,6.43835255934,9.17465851155,8.56444658097,-77.0497023178
off_to_on,3.61362996474,7.17088037404,4.3930668624,3.38512714431,0.422559925317,1.00854900968,4.77817753824,5.65529995742,2.58696305775,7.64547326379,4.79328848007,10.1126100299,7.92943245655,-61.2356434639
off_to_on,2.69253142765,4.85005103865,2.75199918638,1.11754310292,-1.72476352496,-0.560259989616,3.37859440358,4.44513569999,0.502139730192,7.18381545329,2.93340040696,10.2923827519,6.71543899243,-39.8543675393
off_to_on,1.66825653833,2.21223133912,1.07156940818,-1.0600652101,-3.65963683344,-2.04671040649,1.65132655068,2.80923108665,-1.46642098676,6.06603262221,0.940270702392,9.64283861605,4.94601689502,-13.9682190005
off_to_on,0.517484754328,-0.592233136536,-0.621840625562,-3.04306592623,-5.29805487998,-3.37992549947,-0.300749746885,0.839099292948,-3.22666678599,4.32556564079,-1.1001279682,8.17400734366,2.69962197851,14.8837097505
off_to_on,-0.770970295514,-3.39917260704,-2.30801501061,-4.75728641473,-6.58361356195,-4.50360511201,-2.34637787159,-1.33345628306,-4.71697287621,2.0662061595,-3.10144900683,5.97853520775,0.106446659605,44.7641726546
off_to_on,-2.18785410852,-6.0420766934,-3.96671820185,-6.16126877541,-7.48800221558,-5.37877292428,-4.33766862234,-3.54851203972,-5.90762906584,-0.545817018033,-4.98040978792,3.2238532461,-2.66067251459,73.4649570523
off_to_on,-3.69782577284,-8.36373715967,-5.57125062655,-7.24387714442,-8.00887327697,-5.98468247444,-6.12423429621,-5.63387040328,-6.79785406914,-3.29750658212,-6.65961008867,0.135827417922,-5.40058400299,98.676599919
off_to_on,-5.23759331511,-10.2271653965,-7.08313233279,-8.01798302621,-8.16565688282,-6.3179706358,-7.56812262038,-7.42272348979,-7.40907864335,-5.95083945043,-8.06982166464,-3.02431132533,-7.90204990068,118.188572734
off_to_on,-6.71844100167,-11.5249842311,-8.44915931395,-8.51152287818,-7.99407077757,-6.39034691835,-8.55782234748,-8.77102554823,-7.77577773356,-8.26809922962,-9.1519220187,-5.98713057905,-9.96401552641,130.102438518
off_to_on,-8.03313910353,-12.1866288933,-9.60172006364,-8.75757725329,-7.540146345,-6.22525369702,-9.01968632739,-9.57248610779,-7.93546557476,-10.0378091248,-9.85866411411,-8.50311256488,-11.4157384046,133.036469477
off_to_on,-9.06657979801,-12.1828648982,-10.4627386724,-8.7852112839,-6.85454851847,-5.85401040456,-8.92540211275,-9.76938505079,-7.91954806768,-11.0981412953,-10.1564273586,-10.3684494803,-12.1345188944,126.298390246
off_to_on,-9.70890212692,-11.5273280266,-10.9510036989,-8.61263161925,-5.98782514729,-5.31195858884,-8.29460132928,-9.35793128651,-7.74654391448,-11.3549387826,-10.0269954904,-11.4455156262,-12.0589653457,110.003831766
off_to_on,-9.86944021732,-10.2750014913,-10.9920434272,-8.24378701954,-4.98700742328,-4.63505993578,-7.19228006894,-8.38756993132,-7.41877027311,-10.7921144997,-9.46927690981,-11.6756569351,-11.1961716838,85.1219674286
off_to_on,-9.48961926016,-8.51775701823,-10.5292138442,-7.66893785682,-3.89373292143,-3.85728058121,-5.7213299629,-6.95439898052,-6.92300565061,-9.4731130634,-8.50075219152,-11.0828754432,-9.62184004749,53.4364814502
off_to_on,-8.55297080377,-6.37729002443,-9.53435825275,-6.86903940856,-2.74381527395,-3.00894353978,-4.01107313742,-5.1895860936,-6.2349831563,-7.53322061183,-7.15833298778,-9.76810018763,-7.47317292074,17.4189010944
off_to_on,-7.09074506033,-3.99596459538,-8.01633283097,-5.82313227882,-1.56797522677,-2.11607121619,-2.20317761978,-3.24428406603,-5.32693309125,-5.16364531995,-5.49827279407,-7.89488670403,-4.93519566413,-19.9785470996
off_to_on,-5.18212864599,-1.52624135116,-6.02589060034,-4.51741281485,-0.393304671349,-1.20059543406,-0.436640693199,-1.27295145059,-4.17688291659,-2.58932043678,-3.59480003408,-5.66842899445,-2.22195024761,-55.5932420759
off_to_on,-2.94876409624,0.880520237511,-3.65585710751,-2.95434860759,0.755025541872,-0.281202825383,1.1663736651,0.582858458606,-2.77811358731,-0.0431681346614,-1.53725141427,-3.31056818671,0.445373124485,-86.3594711299
off_to_on,-0.544021076181,3.08502498408,-1.03615655606,-1.16015753269,1.85227877573,0.625478347046,2.51218295596,2.20828858753,-1.14711177651,2.25999746152,0.574342152689,-1.03393945522,2.86090900925,-109.620293829
off_to_on,1.8618148587,4.9699020061,1.67603104992,0.810808737899,2.87325222319,1.50365314164,3.54339281935,3.5249583151,0.671442729325,4.14671524978,2.63504749434,0.981544476525,4.85463504071,-123.408846574
off_to_on,4.09869248682,6.4476523355,4.30998855707,2.875777907,3.7921755321,2.33736036797,4.24203159356,4.49570108375,2.603686019,5.50243494442,4.54180296718,2.60702464625,6.30858242663,-126.665482529
off_to_on,6.0141851351,7.46600510324,6.69746681538,4.92774473791,4.58344301328,3.10988489182,4.62777710655,5.1239067528,4.550013041,6.28129454942,6.20058052758,3.77570279545,7.16688035403,-119.362941325
off_to_on,7.48894303246,8.01020162748,8.68900028789,6.84381796941,5.22304190284,3.80366919541,4.75165620356,5.44782376317,6.39272305339,6.50703501524,7.53321018795,4.48536055405,7.43850354038,-102.521346075
off_to_on,8.44824487635,8.10198267816,10.168443572,8.49675476528,5.6904014621,4.40070921455,4.68615588317,5.53081821108,8.00699261737,6.26511723567,8.48310195059,4.79234189531,7.19246578413,-78.1072150309
off_to_on,8.86817083052,7.79534931641,11.06382368,9.76819239287,5.97030613955,4.88333136331,4.51311497243,5.44907982157,9.27378063499,5.68724117302,9.01916946114,4.79805755111,6.54611549931,-48.8244073287
off_to_on,8.77561281961,7.16947639618,11.3530660036,10.5617862513,6.05450228848,5.23518781212,4.31101420222,5.27854685729,10.0929507434,4.93043988123,9.13743528073,4.63002704199,5.64802847336,-17.8182979998
off_to_on,8.2421482261,6.31944925507,11.0638324774,10.8144279982,5.94268217984,5.44228383791,4.14332186785,5.08286112008,10.394826909,4.15360508087,8.86006107407,4.42015664409,4.657652693,11.6742393976
off_to_on,7.372620187,5.34573546309,10.2675137282,10.5039542859,5.64264016689,5.4938659404,4.04938110921,4.90396167948,10.1485892364,3.49460645986,8.23186338665,4.28327291037,3.72425559634,36.6888143661
off_to_on,6.28997914988,4.34346383495,9.06822787547,9.65223120095,5.16954353814,5.38304714308,4.03896949834,4.75651546415,9.36634082738,3.05105487815,7.31470289735,4.29885206638,2.96780358036,54.8683506026
off_to_on,5.11844666795,3.3926375578,7.58837867338,8.32314160164,4.54441878016,5.107115509,4.09117143596,4.62682509794,8.10227044319,2.86724634281,6.18042401909,4.49841930894,2.46415468845,64.7280786809
off_to_on,3.96729116915,2.55034274713,5.95281046706,6.61571659602,3.7920951437,4.66754876773,4.15764423505,4.47622817771,6.4470121159,2.92897835019,4.90322782375,4.86030311255,2.23639746915,65.8176159061
off_to_on,2.91742179844,1.84582672196,4.27379255089,4.65333204954,2.93894704824,4.06982634222,4.16980219207,4.24839331755,4.51796228028,3.16686616398,3.55245031206,5.31242445665,2.25338971633,58.7590492229
off_to_on,2.01261853522,1.2790251914,2.63893798235,2.57043528352,2.01081738951,3.32317589292,4.04895933988,3.87940753787,2.44686106261,3.46764564606,2.18667203123,5.74271349164,2.43563781648,45.1548942613
off_to_on,1.25657510923,0.822742095432,1.1037258374,0.498595612009,1.0314773936,2.44040475588,3.71811931187,3.30920199811,0.366298125612,3.69188283473,0.849905523731,6.01572043623,2.66772597692,27.3758872822
off_to_on,0.616122052772,0.428269712532,-0.310388847753,-1.44626266832,0.0218884630766,1.43794319591,3.11391949116,2.49271956902,-1.60308493988,3.69565938017,-0.429684319445,5.9931580505,2.81567276324,8.25373764153
off_to_on,0.0301309624137,0.0338272398026,-1.6121291397,-3.17379277707,-0.999608799216,0.336168775798,2.19724291351,1.40930031124,-3.36306783136,3.3532786108,-1.63843613473,5.55558748192,2.74696581363,-9.28374640878
off_to_on,-0.577202861035,-0.425157068873,-2.83153183582,-4.62511668351,-2.01622137097,-0.840001646504,0.961197483429,0.0690320209004,-4.84474793541,2.57790671322,-2.77351906566,4.62230429722,2.35068392431,-22.5899892095
off_to_on,-1.28063185373,-1.0051464964,-4.00755052728,-5.77408395697,-3.01095829234,-2.06035959156,-0.564502018077,-1.48476100553,-6.01115568708,1.33734174824,-3.8375768769,3.16671437172,1.55510211308,-29.6421268954
off_to_on,-2.13798075296,-1.74431986216,-5.17416771658,-6.62399953349,-3.9645664434,-3.28868727947,-2.31327514901,-3.1771996707,-6.85552214539,-0.337249862017,-4.83259908297,1.22507614409,0.340490970767,-29.3051772573
off_to_on,-3.176473748,-2.65441707486,-6.34731540679,-7.20058646061,-4.85359129176,-4.48233365445,-4.18558270618,-4.90747303548,-7.39576304555,-2.35086256668,-5.75406415192,-1.10265340934,-1.25457429585,-21.4838896352
off_to_on,-4.38333810473,-3.7157036924,-7.51482062827,-7.54248729949,-5.64902774957,-5.59236870449,-6.05657304642,-6.55768752332,-7.66627452528,-4.55259708137,-6.58638280886,-3.66011182116,-3.13426485528,-7.14216919651
off_to_on,-5.70219165414,-4.87581153133,-8.63117532951,-7.69093878973,-6.31597229204,-6.56457779398,-7.78664207705,-8.00385491408,-7.70848917013,-6.7510779983,-7.30049844307,-6.24916129927,-5.15385751796,11.8134005038
off_to_on,-7.03593951442,-6.05276886691,-9.61823473218,-7.68033090831,-6.81456262065,-7.34148355453,-9.23379325354,-9.12771540846,-7.56176716214,-8.73543736433,-7.85419742591,-8.65012045119,-7.13443953966,32.7721712444
off_to_on,-8.25601337273,-7.14203799524,-10.3720720449,-7.53117473011,-7.10231093484,-7.86546242731,-10.2665333439,-9.82805128198,-7.25608111561,-10.2992521353,-8.19528564137,-10.6451585542,-8.88221062063,52.7507786991
off_to_on,-9.2169057613,-8.02688891059,-10.7752856438,-7.24658462192,-7.13772571731,-8.08286895406,-10.7760336405,-10.0302757686,-6.80761628343,-11.2644627016,-8.26735409588,-12.0420274507,-10.2100713605,68.7758252252
off_to_on,-9.7742022543,-8.59101552765,-10.7132027207,-6.8127953625,-6.88490471918,-7.94891249018,-10.686413972,-9.69335244633,-6.2179048854,-11.5023258151,-8.01744821231,-12.6952823042,-10.9589165697,78.2697095145
off_to_on,-9.80379915274,-8.73199850533,-10.0917766154,-6.2035746272,-6.31859964789,-7.4328713347,-9.962242646,-8.81346673952,-5.4765234552,-10.9488582209,-7.40463223359,-12.5224773722,-11.0161029124,79.3907498158
off_to_on,-9.21978421351,-8.37407593212,-8.8546312883,-5.3877575925,-5.42912874911,-6.52310253252,-8.61265354843,-7.42427754041,-4.56679669511,-9.61294763906,-6.4082510249,-11.5134669,-10.3289223971,71.2843191567
off_to_on,-7.98858320282,-7.47872057819,-6.9967209161,-4.33862024611,-4.22646755404,-5.23123366494,-6.69182181419,-5.59396646293,-3.47346007462,-7.57624543068,-5.03466719402,-9.73180562897,-8.9115359746,54.2128256611
off_to_on,-6.13742004906,-6.05173883023,-4.57244988706,-3.04349903842,-2.74289067629,-3.5949221129,-4.2958727566,-3.41962495482,-2.19091082391,-4.9849839315,-3.32139958071,-7.30821325319,-6.8446224916,29.5476102798
off_to_on,-3.75584451837,-4.14597838651,-1.69679103592,-1.51200347797,-1.03366683383,-1.678645648,-1.55659221914,-1.01973929789,-0.730571247155,-2.03484574347,-1.33789306964,-4.42701684562,-4.26787407214,-0.376759586605
off_to_on,-0.989954979279,-1.85921641431,1.46114525977,0.218636069266,0.824488561062,0.427856026985,1.36746320061,1.47436760948,0.873985762121,1.04917370035,0.817429790259,-1.30729523077,-1.3663090198,-32.5279892773
off_to_on,1.97013087173,0.672660003404,4.69162715422,2.08212104571,2.73724789214,2.61364818826,4.30170280551,3.92729949057,2.56516197755,4.03542524331,3.02370398569,1.81897850521,1.6479259217,-63.52850654
off_to_on,4.90814967501,3.28653802973,7.763471229,3.98598954795,4.59856882747,4.75307133312,7.06725428166,6.20783798137,4.26322693024,6.70808967922,5.14713698206,4.72923002161,4.55611377649,-90.0512139132
off_to_on,7.60283055016,5.8059258024,10.4466468884,5.81866806536,6.29817834132,6.71423056449,9.49289277664,8.19615446623,5.87191736898,8.88692421489,7.05249144147,7.23050104609,7.1535325525,-109.20968345
off_to_on,9.84981480775,8.05632774077,12.5355984523,7.45983433647,7.72996323934,8.36885934638,11.4263555034,9.78967327074,7.28710867949,10.442161923,8.61524605626,9.17544076149,9.26776194846,-118.894947008
off_to_on,11.4817906877,9.88054847629,13.8704319887,8.7927467419,8.80045892679,9.6027039061,12.7443396036,10.9074847337,8.40744330093,11.3031514828,9.73303347487,10.4725295752,10.7728239419,-118.01809556
off_to_on,12.3845194362,11.1523439634,14.3533595347,9.71688494107,9.43659230105,10.3254462749,13.360595543,11.4933707669,9.14548537442,11.4601653802,10.335025531,11.0897619697,11.5978227167,-106.630044512
off_to_on,12.5069621575,11.7870371625,13.9583878491,10.1591800558,9.59189646108,10.4791573993,13.231656937,11.5176045714,9.43786689247,10.9596729864,10.38818088,11.0518385479,11.729457498,-85.9054351776
off_to_on,11.8644662573,11.748068779,12.7331007025,10.0822998241,9.25056731014,10.0443569035,12.3598833011,10.9777133379,9.25301342628,9.89415539658,9.89965579579,10.4316885929,11.2085308436,-57.9946793412
off_to_on,10.5348346955,11.0489164685,10.7923945063,9.48886584905,8.42895658307,9.04295002793,10.7936321669,9.89835598371,8.59536788899,8.38813332487,8.91515307393,9.33776796138,10.1212693482,-25.7644102804
off_to_on,8.64796638319,9.75033173801,8.30504830749,8.42105386063,7.17436496671,7.53759885574,8.62452195056,8.33038780759,7.50551858619,6.58241903402,7.51348259334,7.89898133853,8.5868292614,7.53999074822
off_to_on,6.37051008436,7.95335037103,5.47490195412,6.95567742768,5.56128017047,5.62743611965,5.98189871192,6.34908905087,6.05620970394,4.61865741281,5.79806310793,6.2492234534,6.74271364348,38.6672349153
off_to_on,3.88752280973,5.7889701519,2.51906087823,5.19548373366,3.68546446082,3.44040848601,3.02477905657,4.05145578814,4.34478316626,2.6259994917,3.88644781257,4.51341743916,4.72994672936,64.7224526246
off_to_on,1.38340227447,3.40570955408,-0.354141458498,3.25790385738,1.65650409346,1.12290007924,-0.068295011705,1.55241663656,2.48308623155,0.711300888497,1.89916062759,2.79658138337,2.67973351055,83.4756731328
off_to_on,-0.975655535082,0.956429374937,-2.96474859166,1.26282449177,-0.410433776693,-1.17240621701,-3.11089329016,-1.02013439039,0.586208703039,-1.04636600997,-0.0508384139119,1.17693618229,0.703007257375,93.5810729245
off_to_on,-3.05572523445,-1.41419789203,-5.17608877574,-0.67896257488,-2.40284586312,-3.29925990112,-5.92108677694,-3.53150473474,-1.23845929603,-2.59676066121,-1.86688193837,-0.296541892563,-1.11621077436,94.6838000681
off_to_on,-4.76433539101,-3.58034213561,-6.90342100516,-2.47513250332,-4.21839277071,-5.12990679678,-8.33373896398,-5.84743408262,-2.90044907085,-3.91558485913,-3.47463239128,-1.60233558131,-2.72327555262,87.4059287864
off_to_on,-6.05404541698,-5.44285331955,-8.1156430658,-4.05789374006,-5.77103260338,-6.56527324381,-10.2117904862,-7.84206640386,-4.33260674333,-4.99866012568,-4.8249381874,-2.74111839202,-4.09140685128,73.2184254402
off_to_on,-6.92044378672,-6.93372401213,-8.83033483112,-5.38615302956,-6.9953526527,-7.54224103745,-11.4556399557,-9.40615062961,-5.49399644222,-5.85449483892,-5.89346377204,-3.7281504023,-5.21689735123,54.2199176322
off_to_on,-7.3953010809,-8.01704080091,-9.10328883387,-6.44379027743,-7.84888557355,-8.03728567416,-12.0098170738,-10.4548011024,-6.36918214567,-6.49666245476,-6.6774781216,-4.58469597521,-6.11210052406,32.8538007569
off_to_on,-7.53618329041,-8.68670018543,-9.0143692423,-7.2346430246,-8.31242525567,-8.06614000694,-11.8663231814,-10.9340610559,-6.96429131995,-6.93729185141,-7.19054225841,-5.32983273952,-6.79745520071,11.6015106889
off_to_on,-7.41419989899,-8.96151575015,-8.65195002151,-7.77528115579,-8.38856512217,-7.6795796403,-11.0642724165,-10.8255192616,-7.30072107338,-7.18266397606,-7.45607202811,-5.97384643113,-7.29381793475,-7.30901509037
off_to_on,-7.10168861264,-8.87859514162,-8.09826469132,-8.08695356042,-8.09884393635,-6.95585592263,-9.685785036,-10.1483444661,-7.40766093282,-7.23147349251,-7.50083926566,-6.51408305812,-7.61621737972,-22.1445296917
off_to_on,-6.66151945373,-8.48599273249,-7.41775201067,-8.18816604591,-7.47998465477,-5.99067695603,-7.84843390944,-8.95832048322,-7.31473097973,-7.07582368326,-7.34940608262,-6.93371363521,-7.76985035588,-31.8303753828
off_to_on,-6.13936378345,-7.83563860286,-6.64994832384,-8.08919487536,-6.57974269269,-4.88591148064,-5.6948884085,-7.3437656715,-7.04595474763,-6.7045552048,-7.02027914531,-7.20342124319,-7.7487566272,-36.0214400461
off_to_on,-5.55977504099,-6.97741514437,-5.80774089329,-7.78947972671,-5.45284296656,-3.7383303546,-3.38069601286,-5.41856791736,-6.61601907894,-6.10813450952,-6.52425866155,-7.28560819944,-7.53719641412,-35.077287911
off_to_on,-4.92634292467,-5.95502255402,-4.88096597323,-7.2783319985,-4.15739084945,-2.62968640605,-1.06135193736,-3.31291388244,-6.02936262682,-5.28409812452,-5.86508930774,-7.14039575273,-7.11336884734,-29.9510621333
off_to_on,-4.22559456984,-4.80397823313,-3.84452951323,-6.53881991863,-2.75200825179,-1.61926448034,1.12010043483,-1.16258944603,-5.282146762,-4.24199203958,-5.04215278215,-6.7324866246,-6.45480031318,-22.0123165025
off_to_on,-3.43380439369,-3.55177342316,-2.66955962482,-5.55414139716,-1.29379419446,-0.739727099529,3.04373916303,0.902068603005,-4.36667423304,-3.00686098815,-4.05462749892,-6.03789841599,-5.54453405888,-12.8312636845
off_to_on,-2.52550375829,-2.21990501881,-1.33565902693,-4.31535547223,0.162937656733,0.00332794233808,4.62068614546,2.76641565203,-3.27740812336,-1.6206038287,-2.9063240711,-5.04964913926,-4.3771836529,-3.95521396894
off_to_on,-1.48229517958,-0.827248931581,0.157830083146,-2.82908268119,1.56731315079,0.628145256044,5.79756927829,4.3398553577,-2.01747008384,-0.14087089736,-1.61031403732,-3.78166244269,-2.96397125726,3.29300820003
off_to_on,-0.30058930551,0.605927332568,1.7834897978,-1.12374504866,2.87219146355,1.17043377065,6.55720491835,5.56144158715,-0.604404065469,1.36242332503,-0.192512952197,-2.27042373069,-1.33603859386,7.96978179981
off_to_on,1.0029154397,2.0540835548,3.48193545548,0.746895173473,4.03437471491,1.6747443749,6.91561748315,6.40219140392,0.925906809847,2.81252695655,1.30645321674,-0.57421684127,0.454437302485,9.60158901957
off_to_on,2.38883698023,3.48339123961,5.16324493714,2.7037502567,5.0149851082,2.18480649668,6.91593757195,6.8639816592,2.51800366499,4.1324815699,2.83150584094,1.22993816726,2.33550828228,8.20487257489
off_to_on,3.79617265641,4.85018448085,6.71381412086,4.64629736934,5.78019041085,2.7341686914,6.62007766033,6.97532907087,4.09871637629,5.25205475646,4.31558493276,3.05127835026,4.21900106467,4.23771686837
off_to_on,5.14671187267,6.1012677258,8.00795141641,6.46007558293,6.30235400644,3.33845911178,6.09932710032,6.78474142169,5.58206779486,6.11404783229,5.6840987046,4.7916762914,6.00599866543,-1.50472764195
off_to_on,6.35223629498,7.17621114787,8.92281378815,8.02695837327,6.5615648963,3.99038139305,5.42510185395,6.35262043544,6.87667897114,6.67916781736,6.86083186273,6.35276034877,7.59372286505,-8.03232505877
off_to_on,7.32358214182,8.01148788729,9.35475259088,9.23692310942,6.54738550279,4.65821175064,4.66101460029,5.7428524186,7.89473749244,6.92888378629,7.77458890525,7.64311633823,8.88316923185,-14.3169853898
off_to_on,7.98040756614,8.54604788414,9.23485060592,9.99977505775,6.26055994233,5.2881054766,3.85720538368,5.01521766741,8.5613309917,6.86599272264,8.36575103119,8.58496127186,9.78680817239,-19.4416618506
off_to_on,8.26043182434,8.72771123645,8.54143116547,10.2552439302,5.7143684355,5.81001217341,3.04752159723,4.21958402843,8.82286642353,6.51294859456,8.59194427613,9.11977987692,10.2356953575,-22.7211216948
off_to_on,8.12699429471,8.51962478047,7.30761005424,9.98006332374,4.93530522564,6.14650395146,2.24970706553,3.39254776846,8.65340491585,5.90830912823,8.43214506636,9.21254210551,10.1854174941,-23.7797205196
off_to_on,7.57400308302,7.90597526542,5.6225096983,9.19104010553,3.96280155016,6.22340461669,1.46831365861,2.55679067171,8.05802496756,5.10188363377,7.88876495056,8.85425466588,9.62041644914,-22.5785340707
off_to_on,6.62767138607,6.89619749494,3.62550082169,7.94366388647,2.84780830156,5.98082750884,0.699649340059,1.72299504393,7.07274033004,4.14929214246,6.98752472447,8.06272678284,8.55636855427,-19.3919141031
off_to_on,5.34483056533,5.52705214902,1.49369369601,6.3264164078,1.65018454703,5.38312607185,-0.0622175287569,0.893762783009,5.76098048437,3.10665897695,5.77520939825,6.88154184044,7.04043270052,-14.7407070095
off_to_on,3.80801293638,3.86216185763,-0.576229959442,4.45152737716,0.434991887675,4.4263535055,-0.819521986895,0.0686815638138,4.20711881457,2.02606959059,4.31564949297,5.37732115267,5.1493123289,-9.29502387883
off_to_on,2.11786704746,1.98886324696,-2.38997465753,2.44340116923,-0.732049129059,3.14210985275,-1.56602969935,-0.750482226627,2.50793527339,0.952241702871,2.68446702377,3.63544807079,2.98520014416,-3.76287592338
off_to_on,0.383763037911,0.0125287083258,-3.7789144908,0.426238487166,-1.78954678145,1.59709525348,-2.28432257134,-1.5554815204,0.763167494782,-0.079364109055,0.963232972041,1.75449672133,0.669792255508,1.21814873879
off_to_on,-1.28636422818,-1.95119731303,-4.6219053502,-1.48754400517,-2.68537720889,-0.111766541109,-2.94569357686,-2.32902566065,-0.933601202061,-1.04300247436,-0.76630261007,-0.160314200026,-1.66332569567,5.17064019701
off_to_on,-2.79581771088,-3.78554885343,-4.86280856655,-3.20664450208,-3.38103679707,-1.86618906052,-3.51276362895,-3.04449328243,-2.50255827492,-1.92188010531,-2.42732187076,-2.00424396856,-3.87750134712,7.83677721292
off_to_on,-4.06752501899,-5.38228983531,-4.52121964124,-4.66686288957,-3.85488890737,-3.5383821914,-3.94446696838,-3.66805267649,-3.88288196124,-2.70652238457,-3.95195304956,-3.68025382883,-5.84251244828,9.20078187001
off_to_on,-5.050117058,-6.65088311722,-3.69452367583,-5.83315707521,-4.10387098632,-5.00449611158,-4.20262864766,-4.16288662104,-5.03504791928,-3.3926832131,-5.28394069436,-5.10579369265,-7.44409487769,9.47354511804
off_to_on,-5.72106786908,-7.52620165143,-2.55029436525,-6.69776418708,-4.14337338829,-6.15798417573,-4.25904576012,-4.49482462143,-5.94015569948,-3.97919492368,-6.37993189721,-6.21857692936,-8.59277263871,9.04399520701
off_to_on,-6.08659080294,-7.9739232226,-1.30913478984,-7.27495084907,-4.0051931263,-6.92118024989,-4.10183604217,-4.63839795822,-6.59665491415,-4.46607240441,-7.20952630984,-6.98077870784,-9.23121446453,8.40617538489
off_to_on,-6.17834218666,-7.99296927903,-0.219218717518,-7.59342835143,-3.7336840147,-7.25357348858,-3.73986319414,-4.58220278823,-7.01522619601,-4.85306190111,-7.75438144534,-7.38116530834,-9.33935637052,8.07379381964
off_to_on,-6.04733448516,-7.61465044727,0.475093456489,-7.68777418066,-3.38044458465,-7.1556592815,-3.20428907557,-4.33251119782,-7.2128196058,-5.13869122442,-8.00674656651,-7.43480522893,-8.93662343714,8.49493764056
off_to_on,-5.75577238889,-6.89853695687,0.567249909055,-7.59029787667,-2.99808024346,-6.66780255903,-2.54671037819,-3.91430841972,-7.20693718493,-5.31976488612,-7.96781160431,-7.18022692822,-8.0807685383,9.97873032975
off_to_on,-5.36776670056,-5.92544385039,-0.0788417856563,-7.32466517713,-2.63372115641,-5.86419890627,-1.83385625659,-3.36932577743,-7.01115658718,-5.39117911511,-7.6462066011,-6.674158918,-6.86312034565,12.6432516051
off_to_on,-4.94002756419,-4.78826648024,-1.50170323912,-6.9022717324,-2.32305130118,-4.84267523981,-1.13937891833,-2.75112688491,-6.63264584558,-5.34592046583,-7.05688647215,-5.98428862583,-5.40038281946,16.3905266002
off_to_on,-4.51367329151,-3.58167931619,-3.62467702807,-6.3218878095,-2.08559317462,-3.71164650379,-0.533777355785,-2.11781473379,-6.07205615923,-5.1751565747,-6.22050661352,-5.18076888184,-3.8235230974,20.9104294766
off_to_on,-4.10820568858,-2.39188329135,-6.25106008463,-5.57255147338,-1.92189197153,-2.5759572831,-0.073874231547,-1.52337790193,-5.32575858984,-4.8684135019,-5.16326122655,-4.32744051764,-2.26468003593,25.7115433447
off_to_on,-3.71849951448,-1.28762629874,-9.07402818198,-4.63915333173,-1.81305828915,-1.52352598349,0.206548370752,-1.00900880454,-4.38997871657,-4.41393516743,-3.91704122499,-3.47388202135,-0.843368274238,30.1738907723
off_to_on,-3.31534562242,-0.313614413571,-11.7018364217,-3.50971247761,-1.7228755197,-0.614641148172,0.303397075448,-0.5958466287,-3.26604570489,-3.79940525591,-2.51969047203,-2.64940582732,0.346513068224,33.6163511634
off_to_on,-2.84969860069,0.512818837143,-13.6969828424,-2.18305780093,-1.60238229964,0.124564739164,0.244931674313,-0.280490631219,-1.96576208892,-3.01325032085,-1.01510860196,-1.85997404157,1.24728158363,35.3706638137
off_to_on,-2.26034475833,1.2012901797,-14.6261785577,-0.675544073989,-1.39653383754,0.703483301141,0.0896808380151,-0.0342977121865,-0.515850994008,-2.04671223624,0.547032219094,-1.08870347255,1.84421333002,34.8541241639
off_to_on,-1.48426785543,1.78415271752,-14.1162937515,0.974439683423,-1.05226441765,1.16295756798,-0.0805023614924,0.193041519892,1.03944337049,-0.896769721974,2.11212710055,-0.30019392598,2.16727666635,31.6341892491
off_to_on,-0.468596043354,2.30894082126,-11.9101657866,2.70509104553,-0.527052291128,1.56624688536,-0.171639056012,0.465793547443,2.63825643487,0.430189583577,3.62211353437,0.5516085441,2.28721982707,25.4798785007
off_to_on,0.817287099187,2.82838571149,-7.91546441859,4.4334006334,0.203041653017,1.98622916242,-0.0917914037594,0.851153885273,4.20378083812,1.91426787515,5.01755663172,1.51284461285,2.30602883642,16.3967134498
off_to_on,2.37104739186,3.38928687336,-2.23986236235,6.06086160527,1.13690638899,2.49062115874,0.233628793913,1.40631220301,5.64956670743,3.5180760968,6.24022162836,2.61778857636,2.34250127187,4.64364936012
off_to_on,4.14969169431,4.02175480672,4.79336329226,7.48206758754,2.24442194466,3.12735262154,0.847550149454,2.16545333874,6.88687598381,5.1836077939,7.23593524027,3.87717927736,2.51439415097,-9.26822036758
off_to_on,6.0662182251,4.73038786956,12.6534849821,8.59513874902,3.46571932079,3.91230155736,1.75009913306,3.12872371741,7.83318668582,6.83079788922,7.95749489673,5.26865692376,2.91920221228,-24.5945550365
off_to_on,7.99161041635,5.48879054227,20.6360356454,9.31262240549,4.71404002346,4.82136452932,2.89251439591,4.25509041797,8.42073844764,8.35856273688,8.36737955348,6.7310344004,3.61601215793,-40.3931960494
off_to_on,9.7626095125,6.2384877328,27.9210128504,9.57141664619,5.88217713877,5.7883172175,4.17744167298,5.4606235183,8.60396887079,9.64893408171,8.44004496191,8.16378038984,4.61098370864,-55.5749092561
off_to_on,11.1950372146,6.89277146488,33.6514642815,9.3403768256,6.85205365959,6.70917585842,5.46614311951,6.62307893788,8.36481832989,10.5745680499,8.16364122681,9.43250560041,5.84878552295,-68.9680611451
off_to_on,12.1017300032,7.34538836092,37.025467588,8.62456821347,7.50658912408,7.45289199739,6.59223829413,7.59282595841,7.71516026585,11.0094595777,7.54105856966,10.3804822944,7.21175968527,-79.3954676935
off_to_on,12.3134737772,7.48331335595,37.3921866855,7.46557838622,7.74267221666,7.87731544627,7.38067049925,8.20925859271,6.69600325206,10.8421760138,6.59027453053,10.8453817144,8.52774414609,-85.7608647697
off_to_on,11.7007786004,7.20224187532,34.341242666,5.93783372688,7.48383935898,7.84856475645,7.66978869712,8.32097722894,5.37355234222,9.99041311123,5.3440300895,10.6795950133,9.58643324371,-87.141193154
off_to_on,10.193990415,6.42295377577,27.7743473363,4.14139830804,6.69119113671,7.26136316956,7.33386820698,7.80735038851,3.83264490659,8.41525358517,3.8488951077,9.77182816562,10.1630229257,-82.8792653272
off_to_on,7.79916423932,5.10643057923,17.949160054,2.19219364852,5.37117759668,6.05761862885,6.30315237602,6.59867193013,2.1684271855,6.1332513575,2.16379243854,8.06723712915,10.046812334,-72.6696357387
off_to_on,4.60735882371,3.26559363891,5.48764425446,0.210899435041,3.5791489806,4.24059950709,4.57863153645,4.69208877086,0.477360865414,3.22443639188,0.358038451802,5.58327699109,9.0715642924,-56.6290036472
off_to_on,0.795557778273,0.971795076893,-8.65534400508,-1.68806534045,1.417979244,1.88248835557,2.23928522545,2.16081487877,-1.15128759329,-0.165428658132,-1.49106581234,2.41871890219,7.14389599591,-35.3416689465
off_to_on,-3.38176071768,-1.64527948878,-23.2632275274,-3.40614048938,-0.968414110037,-0.876158293858,-0.559651376232,-0.845155604664,-2.64242586824,-3.82950771817,-3.30108212416,-1.24606628774,4.26587561438,-9.87084359325
off_to_on,-7.61037035526,-4.4048980441,-36.9639876913,-4.86770612974,-3.40626367054,-3.83554127331,-3.59777144298,-4.10764430877,-3.93978710968,-7.511907348,-4.98772126741,-5.15850708334,0.548388304514,18.2717117226
off_to_on,-11.5422229281,-7.08949123005,-48.3624248571,-6.02394164343,-5.7069159559,-6.753754185,-6.60914201377,-7.35785749509,-5.00782058459,-10.9266137286,-6.46855584909,-9.01270880213,-3.78730608939,47.202101814
off_to_on,-14.8273581376,-9.46462024644,-56.1855240677,-6.85323110053,-7.68414875265,-9.37028013282,-9.30860744349,-10.3014259587,-5.83080473582,-13.7819933316,-7.66710686058,-12.4763887378,-8.42114660371,74.7866389146
off_to_on,-17.1487171963,-11.3027338116,-59.4255445654,-7.3583727098,-9.17209142358,-11.4333190158,-11.421928292,-12.6483800033,-6.40957209237,-15.8086555748,-8.51718297289,-15.2233259516,-12.9587801647,98.8045459897
off_to_on,-18.256197044,-12.4081357446,-57.4645861439,-7.56128031856,-10.0418495836,-12.7278156353,-12.7163356745,-14.1447626684,-6.75657079712,-16.7878301468,-8.96726426352,-16.9679081013,-16.9672025593,117.139700351
off_to_on,-17.9960942317,-12.6402642032,-50.1653847048,-7.4961761398,-10.2149992874,-13.1008362045,-13.0278925211,-14.6022074492,-6.89020229504,-16.5770696088,-8.98463031821,-17.4978607432,-20.0182293924,127.984820083
off_to_on,-16.3323478404,-11.9324087252,-37.9159620551,-7.20242384983,-9.67239315801,-12.4811351855,-12.2823100454,-13.9218776374,-6.8294383872,-15.1301208067,-8.55885527204,-16.7012117103,-21.7353020533,130.03753869
off_to_on,-13.3566985737,-10.3033776806,-21.6202774236,-6.71812327317,-8.45718776031,-10.890353202,-10.5065495652,-12.1096903077,-6.58962631922,-12.5082423038,-7.70424920516,-14.5840041078,-21.8384151557,122.665939347
off_to_on,-9.28597894414,-7.86034616662,-2.63275758079,-6.07539244876,-6.67161016233,-8.44422472562,-7.82957072566,-9.28067681133,-6.18015508507,-8.88105288153,-6.46083355889,-11.2761921192,-20.1818259268,106.021886525
off_to_on,-4.44612672924,-4.79208801223,17.359101213,-5.29793525296,-4.46766521549,-5.34334042002,-4.47184455481,-5.65155743711,-5.60431841595,-4.51609950678,-4.89350879507,-7.02443817445,-16.7797219627,81.0841404144
off_to_on,0.755982159216,-1.35291401372,36.4936926456,-4.40108723834,-2.03266529305,-1.85426058598,-0.724579643712,-1.52198355346,-4.86132407016,0.24239094693,-3.08920721287,-2.17203038068,-11.8161524034,49.6196215158
off_to_on,5.870332215,2.16123326521,52.9201770591,-3.39411356753,0.42893953772,1.71704373493,3.07915367296,2.75374375493,-3.95002605957,5.00381658054,-1.15201390704,2.87232628056,-5.63716112473,14.0597552655
off_to_on,10.4474280079,5.44208186974,64.9899335084,-2.28416580475,2.71551364037,5.05648732072,6.59822904384,6.80150440226,-2.87365486674,9.36765143376,0.803534865682,7.67371545038,1.27497714003,-22.7013492454
off_to_on,14.0832165804,8.20055078956,71.4336500699,-1.08104420319,4.64782665937,7.87435871965,9.51841574062,10.2649397844,-1.64463758585,12.9622788664,2.66053177691,11.814043301,8.3434506939,-57.5702313684
off_to_on,16.4603582734,10.1969408355,71.503911375,0.198203490351,6.08615785792,9.93527014267,11.5845348081,12.8416056251,-0.288563693406,15.4820097374,4.3085019376,14.9341716682,14.9506448955,-87.5535923827
off_to_on,17.3811880662,11.2663037051,65.0663362775,1.52577244663,6.94305428196,11.0821131084,12.6261971873,14.3136417157,1.15353162915,16.7181450898,5.6521206837,16.7704209201,20.4984857656,-110.062459954
off_to_on,16.7885285854,11.3359813261,52.6276212304,2.86141449922,7.19036837044,11.2512631892,12.5742576942,14.5695138478,2.62514411107,16.5805028401,6.6189671698,17.1812860116,24.469004322,-123.186754748
off_to_on,14.7718168101,10.4331726006,35.2956953263,4.15300256293,6.85985064401,10.4773180291,11.4662183573,13.6144098396,4.056768269,15.106836852,7.16546919414,16.1612946137,26.4784917189,-125.90738749
off_to_on,11.5576446791,8.68153134282,14.674818005,5.33940145063,6.0373116925,8.88690567213,9.44011964435,11.5681880814,5.37069959222,12.4589217965,7.28033700554,13.8404065911,26.3191422382,-118.218591191
off_to_on,7.48559756396,6.28708992252,-7.29404542618,6.35532371657,4.85110663523,6.68240816445,6.7178052783,8.65122080507,6.48764357924,8.90559902616,6.98502478357,10.4690306345,23.9833340597,-101.142516129
off_to_on,2.97198815508,3.51507863997,-28.5307614642,7.1375256096,3.45634514283,4.11764395529,3.57966815616,5.15986695401,7.33430852653,4.79459140207,6.33107348615,6.39040921833,19.6675444384,-76.6302026879
off_to_on,-1.53448585117,0.660310539858,-47.0300355883,7.63147783217,2.01671163321,1.46849129196,0.333931393581,1.43448004507,7.85098376285,0.516209949057,5.39454110673,2.00358823267,13.7551287404,-47.3564925565
off_to_on,-5.60016562837,-1.98541578677,-61.0682528409,7.7975612521,0.686034253763,-0.998003368948,-2.71592336397,-2.17633684515,7.99807738484,-3.53697422224,4.26807174731,-2.27874067593,6.77955282315,-16.4295786913
off_to_on,-8.85156710005,-4.16507944083,-69.3800809538,7.61590002521,-0.408263438319,-3.05237110221,-5.30186041051,-5.35116807374,7.76071210435,-7.00995540513,3.05144729349,-6.07269224935,-0.628123371719,12.9529784815
off_to_on,-11.0131296648,-5.68365654026,-71.2850683889,7.08914180964,-1.17795655043,-4.52599833266,-7.21675309894,-7.82699775341,7.15073607047,-9.62016293555,1.84166371696,-9.06114936023,-7.8019207934,37.8623494118
off_to_on,-11.933367087,-6.42765123002,-66.7501508282,6.24279424585,-1.58167377052,-5.3263607294,-8.33197613112,-9.42289009846,6.20585878079,-11.1835451754,0.723647942273,-11.0230794564,-14.1070251635,55.9682966017
off_to_on,-11.5966100846,-6.37474969858,-56.3813766892,5.12308075401,-1.62667741592,-5.44269009952,-8.60553624661,-10.0538186179,4.98601753344,-11.6291230133,-0.237333613543,-11.8511772981,-19.0021454155,65.800731015
off_to_on,-10.1192692809,-5.59263401392,-41.3463894823,3.79263154605,-1.36476244929,-4.94177183673,-8.08034327245,-9.73355933485,3.56745828179,-11.0006771009,-1.00072320457,-11.5562794983,-22.0914509673,66.9102903341
off_to_on,-7.73140768194,-4.22733174752,-23.2372617632,2.32462338251,-0.882985942702,-3.95479957925,-6.8734141561,-8.56688312331,2.03532012611,-9.44578695964,-1.55263642348,-10.2586252003,-23.1606026361,59.9069891327
off_to_on,-4.74615938061,-2.48275867273,-3.89017255588,0.796179497252,-0.290553891445,-2.65729315136,-5.15784001076,-6.73252044922,0.475700302744,-7.19394148189,-1.90458774257,-8.16761075161,-22.1932290697,46.3706693497
off_to_on,-1.52094529688,-0.594170988058,14.8166946504,-0.718088826418,0.296371215507,-1.24487944279,-3.14010403393,-4.45937641604,-1.03178018251,-4.5266996649,-2.08922910309,-5.55300469064,-19.3664426726,28.6428087524
off_to_on,1.58466006888,1.20105478232,31.1633869734,-2.15158287805,0.769974136108,0.0918527603493,-1.03573112095,-1.99912807383,-2.41999576401,-1.74374102703,-2.15373048088,-2.71148989186,-15.0263661315,9.52421907393
off_to_on,4.24927557626,2.69164001995,43.763527056,-3.44963012302,1.04428399226,1.19022813669,0.953755928639,0.401428194806,-3.63824244682,0.870996013772,-2.15172594564,0.0672222740866,-9.64686800424,-8.08466344044
off_to_on,6.22350875029,3.71616504192,51.6951708878,-4.57145749631,1.06524051264,1.93332322628,2.65998321136,2.52510462586,-4.65372290676,3.07906863835,-2.13492052511,2.53063859052,-3.77651943035,-21.5564532211
off_to_on,7.35339930626,4.17957764932,54.5733656362,-5.49019006212,0.816199895203,2.26077530985,3.96107803498,4.20352753829,-5.45061465421,4.70983988514,-2.14547800098,4.48671604685,2.02002650005,-28.8757938442
off_to_on,7.59113712674,4.06066307865,52.5579910796,-6.19115089257,0.318378014068,2.17157737634,4.78822176778,5.32908878517,-6.02710239175,5.67309171261,-2.21018359393,5.81780034596,7.21959672621,-28.9016635835
off_to_on,6.99237463144,3.40990952815,46.298527832,-6.66899002426,-0.373596783883,1.71897535606,5.12535916352,5.85893935616,-6.39104362679,5.96102188254,-2.33711540451,6.48433207575,11.3907220021,-21.5192493954
off_to_on,5.70118710135,2.33846971218,36.8250882748,-6.92432505249,-1.18021750875,0.9986264666,5.0029147913,5.81136663498,-6.55511256721,5.64010689449,-2.51520045849,6.51877610249,14.2313279511,-7.661275652
off_to_on,3.92527798311,1.0000613846,25.4013958422,-6.96061053467,-2.00840978296,0.13202340554,4.48707644038,5.25582056272,-6.53230617169,4.83459395609,-2.71662527669,6.0114869895,15.590361146,10.8049523008
off_to_on,1.90517802874,-0.431482859102,13.3596105193,-6.78186488736,-2.76399684584,-0.752270472784,3.66664157129,4.29854021581,-6.33259419516,3.70437804864,-2.90167407137,5.09117684615,15.4718380208,31.3115052253
off_to_on,-0.118198293252,-1.78582623413,1.93846407415,-6.39168889687,-3.36360895315,-1.53685914049,2.63954131346,3.06610352432,-5.9612702151,2.42060128937,-3.02523586413,3.90318283267,14.0219235546,50.9160166
off_to_on,-1.93326859626,-2.91767416128,-7.85506989317,-5.79374342482,-3.74447693205,-2.13071989103,1.50096010895,1.68924896889,-5.41924984641,1.14241599349,-3.04400174142,2.58878345961,11.5016008103,66.679390714
off_to_on,-3.3809863646,-3.72343902393,-15.3441756242,-4.99356093201,-3.87090721403,-2.47942303385,0.334506326727,0.289018720663,-4.70521557291,-0.00201780149954,-2.92329583465,1.26839915193,8.24904591557,76.0475050285
off_to_on,-4.36883248585,-4.15099039208,-20.2301371073,-4.00129563787,-3.73674698801,-2.56921440662,-0.792754691304,-1.03328776899,-3.81917999402,-0.928007448023,-2.64255861521,0.0307125408251,4.63679827442,77.1885919858
off_to_on,-4.87431275978,-4.20150335489,-22.5863844496,-2.83481604807,-3.36373808548,-2.42474520832,-1.83131031882,-2.20158414704,-2.76678263445,-1.59904517036,-2.1987167932,-1.07131010451,1.02911439183,69.2433638433
off_to_on,-4.93822552158,-3.92357316607,-22.8025495276,-1.52244543649,-2.796242024,-2.10116481151,-2.74683307423,-3.16589599273,-1.56349031703,-2.02372599998,-1.6069980961,-2.01765789094,-2.25549267454,52.4558210104
off_to_on,-4.64941542205,-3.40086542023,-21.489041541,-0.104678022811,-2.09331381974,-1.67208685058,-3.51554535728,-3.89939235583,-0.237860458214,-2.24596572602,-0.899133276973,-2.81299501962,-4.97251743345,28.1676744261
off_to_on,-4.12388299086,-2.73546252236,-19.3576456177,1.36566125205,-1.31944020789,-1.21548720291,-4.11873315031,-4.3927831989,1.16684747237,-2.33055154065,-0.119274893781,-3.47489976509,-6.96795940008,-1.32350757029
off_to_on,-3.48181648885,-2.02962576669,-17.0963812702,2.82510888538,-0.535393793164,-0.799822273501,-4.53787003948,-4.64760413455,2.5931839009,-2.34665510734,0.681704642558,-4.02112287231,-8.18216535972,-33.0251571257
off_to_on,-2.82626241707,-1.36884303429,-15.2570032855,4.20310695188,0.209426873173,-0.472542203423,-4.75159772194,-4.6699270647,3.97229299844,-2.35212235591,1.45264378297,-4.45841020269,-8.64181931756,-63.5973634406
off_to_on,-2.22674392796,-0.808759029948,-14.1711150748,5.42709225275,0.882083846562,-0.25274104909,-4.73537768897,-4.46579411504,5.22876373844,-2.38111127114,2.14826716292,-4.77506600572,-8.44236046689,-89.7443231656
off_to_on,-1.71024333765,-0.367933050864,-13.9062741763,6.42855471276,1.46796370862,-0.129004858741,-4.46405817835,-4.03922452228,6.2870146619,-2.43702545271,2.73417972995,-4.93871786211,-7.72418732455,-108.60128505
off_to_on,-1.2607270679,-0.027437573273,-14.267377332,7.14930285261,1.96929575431,-0.0626937275376,-3.91698897945,-3.39307196513,7.07842519314,-2.4917888449,3.18995340544,-4.89980008636,-6.64656005073,-118.069544573
off_to_on,-0.826998729941,0.262761785737,-14.8418934425,7.54710161177,2.40073560295,0.00395087753028,-3.08476792376,-2.53241205888,7.54828714158,-2.49146610727,3.50989005127,-4.60025056251,-5.36309482807,-117.05889313
off_to_on,-0.337329682162,0.571759737873,-15.0811180815,7.59990280312,2.78288730064,0.136222361566,-1.97630978194,-1.46961627882,7.66164708727,-2.36721175485,3.70141757439,-3.9859783549,-4.00218615648,-105.608835788
off_to_on,0.281762878283,0.971995827974,-14.4044480122,7.30806465874,3.13495737111,0.393765684135,-0.62475842438,-0.229905025708,7.40724472863,-2.04968207055,3.78145483265,-3.02095369093,-2.65470023254,-84.8752809723
off_to_on,1.08588109119,1.52244812407,-12.3104327636,6.69422866957,3.46786535594,0.817912295181,0.909151696227,1.14397279771,6.79900415151,-1.48449182322,3.7714071646,-1.70040957489,-1.37001652483,-56.9862602682
off_to_on,2.09568999832,2.253507028,-8.47748880089,5.80084830414,3.7790577925,1.42157287269,2.5373473792,2.58919097246,5.87486676376,-0.646122350931,3.69167705489,-0.0606840631319,-0.160148353197,-24.7863778167
do_nothing,3.28548177136,3.15607610956,-2.83875917663,4.68569530684,4.04999822384,2.18334475675,4.14881551892,4.02336537834,4.69311675632,0.452088726579,3.55665826373,1.81632870513,0.989556340452,8.4969384304
do_nothing,4.57953266745,4.17683761684,4.38058128104,3.41595402876,4.24687620373,3.04686297308,5.61803665365,5.3485868101,3.32668845626,1.7536596815,3.37111220031,3.80537609732,2.10557283517,39.623369654
do_nothing,5.85720857357,5.22071356168,12.6697976456,2.06170836417,4.32455834143,3.92564454108,6.81667829992,6.4588267983,1.85620974606,3.16130351191,3.12861123453,5.7469558303,3.21017998308,65.7003563012
do_nothing,6.96639629986,6.16048026036,21.282716824,0.689698908602,4.23327316733,4.71286055763,7.62719877188,7.24999113176,0.362688218914,4.54581653962,2.8124060923,7.46253317537,4.30727589682,84.4913574999
do_nothing,7.74350507218,6.85241081483,29.325058421,-0.641831837516,3.9270602225,5.2947386095,7.95661916923,7.63140553547,-1.07923442347,5.76044505709,2.39868234459,8.77408862105,5.37262422014,94.6363436145
do_nothing,8.03719854287,7.15588436374,35.8671472068,-1.88657212439,3.37269373314,5.56575539049,7.74857648934,7.53720189808,-2.40664998417,6.65881812453,1.86177378003,9.52548264045,6.3503193489,95.7611210769
do_nothing,7.73234866493,6.95425056963,40.0664797746,-3.01149673739,2.55766347625,5.44350347161,6.99190449371,6.9359843759,-3.57179454469,7.11397314658,1.18055941559,9.60274284117,7.15619466763,88.4666525024
do_nothing,6.77055461963,6.17396987457,41.283118211,-3.99612278119,1.49588265798,4.88114504909,5.72438924514,5.83731064744,-4.54323284885,7.03580041012,0.34503984494,8.95041425628,7.68774230255,74.2047379566
do_nothing,5.16397139131,4.79920718175,39.1717849674,-4.82997435078,0.230085557771,3.87569271667,4.03096063875,4.29390504308,-5.30488620982,6.38442209787,-0.637994348407,7.58156731678,7.83904166033,55.0602860557
do_nothing,3.00009063326,2.87962064328,33.7376967994,-5.50884522177,-1.16966383309,2.47093334629,2.03632394197,2.39907316812,-5.85329121155,5.17757175691,-1.74120784414,5.57986975116,7.51836648492,33.4711811298
do_nothing,0.436383912744,0.529981623058,25.3481451963,-6.03063276245,-2.61137243123,0.754551092071,-0.107200377948,0.279431573135,-6.19372349544,3.4908703511,-2.91564721464,3.09318470093,6.66567666066,11.9231587843
do_nothing,-2.31482801577,-2.07863744769,14.6978988133,-6.39157455476,-3.98987106586,-1.15019822333,-2.23518629861,-1.91629355515,-6.33596079121,1.45088294253,-4.09275381083,0.319307428013,5.26716611224,-7.34153258013
do_nothing,-5.00948918387,-4.73521775933,2.73281342324,-6.58364163231,-5.19785278608,-3.09717088301,-4.18803583093,-4.03110224038,-6.29047226291,-0.778158481628,-5.18943107375,-2.51446793733,3.36443240673,-22.566564776
do_nothing,-7.39992505639,-7.21075884471,-9.45829707798,-6.59364000497,-6.13776311379,-4.93271106248,-5.82719216647,-5.91453021252,-6.06570732867,-3.01221066315,-6.1156867316,-5.17540775555,1.0565945316,-32.6479390621
do_nothing,-9.26420643622,-9.28313480062,-20.7692353482,-6.40427616655,-6.73294355727,-6.51171882241,-7.04856941802,-7.43663843249,-5.66693629123,-5.06748440159,-6.78397729443,-7.44997817861,-1.50530256707,-37.2083683518
do_nothing,-10.4327637189,-10.7617054235,-30.2029148376,-5.99709859225,-6.93649362713,-7.71236224957,-7.79150984227,-8.49950728802,-5.09680385917,-6.78008001368,-7.11910261265,-9.165939059,-4.13114533767,-36.5762638084
do_nothing,-10.8085874934,-11.5085548193,-36.9823125868,-5.35688992121,-6.73660478024,-8.44762425502,-8.04219484816,-9.0449114211,-4.35744222669,-8.02266069351,-7.06737506625,-10.2091230324,-6.61036945832,-31.6783800929
do_nothing,-10.3782159009,-11.453665446,-40.6317478836,-4.47680742713,-6.15759409142,-8.67235977411,-7.83120620491,-9.05738314096,-3.45370348137,-8.71609657198,-6.6038420008,-10.5328702826,-8.73400158846,-23.8657547118
do_nothing,-9.21198394861,-10.6021362673,-41.018593027,-3.36339773358,-5.25645996796,-8.38519577992,-7.22574824349,-8.56250619212,-2.39685787762,-8.83476244605,-5.73656656401,-10.1591069458,-10.3172873359,-14.7000044839
do_nothing,-7.45351297656,-9.03260761602,-38.3510548986,-2.04057502343,-4.11541211034,-7.62533584001,-6.3177825418,-7.62092387046,-1.20799939235,-8.40509383045,-4.50734123675,-9.17120355481,-11.2199698768,-5.73048713135
do_nothing,-5.29993278828,-6.88721519886,-33.1337004203,-0.55175923809,-2.831401838,-6.46502544547,-5.20988541383,-6.31910221299,0.0795796461538,-7.49796162628,-2.98866922391,-7.69986432132,-11.361599173,1.70795521006
do_nothing,-2.97563457771,-4.35450002591,-26.0880833731,1.04039115097,-1.50411219217,-4.99899381515,-4.00093308409,-4.75827994033,1.41963957921,-6.21627443063,-1.27733689852,-5.90421893932,-10.7299309645,6.6516496435
do_nothing,-0.7032587995,-1.64759738644,-18.0503737132,2.656881789,-0.224094447979,-3.33253406562,-2.77370546601,-3.0432073307,2.75421999642,-4.67983606961,0.514653249694,-3.95088537567,-9.38141641396,8.60187776067
do_nothing,1.32400503318,1.0194057668,-9.86067540518,4.20776672787,0.937277564929,-1.56997148609,-1.58617772864,-1.27220528578,4.01688344979,-3.00978687818,2.27067845091,-1.99396212987,-7.43384999588,7.54812242825
do_nothing,2.96494629168,3.45389394395,-2.25938522616,5.59948568538,1.93462314151,0.194906467024,-0.467685396426,0.470220759846,5.1376940263,-1.31490169537,3.88032155804,-0.158668902493,-5.05228182462,3.92313377604
do_nothing,4.14460501235,5.50313503835,4.19556037285,6.74331635623,2.75119724662,1.88529087797,0.579611389972,2.11744989512,6.04935985559,0.318379378973,5.24911971496,1.46927421601,-2.43016467432,-1.49876085902
do_nothing,4.8584279314,7.06652653261,9.18012398578,7.56390800479,3.39703033072,3.44406303536,1.57436376063,3.62130768428,6.69376080552,1.83098323596,6.30609954605,2.84735984943,0.231723162178,-7.7417571908
do_nothing,5.16594328262,8.10044021078,12.6186757422,8.00681146809,3.90290623017,4.83281543999,2.5459367286,4.94951192354,7.02798902499,3.19093402842,7.00828751598,3.97300296732,2.74583444594,-13.784786893
do_nothing,5.17513414316,8.61549470672,14.6614405372,8.04402442421,4.31114880084,6.02782820844,3.52233950301,6.08089152354,7.02906662498,4.38829113672,7.34181480449,4.87421594405,4.95532773638,-18.7109283329
do_nothing,5.02005941713,8.66714253793,15.6301114665,7.67681641857,4.6646839239,7.01412943839,4.51827512915,6.99960570132,6.69666768837,5.42657818193,7.31970936618,5.5961148988,6.74643308755,-21.8296971525
do_nothing,4.83526249333,8.341356977,15.941320029,6.93545152641,4.99613022397,7.77905124913,5.52541508823,7.68971549375,6.05343759335,6.31253904398,6.97691483012,6.18571933975,8.05447980289,-22.7571469952
do_nothing,4.73097252826,7.73781846023,16.0205939008,5.87583722542,5.31870291148,8.3067344274,6.50669517485,8.1313525723,5.14283205119,7.04630289333,6.36343198841,6.67771509757,8.86329748351,-21.4457089104
do_nothing,4.77297129439,6.95324750731,16.2204532902,4.57353679221,5.62048062023,8.57482935265,7.39583744243,8.29940931232,4.0247421015,7.61394189988,5.53669326166,7.08364148234,9.1986434986,-18.1633524975
do_nothing,4.970286422,6.0673831991,16.7552844166,3.11593004499,5.86311344136,8.55422321285,8.1025127476,8.16519100818,2.76947795754,7.98397819148,4.55432461727,7.38637163459,9.11711697712,-13.4288430916
do_nothing,5.2726822984,5.13359311779,17.6627679547,1.59354309793,5.98540509379,8.21206085755,8.52268362656,7.70090421944,1.45090790921,8.1087076985,3.46831960303,7.54087207574,8.69257813596,-7.9156128576
do_nothing,5.57842680379,4.17530542524,18.7973821482,0.091657934182,5.91147337597,7.5177093797,8.55283650305,6.88629692509,0.139654867043,7.93036586057,2.321369253,7.48118950343,8.00232844416,-2.34034303293
do_nothing,5.75123554828,3.18850000297,19.8564930293,-1.31675548272,5.56248479628,6.45074423921,8.10614996665,5.71630885765,-1.10277333447,7.39129679509,1.1457050778,7.13257968407,7.11519759007,2.64659233945
do_nothing,5.6438694657,2.14952873967,20.4345366742,-2.57595727994,4.87037495143,5.00960086863,7.1282540383,4.20831198637,-2.228198804,6.44654109817,-0.0356186750196,6.42682441726,6.083255364,6.55312158134
do_nothing,5.12480027391,1.02670079211,20.0965298724,-3.64970878572,3.79159361376,3.21931310254,5.61017825823,2.40747260268,-3.20387239723,5.07674920617,-1.20548526697,5.31821328858,4.93819506943,9.10778515446
do_nothing,4.10382311971,-0.206508712702,18.4592376437,-4.52079481606,2.31881193794,1.13678935256,3.59638076437,0.388963445639,-4.01232012316,3.29914321992,-2.3483212672,3.79748781758,3.69262921117,10.2852777294
do_nothing,2.55257202962,-1.55900383208,15.2671934207,-5.18809668632,0.488720578129,-1.14763847447,1.18636214005,-1.74382610586,-4.64914118001,1.17442748054,-3.44553554117,1.90128846756,2.34572473387,10.2938266694
do_nothing,0.516577326162,-3.01260558533,10.4515597563,-5.66186341283,-1.61548757946,-3.51315685251,-1.47078411672,-3.86535023218,-5.11926555536,-1.19193102397,-4.4717983237,-0.28472230915,0.891908798596,9.52848658428
do_nothing,-1.88329909292,-4.51733216564,4.16239910786,-5.95807169072,-3.86767654993,-5.81601940419,-4.18856466604,-5.83784447213,-5.43240028782,-3.65483846298,-5.39301831199,-2.62995700687,-0.66909895258,8.49893332815
do_nothing,-4.46067557862,-5.99240865061,-3.23110113922,-6.09286826272,-6.10829023892,-7.90112059928,-6.76075124035,-7.52411039738,-5.59849831196,-6.04096187735,-6.16658197618,-4.97002517106,-2.32285749435,7.74331104464
do_nothing,-6.98367622995,-7.33307446937,-11.1731354042,-6.0780371969,-8.15894166733,-9.61636896216,-8.98244617352,-8.80160253721,-5.62405656027,-8.16523798104,-6.74402701922,-7.12359907826,-4.03318297552,7.74082778615
do_nothing,-9.20260215748,-8.42232309819,-18.982348458,-5.91823865639,-9.84044981312,-10.8281448436,-10.6719469617,-9.57596797199,-5.50989522833,-9.85053654926,-7.07589318259,-8.91282428226,-5.73892741076,8.83510334342
do_nothing,-10.8814976631,-9.14590290272,-25.9330693992,-5.61045611129,-10.9921850139,-11.4358706339,-11.6906274742,-9.79214867539,-5.25081199861,-10.9479377366,-7.11809675984,-10.1844711171,-7.35532233847,11.178007859
do_nothing,-11.8292076195,-9.40835455422,-31.3453347832,-5.14571385549,-11.4903396721,-11.3837418251,-11.9582541106,-9.44139810638,-4.83718370917,-11.3548643931,-6.83887438901,-10.8288271682,-8.77990927103,14.7003562409
do_nothing,-11.9255022531,-9.14764484072,-34.6710202475,-4.51274416013,-11.262811489,-10.6679705531,-11.46171555,-8.56306163799,-4.25825344504,-11.0284912424,-6.22518687626,-10.7935807414,-9.90233780903,19.1119214273
do_nothing,-11.1384693545,-8.34611383326,-35.5639507149,-3.70295241415,-10.2987670364,-9.33844234234,-10.255991656,-7.24066041608,-3.50654555735,-9.99241723125,-5.28749276836,-10.0906118777,-10.6166883066,23.9293953729
do_nothing,-9.53055865661,-7.03596080007,-33.9241712542,-2.71580020905,-8.65159668977,-7.49440788671,-8.45720590151,-5.59260438537,-2.58264115801,-8.33546259566,-4.06199524097,-8.79459782527,-10.8345639716,28.527679176
do_nothing,-7.2522428178,-5.29827929428,-29.9102827448,-1.56363588762,-6.43479367404,-5.27462426907,-6.22865598685,-3.75862916429,-1.49945579322,-6.20251765114,-2.60980845245,-7.033511384,-10.4970580509,32.2075919835
do_nothing,-4.52400882128,-3.25559658411,-23.9183238894,-0.275063948892,-3.81118084291,-2.84311121459,-3.76165268654,-1.88368875742,-0.285204791129,-3.7784747239,-1.01293106088,-4.97227103382,-9.58385301472,34.2719295203
do_nothing,-1.60906027185,-1.05883537043,-16.5304386895,1.10384994221,-0.976749217231,-0.372289065194,-1.2536856667,-0.10144326672,1.01558479766,-1.26725778779,0.632610962331,-2.79181499183,-8.11812301052,34.101757091
do_nothing,1.21954776644,1.12954873538,-8.44081079713,2.51092341621,1.85895100514,1.97437240567,1.1132210718,1.4804096563,2.34337856798,1.13131937106,2.22565524029,-0.666563188988,-6.16652065954,31.2256993346
do_nothing,3.71280183986,3.15391928044,-0.369459677589,3.87175327635,4.49350446337,4.05799661787,3.19115259236,2.7909244095,3.62727646827,3.24379564025,3.66970321437,1.25650700766,-3.83423775565,25.3764863447
do_nothing,5.67594029111,4.88272861855,7.02396397554,5.10577448645,6.75093662479,5.77627501817,4.87957467322,3.80129816677,4.79065843561,4.94142752647,4.88233798386,2.87415989292,-1.25582614996,16.5307855222
do_nothing,6.99077567033,6.22227834755,13.2144821973,6.13375566321,8.49737308457,7.07032936257,6.13163342857,4.52409342659,5.75818699438,6.15221783152,5.80299012956,4.13623043125,1.41695663224,4.93007080417
do_nothing,7.62703979096,7.12505262692,17.8642508443,6.88576950465,9.65130187421,7.92573568004,6.95287474546,5.00640607719,6.46329495853,6.86502745902,6.39799418293,5.04666494471,4.0286390244,-8.91827702057
do_nothing,7.64122969835,7.59150544073,20.846609792,7.30858092123,10.1874196645,8.3678058188,7.39284957999,5.31798268641,6.85518494982,7.12530496459,6.66225277647,5.65619476927,6.43311031522,-24.259391978
do_nothing,7.16322927441,7.66515409932,22.2394305791,7.3714543704,10.1338953284,8.4520291105,7.53107513388,5.53605770966,6.90440605653,7.02316266753,6.61730857135,6.04783480709,8.50467760582,-40.127931685
do_nothing,6.37274731994,7.42183000335,22.2900079602,7.06958700552,9.56374087854,8.25125170251,7.45961244275,5.72920944202,6.60624737338,6.67562925455,6.30614483306,6.31751092443,10.1458937153,-55.4022811772
do_nothing,5.46909216129,6.95481374019,21.3578693165,6.42469579552,8.58172333684,7.8416160518,7.26498425365,5.94273850162,5.98147390354,6.20575562847,5.78551593726,6.55290379877,11.2915037061,-68.8741334744
do_nothing,4.63877823206,6.35820179004,19.8449878088,5.48267740401,7.30878149581,7.28943214774,7.01222555703,6.18791473778,5.07428624373,5.72171665258,5.11697568728,6.81392786013,11.9084907774,-79.3310285305
do_nothing,4.02578631559,5.71112047562,18.1245328866,4.30866170455,5.86615937012,6.64098200321,6.73352111518,6.43692964327,3.94775996142,5.299063316,4.35796652731,7.11808292607,11.9928048807,-85.6485114505
do_nothing,3.70892402034,5.065275175,16.4792478106,2.98013409899,4.36140431854,5.91679294846,6.42318630738,6.62459483063,2.67735911345,4.96882958715,3.55432386063,7.43323833485,11.5638314117,-86.8872919208
do_nothing,3.6897058862,4.43781414934,15.0588337978,1.57905631229,2.8780172807,5.11121983451,6.03978811155,6.65684964898,1.34337174004,4.71334487112,2.73533437752,7.67932421393,10.6579271156,-82.3892512768
do_nothing,3.89263765317,3.81066897563,13.8626171086,0.184033123937,1.46994187786,4.19735209983,5.51511896337,6.42511860452,0.0232467982521,4.47046515235,1.91209448365,7.73906372322,9.32237505007,-71.8645919123
do_nothing,4.17796585742,3.13652715642,12.7497566934,-1.13646282191,0.16132804055,3.13642925696,4.76868362716,5.82463843973,-1.21519667195,4.14567543069,1.07940102262,7.47647675991,7.6108905915,-55.4612032042
do_nothing,4.36510484201,2.35054660057,11.4749264307,-2.32897784587,-1.04878571762,1.89023061016,3.72549115476,4.77419180012,-2.31886409612,3.63031517534,0.220847456811,6.76062663539,5.58138787552,-33.806823466
do_nothing,4.2633470785,1.38599393406,9.74342925716,-3.35754537474,-2.17794501654,0.434409327084,2.33438869264,3.23434561336,-3.2522217552,2.82321371805,-0.68372110019,5.49115740887,3.29616711323,-8.01517266981
do_nothing,3.70533494459,0.191321221289,7.27666665904,-4.20357713615,-3.24952273518,-1.2294565335,0.584016077781,1.22135786786,-3.99765117442,1.65243887519,-1.64964083982,3.62172727652,0.824106372791,20.3508337855
do_nothing,2.57829096148,-1.25410588942,3.87724821526,-4.8634068037,-4.28163818755,-3.06518940349,-1.48627140326,-1.18560911678,-4.55346096364,0.0937518399642,-2.67921376269,1.1775623759,-1.75605893533,49.3623397077
do_nothing,0.848244960317,-2.92829882097,-0.516975861075,-5.34406021197,-5.27765829699,-4.99835642675,-3.78250196246,-3.84550093896,-4.93003013424,-1.81725028341,-3.75530278597,-1.73596444902,-4.352616522,76.853244584
do_nothing,-1.42656707533,-4.76109961163,-5.79904404428,-5.65807636454,-6.21990118852,-6.91856820528,-6.1602295162,-6.56506061447,-5.14481345968,-3.98148251159,-4.83796557817,-4.93566546338,-6.85926091521,100.587917211
do_nothing,-4.09545492261,-6.63607590502,-11.6852400107,-5.8183218733,-7.06763683673,-8.68780437686,-8.43660040139,-9.11645969987,-5.21708068511,-6.24220885127,-5.8649266718,-8.17422931337,-9.15615701014,118.455908933
do_nothing,-6.92864075832,-8.40005256678,-17.7357873342,-5.83371128986,-7.75979352349,-10.1539416207,-10.4090735398,-11.2610032853,-5.16326760285,-8.40001029783,-6.75612040361,-11.164111188,-11.1144483861,128.676630679
do_nothing,-9.64275406486,-9.87932983639,-23.4016948269,-5.70657278062,-8.22203571667,-11.1678594811,-11.8785226027,-12.7761231894,-4.99368889949,-10.2351858973,-7.42191327565,-13.6089558576,-12.6043784933,129.993320941
do_nothing,-11.9352047654,-10.900598657,-28.0915630785,-5.43211024567,-8.37718900291,-11.6019133591,-12.6737450297,-13.4823033825,-4.71112116122,-11.5347568591,-7.7740254931,-15.2387037066,-13.5065050028,121.834096837
do_nothing,-13.5228617856,-11.3137859377,-31.2490534516,-5.0000543014,-8.15745277769,-11.367280511,-12.6741006156,-13.2664475735,-4.31144738016,-12.120486507,-7.73770693179,-15.843844727,-13.7248227354,104.418958708
do_nothing,-14.1797748012,-11.0136658755,-32.4299673933,-4.3982212199,-7.51654006111,-10.4277499033,-11.8271515144,-12.09853161,-3.7862108034,-11.8740620987,-7.26345566399,-15.304209664,-13.200084447,78.7955090706
do_nothing,-13.7687239584,-9.95712444726,-31.3677489895,-3.61736884653,-6.43985993906,-8.80793688801,-10.1587628419,-10.0391499231,-3.12660881387,-10.7558560617,-6.33654311893,-13.6082482623,-11.9213202299,46.7926689719
do_nothing,-12.2621644342,-8.17346513205,-28.0177309389,-2.65650304517,-4.95111469928,-6.59460599434,-7.7740738532,-7.23667260095,-2.32821529029,-8.81446612884,-4.98283995312,-10.8598800513,-9.93357060029,10.8902563552
do_nothing,-9.7495436643,-5.76603195027,-22.5733756562,-1.52768435287,-3.11418257117,-3.93068450516,-4.84893735609,-3.91403614108,-1.39558957093,-6.18542558517,-3.26989463857,-7.27156964435,-7.3401851154,-25.9879893114
do_nothing,-6.42981279137,-2.90458111833,-15.451692261,-0.259429316766,-1.02982454683,-1.00252163038,-1.61268842063,-0.346524998136,-0.345931644708,-3.07891622274,-1.30284246028,-3.14406930831,-4.29866652145,-60.7406644018
do_nothing,-2.58997209974,0.190905297693,-7.24936448813,1.1020110655,1.17250793738,1.9781427649,1.67573103151,3.16691572397,0.788923639701,0.242190104467,0.784570101222,1.16495539742,-1.00988090017,-90.388587429
do_nothing,1.4276007915,3.27307943194,1.32472926375,2.49390953578,3.34678665151,4.79531773086,4.75535931176,6.33542463001,1.96263585229,3.49129811334,2.84287179423,5.27968960478,2.29860967536,-112.376792485
do_nothing,5.26476008811,6.09392766352,9.53158586134,3.84089634177,5.34490215097,7.25040152862,7.39106238931,8.90717521086,3.1167550337,6.39040814308,4.72211927413,8.84755708509,5.39344165718,-124.844715797
do_nothing,8.58892052796,8.43190704019,16.6876738524,5.06101770854,7.03166108742,9.18164337141,9.3981331537,10.6957426509,4.18518235511,8.70162692955,6.28760352093,11.5780507274,8.05820822333,-126.832314435
do_nothing,11.1306743652,10.11600955,22.2425301984,6.07332180004,8.29833381659,10.4790405432,10.6605499353,11.5986497282,5.10017377878,10.2537684274,7.43398946305,13.2740965419,10.11530285,-118.395621719
do_nothing,12.7128048431,11.0436259703,25.8380118437,6.80602440632,9.07300830804,11.0929025865,11.1406366674,11.6058368855,5.79911999794,10.9605643135,8.09604101947,13.8519744783,11.4440315719,-100.614644522
do_nothing,13.2670185959,11.189897829,27.3415021195,7.20419014233,9.32646081214,11.0351701995,10.8790087289,10.7970833336,6.23120227151,10.8281072209,8.25451809939,13.3472920695,11.9925403442,-75.4885532422
do_nothing,12.8364348054,10.6073882692,26.8490920786,7.23590113391,9.0728875742,10.3735504709,9.98498148596,9.32881977303,6.36302192375,9.95058707407,7.93647090526,11.9063251359,11.7818344843,-45.7264070402
do_nothing,11.563841477,9.41621214982,24.6590079961,6.89606998341,8.36556162034,9.21948528003,8.61888588195,7.41213179425,6.1824318316,8.49495606816,7.20991277124,9.76395934429,10.9011750409,-14.4545552494
do_nothing,9.66767944668,7.78605950365,21.2197217032,6.20736125913,7.28817880031,7.71177211283,6.96880301079,5.28487540373,5.70004193111,6.67665398253,6.17362015719,7.21122728627,9.49528716225,15.1273111414
do_nothing,7.40936782245,5.91264260561,17.06066064,5.21807171411,5.94323598515,5.99819423882,5.22495049075,3.1815624568,4.94819150848,4.72973511829,4.94347848994,4.55679783177,7.74494692434,40.1021965518
do_nothing,5.05670939781,3.99184048653,12.7157344366,3.99722819363,4.43915831013,4.21771629928,3.55522833377,1.30492550329,3.97753125967,2.87549211701,3.63726886161,2.08755100123,5.84346120033,58.1620040918
do_nothing,2.8485566956,2.19510017317,8.6506951372,2.62753467762,2.87800916949,2.48563667624,2.08522321912,-0.197194901741,2.85168601711,1.29386346497,2.36000315176,0.0334550571231,3.97217664351,67.8644681539
do_nothing,0.965622581171,0.649440209467,5.20455037159,1.19708245211,1.34546228968,0.883586635099,0.885307041824,-1.24674580871,1.64072640411,0.101511464793,1.1918307894,-1.45865981856,2.27834824612,68.7888778859
do_nothing,-0.48866638957,-0.575281206678,2.55298760487,-0.209110364216,-0.0956840461132,-0.544496430956,-0.0335591284495,-1.84037497919,0.414326999834,-0.660481136386,0.180168078465,-2.33908090328,0.858423860992,61.5703714116
do_nothing,-1.49490257097,-1.47022741768,0.698389323516,-1.51666296831,-1.40775208456,-1.79020548724,-0.714948010055,-2.0439533323,-0.764491265221,-1.02769660119,-0.662908896429,-2.65529091822,-0.250915858918,47.8071479773
do_nothing,-2.11148797323,-2.08224742825,-0.512971061809,-2.66758238722,-2.57616487582,-2.87301975382,-1.24393697261,-1.9777005213,-1.84424751695,-1.10222376373,-1.35772930825,-2.53840568096,-1.07269159858,29.8505764554
do_nothing,-2.45684734774,-2.50033778044,-1.34997565903,-3.6235600478,-3.60380210675,-3.82869482963,-1.72800159962,-1.79416478388,-2.7879529272,-1.03280928581,-1.94907942057,-2.17810471184,-1.68053941937,10.5028986598
do_nothing,-2.68309516968,-2.83607174267,-2.13882357658,-4.36653687819,-4.50292566534,-4.69576900007,-2.27476437755,-1.65225160934,-3.57386708708,-0.988238090761,-2.49450666385,-1.78975974915,-2.1819154043,-7.34087421681
do_nothing,-2.94539207393,-3.20102605181,-3.1975692367,-4.8966542092,-5.28622853244,-5.50251470851,-2.96997220321,-1.69099878211,-4.19413164887,-1.12782352657,-3.05070057839,-1.57852119316,-2.69604721717,-21.0627824071
do_nothing,-3.37179680834,-3.6846589501,-4.77329100258,-5.22807652455,-5.9586716167,-6.25655613726,-3.85903916838,-2.00679168281,-4.65166956435,-1.57330841666,-3.66007452815,-1.7055160433,-3.32990546492,-28.657333301
do_nothing,-4.03827940794,-4.33601857051,-6.99160908075,-5.38346122607,-6.51161950011,-6.93892810248,-4.93498002202,-2.63720511508,-4.95598754047,-2.38629730766,-4.33966532685,-2.26098926836,-4.15582883654,-28.9901769368
do_nothing,-4.95273609232,-5.15209777337,-9.82630689791,-5.38801863894,-6.92039173274,-7.50363518759,-6.13464576282,-3.55371771902,-5.11866531805,-3.55458034379,-5.07415230649,-3.24822887676,-5.19427881638,-21.946923675
do_nothing,-6.05046145714,-6.07467993209,-13.09371952,-5.26412937137,-7.14577201545,-7.8828904349,-7.34398338118,-4.6643022718,-5.14933682345,-4.98947332782,-5.81421433039,-4.58059094132,-6.40453207946,-8.45253196107
do_nothing,-7.20179445858,-6.99627800756,-16.47280222,-5.02736431886,-7.13935172463,-7.99730160755,-8.41174302265,-5.82552071285,-5.05286298894,-6.53475629509,-6.48067304285,-6.09209576284,-7.68502508057,9.64211499292
do_nothing,-8.23081739359,-7.77443357556,-19.5479397789,-4.68450514654,-6.85192961467,-7.76946678254,-9.16982961475,-6.86243478741,-4.82818126238,-7.98615721832,-6.97402126439,-7.56015585672,-8.88369296683,29.7930379988
do_nothing,-8.94232052618,-8.25240413383,-21.8681693701,-4.23382855644,-6.24364805033,-7.13886166632,-9.4575144384,-7.59356160897,-4.46902637345,-9.11882504053,-7.18812755831,-8.73728512649,-9.81718462572,49.08675999
do_nothing,-9.15299221603,-8.28330355206,-23.0140597118,-3.66754723433,-5.29420329253,-6.07563744334,-9.14612372573,-7.85740510221,-3.96639612602,-9.7190763514,-7.02625789246,-9.3873634286,-10.2964954761,64.6143356664
do_nothing,-8.72213736423,-7.75421089439,-22.6623639324,-2.97595017771,-4.01137934009,-4.59104292835,-8.16069162896,-7.53687322371,-3.3123347589,-9.61604540478,-6.41715829203,-9.32136832721,-10.1555351968,73.8488346114
do_nothing,-7.57726056398,-6.60670759317,-20.6388958562,-2.15250780251,-2.43633969664,-2.74262833329,-6.49542439405,-6.57817555708,-2.50437167266,-8.70881138663,-5.32885897279,-8.42752801532,-9.27859387102,74.9786074709
do_nothing,-5.73056886466,-4.85075269578,-16.9518067817,-1.19904423471,-0.644546116213,-0.633118521898,-4.22062399026,-5.00154567043,-1.54982184614,-6.9851312007,-3.77810751757,-6.69159059,-7.62267805642,67.1540402532
do_nothing,-3.28374750299,-2.56969968448,-11.8002964285,-0.130054634282,1.25820329986,1.59724328373,-1.47985414376,-2.90224353065,-0.46914714027,-4.52899786699,-1.83388655874,-4.20424305903,-5.23127087346,50.6162777963
do_nothing,-0.420051472708,0.0845278262693,-5.55734944378,1.02463738603,3.14440287151,3.78411720028,1.52255527729,-0.441612497392,0.702302926135,-1.51572710736,0.385752261004,-1.15446429209,-2.23715852813,26.6912034622
do_nothing,2.61540872113,2.90571998393,1.27117812752,2.21944598093,4.87720839597,5.75661760027,4.54225814351,2.17068752621,1.91462354499,1.80505305165,2.72340691529,2.19048142803,1.14658251257,-2.35109782701
do_nothing,5.54459314054,5.65541929406,8.10543506253,3.39504761301,6.32502288355,7.35670561752,7.32135885461,4.70095774803,3.10590834518,5.1365002015,4.99756641065,5.51587393096,4.64672496653,-33.5542657592
do_nothing,8.09072858836,8.08991253316,14.3602184932,4.48273071503,7.37638575973,8.45780343714,9.61726526689,6.91906131861,4.20683812344,8.1683592944,7.02157213096,8.49716776711,7.95888320492,-63.6191584975
do_nothing,10.0130478372,9.9886594414,19.5138902719,5.41058513481,7.95313251114,8.98005093247,11.2302490722,8.62571925056,5.14680374655,10.6131582091,8.62395732252,10.8394637019,10.7818024054,-89.2904804155
do_nothing,11.1372352352,11.1804090589,23.1681545087,6.11076163432,8.01996523389,8.9000378074,12.0261803989,9.6759245048,5.8608155076,12.2401355466,9.6675950152,12.3135979905,12.8525687807,-107.738918709
do_nothing,11.3773238462,11.56353823,25.090718287,6.526856881,7.58902197027,8.25357490546,11.951522568,9.99543040314,6.29630956437,12.9025107791,10.0652020284,12.7840735308,13.9781328182,-116.892023948
do_nothing,10.7459790121,11.1179082335,25.2354141541,6.62043960683,6.7186942299,7.13101581168,11.0386815045,9.58820935425,6.41894776804,12.55456585,9.78919597664,12.2251516358,14.0589347694,-115.673823122
do_nothing,9.35173022972,9.90666948349,23.7376537898,6.37583451597,5.50672559505,5.66567092941,9.40106512374,8.53399454134,6.21662345568,11.2563378836,8.87462404566,10.723014081,13.1014039869,-104.124881151
do_nothing,7.3835446109,8.06779368093,20.8866169528,5.8025071255,4.07841858938,4.01682405278,7.2185501046,6.97634415228,5.70111652232,9.16534544195,7.41477954228,8.46377370266,11.2175437886,-83.389673847
do_nothing,5.08490939171,5.79649078305,17.0788398956,4.93471186427,2.57146772176,2.34962689036,4.71529560877,5.1029246755,4.90715323402,6.51646727833,5.55007315282,5.70900255072,8.61151824796,-55.5747228367
do_nothing,2.72105534842,3.32088422079,12.7603827356,3.8284311201,1.11942299875,0.814598578491,2.13281910843,3.12072742362,3.88897466853,3.59263499404,3.45160116013,2.76210200005,5.55489412869,-23.496831048
do_nothing,0.543899968571,0.874204527172,8.36617236964,2.55599196206,-0.164002258931,-0.470472511989,-0.2981707355,1.22957533613,2.71485191011,0.690183287636,1.30153358203,-0.0699645801755,2.3537203339,9.64607149951
do_nothing,-1.24041423516,-1.33280210937,4.26525005077,1.19904893318,-1.19766612531,-1.43375187283,-2.38357979408,-0.402538203882,1.46025786328,-1.91663300649,-0.727160875319,-2.51447887334,-0.688264647584,40.6401405628
do_nothing,-2.49690464432,-3.13562584155,0.719506349912,-0.159176481293,-1.9410620509,-2.05591042337,-3.98613946711,-1.6590309467,0.200575762585,-4.00738325363,-2.48908159788,-4.36533288947,-3.30547653623,66.6121259519
do_nothing,-3.17660052411,-4.43284858223,-2.13874513695,-1.44143347444,-2.3966439466,-2.36914284156,-5.03758585919,-2.48671470893,-0.995730839245,-5.43943947265,-3.88057372893,-5.50575968767,-5.30068474303,85.3346887581
do_nothing,-3.31891487708,-5.19402684841,-4.30796950451,-2.58284974635,-2.60614467661,-2.44885299959,-5.54147909003,-2.89872082681,-2.07264808459,-6.16123598327,-4.84802991271,-5.91858539398,-6.56563961695,95.4455987345
do_nothing,-3.04136520587,-5.45778222703,-5.89824810117,-3.53548576156,-2.64146335559,-2.39924607019,-5.56660299819,-2.96815456794,-2.99020675096,-6.21331317336,-5.38944350349,-5.68287875406,-7.08950693037,96.5576171932
do_nothing,-2.51826273094,-5.32063491775,-7.09565191786,-4.27058958406,-2.59146282108,-2.3349354346,-5.23213970608,-2.81352523692,-3.72579679267,-5.71728727614,-5.54926181065,-4.95772921921,-6.95415767412,89.2501612328
do_nothing,-1.95154069874,-4.91838155846,-8.11643495085,-4.77843713849,-2.54659801877,-2.3612459604,-4.68688441453,-2.5781037888,-4.27318891548,-4.85448876467,-5.40748892942,-3.95561992719,-6.31716113294,74.9487817992
do_nothing,-1.53798586076,-4.40282000066,-9.15871653286,-5.06597742421,-2.58360531047,-2.5560903204,-4.08551137656,-2.40616221998,-4.63957715763,-3.83736025497,-5.06474496903,-2.90924265104,-5.38501106667,55.7121307334
do_nothing,-1.4376209695,-3.91722415216,-10.359517522,-5.15279262165,-2.75247652779,-2.95608191148,-3.5652265095,-2.41944391672,-4.84122897467,-2.87762251904,-4.62549934085,-2.03644313425,-4.38044470301,33.9567276515
do_nothing,-1.74779549433,-3.57409156374,-11.7640128636,-5.0660885568,-3.06761938348,-3.54895455877,-3.22600851457,-2.69715270772,-4.89850852197,-2.15558596822,-4.18189247046,-1.50817785407,-3.50850652592,12.1562012426
do_nothing,-2.48670783209,-3.43831279044,-13.3118322553,-4.83552444922,-3.50451211079,-4.27346763102,-3.11707461827,-3.26224377202,-4.83109965231,-1.79476155239,-3.80041925727,-1.42388742206,-2.92615243976,-7.44689107144
do_nothing,-3.58872690126,-3.51810116125,-14.8425027274,-4.48866224167,-4.00237827461,-5.02691020664,-3.23129355521,-4.07592436001,-4.65419041602,-1.84514639583,-3.51329234535,-1.7976192615,-2.71966414943,-23.0820569
do_nothing,-4.91219872364,-3.76489127803,-16.1191046876,-4.04767333063,-4.47254798745,-5.67922941195,-3.50813764704,-5.04114785404,-4.37620216309,-2.27733693436,-3.3156008043,-2.55671535143,-2.89302150098,-33.6178309153
do_nothing,-6.25865356466,-4.08212479404,-16.8663662546,-3.52770904922,-4.81135601844,-6.09184986531,-3.84457572768,-6.01466417114,-3.99838217925,-2.98812554855,-3.16853097372,-3.55313121792,-3.36881872402,-38.6386944578
do_nothing,-7.40072098183,-4.34157418533,-16.8171773937,-2.93705820291,-4.91577125769,-6.13855934561,-4.11222254382,-6.82603681173,-3.51627010016,-3.81667026609,-3.00804130716,-4.58571103839,-4.00152755099,-38.428293206
do_nothing,-8.11483834975,-4.40478622101,-15.7601978187,-2.27892441462,-4.69954893798,-5.72550928966,-4.17822438735,-7.30110455308,-2.92274235153,-4.56890242382,-2.75760489741,-5.43024804314,-4.60115594339,-33.8674701052
do_nothing,-8.21417135724,-4.14650448431,-13.5810491423,-1.55440202349,-4.1076043645,-4.80746525378,-3.92688456932,-7.28677488906,-2.21208190566,-5.04674387836,-2.34306016384,-5.87311061205,-4.96387181919,-26.2660381919
do_nothing,-7.57714137424,-3.47665302587,-10.2905401359,-0.766049175932,-3.12653813288,-3.39793177497,-3.27897428212,-6.67386068209,-1.3843512861,-5.07808606289,-1.70732048731,-5.74375071351,-4.90516464845,-17.1545692322
do_nothing,-6.16757210188,-2.35766681833,-6.03532069561,0.0786241899512,-1.78976553056,-1.57160120334,-2.20603460945,-5.41492882158,-0.449290051146,-4.54341496597,-0.822725571056,-4.94158955096,-4.29074442113,-8.06595161312
do_nothing,-4.04363442431,-0.814607812244,-1.08899522621,0.964407901232,-0.176443427506,0.541377171662,-0.737697036591,-3.53478022943,0.570978130753,-3.39545099815,0.300836186287,-3.453564439,-3.06068031262,-0.335817247063
do_nothing,-1.35431602461,1.06348540415,4.17535050839,1.86690750352,1.59575778341,2.76868846906,1.03897229022,-1.13213353122,1.64096949209,-1.66913856188,1.61329513358,-1.35990737422,-1.24321855445,5.05353466213
do_nothing,1.67614794055,3.13134318408,9.32748299677,2.75264052283,3.38314176788,4.91504198849,2.98800301314,1.6277886296,2.71287815593,0.519368596946,3.02773275934,1.17267022797,1.04384029106,7.56856474936
do_nothing,4.77381382056,5.20336801932,13.9312812469,3.58077452108,5.03211516372,6.78477972325,4.9397606781,4.52892020172,3.72960872927,2.98460326015,4.42930410217,3.90951105891,3.60458177562,7.15141770473
do_nothing,7.64713740955,7.07562326064,17.5976715355,4.30630852587,6.39684256307,8.20494508091,6.71084428387,7.32638150731,4.62948286527,5.49299543316,5.68858034958,6.57582064254,6.1878121074,4.18024396907
do_nothing,10.0213998948,8.55098847354,20.0317451165,4.88427394359,7.35610918396,9.04577945704,8.12599455546,9.77222666173,5.35204391737,7.79061315484,6.67751292654,8.89008380682,8.51825643526,-0.626325978087
do_nothing,11.670941633,9.46411822028,21.0674343445,5.27437376336,7.82719016424,9.23595524657,9.03913846465,11.6418302546,5.84421238985,9.6338139567,7.28584434233,10.598700353,10.3319026838,-6.34300064473
do_nothing,12.4450512997,9.7028576947,20.6849585122,5.44541228066,7.77494434268,8.77056160742,9.35085693585,12.7578011424,6.06598230112,10.8188410656,7.43571873369,11.5073235717,11.4106700076,-11.9884492983
do_nothing,12.2842724808,9.22324094126,19.0087752882,5.37889988179,7.21500985775,7.71083506103,9.02008239732,13.0086646973,5.99490340926,11.2065783186,7.09248459118,11.5048594762,11.6116475673,-16.670525132
do_nothing,11.2252248038,8.05605771002,16.2866072763,5.07134148189,6.21078453344,6.1757353071,8.06863217453,12.3602401865,5.62875755398,10.73935136,6.27019834869,10.5770885273,10.8868760308,-19.706296134
do_nothing,9.39360032371,6.30410328459,12.8528341039,4.53491196432,4.86471187478,4.32655426195,6.5781481328,10.8585608646,4.98608418006,9.44773251951,5.03105703314,8.80826294349,9.29092951153,-20.7020794692
do_nothing,6.98656847544,4.13046647014,9.08174778129,3.79645604299,3.30514636643,2.3466639191,4.68000863749,8.62421764008,4.10450334512,7.44662466232,3.47881018173,6.37061968812,6.97522038762,-19.5853805373
do_nothing,4.2471884681,1.73939527011,5.33754239937,2.89498669285,1.67063588429,0.419131396512,2.53967149216,5.83901959787,3.03708068474,4.92128716589,1.74701168319,3.503317396,4.16976188297,-16.5880053016
do_nothing,1.43440424844,-0.647751868502,1.92825513825,1.87805949205,0.0937586397423,-1.29482549279,0.337579548746,2.72673067832,1.84723457859,2.10524127975,-0.0163402377607,0.483646957908,1.15483174973,-12.1865632438
do_nothing,-1.2073397042,-2.81833726102,-0.929844879209,0.797539799017,-1.31335012711,-2.67373156271,-1.75086912739,-0.469740537331,0.602864469703,-0.747012358408,-1.66575519671,-2.40569330607,-1.77365158343,-7.01215645288
do_nothing,-3.47492281674,-4.59272580694,-3.13259053986,-0.294663812341,-2.46994454259,-3.64782954466,-3.57375703048,-3.51201775649,-0.629543656584,-3.38893880496,-3.07458229398,-4.90904244647,-4.34038971689,-1.74456309077
do_nothing,-5.22650575161,-5.8439315116,-4.69049937376,-1.3503590464,-3.33279652966,-4.20371568446,-5.01726644481,-6.18815482538,-1.7901122073,-5.60893027776,-4.14861735201,-6.82586344689,-6.3237545626,2.99268317627
do_nothing,-6.39237361687,-6.51019548476,-5.71381618484,-2.32789514322,-3.89692717059,-4.38124062296,-6.01484838196,-8.33045990221,-2.82948136213,-7.25199299905,-4.8352740492,-8.03106138228,-7.58125123854,6.72122625626
do_nothing,-6.97574673241,-6.59902835867,-6.38283992433,-3.19380079884,-4.19113532107,-4.2633445883,-6.55008864248,-9.82755934251,-3.71106319112,-8.23364151928,-5.12722564971,-8.48522089107,-8.06408526192,9.16909586682
do_nothing,-7.04404448043,-6.18239560966,-6.90851216041,-3.92318644771,-4.2692414465,-3.96045000529,-6.65327987077,-10.6297898996,-4.41153218428,-8.54456168339,-5.06018121891,-8.23382254295,-7.81904144375,10.2972245829
do_nothing,-6.71236893518,-5.3838931337,-7.48962325138,-4.49906426163,-4.19853650042,-3.59174850248,-6.39253129039,-10.7478442938,-4.91970953755,-8.24583885548,-4.70525096849,-7.39595499827,-6.97763223413,10.2897099501
do_nothing,-6.1219589763,-4.35979608184,-8.27340089013,-4.91090509813,-4.04726740534,-3.26609783426,-5.86092282696,-10.2453850872,-5.2342278168,-7.45577348283,-4.15707141323,-6.14438749745,-5.7342146168,9.51147504818
do_nothing,-5.416925353,-3.27663054407,-9.32563468573,-5.15285553556,-3.87305865126,-3.06524019629,-5.16165271353,-9.22698960912,-5.36052120551,-6.33036077841,-3.51940595162,-4.67992978124,-4.31626630107,8.44128603526
do_nothing,-4.72264958984,-2.28831792239,-10.6149626846,-5.22206439628,-3.71396037401,-3.03167339304,-4.39328762887,-7.8232228985,-5.30775168588,-5.04026119832,-2.89023887182,-3.20365130951,-2.95104961334,7.59094264887
do_nothing,-4.12882265239,-1.51592946844,-12.0137392171,-5.11751403994,-3.58336385405,-3.16280906407,-3.63709264964,-6.17481667059,-5.08624537423,-3.74744325442,-2.34840356479,-1.89068522563,-1.83333541387,7.42258670753
do_nothing,-3.67928861431,-1.03267335292,-13.315354529,-4.8396276975,-3.46940666114,-3.41213963316,-2.94802568572,-4.41785569027,-4.70588393595,-2.58460439407,-1.94353070084,-0.868999034269,-1.09865331259,8.2754694804
