label,COUNTER,INTERPOLATED,AF3,F7,F3,FC5,T7,P7,O1,O2,P8,T8,FC6,F4,F8,AF4,RAW_CQ,GYROX,GYROY,MARKER,SYNC,TIME_STAMP_s,TIME_STAMP_ms,CQ_AF3,CQ_F7,CQ_F3,CQ_FC5,CQ_T7,CQ_P7,CQ_O1,CQ_O2,CQ_P8,CQ_T8,CQ_FC6,CQ_F4,CQ_F8,CQ_AF4,CQ_CMS,CQ_DRL
off_to_on,-0.702183716881,1.28243197255,10.3220701521,-4.65205184178,-2.3860699171,-1.27717658442,1.83333655006,-2.21003942511,-3.6022330183,2.78524284185,-2.82681935922,7.20181971295,2.14780275358,9.58564272539
off_to_on,-1.3596148836,0.949217645557,8.8125774194,-5.16574726195,-2.82181772792,-1.69511700516,1.38906294011,-2.6148084452,-4.15455698168,2.1643184483,-3.57901735591,6.42716454367,1.089938511,51.1061091607
off_to_on,-2.18471376666,0.281701354041,7.00619882992,-5.42174786486,-3.14753596338,-2.16743885739,0.495545197479,-3.09183467105,-4.54589126971,1.20580898446,-4.2465804052,5.38743304714,-0.146096722076,88.0659952637
off_to_on,-3.16218913796,-0.725237854379,5.03650000385,-5.44359674396,-3.37773620852,-2.69195173657,-0.785632228816,-3.64338625109,-4.78622187505,-0.045253074124,-4.81650539961,4.13730137948,-1.50781191936,117.129729959
off_to_on,-4.24233748075,-2.02578717786,3.0098519181,-5.2660197021,-3.52676662019,-3.24879738669,-2.3306381582,-4.24447116381,-4.88799349276,-1.5075580009,-5.27106524349,2.72617771237,-2.92834401433,135.768043472
off_to_on,-5.34340482077,-3.52541985521,1.00012498445,-4.92874774224,-3.60523849149,-3.8015276303,-3.96860233934,-4.84307866429,-4.86253468432,-3.06979889294,-5.5868067004,1.19808108152,-4.32870141531,142.51994889
off_to_on,-6.35882596631,-5.08946648541,-0.949306194526,-4.47066296771,-3.61774656883,-4.30078968944,-5.50361029756,-5.36499296999,-4.71745348921,-4.60072099946,-5.73526059017,-0.405982450013,-5.62142781342,137.134858409
off_to_on,-7.16872323666,-6.55721481118,-2.81749351018,-3.92509278645,-3.5622081086,-4.69017887226,-6.7405334071,-5.72279403674,-4.45542311145,-5.96199617318,-5.68548565774,-2.04410086228,-6.71579251343,120.578942145
off_to_on,-7.65441250674,-7.7599961038,-4.59399914416,-3.31685764227,-3.43085511289,-4.91349567826,-7.51118147901,-5.82798530811,-4.07454041469,-7.02256651669,-5.40823944726,-3.66920949842,-7.52437358804,94.9060428058
off_to_on,-7.71416386238,-8.54116525769,-6.26590506593,-2.66137632816,-3.21262761054,-4.92242364369,-7.69718910237,-5.60463738147,-3.57017566105,-7.67283674109,-4.88125456489,-5.22576529164,-7.97061965066,63.0095930306
off_to_on,-7.27817591078,-8.7755743061,-7.80658377845,-1.965797376,-2.89647996771,-4.68356060179,-7.24647097015,-5.00260060601,-2.93798074,-7.83702434536,-4.09484944036,-6.64839914746,-7.99670506917,28.286027681
off_to_on,-6.32069936672,-8.38612276482,-9.16864188521,-1.23180627136,-2.47496459381,-4.18380487562,-6.18095029086,-4.0082803431,-2.1775235708,-7.482122965,-3.05696317545,-7.86322497852,-7.57078576488,-5.74960851908
off_to_on,-4.86750463467,-7.35525481113,-10.2826198974,-0.459503903436,-1.94742058331,-3.43331238211,-4.59445959483,-2.65120778507,-1.29589913586,-6.62229032929,-1.79670255194,-8.79198459427,-6.6926662441,-35.8500425588
off_to_on,-2.99740844044,-5.72983613573,-11.0619451885,0.348401345836,-1.32217288064,-2.46557207284,-2.64106915186,-1.00515416743,-0.310650994851,-5.31800133842,-0.36563325767,-9.35867257341,-5.39693624542,-59.3789062643
off_to_on,-0.837297150445,-3.61861933451,-11.4134748154,1.18287623781,-0.617325671274,-1.33454899706,-0.515425226631,0.81673822868,0.748575755939,-3.66994555281,1.16367818308,-9.49780348499,-3.75283867159,-74.5715220164
off_to_on,1.44908067191,-1.18240353058,-11.251924695,2.02601491441,0.140019196743,-0.109258631001,1.57220830501,2.67249782937,1.84005081935,-1.80831497514,2.70199637422,-9.16313476485,-1.86047532466,-80.6850993662
off_to_on,3.67744214072,1.38209916167,-10.5157330675,2.85015471952,0.916014040064,1.13349782917,3.42277335825,4.40639850753,2.91180189288,0.121267247457,4.15033600358,-8.33549960103,0.156595459906,-78.0242384697
off_to_on,5.66258175844,3.8628758533,-9.18157201254,3.61887415307,1.67342828396,2.31724441433,4.87341514677,5.86672810039,3.90517034776,1.97346856123,5.40878712696,-7.02846203776,2.16182397271,-67.8432130229
off_to_on,7.23891915645,6.05529726016,-7.27485568084,4.28978517807,2.3755713751,3.37367482523,5.81722082628,6.92394886523,4.75970482185,3.61866706556,6.38624989635,-5.29077332437,4.01818812874,-52.1415216492
off_to_on,8.27941676779,7.78416598574,-4.87417626601,4.81874252037,2.9901273567,4.2491603053,6.21500691786,7.48679769807,5.41880856416,4.95612919971,7.00989332605,-3.20504342454,5.60139401452,-33.3817576872
off_to_on,8.71041650424,8.92245408335,-2.10853460528,5.16486411215,3.49226721205,4.90905165723,6.09758341747,7.51406798048,5.83542876654,5.9232768596,7.23312458191,-0.882577239795,6.81218557642,-14.1674096573
off_to_on,8.52038952206,9.40442720339,0.852629425503,5.29562378429,3.86652925158,5.33923675384,5.55826524526,7.02033618563,5.97704976407,6.49987923686,7.04099750409,1.54512164969,7.58619675675,3.0782268262
off_to_on,7.76131936171,9.23152222624,3.81544484645,5.19125897847,4.10717160539,5.54482726674,4.73677770075,6.0746797999,5.82933115995,6.70667589273,6.45228674041,3.93719202367,7.90000541132,16.3925959942
off_to_on,6.54235776618,8.47023263595,6.58150636206,4.84783408701,4.21696898162,5.54628134472,3.79691732252,4.79237407438,5.39790533751,6.59868802868,5.51786893031,6.15527200597,7.77247713546,24.4811546259
off_to_on,5.01638719409,7.24225135677,8.96885325656,4.27849770181,4.20470342246,5.37365749848,2.90121073603,3.32052373901,4.70809131584,6.25420262953,4.31552877991,8.07489898486,7.26106992379,26.8292694197
off_to_on,3.36106373872,5.70809859016,10.8310058606,3.51273816277,4.08183867868,5.05997956945,2.18623622765,1.81944522825,3.8025582782,5.76101773299,2.94177943755,9.5950549456,6.45343301766,23.7097063057
off_to_on,1.75667197747,4.04629651401,12.0712962564,2.5937348636,3.85902822774,4.63482867868,1.74217515513,0.442240927763,2.73724234351,5.20193000299,1.50168655723,10.6447435103,5.45528508755,16.090405866
off_to_on,0.363593476052,2.43073398563,12.6504332826,1.57417772264,3.54315833719,4.11924246233,1.59955565001,-0.684694083186,1.57604540768,4.64156897,0.0979562131574,11.1859334586,4.37610445305,5.4598106991
off_to_on,-0.697696539996,1.00911391303,12.5862797203,0.511142327226,3.13555768138,3.52279722855,1.72512401142,-1.47756921781,0.384993195615,4.11651306081,-1.17935153931,11.2127472714,3.31452402048,-6.40318007605
off_to_on,-1.36145810241,-0.114743362868,11.9460295639,-0.539268508787,2.63182126959,2.84340305267,2.02747436791,-1.9052851445,-0.773419342543,3.6301785746,-2.26120542009,10.7473278561,2.34543560135,-17.6816981642
off_to_on,-1.62431741795,-0.89244544209,10.8321640507,-1.52679217882,2.02342517563,2.0699052628,2.37166883155,-1.99226106453,-1.84501936646,3.15331052487,-3.10506304693,9.83329554777,1.51064458378,-26.761629342
off_to_on,-1.54457881963,-1.33490700453,9.36454592889,-2.41075409187,1.30099128237,1.18712302986,2.6007862733,-1.81353304886,-2.7873543428,2.63011182429,-3.69678870847,8.52803547134,0.814487029885,-32.4296678806
off_to_on,-1.23316624746,-1.5080334951,7.66162245546,-3.16225657286,0.458748425089,0.182537000388,2.56133133916,-1.48271448379,-3.57138408707,1.98923258142,-4.04889304716,6.89518016993,0.225175849803,-34.0050572161
off_to_on,-0.837241637079,-1.52074685266,5.82384553225,-3.76462155897,-0.50052043614,-0.94647178952,2.12885929859,-1.13440448611,-4.18140810732,1.15811738934,-4.19545983267,4.99855314032,-0.318137790955,-31.3914618885
off_to_on,-0.518532059478,-1.50690165581,3.92205244667,-4.21217438169,-1.5609113867,-2.18607983511,1.23010899497,-0.903420045369,-4.61342356177,0.0786779575516,-4.18457240004,2.8985296362,-0.893413379563,-25.0468651813
off_to_on,-0.429136243597,-1.6034636911,1.99273247993,-4.50770998424,-2.69010420573,-3.50138740292,-0.141604525023,-0.90370046807,-4.87232482794,-1.27800117863,-4.06938317078,0.65129913239,-1.58043639149,-15.8805933614
off_to_on,-0.687973112685,-1.92785042023,0.0409556031853,-4.6591769653,-3.83811205828,-4.83468051368,-1.92006794048,-1.20981933247,-4.96850194795,-2.90016341282,-3.89913749142,-1.68904694301,-2.4443003146,-5.09601928789
off_to_on,-1.36102296834,-2.55749206374,-1.94956308766,-4.67621909605,-4.93860052791,-6.10719198232,-3.96999965573,-1.84372358322,-4.91445171768,-4.72896269983,-3.7114445905,-4.06623871501,-3.52003022168,5.99602215887
off_to_on,-2.4480907513,-3.51443755324,-4.00104017179,-4.56721294823,-5.91295073082,-7.22447239347,-6.10070883243,-2.76864124465,-4.72197541273,-6.65837164701,-3.52688716134,-6.41646687174,-4.80067917589,16.1653334531
off_to_on,-3.8780384595,-4.75722632431,-6.12361548795,-4.337335124,-6.67683946454,-8.08495008591,-8.08789638325,-3.89114857913,-4.40040922281,-8.5418400545,-3.34670643073,-8.66333699808,-6.23086076237,24.4254186427
off_to_on,-5.51338591398,-6.18134738075,-8.29810739297,-3.98800077867,-7.14871324242,-8.59076447061,-9.7007775605,-5.07129252715,-3.95613878048,-10.2052309866,-3.15384291626,-10.7146069093,-7.70702691967,30.1498220818
off_to_on,-7.16399672917,-7.62852256344,-10.4629291218,-3.51776773263,-7.2592020162,-8.65957220491,-10.730960532,-6.1395734936,-3.39341897217,-11.4647037123,-2.91712016274,-12.461992808,-9.08493880153,33.1277294731
off_to_on,-8.60839937986,-8.90391757864,-12.5080592205,-2.92453724041,-6.96030437022,-8.23580958669,-11.0192605342,-6.91865536661,-2.7162907955,-12.147510576,-2.59790024366,-13.7849143387,-10.1938192171,33.5541380425
off_to_on,-9.62029087423,-9.79934566081,-14.2779606629,-2.2086456814,-6.23311564523,-7.29988277868,-10.4768981372,-7.24701174391,-1.93119414091,-12.1132234762,-2.15818110981,-14.5584514343,-10.8557444128,31.9595003013
off_to_on,-9.99706203891,-10.1197175207,-15.5839883878,-1.37626923525,-5.09297933892,-5.87395741846,-9.09828278734,-7.00142906498,-1.04974884698,-11.2727677048,-1.56889770114,-14.6650897097,-10.9080564539,29.0922701537
off_to_on,-9.58686141636,-9.70951238276,-16.2253102536,-0.442484157232,-3.59121179851,-4.02340816508,-6.9637117926,-6.11540757162,-0.0911355956531,-9.602837579,-0.817159973168,-14.0091373492,-10.2260637558,25.7740764519
off_to_on,-8.3108231807,-8.47596204451,-16.0159192955,0.566647691716,-1.81294891831,-1.85351701334,-4.23166134327,-4.59101298649,0.916440726048,-7.15377653555,0.0886854100876,-12.5321107746,-8.74312249259,22.7505135061
off_to_on,-6.17761280095,-6.40596704392,-14.8141603844,1.61346773467,0.128859710952,0.498393349156,-1.12172221988,-2.50256576657,1.93558769769,-4.04975999734,1.11697018534,-10.2270039251,-6.46538845899,20.5604166716
off_to_on,-3.28832884486,-3.57446379511,-12.5505198799,2.64986842194,2.10279228962,2.87461898706,2.10955136209,0.00840201166939,2.92104672191,-0.481025964901,2.21397072806,-7.1492468178,-3.47908176398,19.4431137525
off_to_on,0.169068153933,-0.14294978781,-9.24935474072,3.62021684337,3.9706756276,5.11126049323,5.1967210292,2.74637960631,3.82245329846,3.31115976117,3.30842191197,-3.42235731415,0.0510474250638,19.2970883126
off_to_on,3.93538791605,3.65196967403,-5.04080414374,4.46579241869,5.60040252301,7.05333383375,7.89386566556,5.48172385952,4.58826275758,7.05525890076,4.31871408204,0.76321234368,3.89232740285,19.6956907222
off_to_on,7.70429519742,7.51896644983,-0.160274943356,5.13022963886,6.87839562851,8.56907602147,9.99974862188,7.97472188358,5.1703778429,10.4737250339,5.16182992258,5.15878626042,7.76302481488,19.9571298995
off_to_on,11.1522326427,11.1391937702,5.06552198381,5.5652797135,7.72028452677,9.56181023878,11.3767242274,10.00097122,5.52889097387,13.3081709666,5.7628345985,9.4735773979,11.3576116655,19.2581617259
off_to_on,13.9708738631,14.1973784676,10.24519684,5.73612619532,8.07856357653,9.97804093725,11.9612833706,11.3750546898,5.63631597479,15.3427554835,6.06365753505,13.3970915814,14.3757809246,16.7747269859
off_to_on,15.8985003691,16.4133968187,14.9593955816,5.62552272204,7.9463577913,9.81092459341,11.7653225175,11.9697499383,5.48073752497,16.4233480677,6.03000621786,16.6258358755,16.5520497627,11.8290868066
off_to_on,16.7468250511,17.5708573816,18.8035290949,5.23616262704,7.35689566864,9.09884133662,10.8684916815,11.7286196128,5.06744378094,16.4705543113,5.65551469306,18.8916653052,17.6826643006,4.02219676808
off_to_on,16.4203213704,17.5395490217,21.4314407332,4.59092059414,6.37880936191,7.91939787224,9.40315409119,10.6706890949,4.41880824737,15.4854179666,4.96261264618,19.9887192863,17.6467895904,-6.66781923661
off_to_on,14.9259915355,16.289310492,22.5945923799,3.7308925338,5.10788514243,6.37974156959,7.53441049267,8.88691516336,3.57242133337,13.5474607558,4.00004901549,19.7958756633,16.4196008913,-19.8355580759
off_to_on,12.3726088715,13.8938522504,22.1717287985,2.71145965727,3.65630493916,4.60448657591,5.43818149174,6.52914698841,2.57770556511,10.8055703445,2.83745269894,18.292004024,14.0758089698,-34.6545222326
off_to_on,8.95966387609,10.5241923107,20.1850485564,1.59687225997,2.14069907001,2.72279151939,3.28043684595,3.79315092418,1.49144693543,7.4629963232,1.55769876936,15.562000673,10.7832394843,-49.9400753693
off_to_on,4.95738630919,6.43251959662,16.8005359055,0.454048276905,0.670436613986,0.856157139805,1.20031166593,0.897905053395,0.372809650859,3.75827712762,0.248118621199,11.7925595291,6.78721031927,-64.2622707092
off_to_on,0.680172952288,1.92833453053,12.3120804689,-0.653618163646,-0.662497427459,-0.891666887752,-0.700878913989,-1.93630346852,-0.721546355149,-0.0557608549385,-1.00828880945,7.2577638279,2.38747372048,-76.0953265606
off_to_on,-3.54358575171,-2.65048161532,7.11106806829,-1.67165684652,-1.7909356623,-2.44163257663,-2.36370413334,-4.50845304701,-1.74166276059,-3.73274108234,-2.14053318061,2.29573766776,-2.08971050658,-83.9860208955
off_to_on,-7.40198666498,-6.96853763119,1.64498924772,-2.55847453376,-2.67654912821,-3.74264605149,-3.76783430304,-6.65383305788,-2.64733179657,-7.05122757562,-3.09528363913,-2.72136682515,-6.3213213403,-86.7211051575
off_to_on,-10.6271955359,-10.7225022283,-3.62997153418,-3.28742377182,-3.31018974454,-4.77109490978,-4.92351921911,-8.2559386725,-3.4097156879,-9.82940366747,-3.83990154598,-7.42098036753,-10.0159775366,-83.4741742955
off_to_on,-13.0173716589,-13.6663913382,-8.29662777937,-3.84682888315,-3.70876210621,-5.5271275526,-5.85926104629,-9.25233764539,-4.0114723227,-11.9349362055,-4.36265314535,-11.4638146126,-12.9380847866,-73.9151210214
off_to_on,-14.4509237107,-15.6301779327,-12.0189990746,-4.23810785724,-3.90925808887,-6.02857034712,-6.60810688365,-9.63443072951,-4.44554127675,-13.289645588,-4.67030430624,-14.5740964445,-14.9254066285,-58.2699016424
off_to_on,-14.8920268115,-16.5301617581,-14.5739984901,-4.47240056915,-3.96091122817,-6.30362791881,-7.19508207607,-9.44177184394,-4.71293139561,-13.8692015365,-4.78365769968,-16.5631601344,-15.8985703102,-37.3241889393
off_to_on,-14.3873497117,-16.3705069778,-15.8689471021,-4.56631971239,-3.91661031907,-6.38359094462,-7.62798014736,-8.75220851339,-4.81997924791,-13.6985667367,-4.73185470654,-17.3439623181,-15.8619895748,-12.3708125645
off_to_on,-13.0549132602,-15.2363449121,-15.9431182055,-4.53755085376,-3.82473520339,-6.29667089501,-7.89307559558,-7.66947915685,-4.77559862866,-12.8442612809,-4.54639491163,-16.9351105721,-14.8966707067,14.8930858105
off_to_on,-11.0668147401,-13.279730124,-14.9535875401,-4.40102641694,-3.72244689375,-6.06381582262,-7.95643992815,-6.31002850962,-4.58900869227,-11.4046919032,-4.25581039648,-15.4541817227,-13.1462456908,42.5082043884
off_to_on,-8.62811958721,-10.7004314294,-13.1476788381,-4.16628631649,-3.63120470116,-5.69698212328,-7.7705620279,-4.7906806517,-4.26831889616,-9.49978085759,-3.88177731554,-13.1013084648,-10.798245035,68.4199877927
off_to_on,-5.95448894363,-7.72396411851,-10.8259762012,-3.83643313092,-3.55493715294,-5.19990632631,-7.28505654426,-3.21848038267,-3.82018115301,-7.2609650449,-3.43718092778,-10.1350882763,-8.06301167715,90.6539155149
off_to_on,-3.25106404492,-4.57939095765,-8.30100326017,-3.40882374891,-3.48091334028,-4.57100633845,-6.45953256352,-1.68354435432,-3.25052066837,-4.82236150843,-2.92631569563,-6.84368922971,-5.15273426264,107.482773864
off_to_on,-0.69479106246,-1.47924125255,-5.85709834356,-2.87735307367,-3.38300103484,-3.80770651482,-5.27630028404,-0.2552349301,-2.56615871327,-2.31356683991,-2.34705162875,-3.51449756313,-2.26285210194,117.571108734
off_to_on,1.57819901711,1.39654045306,-3.71669661389,-2.23592231006,-3.226705696,-2.9112746828,-3.75057694949,1.01853436206,-1.77697455373,0.145766724681,-1.69448515424,-0.405720101101,0.442397303658,120.084935016
off_to_on,3.47925857613,3.91133209811,-2.01721883622,-1.48248465392,-2.97519603656,-1.89120969131,-1.93621714704,2.10946000856,-0.898146270029,2.44970620009,-0.965363906494,2.27698092562,2.8391765523,114.758502138
off_to_on,4.96781294181,5.9767031703,-0.801210947756,-0.622955293105,-2.59545572475,-0.768327910128,0.0743199294347,3.00533311437,0.0480215976044,4.50847189274,-0.162462686906,4.39643452915,4.8476218968,101.914018512
off_to_on,6.04647092703,7.55159452321,-0.0205003881863,0.325723224834,-2.06375680629,0.424056015807,2.15614932604,3.70579045169,1.0311263775,6.2499128787,0.701893145695,5.89105930982,6.43014353794,82.4342917231
off_to_on,6.75185322898,8.63663822965,0.446803184569,1.33395532772,-1.36981052513,1.64111846346,4.16368770759,4.21819457085,2.01287126,7.62037810906,1.60381611988,6.77278299846,7.58541518801,57.6919024159
off_to_on,7.14274045898,9.26493833543,0.769366895403,2.35969474851,-0.519183419592,2.8295740707,5.94642742532,4.55429091016,2.94858635205,8.58522924166,2.50777078502,7.11655750292,8.33944436026,29.441565795
off_to_on,7.28731950318,9.49091781159,1.12994879076,3.35059423038,0.46616937815,3.93231855152,7.36656916154,4.72799284568,3.7900019513,9.12908841681,3.36852032724,7.04321884154,8.73531963677,-0.315371993854
off_to_on,7.25125100471,9.37889499679,1.69184457492,4.24793101084,1.54914760872,4.8939376088,8.31596564202,4.75432808828,4.48900667359,9.25575756885,4.13489162627,6.69817047381,8.82320303876,-29.4838251216
off_to_on,7.08801637193,8.99289524306,2.56933568237,4.99186679546,2.68021266563,5.6662112787,8.72985584589,4.64930241028,5.0019554999,8.98762460998,4.75485918176,6.228768795,8.65189818547,-56.0339573925
off_to_on,6.8325784416,8.38886803362,3.80632374826,5.52739266628,3.80110966593,6.21274965486,8.59528323678,4.43024862385,5.29398627709,8.36431599064,5.18124100773,5.76332107559,8.26292897707,-78.1548129116
off_to_on,6.49887081815,7.6100244406,5.36608710022,5.81019349074,4.84910715486,6.51204794932,7.95283457719,4.11615997147,5.34277466757,7.44038040781,5.37720081924,5.39427616954,7.68757827345,-94.3915415461
off_to_on,6.08108915897,6.68550367611,7.13346533406,5.81166009439,5.76128902689,6.55852005388,6.89129913645,3.72756383445,5.14121226209,6.28189344017,5.32077409875,5.16754930286,6.94683816794,-103.756120284
off_to_on,5.55826297689,5.63209140068,8.92900305658,5.52238166327,6.47853063599,6.36141443815,5.53588845479,3.28565617902,4.69862332219,4.96203963601,5.00777579429,5.07906400443,6.05378577905,-105.802951093
off_to_on,4.90119743773,4.45830919916,10.5329134452,4.95365015346,6.94892695541,5.94187647412,4.03161816846,2.81065161091,4.0403237815,3.55592574679,4.45268181007,5.07863162346,5.01757967866,-100.662744402
off_to_on,4.08063193658,3.16992129737,11.7153862979,4.13677357944,7.13058371154,5.32873640583,2.5241900234,2.31955761202,3.20554448475,2.13506741009,3.68736861853,5.08034651977,3.84810902938,-89.0306889231
off_to_on,3.07538509237,1.7757873227,12.2689417652,3.12028711912,6.9938025683,4.55381849934,1.14111074365,1.82380027119,2.24395744687,0.762132032162,2.75790065607,4.9778711262,2.56033124112,-72.1080396829
off_to_on,1.87934090282,0.293031849883,12.0383222873,1.96542756293,6.52276532436,3.64764652887,-0.0242189341887,1.32726469389,1.21122767458,-0.513420132632,1.719827793,4.66241651919,1.17748957206,-51.499831304
off_to_on,0.506354526043,-1.24931607597,10.9438352986,0.74045800157,5.71683726947,2.63634794084,-0.923121365313,0.825333400972,0.164137248301,-1.65819695358,0.63265485916,4.04095459251,-0.267327450147,-29.0752500897
off_to_on,-1.00752083668,-2.80877375069,8.99503363948,-0.48543536407,4.59156696352,1.54034307151,-1.5554012705,0.305398657291,-0.844124778695,-2.65578487714,-0.445756673131,3.0522507817,-1.73148988702,-6.80097861813
off_to_on,-2.604710946,-4.33016372696,6.29299923013,-1.64792180955,3.17937221502,0.375079892968,-1.96568428906,-0.250898293529,-1.76794977244,-3.50549367826,-1.46411111122,1.67866284494,-3.16486161482,13.4388277651
off_to_on,-4.20955346845,-5.7485521134,3.0210757048,-2.69230371345,1.52979364347,-0.846308840329,-2.23286875691,-0.863752651099,-2.5721314043,-4.21901667984,-2.38130766577,-0.0477454716772,-4.5131494521,30.0198019985
off_to_on,-5.73401326279,-6.99393575115,-0.574547988196,-3.57678620424,-0.290902655312,-2.10892726393,-2.45425610286,-1.54999299866,-3.23325331614,-4.81539967642,-3.16837417458,-2.0454634676,-5.72195837705,41.7345701479
off_to_on,-7.08496461952,-7.99702932108,-4.21168406975,-4.27396722864,-2.20105364267,-3.39142643911,-2.72673831526,-2.31728335389,-3.73958180936,-5.3149908655,-3.808573496,-4.19003269818,-6.74087550798,47.9131067753
off_to_on,-8.17218965605,-8.69539219699,-7.60280134817,-4.77054145617,-4.1061393639,-4.66169586374,-3.12789334839,-3.15864415085,-4.08961380191,-5.73324366102,-4.2958337954,-6.32588404069,-7.52696102023,48.4918174471
off_to_on,-8.9162198144,-9.03913754094,-10.4854924681,-5.06546580929,-5.90273985823,-5.87395173153,-3.69989778574,-4.04829308777,-4.28961339653,-6.07532759049,-4.63190681134,-8.28198658702,-8.04718758415,44.0211590951
off_to_on,-9.25522982656,-8.9955725441,-12.6489397564,-5.16704030327,-7.48396543297,-6.96808606067,-4.43879721523,-4.9397338126,-4.35059916191,-6.33244879448,-4.82284262219,-9.88937730703,-8.27960639979,35.6074541862
off_to_on,-9.15035940007,-8.55230440624,-13.9532633609,-5.08948554559,-8.74620961947,-7.87183185696,-5.29092756839,-5.76678541769,-4.28530059818,-6.48059008784,-4.87545810059,-10.9984948562,-8.21328120551,24.7915064346
off_to_on,-8.58905734541,-7.71857750583,-14.3397274439,-4.84963043627,-9.59683761884,-8.50587409678,-6.15725962088,-6.44787318255,-4.10557918768,-6.48207110003,-4.79445659036,-11.4943597081,-7.84727206231,13.3739628242
off_to_on,-7.58628222897,-6.52484519255,-13.8310974953,-4.46425804755,-9.96219515494,-8.79155614109,-6.90528905224,-6.89343915829,-3.82071180658,-6.28994033481,-4.58073232579,-11.3079960031,-7.18912358385,3.20422369751
off_to_on,-6.18362040364,-5.02078874848,-12.522788716,-3.94850717887,-9.79514448304,-8.66036919242,-7.38698077676,-7.01584536459,-3.43677806007,-5.85479529233,-4.23118445662,-10.423018908,-6.25338544438,-4.04482630787
off_to_on,-4.44656956515,-3.27214775462,-10.5666295999,-3.31551746621,-9.0812432735,-8.06404196676,-7.46035951402,-6.74070550272,-2.95720285242,-5.13324260608,-3.74010463523,-8.87693583243,-5.06065225404,-7.09073336504
off_to_on,-2.46036576556,-1.35680318584,-8.14992525546,-2.57727177754,-7.84270530114,-6.98383138857,-7.01175231964,-6.01826271839,-2.38431057811,-4.09691393394,-3.10192910042,-6.75734344624,-3.63746146434,-5.21807298517
off_to_on,-0.324796582526,0.639446747997,-5.47293422806,-1.7463689191,-6.13943075767,-5.43759452056,-5.97551999178,-4.8332864165,-1.72157745939,-2.74079125889,-2.31490290161,-4.19376227997,-2.01715763704,1.6055206717
off_to_on,1.85155408236,2.62704825012,-2.72783073226,-0.838287822874,-4.06666121042,-3.48341091456,-4.34839063924,-3.21202263007,-0.976149410266,-1.08959620698,-1.38502769513,-1.34626949722,-0.241560438762,12.6913732895
off_to_on,3.95723132681,4.51654007117,-0.0817424060794,0.126391253691,-1.74917332333,-1.21890599413,-2.19619468844,-1.22500333403,-0.161142138619,0.798830940592,-0.32958276374,1.6076749827,1.63698779857,26.6789616003
off_to_on,5.88368552243,6.22197686088,2.33437298017,1.12034729783,0.667666344968,1.22404655274,0.348197580424,1.01502661084,0.702734700367,2.83391195035,0.820465049256,4.48677784198,3.55382048628,41.6713317905
off_to_on,7.53067056811,7.66394746229,4.43027748022,2.10891208715,3.02925950764,3.68896197417,3.09575589205,3.36022483178,1.58659078458,4.89677956898,2.01971539839,7.11855383452,5.4311150978,55.4451677995
off_to_on,8.81111686632,8.77230338983,6.15475969798,3.05078244938,5.18447931212,6.00784400967,5.81981469898,5.63933423608,2.45401391154,6.84860095754,3.20958650484,9.35006751568,7.17872328413,65.7140534985
off_to_on,9.65538985681,9.48875357655,7.48896302775,3.90011995084,6.99842224051,8.01636671166,8.28002977097,7.67285462466,3.26299551875,8.54208248665,4.32162349193,11.0561606848,8.69718519223,70.4156556189
off_to_on,10.0148711246,9.76945928588,8.43666641952,4.60987267126,8.36383694365,9.56942328307,10.2488089392,9.29013480058,3.9689519908,9.83503128958,5.2826274862,12.14494814,9.88315916952,67.9889254265
off_to_on,9.86479311148,9.58768180834,9.01375515944,5.13593994928,9.20995484664,10.5552119644,11.536912192,10.3465102962,4.52850197924,10.6045427429,6.02109975782,12.5607179355,10.6371220185,57.6067589126
off_to_on,9.20622781663,8.93641092986,9.23903420632,5.44164177671,9.50771219527,10.9061573043,12.0150127336,10.7385341129,4.90353945342,10.7602437741,6.47428673407,12.284631339,10.8727876039,39.3331801505
off_to_on,8.06708827619,7.83075916983,9.12809156612,5.50187578097,9.2707582355,10.6053248728,11.6285344318,10.4155143028,5.06508759168,10.2550701281,6.59499467528,11.333750944,10.5273153841,14.1817939475
off_to_on,6.50196633888,6.30977566378,8.69120173833,5.3063599375,8.55214042992,9.68753379707,10.4039570855,9.38596542245,4.99643757312,9.09228809244,6.35733404561,9.75892576202,9.57109764724,-15.9367732201
off_to_on,4.5906188315,4.43724471984,7.93539841711,4.86146721356,7.43708121159,8.23503219728,8.44588606257,7.71815286886,4.69516556327,7.32786090484,5.76065510738,7.64194666321,8.01577750638,-48.3776915688
off_to_on,2.43494106334,2.30101290144,6.86999039983,4.19034375173,6.03274177782,6.36828596977,5.92536409139,5.53458776813,4.17376711633,5.06776053964,4.8311349737,5.09219177713,5.91919350545,-80.0207159478
off_to_on,0.154340071777,0.0104507611183,5.51409013464,3.33123737536,4.45624050121,4.23304688977,3.06099930625,3.0010290725,3.45882911345,2.46037657639,3.62074622997,2.24276040095,3.38618118353,-107.59830507
off_to_on,-2.12045976993,-2.30819601758,3.9042886932,2.3342127151,2.82240363054,1.98532590829,0.0953487712221,0.31118001313,2.58884869436,-0.315290575875,2.20364302024,-0.754099151882,0.564570212905,-128.056885599
off_to_on,-4.25498798675,-4.51858764647,2.10051695708,1.25665529408,1.23274228533,-0.223862769422,-2.73048065186,-2.33125114054,1.61097911465,-3.06450789982,0.670302659349,-3.7325778021,-2.36374524117,-138.9096427
off_to_on,-6.11960632752,-6.48295109643,0.188396665619,0.15813507704,-0.233033057962,-2.26213548205,-5.20093340719,-4.73117992268,0.577110060616,-5.59328949081,-0.879979004025,-6.52022280095,-5.19617976225,-138.538738754
off_to_on,-7.59854825183,-8.07207969681,-1.72303587431,-0.904715369676,-1.52200884924,-4.02616543839,-7.14601651324,-6.71947960663,-0.460242530297,-7.72484877628,-2.34745421664,-8.94637244647,-7.72619581687,-126.409563254
off_to_on,-8.59872705413,-9.17586807122,-3.50855050593,-1.88266478283,-2.60911209837,-5.44779574794,-8.45507298261,-8.16723451464,-1.4517626333,-9.31441642304,-3.6402775754,-10.8520570826,-9.76182803107,-103.169071474
off_to_on,-9.05752931245,-9.71338471141,-5.03831543097,-2.73715233486,-3.49428830078,-6.49535741664,-9.08306757716,-8.99553161803,-2.35446809766,-10.2610130567,-4.68198824084,-12.1009930341,-11.1440728012,-70.613427456
off_to_on,-8.94879697009,-9.64139380877,-6.19245502147,-3.44201000568,-4.19643633159,-7.17038927996,-9.0491549831,-9.17996264401,-3.13386437337,-10.5151078042,-5.41737522622,-12.5909454386,-11.7631025541,-31.5254753554
off_to_on,-8.28627873494,-8.96027503238,-6.87653119164,-3.98352107959,-4.74516838658,-7.50059225363,-8.42829702166,-8.74963631832,-3.76498432472,-10.0815377193,-5.81617853696,-12.264420717,-11.570389066,10.6018448474
off_to_on,-7.12400200474,-7.71646319111,-7.03557726709,-4.35894651794,-5.17175426224,-7.53035072211,-7.33753232716,-7.78112059469,-4.23234482539,-9.01755569241,-5.87433253786,-11.1174345783,-10.585187948,51.9260917505
off_to_on,-5.55327029666,-6.00082963123,-6.66435477758,-4.57387560188,-5.50070368378,-7.31044742671,-5.91907068778,-6.38827091795,-4.52900025374,-7.42635899338,-5.61273474932,-9.20504181029,-8.89441147937,88.6593880239
off_to_on,-3.69630627862,-3.94282650113,-5.81192160232,-4.63892315956,-5.74332313264,-6.88864335419,-4.3226193283,-4.70929057638,-4.65498553639,-5.44687484194,-5.07378929946,-6.64244465479,-6.64563597027,117.469727984
off_to_on,-1.69690503273,-1.70067118495,-4.57934145643,-4.56637742106,-5.89427014247,-6.30258607428,-2.68923494618,-2.89257329762,-4.61550137765,-3.24090125271,-4.31619860011,-3.60082527804,-4.03376851103,135.833188626
off_to_on,0.291202394143,0.551691585071,-3.11032534267,-4.36738761508,-5.931662324,-5.5760815895,-1.13856955627,-1.08288344853,-4.41919467096,-0.978893318551,-3.40863547313,-0.29755230714,-1.28264171925,142.296252654
off_to_on,2.11728934539,2.63970498383,-1.57563466779,-4.05017133778,-5.82074705902,-4.71918190492,0.239279624128,0.590750391601,-4.07683018404,1.17426376682,-2.42300643655,3.01896008274,1.37657900501,136.618013011
off_to_on,3.64669344708,4.40394660572,-0.153037424006,-3.61953564811,-5.5205807719,-3.73189248605,1.38688522169,2.02437943625,-3.60054669769,3.07223753581,-1.42801136717,6.08878483413,3.72788239727,119.776316221
off_to_on,4.77272979306,5.71490837947,0.994654393959,-3.07777201199,-4.99268572721,-2.61069010663,2.27791572457,3.14508653191,-3.00376007832,4.5979282953,-0.483621887536,8.66281436471,5.59135242184,93.8381468243
off_to_on,5.42624323794,6.48523639847,1.74054305418,-2.42674049834,-4.21031922338,-1.35655729617,2.91187615808,3.91336530779,-2.30163948287,5.67107073977,0.363044060196,10.5257966477,6.84026234668,61.7107310626
off_to_on,5.58177375651,6.67806379195,2.01069125074,-1.67074187063,-3.16685609736,0.0170391750556,3.30661185317,4.32216387583,-1.51196368177,6.25231211574,1.08015941758,11.5176881916,7.41243306249,26.8039232311
off_to_on,5.25961901576,6.31044256249,1.79478283361,-0.819622255577,-1.88187354175,1.47782596134,3.49019937848,4.39316526549,-0.656081870413,6.34366287147,1.65184654794,11.5509166762,7.3146069951,-7.35532171733
off_to_on,4.52348122298,5.45138220974,1.14872584865,0.108510683277,-0.40382819486,2.97142575172,3.49374369253,4.17109418075,0.240329297869,5.98553322816,2.07716044208,10.6214206607,6.61938188268,-37.5104506264
off_to_on,3.47383924168,4.21457969681,0.188586322539,1.08554671229,1.19131110239,4.42199478402,3.34624837378,3.71692521489,1.14699819059,5.25083643735,2.36766519873,8.81189006692,5.45510002431,-61.0194234185
off_to_on,2.23764232352,2.74651164441,-0.923584858959,2.07306261934,2.80553180045,5.73708577907,3.07219822668,3.10082783926,2.0294919416,4.23683894538,2.54399394359,6.28641721616,3.98989602832,-76.1162161443
off_to_on,0.955326833619,1.21108703105,-2.00034734237,3.02368852604,4.32780115854,6.81633933656,2.69188835729,2.39554276766,2.8504497785,3.05556109291,2.63185165056,3.27669885988,2.41177215172,-82.0613812613
off_to_on,-0.233535709537,-0.227536336891,-2.85329322101,3.88414029391,5.64555954182,7.56295612356,2.22395830061,1.67067970233,3.57157963911,1.82357982843,2.65793569405,0.0608961824364,0.907014675495,-79.1675054495
off_to_on,-1.20447997227,-1.42213625763,-3.318131,4.59964204253,6.6572030935,7.89638970893,1.6891434451,0.988200497352,4.15624769289,0.65206449455,2.64621484928,-3.06285662662,-0.360565799697,-68.7010268759
off_to_on,-1.86078631232,-2.25774808381,-3.27712461636,5.11922949941,7.2838842457,7.76440847398,1.11401449761,0.399144959524,4.57237846092,-0.362200300111,2.61493304002,-5.80561744534,-1.26721216008,-52.6769371589
off_to_on,-2.1431796094,-2.66344420865,-2.67588841488,5.40126016731,7.47900304182,7.152656054,0.533478928213,-0.058499240994,4.79531169545,-1.14417085979,2.57460148481,-7.9163994856,-1.74166129639,-33.5754978278
off_to_on,-2.03555135756,-2.6192684376,-1.532258245,5.41838684977,7.23404044442,6.09010485959,-0.0089358545642,-0.360967239488,4.81024297871,-1.64579573225,2.52712511732,-9.20740888393,-1.77112166231,-14.0186980576
off_to_on,-1.56609048083,-2.15755300662,0.0640074219213,5.16128969378,6.57986098356,4.64931568665,-0.463552868268,-0.499126556303,4.61391194137,-1.84884642553,2.46608873858,-9.57295107832,-1.40024112412,3.55222963787
off_to_on,-0.803702501518,-1.35846992194,1.96073531366,4.64060531367,5.58322146358,2.94111887857,-0.779738193833,-0.478277050528,4.21529017764,-1.76518861338,2.37811594517,-8.99985727595,-0.723351033292,17.158664698
off_to_on,0.149891780387,-0.340314311081,3.9608777996,3.88672072049,4.33888005101,1.10412039624,-0.913195648285,-0.317409010219,3.63514750004,-1.43453309147,2.24511760245,-7.56820614915,0.128942050845,25.4929616303
off_to_on,1.17151607623,0.754389183602,5.84585239019,2.94738259236,2.95831278814,-0.709804314596,-0.834236375018,-0.0478967069124,2.90452134123,-0.919878926647,2.04717196751,-5.44220010906,1.00710113895,28.0311164394
off_to_on,2.1301185415,1.77539448164,7.40169122474,1.88336835559,1.5565243982,-2.35224714372,-0.535564314138,0.288462166325,2.06225805562,-0.30102326939,1.76572859671,-2.85217136767,1.76179619097,25.0406389603
off_to_on,2.90109506556,2.581999869,8.44465897278,0.762731625284,0.238716965137,-3.69507031118,-0.0380274559585,0.64216986512,1.1519151191,0.333343881411,1.38680411811,-0.0697057500951,2.26252618843,17.4883065232
off_to_on,3.37980593171,3.05913243917,8.84309300137,-0.345668284282,-0.91138840234,-4.64502623816,0.607037672105,0.959581454368,0.218391938388,0.894324544008,0.903839743229,2.62134181379,2.41353261363,6.8650933994
off_to_on,3.49283610899,3.13045149499,8.5327458446,-1.37854412803,-1.84000307683,-5.15417903585,1.31981036308,1.1872512346,-0.695317300618,1.30156118192,0.319917134166,4.95470370238,2.16518460509,-5.04457738108
off_to_on,3.20581103286,2.76701617327,7.52379069377,-2.28367152526,-2.52736740537,-5.22463995685,1.99865522676,1.27688830999,-1.55088594603,1.49129868146,-0.350920591765,6.70910967875,1.51959766418,-16.4162246455
off_to_on,2.52697171281,1.99057259201,5.8987617756,-3.02382486811,-2.98697333429,-4.90688190505,2.53104347025,1.19056906131,-2.31665130254,1.42303177885,-1.08342456814,7.73024138625,0.529962329197,-25.6270132899
off_to_on,1.50618928421,0.871131191841,3.80188919707,-3.57871088358,-3.26008253367,-4.29177349129,2.80759085689,0.905701054069,-2.96868400672,1.08409376726,-1.84206508951,7.94488353391,-0.706182797362,-31.4547420709
off_to_on,0.229604075481,-0.480846273759,1.42139017472,-3.94473525657,-3.40637953432,-3.49734871136,2.73747853872,0.419129399964,-3.4909085733,0.491689457803,-2.58311551311,7.36585612929,-2.05879036331,-33.2103587581
off_to_on,-1.1894505183,-1.92672390721,-1.03285178401,-4.13274203528,-3.49215597113,-2.65207904638,2.26314807876,-0.250247350213,-3.8743907208,-0.307919644316,-3.25777528484,6.08739966109,-3.38073668507,-30.790364634
off_to_on,-2.62218771651,-3.3150120781,-3.353263701,-4.16414707778,-3.57778464587,-1.87693094085,1.3720813528,-1.06091041632,-4.11602155495,-1.24311994434,-3.81610390165,4.27179458257,-4.52495034159,-24.6469582073
off_to_on,-3.93745485365,-4.49798363454,-5.35714327879,-4.06610459415,-3.70635706005,-1.2686949386,0.103718078397,-1.9505859962,-4.21690305844,-2.22330706729,-4.21144053163,2.12899285434,-5.36119962627,-15.6850177695
off_to_on,-5.01474365517,-5.34771597926,-6.9050261337,-3.8664682399,-3.89520616953,-0.886928246004,-1.44989067398,-2.84066219096,-4.18076281236,-3.14739660307,-4.40490893172,-0.108196561923,-5.79060730886,-5.10451633385
off_to_on,-5.7557523365,-5.76978205202,-7.91274157739,-3.58931757657,-4.13163584029,-0.746374181785,-3.15031073011,-3.64295699915,-4.01269568664,-3.9137330268,-4.36956472687,-2.21038311306,-5.75629165731,5.78652284632
off_to_on,-6.09333509022,-5.71310769651,-8.35595725667,-3.25171603196,-4.37358366313,-0.815971785765,-4.82553337658,-4.26830186182,-3.71845202012,-4.43046114025,-4.09374078626,-3.97627062245,-5.24903988872,15.7606580104
off_to_on,-5.99700466269,-5.174971348,-8.26705949505,-2.86216358014,-4.55523631912,-1.02464855397,-6.28813497104,-4.63610500907,-3.3043786938,-4.62532526037,-3.58319175545,-5.25296677988,-4.30753650229,23.834591126
off_to_on,-5.47456480393,-4.20068842701,-7.72524315935,-2.42093655166,-4.59689526113,-1.27312657417,-7.35675425812,-4.68384146601,-2.77799003321,-4.45386575729,-2.86173144929,-5.94977546815,-3.01331611521,29.3858715676
off_to_on,-4.56989046384,-2.87812961618,-6.84155216387,-1.9222086573,-4.41775680425,-1.45010315872,-7.87829278854,-4.37532167343,-2.14902071827,-3.90509807094,-1.97019176154,-6.04417598272,-1.48120987391,32.2086531297
off_to_on,-3.35729199828,-1.32779833678,-5.74120567569,-1.35756594667,-3.94981527631,-1.45051627171,-7.74801359427,-3.70664269763,-1.4307131195,-3.00398111797,-0.963698053776,-5.57967414276,0.153463042212,32.5037694546
off_to_on,-1.93324741638,0.31032762431,-4.5457936515,-0.720306037091,-3.15088712731,-1.19326851432,-6.92485803574,-2.70892951296,-0.641033064219,-1.81029210487,0.0925626323694,-4.65619265401,1.74939370872,30.8080310512
off_to_on,-0.406526448749,1.89165526092,-3.35780690494,-0.00978186957814,-2.01482078516,-0.635814032229,-5.43981303465,-1.4473116998,0.196499177317,-0.413893424444,1.12872785857,-3.41453071596,3.17379048184,27.8762121661
off_to_on,1.11216069626,3.28185476626,-2.24951173723,0.764967811698,-0.577296169108,0.216587854859,-3.39598177406,-0.0160156066304,1.052630084,1.07323422101,2.07629829961,-2.01706355655,4.31529882175,24.5355271938
off_to_on,2.51988427693,4.37012480795,-1.25746348415,1.58296193863,1.08381415348,1.30843066666,-0.960037228927,1.47006985776,1.89302132871,2.52745358302,2.87422388977,-0.627200498158,5.09400302725,21.5356848864
off_to_on,3.72963241741,5.07944549111,-0.383087078608,2.41085681407,2.8538285586,2.53886873865,1.65416413572,2.88653652177,2.67977557664,3.82539081438,3.47439438067,0.60985615601,5.46758234613,19.4174968646
off_to_on,4.6761632436,5.37280476098,0.401137055272,3.20455344495,4.59191320292,3.77348020748,4.20800767701,4.11211480748,3.37375120693,4.85608354203,3.84592581514,1.58279913377,5.43317973524,18.419633125
off_to_on,5.31918406822,5.25487144259,1.14113110587,3.91272036896,6.14581227579,4.86140757311,6.46397367203,5.04141064142,3.93744683198,5.53206504234,3.9777435169,2.22465288141,5.02504754347,18.4370409506
off_to_on,5.64380429401,4.76911861809,1.88815017753,4.48182816081,7.36887294365,5.65560569186,8.21182147072,5.59621920122,4.33813403547,5.79817443024,3.87913710113,2.51699793274,4.30849997398,19.0367095927
off_to_on,5.65852135403,3.9909121512,2.68530981829,4.86205506301,8.13723698255,6.03343839883,9.2919167645,5.73403650486,4.55085882205,5.63710449905,3.57818599615,2.48784185982,3.37107576256,19.5280192097
off_to_on,5.39125341116,3.01751288752,3.55581972253,5.01327648074,8.36500085889,5.91475359996,9.61283421116,5.45269348811,4.56092851222,5.07103943331,3.11819984473,2.20379182331,2.31205923248,19.0770533091
off_to_on,4.88410199712,1.95625047058,4.49471787042,4.91031644205,8.01536671131,5.27485401386,9.16106127147,4.79048712115,4.36555273386,4.15915819479,2.55255715588,1.75785758066,1.23160505404,16.8480535464
off_to_on,4.187598233,0.912281024934,5.46534165983,4.54672227859,7.10629096491,4.15043271964,8.00160796137,3.82172454205,3.97440786858,2.99123895524,1.93852707409,1.25468703576,0.220661973955,12.1514641547
off_to_on,3.35515731599,-0.0226715552214,6.40105923386,3.93651330787,5.70982229426,2.63747387907,6.26946454811,2.64816076382,3.4090295422,1.67804270999,1.33079571168,0.795259893844,-0.647288792162,4.57719435804
off_to_on,2.43834989712,-0.779362396741,7.21202070308,3.11362331032,3.94511646177,0.881204064142,4.15299668395,1.3873252407,2.70108800643,0.339527754697,0.775469832745,0.463023610235,-1.32194246062,-5.90614859237
off_to_on,1.48341835175,-1.3169367312,7.79598326681,2.12906668109,1.96591747661,-0.940729765678,1.8713750801,0.159129606186,1.88974474795,-0.907794593292,0.305286683137,0.313168666855,-1.77892452473,-18.9006065542
off_to_on,0.529249804043,-1.62517917773,8.05171149361,1.04616497258,-0.0560028730071,-2.63973422389,-0.351126940284,-0.927625261857,1.0184045726,-1.96294193957,-0.0633785902018,0.366256270217,-2.0195380003,-33.584785448
off_to_on,-0.393202658357,-1.72301710902,7.89312377838,-0.0655696386522,-1.94944373995,-4.03960618347,-2.31076525624,-1.78720174594,0.131249051008,-2.75061291067,-0.331332830269,0.60680185613,-2.0677781068,-48.7768264275
off_to_on,-1.2602547331,-1.65362840779,7.26228372626,-1.13712147911,-3.562155081,-4.99864804608,-3.84672748903,-2.36588184062,-0.730045502905,-3.22825676821,-0.515106949615,0.986765073158,-1.9651555944,-63.0475057293
off_to_on,-2.05393320184,-1.47688199038,6.13951910224,-2.10638914513,-4.776777346,-5.42760009621,-4.85759719682,-2.64684347158,-1.52904139356,-3.38926167226,-0.643405305502,1.43328453472,-1.7640558023,-74.8701696485
off_to_on,-2.7599617199,-1.26012076683,4.5493541965,-2.92354379469,-5.52243861497,-5.30095616906,-5.30996419313,-2.65038472162,-2.23644909951,-3.26191579166,-0.751920728003,1.85949694355,-1.52045392005,-82.7896812966
off_to_on,-3.36574204334,-1.06845328796,2.56149928464,-3.55469688185,-5.78066538565,-4.6600932378,-5.23829660251,-2.42951057027,-2.83106304109,-2.90429538644,-0.877193632343,2.17695001439,-1.2868080766,-85.590372021
off_to_on,-3.85873449784,-0.955739239298,0.286771447706,-3.98349067175,-5.58498698874,-3.60773124357,-4.73632225315,-2.06148302137,-3.29971592003,-2.3957215588,-1.05033028331,2.30798758305,-1.10587082589,-82.4433326629
off_to_on,-4.22554142839,-0.957337896426,-2.13156215606,-4.21051877062,-5.01440741206,-2.29439995935,-3.94125110805,-1.63644587686,-3.63638215659,-1.82584358939,-1.29142841434,2.19655768725,-1.00601346409,-73.0160933536
off_to_on,-4.45186321624,-1.08545501185,-4.53000320535,-4.25078456446,-4.18167910966,-0.898667056183,-3.01306581315,-1.24460412237,-3.84067446861,-1.28270003546,-1.60548116942,1.81614953505,-0.998467543179,-57.532376313
off_to_on,-4.52334873054,-1.32760179729,-6.73921690964,-4.12966963896,-3.21794394383,0.396271580829,-2.11169970489,-0.96361745655,-3.91605000804,-0.841241283873,-1.98035034585,1.17396182087,-1.07667606614,-36.7754991079
off_to_on,-4.42722100948,-1.64830754296,-8.59903374983,-3.87807448308,-2.25572804534,1.42653849062,-1.37513766555,-0.847834966738,-3.86806362802,-0.55374998089,-2.38713861265,0.310887479679,-1.21773378118,-12.0353772009
off_to_on,-4.15444185232,-1.99384688252,-9.97250337196,-3.52748376922,-1.41243986885,2.06887448934,-0.901292340457,-0.920757820207,-3.7029736353,-0.443371164324,-2.78298047766,-0.702592869668,-1.38569915146,14.9948582422
off_to_on,-3.70209836986,-2.29939523034,-10.7576366023,-3.10568687794,-0.776408367433,2.25645483135,-0.735956439634,-1.1717003395,-3.42692579564,-0.501586177269,-3.11595311903,-1.77404477941,-1.53639336921,42.3615328167
off_to_on,-3.0756571417,-2.49774828686,-10.8957989342,-2.63375614344,-0.397131153267,1.98711566858,-0.868289108898,-1.55708075016,-3.04582759488,-0.689977020859,-3.33152254703,-2.79929214628,-1.62317360718,68.0177135119
off_to_on,-2.29073840197,-2.52856234124,-10.3761287877,-2.12467111129,-0.280833287818,1.32290149381,-1.23427558384,-2.0061804543,-2.56589512454,-0.946088640661,-3.379726043,-3.67399821224,-1.60308450573,89.9986182725
off_to_on,-1.37410949374,-2.34700925806,-9.23578811507,-1.58370985083,-0.391743261866,0.38100927884,-1.72754065005,-2.43064049692,-1.99473004834,-1.19267140854,-3.22217774195,-4.30529076768,-1.44275698172,106.588669092
off_to_on,-0.363675818506,-1.93079919393,-7.55625786072,-1.0104483783,-0.658765164956,-0.682639515465,-2.21593687158,-2.73648814841,-1.34268362229,-1.34914031505,-2.8379870234,-4.62214063668,-1.12343818321,116.465351064
off_to_on,0.692651402625,-1.28469849806,-5.45622445969,-0.401958261281,-0.986558211787,-1.69497868328,-2.5615917683,-2.83716478306,-0.624204498241,-1.34377851659,-2.22780025072,-4.58337244973,-0.644600597322,118.807976639
off_to_on,1.7392187796,-0.441941610871,-3.08184035519,0.243392509323,-1.26950958023,-2.48961955389,-2.64167642961,-2.66589794617,0.141143444646,-1.12508283365,-1.4154009678,-4.18246717514,-0.0256900601206,113.363238175
off_to_on,2.71592040285,0.537723873918,-0.595273355279,0.922222401703,-1.40676608186,-2.92971121919,-2.36710090899,-2.18584025912,0.928265929378,-0.670718479716,-0.446603721037,-3.44867218741,0.694272436164,100.463587913
off_to_on,3.56230216738,1.57324541161,1.83750571648,1.62317633869,-1.31640859019,-2.92677168094,-1.69665013962,-1.39667383843,1.70691201148,0.00718359804352,0.6144861564,-2.44432750524,1.45932896779,80.9985753056
off_to_on,4.22217859989,2.57024359708,4.05879094606,2.32527957686,-0.947012906338,-2.45297385678,-0.64470141804,-0.336814966079,2.44290427829,0.861218707164,1.69144369792,-1.25870656829,2.20134061466,56.3429465122
off_to_on,4.64839014011,3.43095036568,5.93025498431,2.9979607492,-0.28521360419,-1.5452590254,0.718476434845,0.919105869172,3.10016030528,1.81266808547,2.70304182084,0.000979910097032,2.84651347136,28.2483338786
off_to_on,4.80728474038,4.06504984135,7.34242313657,3.60284336875,0.641580853864,-0.300755150688,2.27386676593,2.26723657787,3.64331356021,2.75989816194,3.57143500217,1.22048840824,3.32313258048,-1.29238339042
off_to_on,4.68249342736,4.40022380691,8.22195613211,4.09713283259,1.76755503237,1.13585185785,3.86735262405,3.58517465101,4.04064090217,3.59028667676,4.23004446342,2.2902396598,3.56976095992,-30.1974989304
off_to_on,4.27758857718,4.39118889906,8.5363217568,4.43817777552,2.99554394831,2.59126834101,5.32810126807,4.74508123859,4.26694384177,4.19427454398,4.63021773518,3.11661270857,3.54303807323,-56.4543973551
off_to_on,3.61726870022,4.02612996573,8.29556476007,4.58859703236,4.2078358957,3.88629992459,6.4893302888,5.62771348822,4.30602112138,4.47981499678,4.74588974639,3.63167312387,3.22416909381,-78.2716056178
off_to_on,2.7468056375,3.32967680846,7.55101767695,4.52126388519,5.2793584539,4.859262629,7.20882145249,6.13574668392,4.15241266735,4.38537208732,4.57572315644,3.80031478794,2.62324959845,-94.2140998582
off_to_on,1.72961791549,2.3619196484,6.39094323782,4.22344205117,6.09164996608,5.38697201663,7.38660903958,6.20484836534,3.81218347814,3.88973139278,4.14251959467,3.62403499497,1.78072738036,-103.311996808
off_to_on,0.642992757957,1.21337982264,4.93327183356,3.69947234411,6.54598511944,5.40053315459,6.97765450782,5.81123735276,3.30263761349,3.01722106818,3.49002983718,3.14088210427,0.765559593694,-105.134269486
off_to_on,-0.42784033104,-0.00369551781207,3.31579916777,2.97159967909,6.5741855144,4.8938748451,5.99797296079,4.9748758162,2.65098935348,1.83746704429,2.67760623059,2.42148806094,-0.33003822613,-99.8211521543
off_to_on,-1.39689347646,-1.16691051408,1.68443405009,2.07877928009,6.14597434385,3.92396365429,4.52351063227,3.7579502376,1.89215087185,0.459462901834,1.77339460081,1.56149358158,-1.39896542846,-88.071451438
off_to_on,-2.18529377031,-2.15699601191,0.180316819481,1.07357260566,5.2721797351,2.60276011604,2.68197736681,2.25883578056,1.06590435481,-0.979555177601,0.846923723103,0.671056610842,-2.33004757449,-71.0840387306
off_to_on,-2.72913338342,-2.87135198195,-1.07316331637,0.0174987805632,4.00359360386,1.08208719851,0.638698797353,0.602244763369,0.21379606439,-2.32926246611,-0.0380009353552,-0.137532039939,-3.02024286488,-50.4562761022
off_to_on,-2.98649425097,-3.23631552423,-1.98227463931,-1.02458981868,2.42578848399,-0.466480339116,-1.42173678078,-1.07332409319,-0.623888942506,-3.44370806998,-0.829260191445,-0.762853858692,-3.38693147803,-28.0458433596
off_to_on,-2.94283097812,-3.21667273904,-2.49254281343,-1.99041676165,0.650625198062,-1.87395341053,-3.31578643399,-2.62943859211,-1.41074187812,-4.19900536244,-1.49057470463,-1.12658484695,-3.37884014114,-5.80610488308
off_to_on,-2.61397159125,-2.82116672403,-2.59488972171,-2.82575859848,-1.19449706657,-2.995476243,-4.88077721262,-3.9413745114,-2.1161794906,-4.50905836641,-2.00343629,-1.18353851848,-2.98418432297,14.3915911619
off_to_on,-2.04616767786,-2.1031469243,-2.32737956731,-3.48884543057,-2.97841917562,-3.72821447247,-5.99192387983,-4.91008748714,-2.71657863728,-4.33729126077,-2.36670311111,-0.92829112638,-2.23481960027,30.9328775526
off_to_on,-1.31288757365,-1.15602211946,-1.77201057244,-3.95319974862,-4.57777350746,-4.02324780174,-6.57461087799,-5.47127333901,-3.19556986388,-3.70276859927,-2.59404942991,-0.397454619328,-1.20557334321,42.6156475876
off_to_on,-0.508379941207,-0.103768415023,-1.04648460252,-4.20864940257,-5.88716870044,-3.88997522266,-6.61062730083,-5.60062210049,-3.54358336627,-2.67973213598,-2.70973085174,0.332907185694,-0.00844580704623,48.7691709808
off_to_on,0.261590784696,0.912659763341,-0.291458881158,-4.26050112516,-6.82710013802,-3.39257645363,-6.13780184914,-5.31480636721,-3.7568395034,-1.39036403914,-2.74332751471,1.15470470962,1.21802752157,49.3228606453
off_to_on,0.891062317722,1.75163368195,0.345631735242,-4.12710483754,-7.34899002876,-2.63915747812,-5.24328660398,-4.66821683622,-3.83603957413,0.00857754180448,-2.72423586269,1.93951963379,2.32334269197,44.8146228969
off_to_on,1.28614580605,2.28808385326,0.728573792683,-3.8362416707,-7.43710825799,-1.76519268607,-4.05148507572,-3.74591388623,-3.78503225591,1.3438193377,-2.67668283965,2.55346787096,3.16205883791,36.3344268091
off_to_on,1.37692073217,2.4296618281,0.75021091003,-3.42090266396,-7.10746516737,-0.91362820175,-2.70822280553,-2.65365459645,-3.60970531692,2.44626515401,-2.61593702683,2.87367782821,3.61141513263,25.4055302421
off_to_on,1.1275304511,2.12983921775,0.34796602696,-2.91507350712,-6.40406227783,-0.214430911392,-1.36315001838,-1.50613984521,-3.3172864819,3.17185663249,-2.54620534474,2.80453608584,3.58744294829,13.8129994434
off_to_on,0.543126825133,1.39620305226,-0.485007911371,-2.35009939415,-5.39310857104,0.233597590565,-0.152505909689,-0.41477937806,-2.91614336974,3.42003626462,-2.46045838966,2.29175217387,3.05751924531,3.39591071718
off_to_on,-0.327441798287,0.292681795667,-1.69474280331,-1.75208211895,-4.15594223047,0.376273249603,0.815744541304,0.523717312158,-2.41606621363,3.14745961852,-2.34215633753,1.33241903166,2.04760414456,-4.17496256537
off_to_on,-1.39389715518,-1.06490676929,-3.168514986,-1.14057954107,-2.78143730861,0.210961694253,1.4727439298,1.2367452949,-1.82891633241,2.37511727959,-2.16858712229,-0.0204009074221,0.642943684406,-7.60890985866
off_to_on,-2.53191521804,-2.51982478974,-4.74432214716,-0.528664255806,-1.35862967863,-0.213878681075,1.79442601748,1.68227337916,-1.16944467221,1.1877857641,-1.91531331651,-1.65947752655,-1.01825464195,-6.17092457095
off_to_on,-3.5951847152,-3.89094438126,-6.22714225847,0.0758137387188,0.0298162569266,-0.80638785319,1.80157972462,1.85178569226,-0.45604112096,-0.274357105164,-1.56108095731,-3.43180958957,-2.75783164765,0.201757262455
off_to_on,-4.431089779,-4.99315736986,-7.41044254437,0.668094959961,1.31283699577,-1.4450855805,1.55450502531,1.7694917261,0.288826053972,-1.83115349998,-1.09248936156,-5.15304255993,-4.37618765291,10.8596050592
off_to_on,-4.89843629377,-5.65942295874,-8.10064089465,1.24396455797,2.43461228115,-1.99677920143,1.14310306357,1.48799815915,1.03867996739,-3.28323372205,-0.507760490342,-6.62657194334,-5.67436900421,24.4864603783
off_to_on,-4.88526283196,-5.76189361356,-8.14169866475,1.79729465213,3.35651628117,-2.33609265388,0.673750845037,1.0810007405,1.76373583997,-4.43573652235,0.180928010181,-7.66534875046,-6.47726180588,39.230286554
off_to_on,-4.32461129764,-5.22953733064,-7.43682843434,2.31814399008,4.0574339892,-2.36391877713,0.254641480054,0.63385130347,2.43225292683,-5.12216166135,0.946888990206,-8.11395929885,-6.65516318666,52.907911646
off_to_on,-3.20621821904,-4.05996712501,-5.96448013166,2.79177906768,4.53262893941,-2.02227391824,-0.0186072726603,0.23305595062,3.01244857243,-5.22544940961,1.75026052753,-7.86837926912,-6.14106716446,63.2629240356
off_to_on,-1.58243389596,-2.32377654221,-3.7863232245,3.19882172236,4.79144139762,-1.30355096051,-0.0753661529118,-0.0441514117185,3.47478569222,-4.6936551625,2.54109555836,-6.89094001901,-4.94140482109,68.2481203021
off_to_on,0.432741241004,-0.160505479659,-1.04582002238,3.51654047167,4.85415225408,-0.252948541684,0.120993000096,-0.139046058141,3.79437115288,-3.54819353872,3.26385172775,-5.21849437726,-3.13868132275,66.2992512234
off_to_on,2.67185288226,2.23366722108,2.04291229193,3.72111572709,4.74837063225,1.0362100537,0.568465738849,-0.0184877636507,3.95316664755,-1.88349636815,3.86275514136,-2.96249010185,-0.885378921117,56.5660441373
off_to_on,4.92891665317,4.62540311171,5.21505871588,3.7905508773,4.50529870201,2.43359474179,1.22660644003,0.320900686502,3.94172205023,0.142040988596,4.28740959072,-0.30057512917,1.61046335353,39.0699196409
off_to_on,6.97971815005,6.76884042347,8.18185593353,3.70779547939,4.15620175826,3.7878959364,2.02141421068,0.851880144216,3.76019334894,2.32288677556,4.49800077652,2.5396365061,4.1065542416,14.765260155
off_to_on,8.60540831204,8.43266798432,10.6611843588,3.4636083666,3.72937073367,4.94560063033,2.85424884151,1.51914993027,3.41849577681,4.42907068832,4.46950304703,5.30303877433,6.35221628473,-14.5082106854
off_to_on,9.61680009473,9.42651950794,12.4084699319,3.05872186243,3.2478116333,5.77002530751,3.61366986148,2.24504414276,2.93555469526,6.23210714433,4.19442409968,7.73333703608,8.11586896914,-46.1816137781
off_to_on,9.87655303326,9.62354184714,13.2442093612,2.5049670773,2.72783376279,6.15812348732,4.1887885766,2.93778243147,2.33773547181,7.53107467449,3.68380252372,9.6002272375,9.21091248157,-77.2080355407
off_to_on,9.31655020054,8.97634854766,13.07474323,1.82516838611,2.17863671375,6.05292812312,4.48258745056,3.50142792593,1.65664127519,8.17573411167,2.96637996392,10.7243028945,9.51691769203,-104.382769298
off_to_on,7.94822931721,7.52428419092,11.9036505647,1.0517895547,1.6029153616,5.45011053072,4.42370177932,3.84652934157,0.926548254443,8.08390655933,2.0860777621,10.9967327807,8.99353919866,-124.697386073
off_to_on,5.86438445954,5.39091841054,9.83224101021,0.224488138976,0.998414197661,4.39794741086,3.97536406489,3.90034984341,0.181788975831,7.25101792445,1.09809205115,10.391317055,7.6854127266,-135.686878784
off_to_on,3.23192446834,2.77184537982,7.04894207611,-0.613117053729,0.360270857332,2.99087153182,3.14055305127,3.61561911487,-0.545608764886,5.75066642344,0.064060561495,8.96740735661,5.71737522061,-135.728505017
off_to_on,0.276144742807,-0.0859557541422,3.80875163379,-1.41705969804,-0.316099882489,1.35761796179,1.96282480864,2.97688423183,-1.22776867834,3.72616467424,-0.953165392407,6.8632632548,3.28052234469,-124.255422511
off_to_on,-2.74189133388,-2.91088996693,0.405171741826,-2.14657498714,-1.03190711455,-0.354345905337,0.522782028392,2.00376644125,-1.84212386988,1.37411088872,-1.89459537898,4.28057884086,0.610744773881,-101.857364737
off_to_on,-5.5523896859,-5.43654402269,-2.86200629652,-2.76716284401,-1.78204954928,-1.99598941148,-1.06939315273,0.750733011689,-2.37181957582,-1.077985539,-2.70952074716,1.46200109175,-2.03768374601,-70.2534258327
off_to_on,-7.90521542746,-7.43099022205,-5.71916348744,-3.25282810913,-2.55274667673,-3.43323946008,-2.68450765077,-0.696662787053,-2.8054091768,-3.39728366802,-3.3588839417,-1.33566630146,-4.42027944083,-32.1370013892
off_to_on,-9.59634000231,-8.72208477317,-7.94762397821,-3.58728914221,-3.32011470382,-4.56078291037,-4.18688294623,-2.22876797809,-3.13599557848,-5.37128720024,-3.81733848424,-3.86934071209,-6.32888143207,9.0917623948
off_to_on,-10.4892258826,-9.21570132083,-9.4052699396,-3.76409887172,-4.04999799552,-5.3115307695,-5.44751385876,-3.72141021591,-3.36004671589,-6.83053357026,-4.07390142422,-5.93525604942,-7.61336050232,49.6769336067
off_to_on,-10.5285977005,-8.90468461012,-10.0384571048,-3.7857751845,-4.69925140742,-5.6607772097,-6.35650138904,-5.04717187879,-3.47615194252,-7.66562619003,-4.13125898164,-7.38921185436,-8.19594293027,85.9016982653
off_to_on,-9.7449467534,-7.86744549933,-9.8829405839,-3.66216771232,-5.21851417966,-5.62484463712,-6.83350766817,-6.08727567259,-3.48397980524,-7.83668792871,-4.00392597619,-8.15910808359,-8.07653896249,114.482009966
off_to_on,-8.24923531626,-6.25640565195,-9.05394053654,-3.40837682179,-5.55633609831,-5.25476085638,-6.83521487395,-6.74292320172,-3.38364851424,-7.37429719401,-3.71556569901,-8.24840186401,-7.32861993409,132.913532672
off_to_on,-6.21846854648,-4.27777462829,-7.72687609446,-3.04257621252,-5.66433129881,-4.62616079928,-6.35910176989,-6.94496666786,-3.17563636009,-6.37205767958,-3.29583950535,-7.7303038721,-6.08639567653,139.731712852
off_to_on,-3.87393165233,-2.16523856738,-6.11148702481,-2.58406983721,-5.50286788014,-3.82705675689,-5.44324363947,-6.6609454841,-2.8612539708,-4.97200637253,-2.77717084208,-6.73373394873,-4.52514577898,134.655041334
off_to_on,-1.45480141887,-0.150913269148,-4.42288647203,-2.05184257497,-5.04667653353,-2.94532120151,-4.16225133601,-5.89877049759,-2.44359059914,-3.34494458361,-2.19177876433,-5.42311688883,-2.83740900088,118.595476782
off_to_on,0.809586777055,1.56273972597,-2.85343426879,-1.4637556251,-4.28969995187,-2.05765611579,-2.61985016834,-4.70666456994,-1.92875031955,-1.66837003994,-1.56926842442,-3.97487626536,-1.20822230594,93.5358766948
off_to_on,2.72538086246,2.82646774466,-1.54914286118,-0.836410758999,-3.24852192211,-1.22150234998,-0.93892071566,-3.16933708623,-1.327126844,-0.104919725483,-0.934971519449,-2.55387039022,0.207339188442,62.2901366493
off_to_on,4.15461453747,3.56028404384,-0.593652182845,-0.185583514147,-1.96381668199,-0.470827182427,0.749949359639,-1.40074409942,-0.654438947282,1.21592285184,-0.309121421762,-1.29295654318,1.30144385788,28.1755920104
off_to_on,5.02791693907,3.76004869186,-0.00172925696186,0.472975781569,-0.499440477077,0.183900416595,2.32024084823,0.465873402114,0.067732696614,2.21061989045,0.293160698562,-0.278374743832,2.02348438759,-5.3626375471
off_to_on,5.34809015768,3.49384829227,0.277088180606,1.12263671437,1.06096776708,0.751883767823,3.66045356925,2.28970895752,0.812104104186,2.84743971457,0.861188563598,0.457221439128,2.3816675302,-35.1305270757
off_to_on,5.18431628434,2.88880293246,0.345493125254,1.7451572006,2.61972711794,1.25522754468,4.68320566794,3.93473008112,1.54664172269,3.14493345985,1.38753591319,0.933372402151,2.43629008506,-58.5228393169
off_to_on,4.65798529009,2.11020203229,0.338131372606,2.32036865469,4.07275997454,1.72053772556,5.33168082739,5.2814432165,2.23629349623,3.16359489647,1.86660257734,1.21255004545,2.28592101324,-73.7811102659
off_to_on,3.92222965624,1.33589286249,0.397107565024,2.82644329332,5.31845001676,2.17040348818,5.58292076486,6.23695627988,2.84535913282,2.99218911628,2.29317309675,1.3846469686,2.04867077397,-80.1439471338
off_to_on,3.13806452102,0.729477161847,0.646892498617,3.24080202254,6.26683179888,2.61622980419,5.44779775035,6.74239384684,3.34025677277,2.73093030855,2.66120165043,1.54773204386,1.84137727821,-77.8754531778
off_to_on,2.45045335523,0.416024485175,1.17229423092,3.54160309721,6.84813687573,3.05362252225,4.96784201143,6.77699979253,3.69237047685,2.47406648856,2.96301242929,1.78811513426,1.7597852829,-68.1728429959
off_to_on,1.96759123281,0.463661502781,2.002688103,3.70964172097,7.01973965,3.46108194617,4.20940628924,6.35860839741,3.88063372792,2.29444180621,3.18903990618,2.16284930824,1.86261020664,-52.9690556676
off_to_on,1.74622360209,0.873588282739,3.10478801243,3.73040698585,6.77068093751,3.80220779078,3.25589365196,5.54053983315,3.89352372489,2.23225782019,3.32815704244,2.6874269938,2.16178605423,-34.6585493502
off_to_on,1.78496177079,1.57991233583,4.38501239108,3.59599866371,6.12318772199,4.03104398782,2.19893190236,4.40533861314,3.73020763678,2.28959699949,3.36856034535,3.33064738223,2.62028463084,-15.7829473396
off_to_on,2.0264332711,2.45933468874,5.70112640641,3.30660949647,5.13092866249,4.099683794,1.12943549866,3.05608456944,3.40068616667,2.43140048088,3.29910757587,4.01755526987,3.15778850293,1.28318591911
off_to_on,2.36786903834,3.34935362876,6.88151953311,2.87132838022,3.8741100284,3.96689032313,0.129451944954,1.60623176038,2.92490703858,2.59263268568,3.11094443773,4.64012979143,3.66335903374,14.6077632689
off_to_on,2.67854932797,4.07245863749,7.74939002784,2.30810840516,2.45188207221,3.60631878871,-0.734446768682,0.169047885949,2.33095313506,2.69045430871,2.79921665566,5.07421132698,4.01322417581,22.9055737148
off_to_on,2.82156899019,4.4629347459,8.14840683184,1.64285723578,0.972845908649,3.0129780457,-1.41567702065,-1.1522755893,1.65252793819,2.63949145825,2.36464720277,5.20017032651,4.09106199882,25.6497898259
off_to_on,2.67677325665,4.39250620259,7.966202307,0.90772812561,-0.455315527614,2.20683083874,-1.88976727602,-2.27289131185,0.926047656613,2.36783582338,1.81476639685,4.92418987076,3.80778107279,23.0814736438
off_to_on,2.1615428214,3.79117578968,7.15234517279,0.138799321074,-1.73594340987,1.23286342503,-2.15407325433,-3.1322095462,0.187692526328,1.83130216394,1.16461406359,4.19685287423,3.11785125202,16.1214142748
off_to_on,1.24639703304,2.66024927075,5.72820922121,-0.626588939938,-2.79212664568,0.157489859358,-2.22532471585,-3.69701596275,-0.529236739225,1.02371983301,0.436784617057,3.02602986497,2.02971150124,6.20097641457
off_to_on,-0.0369020197254,1.07559037826,3.78728118609,-1.35252926701,-3.57307957408,-0.938286842867,-2.13546080596,-3.96167957104,-1.19636616663,-0.018391675078,-0.339247538016,1.48181965803,0.608609328584,-4.96169249728
off_to_on,-1.59602115118,-0.819511633567,1.48578149245,-2.00696761716,-4.05748443443,-1.96803907091,-1.92636249632,-3.94566067113,-1.79150283454,-1.21759880334,-1.12851014217,-0.307597348331,-1.02870679485,-15.6079346564
off_to_on,-3.28755581953,-2.83104472075,-0.975182420718,-2.56359186871,-4.25346994327,-2.85012731063,-1.64416316812,-3.68881145307,-2.299019822,-2.46367779026,-1.89253527886,-2.16902791146,-2.72686476782,-24.1738386375
off_to_on,-4.93417150262,-4.73839380437,-3.3735373958,-3.00301525026,-4.19530020105,-3.51751377394,-1.33380769538,-3.24517139105,-2.70942294165,-3.62705156092,-2.59182597564,-3.90477195101,-4.31065646895,-29.4841406719
off_to_on,-6.34711870573,-6.322672846,-5.4930109287,-3.31318770379,-3.93724317567,-3.92577408501,-1.03444241909,-2.67607381265,-3.01826649848,-4.57571534471,-3.18857773471,-5.31793798835,-5.60722041089,-30.8814810387
off_to_on,-7.35108019708,-7.39544576053,-7.1491284344,-3.48907948746,-3.54542543931,-4.0581566717,-0.776068071962,-2.04338950034,-3.22467273986,-5.19329154981,-3.6494120196,-6.23914237636,-6.46859626566,-28.2775748565
off_to_on,-7.80795259722,-7.82391601712,-8.21094650505,-3.53178007155,-3.08871679932,-3.92696258962,-0.57769685495,-1.40364195136,-3.32975568844,-5.39565110947,-3.94786958832,-6.55083730507,-6.79154079318,-22.1240676288
off_to_on,-7.63627636992,-7.54910821575,-8.61563142418,-3.44722661312,-2.62979461251,-3.57104954357,-0.447049343601,-0.803553771271,-3.33524826321,-5.14369795025,-4.06642842855,-6.20571069162,-6.53184203165,-13.3118497878
off_to_on,-6.82359532193,-6.59449183894,-8.37399434722,-3.2448097013,-2.21749915211,-3.04982449289,-0.38163326578,-0.27735165249,-3.24258284062,-4.45041534942,-3.99785284962,-5.23631203013,-5.71110363006,-3.0169158917
off_to_on,-5.42997253202,-5.06378371949,-7.56635247476,-2.93609563484,-1.88141316637,-2.43459687316,-0.37088831489,0.154098000471,-3.05258764474,-3.38104941254,-3.74574321381,-3.75419440497,-4.41499257615,7.4827281964
off_to_on,-3.58208505312,-3.1281366853,-6.32942198407,-2.53385705933,-1.62930349642,-1.79854455082,-0.398977273029,0.482494166945,-2.7658484279,-2.04624857451,-3.32423356687,-1.93827445744,-2.7831096822,16.9918452812
off_to_on,-1.45860060167,-1.0043755175,-4.83617625325,-2.05152646513,-1.44768820259,-1.20674145885,-0.447764209661,0.71001755188,-2.38366444276,-0.588957853424,-2.75686887132,-0.0136073601069,-0.991790942465,24.5582974294
off_to_on,0.731270743336,1.07282323022,-3.27155122606,-1.5030936518,-1.30538721137,-0.707680754482,-0.499546813257,0.846458658881,-1.90941846128,0.833254161178,-2.0747754043,1.77685486801,0.767880618086,29.5874997305
off_to_on,2.77322246163,2.88106617161,-1.80741812343,-0.903375026412,-1.15953015578,-0.327502732774,-0.539194507884,0.906104616786,-1.35009959598,2.06810228136,-1.31430786077,3.20390078672,2.31391403608,31.8970685302
off_to_on,4.47391833004,4.23861663002,-0.580299961217,-0.268505469016,-0.96318114489,-0.0677357324513,-0.555471726773,0.90489314138,-0.717677670659,2.98805373806,-0.51440658172,4.08289215032,3.49590729213,31.7068764346
off_to_on,5.6842151298,5.02715556448,0.325121587371,0.383544466043,-0.673536741954,0.0931602619083,-0.541475955111,0.858228911844,-0.0300354092197,3.50671466244,0.286077987835,4.29957605407,4.2131940935,29.5691762767
off_to_on,6.31646261359,5.2058357588,0.884514436932,1.03263398404,-0.259586092,0.194717756004,-0.49426984343,0.779691472017,0.688780888822,3.58988150105,1.05084211762,3.82722539372,4.42623199198,26.251886434
off_to_on,6.35360959343,4.81472292036,1.13337617629,1.65647984693,0.291801180014,0.28664392403,-0.413913563125,0.680673274242,1.40913798803,3.25970993799,1.74814987675,2.73253552015,4.15975326688,22.5943999691
off_to_on,5.84896295529,3.96717393186,1.15772951675,2.23116384011,0.972183776345,0.419454860732,-0.30218929324,0.570803375315,2.09724649552,2.5913769998,2.35226077101,1.16916158953,3.49733136542,19.3585890126
off_to_on,4.91672071547,2.83222780883,1.07751742511,2.73215117079,1.75076357962,0.634984696137,-0.161342453803,0.458866423176,2.71734574422,1.7026276924,2.8441830078,-0.640576346638,2.56819131094,17.0976611054
off_to_on,3.71465527949,1.60946808042,1.02520348206,3.13575594754,2.57663696004,0.958212877332,0.00685967484401,0.353841395892,3.23442683951,0.737567169556,3.21175598247,-2.43368546574,1.52814940996,16.0622967946
off_to_on,2.42138594329,0.499863946759,1.122743204,3.42090187043,3.38381959884,1.39166225905,0.201527088445,0.265673534171,3.6171902519,-0.153149679953,3.44914683548,-3.94070046658,0.537359738078,16.1576102617
off_to_on,1.21140417448,-0.323335420784,1.46030151897,3.57096042757,4.09842496964,1.91324655369,0.422393924741,0.205457404991,3.84088805928,-0.833075903872,3.55591314381,-4.92169132154,-0.262036605559,16.9568296121
off_to_on,0.231302046824,-0.739574802205,2.0798243979,3.57541679018,4.64710177765,2.47794250597,0.668938181096,0.184838018333,3.88970315493,-1.19887585094,3.53582789782,-5.19933947663,-0.765275217337,17.7693059664
off_to_on,-0.419535262238,-0.698318435546,2.96586978769,3.43112128903,4.96567747002,3.02310285631,0.939032906616,0.21460858046,3.75836843519,-1.19480487204,3.39567781991,-4.68463364774,-0.918699405475,17.7526973927
off_to_on,-0.701150483885,-0.226263745888,4.04506597844,3.1429314036,5.00693250419,3.47669174699,1.22739738958,0.302668499904,3.45282107051,-0.820776537377,3.14422972972,-3.39162576064,-0.726015548169,16.0529906988
off_to_on,-0.63652454305,0.576618999208,5.19434162739,2.72362868057,4.74654472245,3.76729200918,1.52418448178,0.451671367784,2.9898073475,-0.132880017241,2.79151440254,-1.43906570695,-0.246283620861,11.9522249056
off_to_on,-0.305970924123,1.55172698186,6.25683287273,2.19309460487,4.18647851384,3.83446618133,1.81405298621,0.656809580568,2.39548510127,0.763781444323,2.34850979867,0.961577211104,0.415988943159,5.00281604794
off_to_on,0.166720234881,2.50515409663,7.06329182443,1.57683343167,3.35541765875,3.63798875386,2.07602752951,0.904226761073,1.70319479553,1.72903027894,1.82722569778,3.53041938254,1.12718226418,-4.87069564228
off_to_on,0.634375820324,3.23648865542,7.45604620332,0.904021722863,2.30621102657,3.16461528239,2.28434704277,1.17050872327,0.950669466425,2.60651888145,1.24111178772,5.95287479024,1.74497069513,-17.317189146
off_to_on,0.949893992802,3.56906847176,7.31219699929,0.205329012879,1.11066851328,2.43139335808,2.41035989548,1.42357921423,0.177014441774,3.24511095959,0.605643647053,7.91858508238,2.13988736292,-31.5601693351
off_to_on,0.989717969756,3.37744252049,6.56283662603,-0.489218895387,-0.147636309766,1.4850022533,2.42535871393,1.62513249855,-0.58019784436,3.51990812518,-0.0611031301394,9.16064570168,2.21498473094,-46.4556897898
off_to_on,0.673988303971,2.60813555263,5.20560716107,-1.15207756549,-1.38167033355,0.397163343974,2.30408493463,1.7344974578,-1.28740548147,3.35012100349,-0.738093331844,9.49010906875,1.92080849513,-60.6007342774
off_to_on,-0.0195047855862,1.290701373,3.30881914071,-1.75952096803,-2.50935204282,-0.743287206842,2.02849691568,1.713582114,-1.9168689073,2.71138643078,-1.40136800156,8.82130267021,1.26356767334,-72.4794447163
off_to_on,-1.04958733219,-0.462637811258,1.00648913725,-2.29236236113,-3.46108535975,-1.84060678389,1.59130785564,1.53233165027,-2.44768239813,1.64085211245,-2.02460227404,7.1846410415,0.305341463653,-80.6299637576
off_to_on,-2.3150659708,-2.46891292202,-1.51512883723,-2.73604648355,-4.18557137039,-2.80326378165,0.998776683533,1.17398313425,-2.86596800394,0.234291722194,-2.58023147473,4.72518901927,-0.843720931248,-83.8122932157
off_to_on,-3.66681214414,-4.49645041787,-4.03781367627,-3.08020373976,-4.65329565771,-3.55447138622,0.272283777394,0.639344446654,-3.16434803835,-1.36444786983,-3.04109725757,1.68704412805,-2.04013322425,-81.1576577917
off_to_on,-4.92698142895,-6.29419487809,-6.33585499364,-3.31784329988,-4.85740081923,-4.0407344398,-0.551658733627,-0.0506209204349,-3.34088502093,-2.98036667663,-3.38247087466,-1.61458740965,-3.12669777224,-72.2822857193
off_to_on,-5.91279485951,-7.62444918458,-8.20161078072,-3.44441675954,-4.81199280329,-4.23729228776,-1.42313763472,-0.854457274457,-3.39773711892,-4.42847026079,-3.58423080409,-4.83017921925,-3.95430391706,-57.3528656991
off_to_on,-6.46167298068,-8.29466768365,-9.46890686334,-3.45699764736,-4.5482512219,-4.14978130058,-2.2822751564,-1.71242412628,-3.3397949279,-5.5364883782,-3.63292041144,-7.6169716645,-4.40287657692,-37.096589471
off_to_on,-6.45431494355,-8.18402556583,-10.0313603112,-3.35379171959,-4.10897633025,-3.81197246527,-3.06411629577,-2.55122182298,-3.17354060453,-6.1662735766,-3.52339798094,-9.67925438917,-4.39856858328,-12.7548995577
off_to_on,-5.83257939074,-7.26115491782,-9.8534088138,-3.13412298346,-3.54237608759,-3.27998573903,-3.70451152364,-3.29086658027,-2.9063081962,-6.23117074947,-3.25982091408,-10.8028605766,-3.92480615891,14.0139241019
off_to_on,-4.60971296229,-5.59059482344,-8.9728061826,-2.79894178198,-2.89595560436,-2.62386588844,-4.14638619006,-3.85302866237,-2.54603541153,-5.70716715424,-2.85577645467,-10.879644186,-3.02563990892,41.273059248
off_to_on,-2.87149022246,-3.32699312298,-7.49446374409,-2.3517901375,-2.21131348275,-1.91775606854,-4.3457038025,-4.16990171829,-2.10149683485,-4.63642837555,-2.33347489244,-9.91900111854,-1.80090629335,66.9722726028
off_to_on,-0.768035959997,-0.697719371582,-5.57662572256,-1.80005452804,-1.52048575795,-1.23007656283,-4.27642904353,-4.19253552563,-1.58291305352,-3.12279380274,-1.72204426806,-8.04514849048,-0.393821375822,89.1237561743
off_to_on,1.50266697298,2.02391696949,-3.41131638706,-1.15625558936,-0.844232873786,-0.61508430279,-3.93388118284,-3.89756338599,-1.00275470893,-1.31981898306,-1.05509087409,-5.48067606043,1.0273433818,105.972207788
off_to_on,3.71748973182,4.55140866908,-1.2016657276,-0.439082757405,-0.192373281226,-0.106960746273,-3.33603159858,-3.29139635128,-0.376517128143,0.587118943628,-0.367798733865,-2.51859662646,2.29105404654,116.1439892
off_to_on,5.65418936842,6.61953842368,0.860971978676,0.326111414408,0.434030682656,0.282813677025,-2.52252236318,-2.41122723244,0.276763197799,2.40241042003,0.306083410166,0.513471779203,3.24486289864,118.762815835
off_to_on,7.11744542519,8.01617997304,2.61727568059,1.10758610204,1.0390923662,0.564533191271,-1.55144007479,-1.32255750591,0.934443779475,3.94282139247,0.936990309725,3.29243662032,3.77533231828,113.522978006
off_to_on,7.96161224101,8.60735213543,3.95521022049,1.86838538023,1.62777701657,0.766047021732,-0.494139293734,-0.113384556065,1.57078713269,5.05835375163,1.5016709474,5.53729162298,3.82288773425,100.715124482
off_to_on,8.10735571812,8.35237215124,4.81863724859,2.56840958028,2.20158383967,0.925984066432,0.571358890693,1.11438911281,2.15807939717,5.64885054043,1.98442623604,7.04052397274,3.38964106412,81.2037382672
off_to_on,7.55016521893,7.30727113886,5.2085753643,3.16724470602,2.75497329043,1.08552429162,1.56769431708,2.25539517071,2.66828738115,5.67440628823,2.3772989798,7.68966039231,2.53917058603,56.3592529335
off_to_on,6.35980210885,5.61618048144,5.17738131153,3.6274804536,3.27316357678,1.280017876,2.42542893934,3.21189659075,3.0750912688,5.15844254458,2.67921022359,7.47657305343,1.38831479292,27.9510438173
off_to_on,4.67091966257,3.49196444371,4.8170247289,3.91814931429,3.73171584462,1.53175808121,3.08944827993,3.90423519628,3.35605889356,4.18323405994,2.89419213087,6.49376640782,0.0920911671993,-1.98986908881
off_to_on,2.66620717998,1.18875169331,4.24333242491,4.01786901022,4.09806226951,1.84502596214,3.52380195911,4.27936928728,3.49468984915,2.87860254701,3.02900777927,4.91852533605,-1.17625484838,-31.3277124212
off_to_on,0.554327512766,-1.0299747896,3.57849892796,3.91727801443,4.33484179694,2.20417328373,3.71445757997,4.31644999935,3.48206009541,1.40531511777,3.09055095472,2.98730804736,-2.24744739422,-57.9866382867
off_to_on,-1.4544845281,-2.92356267932,2.93425471773,3.6204206351,4.40463426201,2.57504704106,3.66968046708,4.02873248889,3.31784031528,-0.0646669641467,3.08346682085,0.96392386116,-2.97773749667,-80.1109841486
off_to_on,-3.17208605143,-4.30253536241,2.39785496568,3.1448567301,4.27546276832,2.90955339673,3.41802458065,3.46156159821,3.01053813991,-1.36861739298,3.00841717695,-0.894293832619,-3.26705372409,-96.2091842853
off_to_on,-4.45247176654,-5.04957661323,2.02254666401,2.520426211,3.92629719648,3.15268515079,3.00419494379,2.68665546682,2.57691428781,-2.37166911176,2.8613309711,-2.36799856074,-3.07146122816,-105.270336025
off_to_on,-5.20588490683,-5.13068123712,1.82347316955,1.78676887785,3.3517581745,3.25096454944,2.48328639184,1.79337246657,2.04063093608,-2.9814476553,2.6338406295,-3.30115180226,-2.40841611863,-106.844008943
off_to_on,-5.4055219117,-4.59534794521,1.77918748825,0.989861763498,2.56529674638,3.16103671664,1.91408827344,0.878026628256,1.43029124189,-3.15708484302,2.31492536673,-3.61720979488,-1.35425655398,-101.076125536
off_to_on,-5.08636399403,-3.56615618213,1.83818110524,0.177965752098,1.60030180615,2.85711966578,1.35224794047,0.032564188306,0.777106989778,-2.91172444641,1.89358850608,-3.3245081977,-0.0343789692265,-88.6966229539
off_to_on,-4.33669368177,-2.21945027761,1.92919690575,-0.602548319887,0.508843167282,2.33617862571,0.844095249534,-0.666004349243,0.112475387737,-2.30845624642,1.3622150322,-2.51062257975,1.3925263407,-70.9580643728
off_to_on,-3.28376251418,-0.759968488441,1.97366291632,-1.31100852405,-0.641939693961,1.62002121223,0.421844847985,-1.16411806194,-0.534250261118,-1.45041849134,0.720115771172,-1.32690421923,2.75408116204,-49.5282656608
off_to_on,-2.07575076483,0.607041874756,1.89840542453,-1.9154507783,-1.77548373304,0.753957308935,0.100722995781,-1.43708884118,-1.13754817122,-0.466491971064,-0.0233110817732,0.0343965309695,3.88513342738,-26.3441020385
off_to_on,-0.862520806286,1.70247279411,1.64688478776,-2.3945030088,-2.81288758968,-0.197832364274,-0.121668637421,-1.49079246589,-1.67689774963,0.505508632252,-0.846366793662,1.36715375474,4.64735089457,-3.43762647451
off_to_on,0.222322193073,2.39531638762,1.18751694911,-2.73797368271,-3.68063414208,-1.15959549548,-0.2637105016,-1.35946299173,-2.13725039936,1.33601086673,-1.71426573632,2.47887513899,4.94511202513,17.2509458833
off_to_on,1.07587087446,2.61723994675,0.518139082731,-2.94614991513,-4.31804053105,-2.05296307536,-0.356077369639,-1.09992312037,-2.50882490581,1.9191344618,-2.5800907488,3.2151318656,4.73585562015,34.0564039504
off_to_on,1.63526346891,2.36816676574,-0.333731527927,-3.02798320967,-4.68353194263,-2.80630685353,-0.436485324258,-0.783035965797,-2.78634849781,2.18461794149,-3.38758402102,3.4779006691,4.03381120542,45.7498649909
off_to_on,1.88112203496,1.71252255212,-1.31459924201,-2.99848567633,-4.75895706806,-3.36318826641,-0.543542893471,-0.483513150991,-2.96794083383,2.10492864208,-4.07561654207,3.23573445157,2.9069017936,51.6610077661
off_to_on,1.83510657926,0.767074926963,-2.351887126,-2.87575549556,-4.55138688262,-3.6887210273,-0.710485009453,-0.269415282837,-3.05388148542,1.69690300984,-4.58393230458,2.52483464513,1.4674717313,51.7466327969
off_to_on,1.55239818035,-0.317612521501,-3.36289033479,-2.67808387723,-4.09213747561,-3.77297445066,-0.959584794097,-0.192708016332,-3.04550569692,1.01795549636,-4.85955520592,1.44132513189,-0.141767146991,46.5955127716
off_to_on,1.11055143339,-1.37931387503,-4.26446092887,-2.4215624652,-3.43309533804,-3.63097622385,-1.29795940182,-0.282087553232,-2.94443804682,0.157549796845,-4.86310793753,0.126159272152,-1.76464927276,37.365622647
off_to_on,0.596544709548,-2.26670115208,-4.98211349889,-2.11851566399,-2.64075747969,-3.29936830835,-1.7153213191,-0.53898418257,-2.7523049273,-0.774833069159,-4.57424589965,-1.25501676636,-3.24914987419,25.6570049884
off_to_on,0.0939648291092,-2.85925471052,-5.45743779356,-1.77694143103,-1.78868651765,-2.83025520949,-2.1839947872,-0.937232398625,-2.47097546314,-1.66362985309,-3.99546639613,-2.53417671788,-4.46351551476,13.3309827629
off_to_on,-0.327908559216,-3.08195113646,-5.65304095399,-1.40097832529,-0.949285172148,-2.28318860489,-2.66124543115,-1.42641706936,-2.10328105609,-2.40127905887,-3.15371141152,-3.56239414638,-5.30909258195,2.29330012144
off_to_on,-0.621763854082,-2.91299299407,-5.55465752342,-0.992251343916,-0.185888159432,-1.71649668916,-3.0936915585,-1.93843019311,-1.65407189235,-2.90076444152,-2.09942464834,-4.22774272756,-5.72853995993,-5.73585243781
off_to_on,-0.765885070569,-2.38388535946,-5.17049242173,-0.551809474665,0.453861353282,-1.17925156712,-3.42331082638,-2.39636391133,-1.13139908749,-3.10519353871,-0.903021623298,-4.46748103827,-5.70877293044,-9.43889668835
off_to_on,-0.763617170272,-1.57225461138,-4.52823621822,-0.0822751465775,0.942536842065,-0.705060941863,-3.59435621263,-2.72457516921,-0.547574912784,-2.99340895262,0.350951659703,-4.27324783821,-5.27868764934,-8.07879323923
off_to_on,-0.63916398671,-0.588790620829,-3.67046188745,0.410206110161,1.2747994177,-0.308586794232,-3.56037435333,-2.85862196575,0.0801330802721,-2.58115021948,1.57140153361,-3.68897930118,-4.50236404307,-1.61459932041
off_to_on,-0.430721230123,0.439559952059,-2.64924629285,0.914593797783,1.46639116369,0.0147245919128,-3.29049215148,-2.75380582367,0.72937510566,-1.91783431576,2.66920817699,-2.80223119385,-3.46895715789,9.2625515776
off_to_on,-0.182269957568,1.38760925775,-1.52084988157,1.41444251494,1.55039224889,0.285708316806,-2.77420810946,-2.39125257743,1.37328350749,-1.07953573911,3.56574378821,-1.73041775684,-2.28080381587,23.1817025579
off_to_on,0.0645437719422,2.14857864186,-0.341149630706,1.88839868272,1.57123523544,0.535840997844,-2.02408572189,-1.78079512015,1.98175300837,-0.159163871647,4.20042045352,-0.60406192745,-1.04136409846,38.2310208783
off_to_on,0.277142285355,2.64714190559,0.837712429121,2.31168539826,1.57726399138,0.799812766439,-1.07597953599,-0.960341493809,2.52335384586,0.74488762004,4.53639600442,0.450576047977,0.155510590373,52.1712438333
off_to_on,0.436380863079,2.84725414493,1.9692828055,2.65839516691,1.61282214086,1.10751128747,0.013296375249,0.00813695791165,2.96769530428,1.5402314439,4.56377189571,1.32718192336,1.23380557697,62.7016169205
off_to_on,0.538015234031,2.75399104108,3.01344609034,2.90427534778,1.71093013243,1.4767214197,1.17065485293,1.04543930827,3.28798071216,2.15078345088,4.29990889723,1.95143382456,2.14033368252,67.7486526843
off_to_on,0.59125492314,2.40952408439,3.93608976456,3.02960422678,1.88754904227,1.90775109432,2.3133015702,2.06389174363,3.46345330414,2.5247360066,3.78682807959,2.28806125725,2.84625749113,65.7436184396
off_to_on,0.614871486122,1.88419255746,4.70824334158,3.02173056264,2.13823837692,2.38091608699,3.35648431286,2.97691232543,3.48143210642,2.63940041679,3.08601308701,2.34230808115,3.34539829226,55.8542351457
off_to_on,0.631716369021,1.26428456595,5.30518696336,2.87689057713,2.43771625739,2.85739265047,4.22158705238,3.70820238368,3.33867881582,2.50250614665,2.27124059598,2.1559676666,3.64999110946,38.1399140039
off_to_on,0.662731634016,0.638520308154,5.70595788572,2.60101778389,2.74245950718,3.28343847367,4.84368328476,4.19947027922,3.04191497977,2.14996386787,1.42029929231,1.79886399352,3.78481778267,13.6077113976
off_to_on,0.721577932448,0.0852979330092,5.89353291305,2.20940748315,2.99608430609,3.59746341805,5.1777179555,4.41581782571,2.60741278762,1.64049430833,0.606583695389,1.35719643324,3.78076414924,-15.8427451199
off_to_on,0.810858109613,-0.337479155208,5.85576370039,1.72526681235,3.13687547652,3.73897879306,5.20263841767,4.34824753091,2.05969785803,1.04785352381,-0.108448319132,0.920485837313,3.66880121542,-47.58406271
off_to_on,0.920611328107,-0.598674017339,5.58693056788,1.17734688136,3.10653240901,3.65813578717,4.92302544417,4.01313327518,1.4295123739,0.451616172938,-0.68108634496,0.56892740041,3.47520555116,-78.5208653686
off_to_on,1.02934516904,-0.695637303695,5.08960009726,0.596990008679,2.85901220334,3.32442962111,4.36805902992,3.44888539933,0.751276384338,-0.0724066574734,-1.08880683607,0.362779858371,3.2185512319,-105.417604125
off_to_on,1.10743032292,-0.651459361474,4.37635657424,0.0150110080321,2.36830244355,2.733219466,3.58795776571,2.71038206746,0.0603417107498,-0.461044052395,-1.33100665767,0.33504191132,2.90867587234,-125.258108211
off_to_on,1.12227659444,-0.508513362892,3.4709490185,-0.541146870179,1.63405663895,1.90898871965,2.64831940494,1.86198910316,-0.609650868932,-0.670982830899,-1.42703903389,0.488151075531,2.54750055653,-135.595388168
off_to_on,1.04440487284,-0.319573862598,2.40845971878,-1.04958720009,0.684265509476,0.90471003998,1.62302975781,0.970120992327,-1.22902626959,-0.683583004062,-1.41189557858,0.794867079435,2.13131578978,-134.849937377
off_to_on,0.853374825541,-0.138091799972,1.23424566619,-1.49518053495,-0.425510255976,-0.202775843436,0.586568586613,0.0962944539729,-1.77372007344,-0.506824405419,-1.33016332228,1.20295276951,1.65396817897,-122.519647071
do_nothing,0.542545183126,-0.00924011665824,0.00160519646933,-1.86969595436,-1.61639754929,-1.3208857765,-0.393394974254,-0.708500725839,-2.22618350469,-0.174228953945,-1.22908475205,1.64281181396,1.11031328744,-99.2739974639
do_nothing,0.121827785812,0.0368796236,-1.23165736422,-2.17088467495,-2.79356982394,-2.35192382297,-1.26226709637,-1.40751788783,-2.57552341408,0.259082879555,-1.15163778125,2.03693670799,0.499338148157,-66.918348939
do_nothing,-0.382083155031,-0.01108639743,-2.40739580931,-2.40072468259,-3.85591548275,-3.2048256816,-1.98294755019,-1.9797562133,-2.81695630713,0.722755498328,-1.13052204586,2.30989014093,-0.173515732401,-28.2293777522
do_nothing,-0.928121168654,-0.145573678351,-3.47149770785,-2.56317105594,-4.70691009832,-3.80642851048,-2.53792427673,-2.41926736286,-2.9507431933,1.139300171,-1.18379462051,2.39758835087,-0.895112227736,13.3218749207
do_nothing,-1.46558887637,-0.343219396199,-4.37789386199,-2.6618378118,-5.26540481707,-4.11069801976,-2.92885435416,-2.73257945028,-2.98083121802,1.43308969315,-1.31266349294,2.25485280635,-1.6445399574,53.9291655645
do_nothing,-1.94054817514,-0.570515827964,-5.0916594941,-2.69804994305,-5.47501880197,-4.10458907784,-3.17375289237,-2.9347863676,-2.9134508581,1.53931798363,-1.50165381714,1.8605036954,-2.39407778117,89.8520008834
do_nothing,-2.30291001344,-0.790846179139,-5.59079325361,-2.66964555539,-5.31096329693,-3.80965365992,-3.30220905684,-3.04499460236,-2.75590166589,1.41200233304,-1.72104989016,1.21963168981,-3.11095070711,117.812503201
do_nothing,-2.51315679824,-0.971565841282,-5.86646104726,-2.57078552913,-4.78341475652,-3.27908281002,-3.34929575374,-3.08185826954,-2.51570869952,1.03019628917,-1.93122619461,0.36304779701,-3.75954553091,135.342389739
do_nothing,-2.54767989305,-1.08983884307,-5.92173277203,-2.3928599824,-3.93696099049,-2.5904992297,-3.34900549403,-3.05986656097,-2.20025462729,0.401747336232,-2.08825081176,-0.655774137639,-4.30375345871,141.039927463
do_nothing,-2.40192303423,-1.13620521665,-5.76908117114,-2.12639259334,-2.84611840172,-1.83541649934,-3.32810804746,-2.98689137481,-1.81690159039,-0.435838882238,-2.15000211974,-1.76571727595,-4.709169128,134.707308359
do_nothing,-2.09085687152,-1.11529123947,-5.42711229295,-1.76366489385,-1.60740152146,-1.10676486182,-3.30127641478,-2.86328361163,-1.37352665892,-1.41759607184,-2.08200049638,-2.88433132789,-4.94498134634,117.35310524
do_nothing,-1.64671784847,-1.04360504217,-4.91712147014,-1.30164161087,-0.328857235456,-0.486181750641,-3.26817074748,-2.68255910177,-0.879319187083,-2.45623486314,-1.86222204968,-3.92473461363,-4.98551265628,91.0605558497
do_nothing,-1.11436268932,-0.944894402893,-4.26009437327,-0.744698496622,0.881700138191,-0.0328324284231,-3.21292286198,-2.43347616191,-0.345639174741,-3.44981333733,-1.48431854396,-4.80247438567,-4.81147289511,58.738379388
do_nothing,-0.544952955109,-0.843991383356,-3.47469256284,-0.106650484155,1.92834324008,0.224651647421,-3.10615612394,-2.10311001194,0.213279701534,-4.29127735148,-0.958892255555,-5.44183434258,-4.41106070049,23.7846646906
do_nothing,0.0110637101788,-0.760354242734,-2.57658759843,0.58834625672,2.73716700614,0.291931711642,-2.90934400547,-1.68040052069,0.779978251742,-4.87900456258,-0.312734035799,-5.78122917397,-3.78105989713,-10.2956355155
do_nothing,0.510606750893,-0.702592058662,-1.57926382739,1.30629847601,3.26367479826,0.207808530679,-2.58099648165,-1.15960362444,1.33391397144,-5.12735665477,0.413808357391,-5.77747306582,-2.92803065526,-40.2741393095
do_nothing,0.923244623071,-0.665107569198,-0.496136263101,2.00536924575,3.49652068379,0.0382201061804,-2.08390623575,-0.543115180318,1.85216288263,-4.97620374878,1.17094059746,-5.40882754654,-1.86959727694,-63.5386417783
do_nothing,1.23431859076,-0.627641688755,0.656428656027,2.63922389206,3.45716533043,-0.133869399782,-1.39251972545,0.156751470121,2.31065716695,-4.39844163805,1.90445823254,-4.67680974149,-0.63570626978,-78.3503309668
do_nothing,1.44546198058,-0.55800503559,1.85580135063,3.16138166334,3.19551556977,-0.221359936012,-0.499444357245,0.917286970252,2.68584686568,-3.40467620979,2.56107554103,-3.60677327695,0.730401072185,-83.9908862768
do_nothing,1.57247805472,-0.417718226854,3.07020351872,3.5300577467,2.78212598414,-0.146937232043,0.579828378915,1.70626697209,2.9566011281,-2.04449072227,3.09341837225,-2.24727054498,2.17185632514,-80.7857718649
do_nothing,1.64095517951,-0.169746024925,4.25695485934,3.7128796328,2.29797969729,0.143908564532,1.80471857576,2.48406421557,3.10611794638,-0.404021767033,3.4641381076,-0.668185143429,3.61886654208,-70.0054575403
do_nothing,1.68035532839,0.212909800139,5.36242764166,3.69084630697,1.82317770542,0.672627003263,3.11032509351,3.20670449116,3.12359817971,1.40007828837,3.64875298564,1.04239073014,4.99080782139,-53.6611245003
do_nothing,1.71755591163,0.739225332918,6.32404966674,3.46097327266,1.42600989551,1.42164337494,4.41127065658,3.82947189288,3.00546204713,3.229854054,3.63701118485,2.78254650497,6.19994200035,-34.2237774634
do_nothing,1.77091747788,1.39424223584,7.0743892276,3.03722281563,1.15383586137,2.33366993764,5.60836148073,4.31062446455,2.75594092422,4.9376640872,3.43276888526,4.44216990412,7.15678856202,-14.3040746211
do_nothing,1.84587601205,2.13645190461,7.54702164343,2.449536824,1.02697340625,3.31658456042,6.59744921292,4.61480169366,2.38695617768,6.37916219622,3.05255805218,5.90964968477,7.77693152614,3.66636718156
do_nothing,1.93282869311,2.89924795175,7.68356649365,1.74103909572,1.03640493945,4.25342380708,7.2795976101,4.71578189764,1.91728831645,7.42642934701,2.52315929709,7.07938698957,7.98877260377,17.7132403981
do_nothing,2.00773015209,3.59662099285,7.44104661014,0.9637203779,1.14561537992,5.01633748457,7.57146997425,4.59836390567,1.37113054721,7.97998647605,1.87857879573,7.85968163207,7.74150020383,26.5251122819
do_nothing,2.03539519177,4.13261380328,6.79859361664,0.173127204351,1.29633302485,5.48279147501,7.41478986917,4.25928210774,0.77619774784,7.97849159884,1.15684822536,8.18041151766,7.01237221427,29.5645524226
do_nothing,1.97507700722,4.41344050322,5.76253413465,-0.57728529401,1.41742724132,5.55196220505,6.78379651579,3.70719419261,0.161613973233,7.40512421332,0.397026185365,7.99981435788,5.81234522685,27.07600646
do_nothing,1.78752179249,4.36069619078,4.36903993724,-1.24142681292,1.43579160577,5.15918820665,5.68981113936,2.96188647314,-0.444178244379,6.28996938211,-0.363309514435,7.30963996902,4.18914718856,19.9951444357
do_nothing,1.44244736801,3.92382060791,2.68379793666,-1.78480978766,1.28776486271,4.28654581357,4.18232993841,2.05290799911,-1.01525762949,4.70810324663,-1.08990868612,6.13799025579,2.22708960003,9.77679524841
do_nothing,0.925294376879,3.08997777592,0.798516957627,-2.18723000011,0.929552639903,2.96807402947,2.34642917169,1.01786485956,-1.52962926118,2.77351110433,-1.75299288295,4.54931164306,0.043234598602,-1.83177827685
do_nothing,0.242170195607,1.88978185457,-1.17551093963,-2.4435809122,0.345224097362,1.28883072243,0.29666551828,-0.0994181094896,-1.97008081921,0.629392658775,-2.32777078844,2.64124517947,-2.22006230075,-13.0397725339
do_nothing,-0.577860720967,0.397806593975,-3.11619176076,-2.5627488024,-0.448842667765,-0.622265485645,-1.83196560958,-1.25072001154,-2.32445828487,-1.56422000063,-2.79448476069,0.53835104597,-4.40577050011,-22.250192828
do_nothing,-1.48362346828,-1.27250544549,-4.90083559712,-2.56479895539,-1.40374170705,-2.60506573286,-3.89513351226,-2.3851611978,-2.58541236163,-3.64432956084,-3.13819303723,-1.61692856006,-6.3550787196,-28.2552311142
do_nothing,-2.40585938072,-2.97916088705,-6.41666940442,-2.47689610946,-2.44217721942,-4.48485144294,-5.75123774851,-3.45086491967,-2.74973784335,-5.45897337613,-3.34849172949,-3.6753655965,-7.92133876834,-30.3664156402
do_nothing,-3.26402151513,-4.56605963529,-7.57048277389,-2.32857189977,-3.46652052729,-6.09106045261,-7.27323951916,-4.39661571161,-2.81747676836,-6.87999757923,-3.41933949765,-5.49311604924,-8.98362126214,-28.4662227886
do_nothing,-3.9750249692,-5.87986906986,-8.29633041694,-2.14703391232,-4.36983040653,-7.27583918068,-8.35909865856,-5.17361850434,-2.7909757262,-7.81338643059,-3.34907659837,-6.94379407584,-9.45840227323,-22.9791127072
do_nothing,-4.46284539971,-6.78725746284,-8.56045332435,-1.95319347327,-5.04848242565,-7.93018931589,-8.93981882975,-5.73745506232,-2.67407599552,-8.20619757097,-3.14064438155,-7.92922748053,-9.3080382304,-14.7709703742
do_nothing,-4.66771898536,-7.1903173567,-8.36292714988,-1.75897499874,-5.41482650252,-7.9957681676,-8.98437247476,-6.05028765665,-2.47157501125,-8.04952280957,-2.80192864978,-8.38776402631,-8.54499735879,-4.99521805164
do_nothing,-4.55373007427,-7.0382053294,-7.73595367564,-1.56627513109,-5.40826882922,-7.47093776761,-8.50111935656,-6.08328150617,-2.18903608545,-7.37731985786,-2.34608677208,-8.29923226365,-7.23126652811,5.0897799804
do_nothing,-4.11377453154,-6.33349029258,-6.73912322484,-1.36769309749,-5.00335923159,-6.41036984163,-7.53570735557,-5.81912163934,-1.83295066223,-6.26139388656,-1.79168632757,-7.68601229696,-5.47288957273,14.3047232868
do_nothing,-3.37122885071,-5.132375734,-5.45233625451,-1.14889041104,-4.21383512268,-4.91830999358,-6.16580784099,-5.25440487719,-1.41118558977,-4.80319921042,-1.16248867898,-6.61009977927,-3.4101506951,21.70871462
do_nothing,-2.37808897913,-3.53875001724,-3.9673325001,-0.892196263149,-3.09208109362,-3.13638240122,-4.49334914334,-4.40161314794,-0.933588590924,-3.12343655929,-0.486753658905,-5.16649703596,-1.2044236887,26.7126459141
do_nothing,-1.20980727186,-1.69281437375,-2.37890205302,-0.580889686792,-1.72404298384,-1.22747643702,-2.63513651435,-3.29033759158,-0.412587887223,-1.35060699587,0.203985809113,-3.47368049715,0.976901297179,29.1328988787
do_nothing,0.042514121545,0.244269035722,-0.776830172328,-0.203487587626,-0.220211258227,0.642284739768,-0.71286292227,-1.96743585623,0.136387181608,0.390268682664,0.876640544694,-1.66221897926,2.97577846534,29.1807894831
do_nothing,1.28157945291,2.10777158399,0.760536649971,0.242636235045,1.296214864,2.32129327641,1.15648665195,-0.495872036794,0.694817113982,1.98764739448,1.49864375962,0.137190454453,4.65749421782,27.3926156256
do_nothing,2.413815277,3.74666717949,2.17049481582,0.748881390582,2.70251912164,3.68780390023,2.8689483313,1.04789434123,1.2414401547,3.35127458808,2.04018597774,1.80496884913,5.92179878091,24.5135392815
do_nothing,3.35852519181,5.03867083002,3.4077000274,1.29470145853,3.88939128774,4.66110786338,4.33992717201,2.57794953283,1.75307599514,4.41721139168,2.47635394356,3.24201290928,6.71005527851,21.3547161583
do_nothing,4.05519774126,5.90128595821,4.44350782315,1.84869753418,4.7720078573,5.20732861361,5.50816657672,4.00420363324,2.20588853488,5.14983847054,2.78891296154,4.37626610842,7.00777090256,18.6462894852
do_nothing,4.46816075545,6.29767306864,5.26338466115,2.37142488394,5.2979517812,5.33934287773,6.33722284495,5.23854447057,2.57697811497,5.54095892557,2.96750523481,5.16598490051,6.84243592408,16.9087436262
do_nothing,4.58815558012,6.23687136925,5.86308723601,2.81956375106,5.45107766164,5.11108749376,6.81461448315,6.20136731988,2.84613485609,5.6064437572,3.01010731308,5.5996136119,6.2771545811,16.3617954199
do_nothing,4.43082987024,5.76866646253,6.24444078987,3.15090563885,5.25096619935,4.60721795459,6.94905685388,6.82789097095,2.99754929017,5.38110549264,2.92268738139,5.69260658915,5.40103528066,16.8840539387
do_nothing,4.03255645452,4.97409375135,6.41154536307,3.32948467944,4.74818904421,3.9296483257,6.76636164542,7.07364561933,3.02127007364,4.91262205017,2.71811277514,5.48189592785,4.31765462533,18.0290158552
do_nothing,3.4443205545,3.953102379,6.3681059966,3.33015723999,4.01614492436,3.1828530853,6.30466129816,6.91856397554,2.91422252535,4.25535238787,2.41446245191,5.01894953748,3.13307807526,19.0947039499
do_nothing,2.72463282909,2.81120687468,6.11634230578,3.14200518589,3.14065772188,2.45990775636,5.60960719102,6.36922116753,2.6806527543,3.46479274195,2.03298138115,4.36246642659,1.94489181832,19.2365654351
do_nothing,1.93249436054,1.64698665387,5.65762405578,2.77009842983,2.20878991983,1.83107946269,4.73009574524,5.458939666,2.33193286824,2.59323716121,1.59596041971,3.57170448377,0.833484776899,17.607172081
do_nothing,1.12135703815,0.54206031705,4.99465181374,2.23537716408,1.2983864524,1.3363780264,3.71491804616,4.24568331864,1.88574286695,1.68696033855,1.12482827277,2.70124401442,-0.143548885883,13.5025955793
do_nothing,0.334806537444,-0.445295828498,4.13470734134,1.57267098399,0.46971800128,0.982900853497,2.61053312946,2.8078854659,1.36472263911,0.78497329182,0.638700580961,1.79769179699,-0.953483147057,6.49450292022
do_nothing,-0.39561765887,-1.28232359545,3.09328369796,0.827124086926,-0.239738703713,0.747131034128,1.45996329507,1.23856419079,0.794751721091,-0.0808464683486,0.153551215446,0.898474680053,-1.58710363257,-3.47094033066
do_nothing,-1.05040940857,-1.95985570404,1.89730428729,0.0495070210681,-0.816815408252,0.581669646501,0.302631387905,-0.361751072529,0.203055973275,-0.884643135035,-0.317934996012,0.0325157007444,-2.05447462196,-16.021714467
do_nothing,-1.62018277088,-2.4870074731,0.587170054461,-0.70896356832,-1.27043429628,0.425291026127,-0.825170441479,-1.89264236564,-0.383646593592,-1.60499565904,-0.765883765412,-0.777714742474,-2.37874062812,-30.3641073178
do_nothing,-2.10243586614,-2.88369197705,-0.782968529723,-1.40162425226,-1.62616599886,0.214781442747,-1.88955716459,-3.26128960164,-0.940765315357,-2.2233816361,-1.18228801147,-1.51347875294,-2.5890831569,-45.3430496716
do_nothing,-2.49774787632,-3.17243950644,-2.14705600311,-1.99055422743,-1.91852815948,-0.103188410136,-2.85844526543,-4.38915999362,-1.44706953084,-2.72314480877,-1.55983901945,-2.15715527291,-2.71399015189,-59.5520307973
do_nothing,-2.80621327171,-3.37103497862,-3.43110661964,-2.44945740595,-2.18230097861,-0.561874330978,-3.7013689664,-5.21733239337,-1.8854451627,-3.08926886527,-1.89080961287,-2.6904302729,-2.77586093002,-71.479752924
do_nothing,-3.02483018786,-3.48727686966,-4.55897910874,-2.76493837193,-2.44426051044,-1.16740422168,-4.38990307271,-5.71003542263,-2.24315854668,-3.3090606648,-2.16625790912,-3.0937971192,-2.78768901856,-79.6762051306
do_nothing,-3.14635464041,-3.5167460512,-5.45931402276,-2.93610906211,-2.71665016504,-1.89585034854,-4.8987299668,-5.85616173554,-2.51168179155,-3.37363180848,-2.37576470326,-3.34758408509,-2.75218582455,-82.9186276818
do_nothing,-3.15984433337,-3.44392148123,-6.07277312179,-2.97270080521,-2.99343769192,-2.69483297462,-5.20723853574,-5.66871939439,-2.68619252397,-3.27987534691,-2.50782355725,-3.43439778753,-2.66328966187,-80.3580792223
do_nothing,-3.05279326983,-3.24638122734,-6.35861733549,-2.89206148969,-3.24997804398,-3.48942661644,-5.30141582902,-5.18237354239,-2.76489836972,-3.03249735734,-2.55088483065,-3.34255877849,-2.50961197896,-71.6298698246
do_nothing,-2.81445442822,-2.90127759225,-6.29969569848,-2.71556069337,-3.44618303513,-4.19154701151,-5.17570897502,-4.44939789748,-2.74834768379,-2.64560525778,-2.49493195978,-3.06986302438,-2.27906517896,-56.9155565725
do_nothing,-2.43971245739,-2.39286185467,-5.9050906107,-2.4649867714,-3.53276112411,-4.71152368884,-4.83450879191,-3.53448094132,-2.63887180899,-2.14338750746,-2.33336036533,-2.62687418742,-1.96373977813,-36.9498793978
do_nothing,-1.9327407099,-1.71962349512,-5.20995294712,-2.15949175285,-3.45961248275,-4.97027198066,-4.2929415922,-2.50890654304,-2.44026379994,-1.55953967546,-2.06485467003,-2.03896210942,-1.56407779431,-12.9721956858
do_nothing,-1.30967892504,-0.899635248795,-4.27242483114,-1.81352841479,-3.18511530585,-4.91040595158,-3.57674589211,-1.44464977672,-2.15774117415,-0.935282392661,-1.69493185091,-1.34645588783,-1.0915250334,13.3721011593
do_nothing,-0.599700865356,0.0270435530746,-3.16793750195,-1.43604741345,-2.68487085956,-4.50478647913,-2.72114116326,-0.408898337602,-1.79817558619,-0.316048325504,-1.23684290791,-0.602555211719,-0.569114106731,40.1696840393
do_nothing,0.155914303903,0.999596273811,-1.98153142342,-1.03100868152,-1.95851356661,-3.76135252408,-1.76874498703,0.540564429244,-1.37051123146,0.252848545833,-0.711601751148,0.130999724702,-0.0297889007957,65.402821552
do_nothing,0.906774613166,1.94141965643,-0.799123892797,-0.599043539886,-1.03343582043,-2.72358767741,-0.766738555899,1.35878650905,-0.886246548448,0.731045897759,-0.147027322756,0.790116987569,0.487327550641,87.1223332982
do_nothing,1.59815687708,2.76832717494,0.30119479571,-0.139915483393,0.0353065406263,-1.46655815068,0.236405109765,2.01568404047,-0.359828468316,1.08781916653,0.424173257585,1.31567121177,0.942158615564,103.61380699
do_nothing,2.17698982496,3.39892028067,1.25674586305,0.344702971276,1.16910971819,-0.0890426954309,1.19424940083,2.49662359322,0.191190362366,1.30593158826,0.967107542234,1.66097034127,1.29955644576,113.542340683
do_nothing,2.59821986267,3.76565678605,2.02577612171,0.848672969738,2.27358516288,1.29721891721,2.06539052225,2.8016167537,0.746352930268,1.38402401619,1.44788719952,1.7982777575,1.53486345321,116.063776568
do_nothing,2.83062921856,3.82495653373,2.590221734,1.35955471604,3.24906081379,2.57977070092,2.81578672499,2.94331028533,1.28292838465,1.33708628428,1.83691693912,1.72335014376,1.63819049665,110.893958779
do_nothing,2.86120630179,3.56474695113,2.9554080646,1.85788611058,4.0024891574,3.65761919925,3.42018993227,2.94404871695,1.77697617867,1.19479884499,2.11186137033,1.457170471,1.61662146364,98.3315331395
do_nothing,2.69733946743,3.00816192101,3.14678326448,2.31778956841,4.45918585537,4.45182515792,3.86258907954,2.83235141564,2.20477704373,0.997828363025,2.25989394324,1.04441465948,1.49385865792,79.2337992559
do_nothing,2.36639615076,2.21262561904,3.20418262663,2.70891021293,4.57279190332,4.91322552064,4.13572611037,2.6391798007,2.54449896553,0.792462185928,2.27891590616,0.54864150656,1.30721587128,54.948789029
do_nothing,1.91261878194,1.26420544502,3.17445294838,2.9994729862,4.33204422004,5.02640542009,4.23988388124,2.39437126406,2.7779178763,0.624229665654,2.17756426444,0.0446740278603,1.10228704175,27.2098471801
do_nothing,1.39166329188,0.267810170746,3.10348488672,3.16005950736,3.76333189075,4.80954843342,4.18124698236,2.12358540385,2.89198898633,0.531342434287,1.97398794662,-0.390924679193,0.926003289528,-1.99859920982
do_nothing,0.863466495184,-0.665561523758,3.02877603026,3.16757630791,2.9285575818,4.3103376705,3.97018424959,1.84604796245,2.8800699693,0.538860074188,1.69353799425,-0.690053862782,0.81907938555,-30.5937122203
do_nothing,0.384399924231,-1.43284588339,2.97356752927,3.00883438715,1.91844406008,3.59858642212,3.61978693744,1.57329275435,2.74263164247,0.654436037671,1.36566648468,-0.802568608924,0.80899522483,-56.554009039
do_nothing,-0.000193509044201,-1.95229632738,2.94337346877,2.68319435866,0.842040668765,2.75667816177,3.14492103367,1.30899801792,2.48735097542,0.866322640757,1.02043822549,-0.703711740505,0.904632196797,-78.074556296
do_nothing,-0.262001961444,-2.17433937622,2.92538552618,2.20384752447,-0.186289995206,1.86914055653,2.56192836117,1.04989895586,2.12855704323,1.14403295933,0.685112731528,-0.398363346013,1.09348700849,-93.7062190969
do_nothing,-0.393385508398,-2.08832597332,2.89083223603,1.59748461976,-1.06076200466,1.01273813643,1.88895996094,0.787642286721,1.68608213248,1.44170678732,0.381243351997,0.0786100471215,1.34204073069,-102.468472277
do_nothing,-0.408069547394,-1.72413995385,2.79995795791,0.902324630898,-1.6971406416,0.248340576607,1.14677326268,0.511342163457,1.18364583228,1.70385405395,0.122666737647,0.666103374132,1.5994153731,-103.926754959
do_nothing,-0.338714981092,-1.14832652374,2.60891839915,0.164704085312,-2.04309820665,-0.384469031116,0.359699405482,0.210511023527,0.646958585421,1.87280383462,-0.0853705452774,1.28424644444,1.80396701432,-98.2274327844
do_nothing,-0.231637430732,-0.455167726407,2.27761780104,-0.565370502384,-2.08456519017,-0.86949428915,-0.443586964117,-0.122015611349,0.101764252918,1.89691977421,-0.245862437062,1.84469645939,1.89201344007,-86.0861305808
do_nothing,-0.139369542641,0.246149674302,1.77737475883,-1.23915709177,-1.84719750578,-1.21265531317,-1.22986939647,-0.487556052623,-0.427956096248,1.73849362666,-0.368557393937,2.2624197486,1.80754246141,-68.7284719603
do_nothing,-0.112094193193,0.846559320421,1.09731775055,-1.81397865174,-1.3927107537,-1.43773611545,-1.96206958631,-0.879826310819,-0.92142509791,1.38022282314,-0.467581355074,2.46738461167,1.5115489028,-47.7859945681
do_nothing,-0.189171532273,1.25228255308,0.248575527925,-2.25728461972,-0.810503665073,-1.57993355155,-2.60097802803,-1.28423993375,-1.3620154006,0.829321553674,-0.558537361332,2.41455444722,0.989637088661,-25.1539845903
do_nothing,-0.392007627251,1.39803489842,-0.734381146829,-2.54946809048,-0.205616041849,-1.67826502517,-3.108024943,-1.67843566973,-1.7376353365,0.118593363119,-0.655517787799,2.09076340791,0.256708826855,-2.82187219961
do_nothing,-0.719359021582,1.25641203264,-1.79551124135,-2.68510331232,0.315441558661,-1.76800821265,-3.44887745282,-2.03405715986,-2.04056885509,-0.695826712245,-0.768469784071,1.51745373787,-0.642085944102,17.3097541812
do_nothing,-1.14585317193,0.842103446545,-2.86193889657,-2.67248322911,0.659154730113,-1.87429348487,-3.59745810366,-2.319646332,-2.26686123253,-1.53991922649,-0.901295320327,0.748803187604,-1.63447308042,33.6089726323
do_nothing,-1.62407014405,0.210285977263,-3.85110818545,-2.53156656104,0.757880577317,-2.0077606484,-3.53983544101,-2.50435404794,-2.41540305814,-2.32984591158,-1.05095341316,-0.134601861866,-2.62804070269,44.8715318795
do_nothing,-2.0900347251,-0.550647762628,-4.67949083972,-2.29065561355,0.579433923153,-2.16285973103,-3.27736800055,-2.56203867715,-2.4869014185,-2.98169527558,-1.20768084402,-1.03577355347,-3.52033835083,50.4419732281
do_nothing,-2.47147877366,-1.33108117735,-5.27177363138,-1.98228987495,0.132100686561,-2.31897070028,-2.82850735246,-2.47523532507,-2.48293380876,-3.4217147005,-1.35628157845,-1.85371360786,-4.21088758573,50.2823134356
do_nothing,-2.69782012368,-2.01527494028,-5.56938653974,-1.63893390652,-0.535621105656,-2.44409808513,-2.22878856285,-2.2384511147,-2.40525634929,-3.59573039856,-1.47827875181,-2.49654056161,-4.61360227265,44.9781183393
do_nothing,-2.7105263629,-2.49751931201,-5.53731584366,-1.28904879615,-1.34057363301,-2.50052289367,-1.52874714576,-1.86028426717,-2.25548723164,-3.47651920172,-1.55459944634,-2.89357718326,-4.66801175038,35.6777906688
do_nothing,-2.47243121744,-2.69711393388,-5.16836509246,-0.954064304323,-2.17512118358,-2.45151768298,-0.789775154784,-1.36397722697,-2.0352168483,-3.06812235371,-1.5683894096,-3.00473811468,-4.34778896923,23.9679705614
do_nothing,-1.97466609638,-2.57009367663,-4.4843509121,-0.646625441089,-2.92069628362,-2.26808809641,-0.0782287433681,-0.78618771199,-1.74651851581,-2.40645523257,-1.50754250665,-2.82590538022,-3.66539779633,11.6953657022
do_nothing,-1.24015083164,-2.11605068652,-3.53410577395,-0.370294297029,-3.46300445728,-1.93471301696,0.541618130174,-0.173978180923,-1.39276006098,-1.55602352281,-1.36657904469,-2.38951305826,-2.67215043893,0.752213972237
do_nothing,-0.323021131418,-1.37906525848,-2.38855493278,-0.120674010332,-3.70696031799,-1.45321149928,1.01495801592,0.41974177483,-0.97955823019,-0.603048022809,-1.14760990425,-1.76021005653,-1.45354583508,-7.15197356957
do_nothing,0.696100382803,-0.442560734376,-1.13348825383,0.112282160074,-3.58945308523,-0.844143109975,1.30323411049,0.941864252753,-0.515684054619,0.354236275989,-0.860263486289,-1.02614284938,-0.120366752734,-10.706556992
do_nothing,1.71852760583,0.581270279581,0.139085210859,0.341178491868,-3.08830845413,-0.145507836759,1.38938780805,1.34518923242,-0.0137234606751,1.21696648188,-0.520608266069,-0.287005193555,1.20343331295,-9.17765023224
do_nothing,2.63866078978,1.56607429049,1.33996358914,0.577805809969,-2.22629081547,0.59109962181,1.28076772682,1.59424682721,0.509675432376,1.8973468636,-0.149251554081,0.359545063517,2.39459655073,-2.52443621127
do_nothing,3.35650671055,2.38802742768,2.39110928181,0.830023704685,-1.06961316868,1.30636366116,1.009155022,1.67007682179,1.03408237656,2.32921063941,0.231087272231,0.831264640863,3.34448281744,8.56348497365
do_nothing,3.78999715046,2.94236270863,3.23240491584,1.09937713777,0.27888875575,1.94034582093,0.627709959214,1.5732878851,1.53613237413,2.47612241241,0.598160621922,1.072674053,3.97132661092,22.7166470111
do_nothing,3.88552136799,3.15750159669,3.82610732837,1.37980901347,1.69109496281,2.43983222599,0.205044303345,1.32489441342,1.99089739581,2.3359798333,0.932552398247,1.06281458955,4.22930774718,38.0229509972
do_nothing,3.62528402159,3.00487426906,4.1586087544,1.6576605498,3.02806950941,2.76492210764,-0.182980369794,0.964681622866,2.37365985722,1.94149202786,1.21947799208,0.818326973543,4.11331061162,52.2397001998
do_nothing,3.03048066253,2.50309023696,4.23946044452,1.91295709126,4.15589363012,2.89395596954,-0.462792377535,0.547150475709,2.66190074914,1.35641382035,1.44978522821,0.39139253082,3.65878852946,63.0586905137
do_nothing,2.15980032611,1.71587930459,4.09794997359,2.12178706645,4.96094020699,2.82611249143,-0.572824989791,0.135406284399,2.8372755062,0.667936360122,1.62004822018,-0.137230478425,2.93676652052,68.3948523195
do_nothing,1.10335235019,0.744058622609,3.77780654595,2.25942359921,5.36274906986,2.58132399454,-0.47216347941,-0.206362191149,2.88734167458,-0.0238887357011,1.73179170461,-0.669180097849,2.04462729121,66.6644014099
do_nothing,-0.0273039179553,-0.287418974086,3.33080441563,2.30373410625,5.32297346966,2.19752593391,-0.146963556759,-0.420951448467,2.80682583308,-0.618442699941,1.79002065138,-1.10203476096,1.09385257322,57.0179060801
do_nothing,-1.11184819672,-1.24562518091,2.8101218346,2.23838698432,4.84936460873,1.72561576594,0.386277823364,-0.465782860319,2.59826997488,-1.02708041309,1.80133756696,-1.34363862337,0.196267093,39.497408987
do_nothing,-2.03507626323,-2.00689202264,2.26428572237,2.05539991873,3.99437827393,1.22280167632,1.08114480712,-0.319140650669,2.27197238,-1.18440609686,1.77199144604,-1.32530708292,-0.549491896086,15.0945121793
do_nothing,-2.70027470161,-2.47285509375,1.73239996336,1.75667461563,2.84864623968,0.745231412634,1.86550447661,0.015835668335,1.84522444942,-1.05691219482,1.70620853322,-1.01215343102,-1.06960154045,-14.3026374671
do_nothing,-3.04045804753,-2.58320449123,1.24114084041,1.35431175902,1.5301723134,0.340878945636,2.64908914467,0.510006782857,1.34093095257,-0.647916500796,1.6051052732,-0.409152615674,-1.32335654866,-46.0724767328
do_nothing,-3.0260948192,-2.32349032266,0.803739365453,0.869674884707,0.170612745221,0.0436220870898,3.33361339133,1.11021181061,0.785774718751,0.00183259476947,1.46638603829,0.43788556635,-1.30716360322,-77.1187734501
do_nothing,-2.66838387673,-1.72699185945,0.420894870076,0.33134660371,-1.09967629289,-0.130724217245,3.82423335158,1.74426956607,0.208137909311,0.818003183532,1.28489777064,1.44659951764,-1.05379688208,-104.198215272
do_nothing,-2.01769436399,-0.870446124035,0.0833144629033,-0.227730147842,-2.1660312539,-0.185921633233,4.04095785607,2.32852811263,-0.363986111163,1.70057679573,1.05397088446,2.50710198989,-0.627086450906,-124.28060731
do_nothing,-1.15738013562,0.135763665795,-0.224619302185,-0.773530333875,-2.94163184431,-0.144200820257,3.92860152885,2.77716022388,-0.904866113594,2.53491915427,0.767342802166,3.49463044817,-0.11278268044,-134.900119233
do_nothing,-0.193746645359,1.16164432293,-0.520662636174,-1.27420615627,-3.37604044215,-0.0427094192117,3.46403447721,3.01216507591,-1.39250679975,3.20477986058,0.421357959832,4.28424868566,0.393191669515,-134.455642297
do_nothing,0.756586996063,2.07400644791,-0.820639045712,-1.70291056084,-3.45923128887,0.0719916248367,2.65981225026,2.97292167649,-1.8096010284,3.60575430518,0.0170819400629,4.7657812467,0.797582403587,-122.423096178
do_nothing,1.58038351514,2.75312790168,-1.13504952498,-2.03984838105,-3.22077598718,0.150645532987,1.56372095392,2.62416408506,-2.14391490229,3.65769001702,-0.438033584044,4.85715333347,1.0221079807,-99.4520233321
do_nothing,2.18088534592,3.10754223363,-1.46679366475,-2.27334414272,-2.72444043185,0.148349083798,0.254286223582,1.96141151404,-2.38813897069,3.31464248146,-0.929243728686,4.51453253029,1.01369353758,-67.3319672839
do_nothing,2.48875921792,3.08510818585,-1.8102435672,-2.39986610696,-2.05898726005,0.0310254563853,-1.16719750776,1.01316918008,-2.53930853623,2.5712648132,-1.43456736225,3.73809012936,0.751389159179,-28.8293965423
do_nothing,2.46962270109,2.67903213092,-2.15170495357,-2.42309844406,-1.32640320678,-0.219496902293,-2.58712762887,-0.160416014982,-2.59794682542,1.46491640399,-1.92587946025,2.57275916789,0.249164541452,12.5885537407
do_nothing,2.12732993459,1.92819243919,-2.47110245952,-2.35228472816,-0.629034721786,-0.602423450423,-3.89125333194,-1.47235269118,-2.56710974157,0.0732495477086,-2.3709625847,1.10398722403,-0.445698399981,53.1134293404
do_nothing,1.50272796478,0.91185998094,-2.74456587743,-2.20015731767,-0.0571918456213,-1.0973074569,-4.97611649795,-2.81656521742,-2.45150721082,-1.49247508837,-2.73630275544,-0.550917241747,-1.25834140847,88.997427282
do_nothing,0.668152057602,-0.260377897152,-2.94749123511,-1.98080635274,0.321332311762,-1.6657910296,-5.75891603704,-4.07778922675,-2.2568452583,-3.097638819,-2.9903058773,-2.25474182929,-2.0954161528,116.951946525
do_nothing,-0.281562785347,-1.46209478883,-3.05761597844,-1.70782507337,0.468659807887,-2.25552499995,-6.18467805591,-5.14253768182,-1.98948047843,-4.5970079212,-3.10654688196,-3.86417967555,-2.85634790436,134.496658389
do_nothing,-1.24037903125,-2.56512042719,-3.05768164512,-1.39299964068,0.380384936261,-2.80576090529,-6.22999780731,-5.90996440601,-1.65641323371,-5.84865229561,-3.06665376546,-5.24388717228,-3.44536494981,140.218638522
do_nothing,-2.10324771119,-3.45432608704,-2.93735085649,-1.04570407499,0.0850116964383,-3.25392337286,-5.90309170707,-6.30148326371,-1.26557828345,-6.72762541162,-2.86247362004,-6.27923609772,-3.78282492123,133.911674095
do_nothing,-2.77772239426,-4.04028427948,-2.69418074052,-0.673032402771,-0.360514352378,-3.54238018056,-5.24039164514,-6.2681649701,-0.82633236299,-7.13804496065,-2.49726037767,-6.8864434276,-3.81449526565,116.580112484
do_nothing,-3.19365356022,-4.26833066018,-2.33360942726,-0.280571463672,-0.878520617913,-3.62463721275,-4.30035973159,-5.79520598331,-0.349996828317,-7.02240689029,-1.9857502495,-7.0191447445,-3.51773271936,90.3077863118
do_nothing,-3.3099114516,-4.12307823018,-1.86806182697,0.126390624503,-1.38056139534,-3.47028986601,-3.15553737589,-4.90310800683,0.149703655172,-6.36727173312,-1.35313207952,-6.6709474335,-2.90391462329,58.0086188402
do_nothing,-3.11749522124,-3.62805841636,-1.31540330337,0.54149694095,-1.7783898381,-3.06824249949,-1.88402253147,-3.64557728594,0.656455561318,-5.20484415357,-0.633055613739,-5.87399172614,-2.01694817187,23.0894770983
do_nothing,-2.63885826551,-2.84080339194,-0.697048029149,0.956095976285,-1.99466354743,-2.42793558606,-0.561570426805,-2.1045034086,1.15153792176,-3.61038116895,0.135068041633,-4.69399656094,-0.928160908106,-10.9340394933
do_nothing,-1.9237511198,-1.84425303768,-0.0360531194023,1.35843227963,-1.97218631042,-1.5785638607,0.744660181246,-0.38266563945,1.61442907694,-1.69576741403,0.909147601204,-3.22261883152,0.271702600297,-40.8231531205
do_nothing,-1.04229362203,-0.735795009404,0.644501036265,1.73345683376,-1.68070657608,-0.566495461598,1.98001189697,1.40499101721,2.02383000634,0.40005308114,1.64752426567,-1.56817166436,1.48233723828,-63.9577230847
do_nothing,-0.0762869132922,0.384523461585,1.32262223414,2.06335577371,-1.12060922213,0.548716287137,3.10359482029,3.14058570412,2.35902699006,2.52283204749,2.31179074363,0.154186157321,2.60437144386,-78.5954176541
do_nothing,0.890070499597,1.42506059323,1.97789961851,2.32877512112,-0.323208616718,1.69922023384,4.08706773276,4.71214516535,2.60145698281,4.51584083882,2.86905924355,1.83175573924,3.54926520183,-84.0202020682
do_nothing,1.77890321488,2.31156687315,2.59139498026,2.51060130302,0.652267914872,2.81410381957,4.91149345245,6.02130104768,2.73629799139,6.23259766388,3.29351900364,3.36226221318,4.24751203971,-80.5662192374
do_nothing,2.52581155952,2.99310782611,3.14506911625,2.59206091871,1.72456981327,3.82445978895,5.56313180142,6.98928866723,2.75389038154,7.54839729317,3.56723551528,4.6599179883,4.65430736615,-69.5186721363
do_nothing,3.08472925357,3.44442006687,3.62097531014,2.56084346535,2.79847238009,4.66785708608,6.02918986759,7.56094252598,2.65080617109,8.36970447159,3.68025086384,5.65933450184,4.75219724534,-52.9082739414
do_nothing,3.43011530315,3.66472303246,4.0005065766,2.41093662284,3.77408890026,5.29192411571,6.2945329454,7.70663461457,2.43042069613,8.64070975335,3.63013110132,6.31732525452,4.55061446778,-33.2283291752
do_nothing,3.55649252933,3.67350067308,4.26398838468,2.14389714552,4.55647376484,5.65690418716,6.34017275824,7.42232085154,2.10289940392,8.34663155367,3.4211598666,6.61288051292,4.08259101385,-13.112013626
do_nothing,3.47570163076,3.50415868561,4.39086262554,1.76935596193,5.06457448437,5.73718707348,6.14402076055,6.72802203568,1.68458368991,7.51365095392,3.06339108889,6.54574814382,3.39925985566,4.98905356553
do_nothing,3.212521612,3.19670293662,4.36061766633,1.30466188597,5.23871304741,5.52193557973,5.68397431636,5.66515282973,1.19683357004,6.20565726674,2.57174784569,6.13411377948,2.56298630962,19.0856250963
do_nothing,2.79947913442,2.79064612536,4.15449611975,0.773688050809,5.04597043132,5.01499663979,4.9429581119,4.29312290214,0.664451132338,4.5182373151,1.96529617075,5.41184152962,1.64007580126,27.8584023097
do_nothing,2.27171189691,2.31923134693,3.75787396372,0.204940556775,4.4830850526,4.23430611378,3.91514320479,2.68557834098,0.113857902479,2.57054026489,1.26674398309,4.42563280903,0.693983545299,30.770356338
do_nothing,1.66266436703,1.80578746724,3.16307175208,-0.370797415888,3.57672792974,3.21096774996,2.61227706048,0.926548944421,-0.428775215742,0.495780067459,0.502131680768,3.23231481785,-0.22018820914,28.0748043158
do_nothing,1.00119617504,1.26264784442,2.37225041578,-0.922994335785,2.38125778213,1.98812079199,1.06892969108,-0.893355582851,-0.939248109172,-1.56880614838,-0.299391760654,1.89631568207,-1.05935358999,20.723928986
do_nothing,0.310407622515,0.692630842331,1.39997715522,-1.42376513102,0.974266550271,0.619624911505,-0.654479845843,-2.68067217991,-1.39673191843,-3.49174130176,-1.10586128488,0.487252691735,-1.79400762314,10.1949524686
do_nothing,-0.39182339192,0.0926629870064,0.275032599416,-1.8498549073,-0.549615097264,-0.831493736404,-2.47176708984,-4.3427875864,-1.78472915433,-5.15611104057,-1.88302467154,-0.922521022583,-2.40774114709,-1.73905603808
do_nothing,-1.09089576484,-0.541215355297,-0.958926475295,-2.18400305408,-2.08607949399,-2.29495507982,-4.27466468183,-5.79170470049,-2.09153613905,-6.46679580429,-2.59525172377,-2.26058317287,-2.89503865057,-13.260927447
do_nothing,-1.77267309282,-1.20843773945,-2.24413654807,-2.41557549517,-3.52905163131,-3.69564169587,-5.94008820411,-6.94793544308,-2.31021846456,-7.35571041839,-3.20690898549,-3.45744594905,-3.25791212532,-22.7496129372
do_nothing,-2.42049386608,-1.89913016141,-3.51107317811,-2.54046130461,-4.77853275874,-4.95664268505,-7.34043427136,-7.74450906419,-2.43817298826,-7.78481656197,-3.68420120849,-4.44991814157,-3.50205456761,-28.978079484
do_nothing,-3.01272517138,-2.59089803246,-4.68234426193,-2.5603336186,-5.74781250573,-6.00297725386,-8.3558710336,-8.13097491079,-2.47639861701,-7.74686253558,-3.9973851038,-5.1847133411,-3.63322294709,-31.2453076999
do_nothing,-3.52149505631,-3.24787545735,-5.67791804742,-2.48145794295,-6.36956537105,-6.76593866593,-8.88721307679,-8.07715661071,-2.42862616341,-7.26398013092,-4.12316978876,-5.62205428916,-3.6544824236,-29.428860862
do_nothing,-3.91304711377,-3.8223797672,-6.4213004425,-2.31328139638,-6.60045077778,-7.1878628659,-8.86778364647,-7.57630760185,-2.30046153158,-6.38441705662,-4.04704777684,-5.73891191014,-3.56477549059,-23.955890302
do_nothing,-4.14989213042,-4.25910826666,-6.84613489973,-2.06704739434,-6.42395191248,-7.22698723531,-8.27269160771,-6.6472521451,-2.0986767201,-5.17779570257,-3.76526353588,-5.53145750129,-3.3590475052,-15.7015989784
do_nothing,-4.19462555943,-4.50141226821,-6.90260603324,-1.75465142143,-5.85130978051,-6.86194834584,-7.12419339388,-5.33509189869,-1.83074349517,-3.72935932209,-3.28613175692,-5.01631495985,-3.02989776549,-5.83359803905
do_nothing,-4.01498160459,-4.49884373852,-6.56299771232,-1.38789085216,-4.92052988397,-6.09539674481,-5.49224522185,-3.71012674728,-1.50465187569,-2.13369332501,-2.63046634114,-4.23028214509,-2.57047039051,4.37295128467
do_nothing,-3.58944964989,-4.21494108384,-5.8257938029,-0.978176535516,-3.69355585087,-4.95620021537,-3.4899240316,-1.86477888936,-1.12899840166,-0.488394538193,-1.83096875123,-3.22833914932,-1.97808767063,13.7217796586
