label,COUNTER,INTERPOLATED,AF3,F7,F3,FC5,T7,P7,O1,O2,P8,T8,FC6,F4,F8,AF4,RAW_CQ,GYROX,GYROY,MARKER,SYNC,TIME_STAMP_s,TIME_STAMP_ms,CQ_AF3,CQ_F7,CQ_F3,CQ_FC5,CQ_T7,CQ_P7,CQ_O1,CQ_O2,CQ_P8,CQ_T8,CQ_FC6,CQ_F4,CQ_F8,CQ_AF4,CQ_CMS,CQ_DRL
off_to_on,2.16683455569,1.86538137872,1.84871535506,0.980910669623,1.38934341298,-0.670604620125,2.78317994703,1.62516510923,0.734221121227,1.13694560716,0.783432080122,2.48260430913,0.454436704119,-69.171602816
off_to_on,-1.57810496831,-2.74511769937,-1.75402640149,-1.3541958399,-0.379513472258,1.04921506939,1.73006048686,-1.98432914467,-0.734276086576,-1.98685937821,-1.54142332821,-2.48484497562,-2.65843605591,59.8482802819
off_to_on,-0.0979503558505,0.87495698842,0.579957152957,0.543909587199,-0.0761002968899,2.07601953173,-0.965618455913,0.732250820483,0.731316556731,1.4026536474,1.10814549308,0.348285292068,1.86022155832,147.083153831
off_to_on,-0.977229605028,-0.360378457233,-1.28758507709,-0.336144835479,-1.4443952995,-3.37401993561,-5.05591644687,-1.37159777276,-0.715058220454,-1.78393627792,-0.872249264775,-1.01257378105,-0.104374635992,-123.152283278
off_to_on,1.94523726911,0.893378312225,1.34262045881,0.965976811177,2.24711710382,1.27238350992,3.50509714474,1.33026977783,0.700781890568,0.906297125007,0.884396050859,1.31410603471,0.108985804303,-93.9569317273
off_to_on,0.260994286723,-0.040084187973,0.72864369654,-0.903595567367,-0.322962774817,1.01786488921,4.49867017981,1.37789918431,-0.694719446584,1.82646813463,-0.0529945189009,1.02674648771,-0.673579440421,64.9986363323
off_to_on,-1.24049417464,-0.447823353631,-0.854706625457,0.289705815336,-1.17176170585,-1.76120991121,-3.52738693689,-1.43135496859,0.680130793847,-1.40660612475,-0.450457158609,-1.08530238323,0.372412745098,149.719698765
off_to_on,-1.44804531329,-0.983159623737,-1.61547471072,-0.570297451948,-0.422273127655,0.51953113467,-5.22089539805,-2.56666473871,-0.653464843586,-2.6350082838,-0.837650774578,-2.12104381333,-0.274403542622,-104.869434898
off_to_on,2.07953054703,1.41095279108,1.60876566709,1.27226677196,2.01751533159,2.71272286271,4.72354350975,2.8848066397,0.633559438402,3.21779749094,1.8326517879,2.42190128899,0.822884497155,-117.273545062
off_to_on,1.0807383092,0.259280972099,0.858571974387,-0.847708052697,-0.66578214461,-3.91537195123,4.05276679521,1.88999841524,-0.628758364925,1.07961151999,-0.409690319765,0.870159769439,-0.732631122817,69.45413279
off_to_on,-1.00833112317,-0.300026996768,-0.16648700142,-0.110866588746,-0.743167230729,-0.305031164318,-3.43811183317,-2.18498081554,0.625484476402,-2.3112044189,-0.836158755325,-1.23236060346,0.166157849764,145.621088906
off_to_on,-3.40562143125,-2.12864361283,-2.94454478419,-0.0886072204921,-0.796408292203,3.7017233548,-5.76733369426,-3.7880288767,-0.602963631987,-2.21598308619,-0.857070675325,-2.25813110748,-0.777043527109,-82.8666153787
off_to_on,3.67355685264,2.61001085984,2.32418775852,0.996290591764,2.51953430508,0.895756559098,5.70021519037,5.01306413042,0.550499836648,4.59624295199,2.54986042557,3.41105727874,2.01312276214,-136.314587487
off_to_on,1.49649303221,0.0816073261418,1.11048625,-0.945464608338,-1.16859863554,-6.36316101155,3.47323055081,1.45906004253,-0.49653178115,-0.52978886193,-0.726969238459,-0.393464829582,-1.43285273712,72.3066852045
off_to_on,-2.87381293751,-1.55510343337,-1.24030275519,0.16835657589,-1.01970153539,1.95340357872,-4.66557347408,-4.29851672818,0.495180846003,-3.30932901151,-1.63665983142,-2.02543809052,-0.733136523166,137.230514487
off_to_on,-1.47253871234,-0.0540451782439,-1.2006796587,-0.149485558168,0.667123951565,5.75087589643,-2.82690498735,-0.899514188664,-0.528576530096,1.18615093752,0.237486414474,0.950120244653,1.30471291456,-61.1204625756
off_to_on,2.79742965738,1.30907629331,1.01480820665,0.801508907866,0.980103551915,-3.2426088441,4.07081344231,3.99733838246,0.492825534907,2.64701572498,2.36502627323,1.37028135017,0.566461680834,-149.27080823
off_to_on,0.898243760345,-0.256780605502,0.855470112864,-0.805074630342,-1.0845258004,-4.91748199605,1.73674804458,0.00223863929206,-0.373937519791,-2.06400235652,-1.35861946071,-1.71266002752,-1.72922060842,73.3565641304
off_to_on,-1.78087895578,-0.652493776958,-0.246416235731,0.0911471020535,0.128328297825,4.42261135578,-2.32865506054,-2.65648604887,0.316417865608,-1.24972117904,-1.36637321196,-0.17828959898,0.388796851227,126.719305082
off_to_on,-1.71910124337,-0.471724065252,-1.60303740689,0.146734003865,-0.0334370842162,2.59380355109,-2.37585037886,-0.784737675868,-0.381040709722,1.57213479208,0.847515380912,1.13482461095,0.747084946044,-42.5787030003
off_to_on,2.60804183014,1.92737189973,1.36670331713,0.416183515809,0.52833787123,-3.20593325745,2.52693277191,3.35416863285,0.406124077778,1.58623505596,1.79285039936,1.05070911011,0.58491418661,-155.80147949
off_to_on,0.276510475434,-1.38842701157,-0.0944610425468,-0.781198849446,-0.456737033149,-2.10874819002,0.966097554179,-0.768112794793,-0.288526144617,-3.1605673255,-1.81547657649,-2.9149678443,-1.94269131406,73.1430103169
off_to_on,-0.984772573005,-0.627292092704,-0.0199679410194,0.336406282083,0.242475831964,3.30615668986,-0.431696072375,-1.46742289663,0.186462750075,0.637088407006,-0.444343106169,0.388385039048,0.657893509049,115.751389767
off_to_on,-1.06490662849,1.30585569243,-0.306361363816,0.215012856441,-0.588350428327,-0.387131603418,-1.97553873661,-0.103348722836,-0.226992975065,2.13954619682,0.988737870161,2.65881604873,1.10977676136,-29.0041636392
off_to_on,0.943075624788,0.447479004299,0.150052429308,-0.0450593151193,0.659743149956,-0.555655520452,0.193141164701,1.1504130762,0.262697203821,-1.25134739285,0.297506640745,-0.453797388586,-0.417763585669,-156.676022047
off_to_on,1.24263199308,-1.68712389453,0.13795324443,-0.489102535671,0.307537697366,0.857338172229,2.44751961605,0.688863366482,-0.160820077834,-1.12545143618,-0.502141632934,-2.79463060538,-0.940435099691,72.7860019661
off_to_on,-1.28533914587,-0.261969396084,-0.711887286845,0.491156619388,-1.0918508868,-2.54756301635,-0.705199513207,-1.58146001904,0.0597336607112,0.88945051349,-0.29485789862,0.134792040689,0.118179922097,103.538172268
off_to_on,-0.431963039152,2.45051531574,1.07048031217,-0.03495488241,0.280318153393,0.711339877033,-1.78445566218,-0.227736199971,-0.0866525670422,0.946670717932,0.0322358747438,3.54330952795,1.17058607913,-13.4577547255
off_to_on,0.681831259777,-0.523540060822,0.357976453998,-0.0770560480763,1.07764974263,4.41051588826,0.672820274427,1.36119866091,0.109848358972,-0.737129881561,0.670958413321,-0.241021410248,-0.180475904928,-170.321262905
off_to_on,-0.0992408121809,-2.94784561912,-2.14760465871,-0.124338569369,-0.91666082309,-3.39212101008,0.680148591303,-0.353524151084,-0.0151125623765,-1.03857368664,-0.145903721548,-4.38007550044,-1.36108031401,93.2098065258
off_to_on,0.683005362451,2.03280543798,0.884013202882,-0.0955793677133,-0.351880795346,-3.8792823066,0.642000318525,-0.146995835833,-0.0702152207006,1.29891461654,-0.528478987563,1.28677374833,0.754699021345,91.5939454488
off_to_on,-1.03094573968,1.72716182282,1.69919199141,0.518484873386,0.49850563845,4.53556195288,-1.24157655892,-0.725293760794,0.0491166955728,-0.142164603952,-0.194454135088,3.54804344754,0.456611761137,-43.0412794116
off_to_on,-0.292539927006,-1.73961171124,-0.774271489861,-0.235928206502,0.516211947299,3.48465430595,-0.578728653291,0.597528668564,-0.0450997593054,-0.364260596334,0.909273145048,-0.769108101413,-0.017775927188,-113.485800782
off_to_on,1.35134571468,-1.31786814014,-1.77111983183,-0.412574691649,-0.451908596059,-5.53785088937,1.32419317204,1.02521504639,0.134613502164,0.436086985314,0.0827568005064,-3.33677324672,-0.411316172069,70.7657166773
off_to_on,-0.697925517079,0.906413289227,0.190649792607,0.244464096549,-0.910020207605,-2.99675661867,-0.104497931951,-1.64560385173,-0.197038713197,-0.913263305446,-1.36628812123,-0.219823818322,-0.896772468378,59.3948567019
off_to_on,-0.0303927968951,2.4630850116,3.23315011439,0.50381178552,1.17704569001,7.20269573311,0.108304740663,0.385979996269,0.177591843991,0.737515064265,0.944966556147,4.43874107922,1.72151821324,-8.4879388987
off_to_on,-0.308960900522,-2.14503933081,-1.75748479516,-0.619567256633,0.0832310895135,0.369737876924,-1.22570293178,0.576738330391,-0.194126047765,0.210535595131,0.290189726665,-0.767283690079,-0.299029299274,-108.874669121
off_to_on,0.546881112438,-1.54614597378,-2.33919610047,0.239448683745,-0.431757493329,-6.21471518096,0.433191838764,0.110520318658,0.279961297387,-0.0215348885108,-0.416662866981,-3.19799138064,-0.941299066011,56.2629419998
off_to_on,-0.0574269434867,1.95785338783,1.66946166804,-0.264537669031,-0.657732706913,0.528502989574,1.17141285098,-0.916614034806,-0.320043762792,-0.964948819441,-0.335750173934,-0.32907419797,0.0633735812145,41.0073397467
off_to_on,-0.260610152171,1.07147528548,1.96447447173,0.330163445774,0.77069260139,5.94869018503,-0.396928318687,0.245950303707,0.300239401845,0.148980715477,0.573817038001,3.172817414,0.814274948918,24.6064639196
off_to_on,0.0491862947744,-1.56355738787,-1.45771717948,0.0422115230085,0.505401188836,-2.06887749491,-1.11101124985,0.915620488826,-0.331029698208,1.62162818346,-0.190590080856,1.24461084664,-0.0313631163314,-105.470953484
off_to_on,0.188767100274,-0.730067015292,-1.56996914913,0.166112418473,-0.642182221355,-4.8524181703,0.176063012364,-0.587306543378,0.409524610948,-0.762282750896,0.00820217398318,-3.56962466138,-0.487985177467,11.6103477873
off_to_on,-0.382904452792,0.693364917195,0.686211992313,-1.21749556517,-0.761335713805,3.15062585415,0.94945319606,-1.097052552,-0.431619207764,-1.99915804502,-0.264310923819,-2.14031984844,-0.584252021564,87.4455008822
off_to_on,0.779285251569,1.68650836387,2.40680262368,1.1714127148,1.22838166613,3.92896502833,1.03524554411,2.00403108214,0.414389269436,2.36908186235,0.675766769574,5.38771638752,1.43479040654,-18.1307284463
off_to_on,-1.20929080992,-1.95600455846,-1.94433638041,0.447000660327,-0.404165353098,-5.3881109641,-3.14291991736,-1.108653217,-0.453014549521,-0.20839929237,-0.982488367521,0.128921890159,-0.861962522407,-28.327346538
off_to_on,1.23456073051,0.119562220379,-0.486558135311,-0.862043011757,0.418238287224,0.111839512729,1.22926849743,-0.127616191986,0.518402907112,-0.66392014577,0.844147881079,-3.97596057862,0.253876016153,-91.0755666585
off_to_on,-0.596801363511,0.222606486852,0.112918282227,-1.0110354318,-1.17120488852,3.3351517536,1.74784049283,0.105055680846,-0.526040681681,-0.476000287039,-0.233297225002,-0.606758236155,-0.525370615521,132.687950955
off_to_on,-0.261658305619,0.90320991568,1.50880595288,2.02932155024,0.713085641215,-0.676356477697,-0.74931228113,0.630384619222,0.514409068392,1.11302913481,-0.041822082425,4.49747931087,0.800398574841,38.5770675285
off_to_on,0.289891161915,-0.823057052155,-0.676966063669,-0.487726853724,0.301240511083,-2.75394653863,-2.09167612783,-0.594718694337,-0.555577139839,-0.648813682393,-0.548303627968,-1.00203968156,-0.538596859502,-117.81054546
off_to_on,0.517231735346,-0.325307219714,-0.973513206455,-0.595273903372,0.117213742505,1.44030834437,1.44522681739,-0.195777320365,0.603806793456,0.0927844061184,1.06238012224,-2.91312620399,0.0632120293419,-54.3149316943
off_to_on,-0.655009617691,0.485678928981,0.452904795683,-0.718567346464,-1.04150134662,1.52713484843,1.44016323852,0.397079864139,-0.600291407791,0.496172398564,-0.577723598705,1.24167739361,0.374058164248,134.277332496
off_to_on,-0.0459762552031,0.574914774529,1.10013992445,1.65148149448,0.684831407462,-0.220853175251,-1.13107925248,0.510442510009,0.595525089373,-0.369902793914,0.0156874033357,1.95535107615,-0.12428355965,69.8931893673
off_to_on,-0.446220073739,-1.64415998398,-1.6480143728,-0.383998415089,-0.219624013416,-3.08515297274,-2.22377524386,-1.509244274,-0.63437943917,-1.59216377472,-0.534562678978,-2.46246908522,-1.33375765145,-197.851562726
off_to_on,2.17256404943,1.85999149749,1.45284373767,-0.391176657195,0.95470827991,1.6979576549,3.29844731227,1.56176007123,0.663645737209,3.02983795664,1.29344350357,1.44307658322,2.403182667,22.2303826207
off_to_on,-2.08812403096,-1.01870126679,-0.93296366217,-0.960897254817,-1.26810541148,2.10458247633,-0.68132083196,-0.943211490106,-0.65218181478,-0.992958783651,-1.06454292855,-0.237158159767,-1.15199965246,111.707235397
off_to_on,-0.137808234889,0.0199073778829,0.176499755172,1.72592885904,0.339598816274,-0.1590610507,-1.24586235498,0.603390479273,0.653689451214,-1.41358515159,0.554205833692,-0.505547750249,-0.704216253835,38.2479084034
off_to_on,0.632627748353,-0.245591793479,-0.251569093757,-0.347917082114,-0.286649498029,-4.96829743112,-0.236108293952,-0.705003034856,-0.686026956813,-0.346203118155,-0.724843929211,-0.647785021941,0.0476426981633,-159.589033507
off_to_on,1.40545117169,1.11689476671,1.08482569,-0.490516169284,1.40346855814,2.71664279741,2.22508104332,0.57754222378,0.696839950192,2.93305526639,0.738298199926,2.11340071853,1.85105602012,24.2808698685
off_to_on,-1.70200240942,-0.667663495353,-0.68699677443,-0.829634653969,-1.02167357721,4.69624414835,-1.24060830269,-0.050416306082,-0.680466828537,-0.713254503244,-0.0217228082019,-0.45520128524,-1.30289247324,83.9776382215
off_to_on,-0.753108676657,-0.616000900613,-0.664877754065,1.89553279745,-0.648217883109,-3.89631505885,-1.27621949352,-0.146710896539,0.686074331597,-2.77035499523,-0.0223290771637,-1.98542808839,-0.843852320908,34.1638139377
off_to_on,1.26781635924,0.250563045957,0.192098091598,-0.99924529017,0.305288352289,-4.65802341453,1.24445023301,-0.399247064869,-0.708411065865,0.744399406621,-1.1679514547,0.176617887383,0.575095185254,-118.390028088
off_to_on,1.52674689232,1.52507494086,1.69080488004,-0.0689579965654,1.63549994197,5.88679074387,1.59284882315,1.17959274484,0.703009251743,3.67150931365,1.65297783713,3.19007351221,1.79182647034,4.56480096076
off_to_on,-2.82906941965,-1.96986445499,-1.73045084481,-0.237790604423,-1.61165475761,2.07922548575,-3.10962832333,-1.67207899961,-0.684432302998,-2.98604740603,-0.55515705212,-2.10515429792,-2.24882959184,66.8203777396
off_to_on,0.794534662472,0.813001503546,0.401525388792,0.929122139609,0.234773820991,-4.06790675658,1.40499574586,1.67856726233,0.691162006786,-0.84536391372,-0.0279216197716,-0.847709969555,0.514966533247,30.6545187872
off_to_on,0.377987267069,-0.323083476074,-0.791409374912,-0.993460809578,-0.793018937353,-3.52619939133,0.326668157486,-0.839440286734,-0.701065625757,0.8618355314,-1.00060206354,-0.206709776596,-0.0529793823391,-74.4157686761
off_to_on,1.04774670716,0.861411173558,1.82664142484,0.765022176866,1.88065765191,6.2206633471,0.260555438097,-0.450367827696,0.682647765025,1.89038984627,1.55669112645,2.53084189433,1.30701137511,-23.9531526723
off_to_on,-1.57401634889,-0.815086799835,-0.553709595238,-0.542573158244,-0.339734397805,0.994886169208,-0.855387929294,0.362600169872,-0.66384350616,-1.81768504828,-0.430155826603,-1.00620383475,-1.38139063174,58.478815562
off_to_on,-0.0141158546096,0.0792188255663,-1.1459661536,0.406126332905,-1.28862982315,-5.05998430654,-0.152835506958,1.43131579282,0.668576114749,-0.332579010077,-0.402881273219,-1.19586872544,-0.0925181973136,23.2774643159
off_to_on,0.69125561764,0.134805411294,0.114597787346,-0.71951103747,-0.569671930679,-0.351022924182,0.2500260408,-1.80404388475,-0.665002040343,0.562639062607,-0.366005154134,-0.0481705228902,0.59333559724,-31.7452361686
off_to_on,0.390064344674,0.290032707304,1.52979179606,1.12362064294,2.62565273156,4.88284604617,1.45186654324,-0.755864227493,0.63717168607,0.398068360556,1.12288386073,1.27993713142,0.410192504209,-52.4444517965
off_to_on,-0.981588836112,-0.756384322159,-0.847260048759,-0.688695379562,-0.759271607563,-1.76338108479,-1.51775227528,1.96351957795,-0.619176599563,-0.494673996215,-0.705322111974,-0.00160877018326,-1.12689293888,55.406992601
off_to_on,0.862435601467,1.13667092267,-0.012706722861,-0.0167025728767,-1.52892116359,-2.19539144118,-0.691943865787,1.37660117503,0.619126660539,1.01415772018,0.280134400894,0.264047075363,1.07262515787,14.6694722359
off_to_on,-1.36298433709,-1.26866430817,-1.1249922463,-0.42118225101,-0.210787475039,1.01759733414,0.55436875753,-4.29652911743,-0.602478911699,-2.11502939017,-0.601992631413,-2.6077676027,-1.07979776276,-0.71298749213
off_to_on,1.47023648125,1.00628780887,1.76231032613,1.29399799328,2.70798189692,2.09964146871,2.82350350324,1.569041874,0.56880097284,1.27767800833,0.867241632522,1.79812190697,1.01245538254,-67.0929122019
off_to_on,-0.0933177684667,-0.768942717562,-0.400388663828,-0.794287077158,-1.55518903717,-2.9665599557,-3.42602649827,2.24698656381,-0.551742795526,0.635200718996,-0.812841984638,1.27154073607,-0.496356297571,50.1761390176
off_to_on,-0.64250152299,0.54987101308,-0.213882969003,-0.29974423416,-0.604897156352,1.39790677772,-0.863079433264,-0.666537187172,0.54481632432,-0.142451423582,0.827119237486,-0.408454749068,0.213578841261,4.59574204427
off_to_on,-0.682982864671,0.187998138707,-0.728982539362,-0.127833310162,0.112269875748,1.21656597969,3.23267409494,-2.57662958122,-0.51676126984,-1.47155181671,-0.448467663121,-2.35594129223,-0.440592077928,21.0912891609
off_to_on,1.3952697212,-0.636069054016,0.445617411441,1.34368273225,0.892720234833,-2.26003271722,0.293733243851,0.859109662105,0.4801971658,0.520526037563,-0.374281710958,0.466922964772,0.396572910816,-68.4436141481
off_to_on,0.319152108406,-0.419121966676,0.884505829055,-1.06166618791,-0.0403625021632,-0.141932944801,-3.34291897296,2.28836706562,-0.462399593287,1.18457122675,0.165531881899,2.57178329547,-0.0435439581885,40.7362731801
off_to_on,-1.51638183216,1.44819833373,-0.183631530119,-0.170655879613,-0.391016975535,2.49832939384,0.612750525897,-0.293451662776,0.44515424064,-0.0454662413567,1.19093665605,0.154657758107,0.111936605371,-4.57037148144
off_to_on,-0.310951439454,-0.33590396259,-1.60606286578,0.164626704656,-0.954634721718,-0.712002973561,2.42788057288,-3.19186114868,-0.408214954754,-1.68774759521,-1.31323052688,-3.72119274116,-0.383111108575,34.6450356268
off_to_on,2.61018654953,-0.844652909578,1.17082421213,0.72461408172,1.43626747763,-1.34598031195,0.230794879939,1.56287630172,0.379725447117,0.870039399884,-0.234112698102,0.894145617705,0.457443351395,-60.4024789563
off_to_on,-2.0975816214,-0.898584425587,0.11265420092,-0.669570779732,-0.158666029994,-1.25051808424,-3.89679331762,1.56793274311,-0.374262365092,-0.0660339827135,0.473997374422,2.35903555161,-0.964142477876,28.9786523865
off_to_on,-0.200099429556,2.86986801401,0.721947867279,-0.0164400262316,-0.269214167361,3.34207785227,1.84722646893,0.0728721045781,0.347605728426,1.29705685184,1.25609274487,0.952016269193,1.59289881286,-11.5824772932
off_to_on,1.22928171177,-0.844839437135,-1.45918905779,-0.0635770457984,-0.702462577139,0.686930591319,2.38227743363,-2.728913234,-0.282849957889,-1.17881925492,-1.45718270926,-3.7233628022,-0.635482372462,40.3332952587
off_to_on,-0.180023267044,-2.30881729464,-0.499661514584,0.554632987655,0.853134117592,-3.71967959406,-1.69799919213,0.600146565234,0.240722106348,-1.13926244303,-0.721901910634,-0.497958617389,-1.21851905446,-46.4728783808
off_to_on,-1.3211929758,1.13431301958,1.75004485603,-0.46956942306,-0.0512606169136,-1.12337950358,-1.87358249785,2.30359438716,-0.246674030079,1.08319993295,1.26087254595,3.41117046096,0.884773658542,17.1067400009
off_to_on,1.20246483979,1.95654426927,0.39503168985,0.160157662773,-0.118172317118,4.99043471534,1.58319822964,-0.714521888292,0.226420798047,1.39157148675,0.967908710292,0.751449872875,1.17340322337,-16.0751203753
off_to_on,0.925244794601,-0.953858110273,-1.6663063482,-0.160151737387,0.0827151390838,0.573210051003,1.80178326603,-1.29162830309,-0.146747986662,-0.73919510286,-1.5663008211,-2.75358149335,-0.896516933672,39.2832617734
off_to_on,-2.33747245796,-2.04195238977,-0.672837029994,0.152019355817,-0.559199501019,-5.6401636705,-2.03467946668,-0.358909427965,0.0975890329251,-2.14776620807,-0.808981144712,-1.79757137573,-1.44043650549,-29.6881362637
off_to_on,0.122477275853,0.711158172242,1.62851481544,-0.0868584479272,0.115492198181,0.222490141402,-1.46224681301,0.917459517525,-0.120233824404,0.581673499539,1.39313099492,2.35655794195,0.909826655219,4.31262934546
off_to_on,3.3659389237,2.96467793412,1.5165866962,0.207324864016,1.37720493474,5.74996016744,3.15607493423,2.31087481802,0.107619717052,3.65889666256,1.37109824666,3.72378869252,2.30759742476,-8.79569072144
off_to_on,-2.62473384448,-2.14354804403,-2.96374907253,-0.0561887819306,-1.26652542524,-1.59468388623,-0.703225130363,-2.84320501759,-0.0113334669825,-2.26500927562,-2.25312152062,-3.78600886552,-2.18415138001,15.5571300339
off_to_on,-1.86130565688,-1.86018098418,-0.440254463037,-0.459984924818,-0.680667435199,-3.6919822922,-2.07825169415,-1.81807056368,-0.0417522826309,-3.02521284421,-0.841681825787,-3.78671967835,-1.68432035225,0.169910787127
off_to_on,3.27918868537,2.21960002431,2.72413769093,0.287769437592,1.17667308858,0.544079163567,1.53125522978,3.6716168795,-0.00543680905078,2.72169492141,2.48255539947,4.31862717305,2.52383316585,11.4533054361
off_to_on,0.302802672038,0.699587976129,-0.272262700177,0.530749329117,0.306270880236,2.52077148488,1.02020136309,0.722083594469,0.00571133988615,2.20893830108,0.204753273876,3.59408174877,1.00440901275,-59.7736048501
off_to_on,-2.50384454337,-1.12007766925,-1.62458951483,-0.281790933688,-0.632704280968,1.69366232095,-1.71700200072,-3.24938947072,0.111943530901,-2.2088537124,-2.15252353588,-4.17354120189,-2.16098919934,62.0987284327
off_to_on,-0.208241205502,-0.912020151133,-0.405007135244,-0.950557902864,-0.576638534892,-3.75550859865,-0.57347447347,-0.39709285205,-0.188960486122,-2.41151750273,-0.150672313911,-4.04709003991,-1.12591194843,0.160416989286
off_to_on,2.72566477691,1.10333084926,1.8719419153,0.820488332737,0.656395604408,-1.6442757798,2.71231999677,3.2182484371,0.141577604252,2.8035319417,2.43131827678,5.16264871973,2.72597034669,-29.4062771349
off_to_on,-0.878903509676,0.124746594859,-0.065581493822,0.639995741582,0.193601123202,3.80446079497,-1.35964210175,-0.757265462537,-0.127944521707,1.16812542561,-0.797030600119,2.61731789543,-0.10011489622,-10.1021828502
off_to_on,-1.81339637413,-0.0496540054272,-1.30623250632,-0.530216267965,0.137106276597,1.62212527327,-2.1710178926,-1.91607577674,0.234360277605,-2.12145453349,-1.64428859112,-4.68959301716,-1.87771005085,28.5407308362
off_to_on,1.40615616055,0.105794725973,0.365846689826,-1.27403811535,-0.533260424744,-3.58202534119,3.14650158771,1.27595025129,-0.307386624023,-0.135193911197,1.02369191101,-0.893687216679,0.758493654136,20.2780501334
off_to_on,0.328163849334,-1.50021271625,0.176690088551,1.44089926264,-0.589403760942,-1.36868183364,0.0957126310687,-0.127102881756,0.266869754949,0.532887549244,0.993014087805,2.63675811245,0.442917480961,-67.7022145886
off_to_on,-0.855925157758,0.83346587008,0.10955100125,0.454872141307,0.85003818354,2.79527851605,-3.43340522151,-0.441714830509,-0.260277814492,0.0295408674166,-1.26352648845,0.171176761542,-0.569337156713,60.083095153
off_to_on,0.934380911488,2.58079929874,0.898525179727,-0.924538631691,1.21543753882,1.41835886074,2.45634576292,1.91205392219,0.355417462931,1.35248772879,0.282630296253,0.152015282479,1.174544521,-23.481287614
off_to_on,-1.07387626366,-3.16656684686,-1.89070612439,-0.793297416955,-2.05681306752,-2.23312613155,1.24469344202,-2.26353862311,-0.410606354987,-1.78437475002,0.00486512130681,-1.52001845551,-1.33476661285,-1.38842631588
off_to_on,0.358729762556,-0.613738130082,0.542475594214,1.41844881691,-0.0425672126297,-0.407295337014,-2.09959047745,-0.221158384325,0.3734555495,-0.457702275361,0.44605533577,-0.521671516656,-0.0748431698072,-3.31408876935
off_to_on,0.178150345203,2.12740373174,0.650173057235,-0.0657812717461,0.897894299451,-0.733036662527,-1.37626717099,1.30098738104,-0.379379148368,0.686631082666,-0.763542933453,0.54415288438,0.343295208964,21.5617756858
off_to_on,0.896878015489,1.24228463952,0.863317389617,-0.395717678484,1.2785089278,2.62145364131,3.84462616891,1.38134665585,0.463780129043,2.12489503815,0.685815677142,3.33773513187,1.62032306815,-0.830876729494
off_to_on,-1.41427633917,-2.85621838635,-1.66261638415,-0.74665011075,-1.87748352213,0.845604671645,-0.813910706736,-2.23586545691,-0.498240313667,-1.83815081767,-0.23393578693,-2.22144518314,-1.64978232148,-57.0121620977
off_to_on,-0.523193594016,-0.411354495887,-0.812658838428,1.04049888537,-0.739987283476,-3.35265152034,-3.6637561799,-1.33900583088,0.464503206469,-2.03546714909,-0.185319268702,-3.94926615302,-1.35889504056,52.0755197165
off_to_on,1.5822133043,2.19941201866,1.90143410725,-0.182589756451,1.42191783415,-1.20364522492,2.29666032696,2.4021347101,-0.482625337113,1.94487337761,-0.21818601435,2.85914061598,1.75599047492,34.6835128114
off_to_on,0.830570978085,0.72391425987,1.33180868307,0.310381558666,1.49205464998,4.39148820459,3.34787972216,1.9757741123,0.55383210755,2.52333365893,1.06689089614,4.87359790105,1.96282392976,-54.7621264439
off_to_on,-2.47927743169,-2.41517247783,-3.02859581525,-1.14250126065,-2.42186261763,0.11547425969,-4.19039491908,-3.58181814261,-0.567069764912,-2.77553683908,-0.890999246574,-4.39732016041,-2.94075539908,-38.2684387228
off_to_on,0.19362610014,0.08360282643,-0.366966967753,0.630908023913,-0.43919700831,-3.08836283837,-1.15433384441,-1.0147968542,0.536538976152,-1.6695941956,-0.0566534540453,-3.68269009202,-0.940918482682,58.3969062619
off_to_on,0.986408348897,0.45707877407,1.92962228416,0.365474719032,1.24641914689,-1.53931776408,3.06106086999,2.52026759371,-0.563216987743,1.38675704284,-0.231125613459,3.06324402658,1.92978088669,59.1466659641
off_to_on,2.26792447944,2.65536701305,2.47525844318,0.335153772134,1.99032878905,4.51309723271,2.31854662261,3.04021506957,0.619527160377,4.0926103849,1.59455467028,5.73010134961,2.7040245048,-93.5406605639
off_to_on,-3.52743424854,-2.74616023012,-4.54677341811,-1.5252073282,-3.1783460824,-0.394438569453,-5.36317652201,-5.23943899238,-0.61550303586,-4.08777309473,-1.46266864023,-5.44220500213,-4.32424443359,-30.3596849947
off_to_on,-0.987157486825,-1.68208314311,-0.919580704745,0.890336192486,-0.136064442942,-2.24266813089,0.15858711602,-0.971625943284,0.589423524499,-2.58345723803,-0.219900549331,-3.89166343788,-0.769406907692,58.8720197256
off_to_on,3.24865633305,2.6732871996,4.41859899417,0.236578331332,1.94447889605,-0.808853622086,4.24793904782,4.6400529099,-0.619064210866,4.13328054762,0.436197212994,4.76992438716,3.50982863753,85.4261060716
off_to_on,1.47101100249,1.88241335041,0.795959608046,0.415133477995,0.745626882721,1.88527275032,-0.441643369357,0.578498017129,0.657982422361,2.21608692793,1.1496843555,3.62376654509,0.881926360041,-117.120272043
off_to_on,-4.09484629859,-3.45364713271,-4.93609288908,-1.46734295033,-2.50318578591,1.29164965158,-3.89300760135,-4.419771897,-0.641401624895,-4.72945128166,-1.36605733366,-4.67885314275,-3.73444832748,-36.2251717106
off_to_on,-0.701974215761,-0.68223115731,0.336031045169,0.869136548836,0.249107157651,-1.12077068538,1.34719768577,0.347928837055,0.621320713614,-0.666103309762,-0.0949221750506,-2.66556499992,0.0193860242202,58.1539265707
off_to_on,2.9134463445,1.94469789354,3.27915098907,-0.0267770375979,1.12286145007,-3.25970677704,1.49740486521,2.22453713906,-0.648944992447,3.02951206654,-0.133205106294,2.93461059408,2.00754305661,113.467860794
off_to_on,2.91416879129,2.50398264544,1.75598847451,0.591285492923,1.2560985762,3.63124107661,1.39872932877,2.23499938672,0.669082072398,2.17859807617,2.0642059311,4.64312872456,2.13877250303,-132.874649782
off_to_on,-5.44761813159,-3.9115377504,-5.31112929538,-1.05858805697,-2.71769302513,0.970102105841,-3.27845461931,-4.17497790802,-0.644132270887,-4.69058945846,-1.78038640004,-5.11471010965,-3.91022618932,-47.8254655827
off_to_on,-1.14368889731,-0.629956872151,-0.107908289136,0.314710446416,0.465829716913,-2.27782901313,-0.450673612565,-1.00388870515,0.630202352,-0.228865645616,-0.660040837236,-2.62140426737,-0.73481229948,56.894350615
off_to_on,4.32111954684,2.26062191782,3.7659588838,-0.147419112366,1.05478457609,-1.80271403822,2.00754521642,3.04402167028,-0.651657620765,2.95236521555,0.721913961952,4.12553055313,2.62034138992,135.326856373
off_to_on,2.38703564772,1.94890031064,1.69065515218,1.19365531725,0.904860539359,3.96163648127,2.2461942336,2.30483774367,0.653572089971,1.34783569672,1.81604028195,2.95487301413,2.23685172961,-134.295519947
off_to_on,-5.72456369807,-3.13398793656,-4.97355184865,-1.26583348903,-2.11804177258,-0.530150151958,-3.36110990646,-4.23429083609,-0.624080090507,-3.79977215288,-2.09412066364,-5.45937466028,-4.10709765241,-68.7227456035
off_to_on,-1.444793433,-1.5366692016,-1.14198226449,0.0131587337776,-0.0698142249112,-3.15645034301,-1.76194028977,-1.50053078291,0.615130175429,-0.362443838196,-0.533978178624,-0.699915885394,-1.29696549807,59.9161465402
off_to_on,5.57004688683,2.99487673868,4.81352511215,0.0450592152982,1.41591410519,1.71562951565,3.18014604083,3.84470952154,-0.627266782249,3.03078597124,1.23460291255,4.63347303565,3.93478452005,147.171910951
off_to_on,1.45553308205,2.01955637272,1.54219300503,1.27130993451,0.972127642737,2.84474750531,2.18247472897,1.8535528219,0.613165364731,0.682936301967,1.13775350376,-0.350155815834,1.37755726558,-123.766952932
off_to_on,-6.81766403191,-4.69901802478,-6.25823428077,-1.21760487115,-2.9136767868,-4.32089378841,-4.32686395107,-5.0895832749,-0.582278156847,-3.93581347693,-2.26799806247,-4.88725089785,-5.23300081393,-93.5024831715
off_to_on,1.53569628727,0.893228930868,1.19988158951,-0.26476371457,0.92256432248,0.601015521919,0.354202703322,0.790592301134,0.576122308531,1.83009609256,0.679301158022,3.90569602384,1.45881728498,65.0563689854
off_to_on,3.75987505813,2.10549892781,3.46579839336,0.26629078475,1.33835294419,2.96259408817,0.924248215003,2.18102734858,-0.576993146279,0.822094048962,0.314315656187,0.755895802395,2.48424204061,149.831546276
off_to_on,-0.46066549927,0.0487455006791,-0.0106014071173,1.22793621102,0.13461440874,-0.723219272588,1.75953849345,0.709743288196,0.550292185443,-0.105653175719,0.548850974398,-2.59763962313,-0.438273438085,-105.476602928
off_to_on,-3.42239761808,-2.18576333888,-3.38268196902,-1.23804252234,-2.48006047074,-3.96157684056,-0.6860109512,-2.35910636752,-0.520354021482,-0.955346045742,-0.937411195185,-0.00300900432782,-2.48479131897,-116.853975638
off_to_on,0.919105980499,0.77104816042,0.466222103622,-0.231659013446,1.34620503165,3.07002789084,-2.54179024291,-0.465264341183,0.514339502948,0.0898158829772,0.192533351575,2.60821130939,1.2189321659,69.5341693962
off_to_on,2.02234851818,0.888817895963,2.15371480695,0.183398912383,1.38116140631,2.55492780035,-0.00369024027776,1.78240688073,-0.503266770471,0.519870052141,-0.00339041670702,-1.22294766031,1.00253893967,145.711537509
off_to_on,-0.384781171816,-0.477095113443,0.0378220475755,1.36383430093,-1.17487423426,-3.72424904617,4.16624679802,0.629286283331,0.467951454445,0.262613748247,0.494163713623,-1.58871517235,-0.553057220306,-83.4192809171
off_to_on,-1.54983366508,-0.360234401316,-1.79383471689,-1.36822625104,-1.30145737617,-1.56979065932,-1.02333944809,-1.89232212061,-0.440420282137,-0.886796204027,-0.496655837113,0.791869483583,-0.793446068314,-135.962071791
off_to_on,0.75875379764,0.913368977393,0.457848348524,-0.241588087718,1.87931968178,4.6632475682,-3.74255469928,0.536213451021,0.431999250409,0.826398236838,0.346329502309,2.12390129037,0.980608430324,72.4368828511
off_to_on,-0.237713179768,-1.62420333174,-0.18517879375,0.452192735808,-0.216453341896,-1.24994112981,0.25076251167,-0.0866424559825,-0.409102612117,-0.76519851418,-0.764695408417,-1.82492448468,-0.804471610598,137.261545987
off_to_on,1.15687772703,1.32671468606,1.70043029777,0.961707119688,-0.328267282968,-2.07573113782,5.24896639875,1.12060355041,0.366203195698,0.641678177136,0.944341064697,-0.476099685509,0.809961384219,-61.5817334095
off_to_on,-1.23873200903,0.206959218951,-1.24477089455,-1.17103823796,-0.895585749585,0.386039469884,-2.29345993882,-1.18741182375,-0.333041206058,-0.452456582493,-0.301645820611,-0.268445877112,-0.50274717965,-149.009230263
off_to_on,0.29793328917,-0.625289518881,-0.727449518816,-0.107597486056,1.11740016529,1.86641278738,-3.36947107765,0.230870065866,0.309381181619,0.526649049315,-0.184756422319,2.01896228331,0.160334470332,73.5584567215
off_to_on,0.334223003853,-0.480478768563,0.744371141248,0.304067951024,0.270220600285,-0.424654190941,1.79148821196,0.381959446014,-0.282835087429,-0.22160897114,-0.0780009611629,0.114205588748,-0.0822243520631,126.663981548
off_to_on,-0.828124445682,0.496726554954,0.442116535984,0.757199440247,-0.719496407952,-1.45159431471,2.23652672954,-0.682409415687,0.278228008774,-0.72926437686,0.368272855316,-2.57023327234,-0.199859802011,-42.9268050637
off_to_on,0.74111963883,0.76602600594,-0.263463165949,-0.711279394413,-0.396021402195,0.163801132315,-0.668928290616,0.492291560716,-0.290130659641,0.811834613949,-0.264832385942,0.0429675918874,0.428928813108,-155.644070217
off_to_on,0.929342825958,-0.598092847559,-0.306672060066,-0.3901893799,0.750155518705,1.65039822422,-1.94028792563,0.644739573487,0.240560884614,0.421195935383,0.100882627133,2.70854025845,0.105148752049,73.4324111865
off_to_on,-1.95629858873,-0.926246029835,-0.197029821255,0.268422873567,0.205891812026,-0.494314547739,-0.269712489988,-1.22659131785,-0.12820440889,-1.02127046612,-0.0243264969645,-0.151790970524,-0.740194245914,115.591438713
off_to_on,-0.026771275831,1.14484016161,0.59508274953,0.761367914378,-0.357262631283,-1.58493959103,2.37500613889,0.139039695784,0.0987710541106,0.42315025951,0.10774260624,-2.02746766483,0.566980640914,-29.229695639
off_to_on,1.72012895682,-0.194025012792,-0.436984585784,-0.396744132003,-0.63954500669,0.541689373967,-0.20888557621,0.498046859307,-0.196810019057,-0.282371231324,-0.457083792047,-1.27164546937,-0.199519181787,-156.626507181
off_to_on,0.476357895762,0.135770711268,0.777611168609,-0.791072830123,0.810479861403,2.61614891306,-1.15388727169,0.698957529344,0.217161911658,0.527578700828,0.53724271602,3.0737719625,0.231505013794,73.1727626097
off_to_on,-2.71788895582,-0.454696872027,-0.751963902719,0.368515846718,-0.00355108516454,-2.76051452857,-0.849785140499,-1.29614505621,-0.0384892189205,0.118548247218,0.050756613938,1.20368594039,-0.14027283508,103.259858909
off_to_on,0.361751746396,-0.186715947287,-0.72978235822,0.916068817417,-0.109888184282,-1.31846865034,1.0738982738,-0.168870861038,-0.109075876728,-0.432273232688,-0.407424357001,-3.20376440556,-0.0508567957411,-13.5402136109
off_to_on,2.82316114691,0.673939346087,1.50885103412,-0.449568643703,-0.180913104967,4.02245643853,1.59535405238,1.38217455685,0.0194135149946,-0.538812536649,-0.0337232238349,-1.20227530429,-0.0327033210756,-170.443569802
off_to_on,-1.54933446956,-0.241463939845,-0.132997109943,-0.956850906539,-0.494368198764,-1.16784317537,-1.84358001856,-0.994402739411,0.0956369471729,0.108751210138,0.0740064926418,2.56477258112,-0.465820600425,93.8220082087
off_to_on,-1.24101141548,0.335318943335,-0.608340180654,0.542308846873,1.04495948646,-2.72538364205,-0.712413292659,0.386173659727,0.0272241330205,2.23254622685,0.720073414721,2.48380593777,1.5347999771,91.0987585498
off_to_on,0.739265595979,-0.764473481272,-0.65200887484,0.908116417022,0.0487841711275,1.35646150311,1.18783048103,0.232045685148,-0.214040332683,-1.60657626879,-0.568049861522,-3.33267982227,-0.818533618081,-43.0858395117
off_to_on,0.783297279474,-0.429553411894,0.653392297995,-0.531033085951,-1.09119769229,2.4253746191,0.426364544148,-1.32178504412,0.180353809299,-2.69006000969,-0.86130284808,-2.66190981443,-1.7262907268,-113.462279248
off_to_on,0.149557997501,1.81997423541,1.38032737644,-1.04281036546,0.189540568807,-1.39903331803,-0.487295701574,0.965087522028,-0.0650752118636,3.30491369853,0.959836271182,3.76347837215,1.9419404736,71.3972357324
off_to_on,-1.08559937264,-0.303836167433,-1.26268851955,0.973275204301,0.880167399796,-2.76126729616,-0.375982384578,1.37571172383,0.146449647845,1.86339166397,0.885384503856,2.3097732491,1.19335259314,58.3916746507
off_to_on,-0.335103305713,-1.97602654801,-1.46250561584,0.400615804497,-0.233591313125,2.21493579971,0.0359592808408,-1.81540619413,-0.307153908915,-3.96521448045,-1.45627894171,-3.31842436329,-2.44487157416,-7.77054458439
off_to_on,1.22093789621,0.729626217635,1.68269023346,-0.555842569454,-0.409987501315,2.4243227985,0.0985998003637,-0.974274410041,0.288994179238,-0.920588865135,-0.344963278834,-2.46987734897,-0.456555325219,-109.203931341
off_to_on,-0.0184301398142,1.65007259472,1.02095017904,-0.399008964451,-0.404629588936,-3.08258694009,0.348955464903,1.84822601328,-0.199463022243,3.67485905749,1.05965854483,2.55978982081,2.10080372961,56.4137260375
off_to_on,-0.065619834581,0.063943096204,-0.853959249545,0.555865252415,0.874554647553,-0.738552045808,1.14964037083,1.56646573246,0.270249662114,1.1857947637,0.906787945278,4.11322059048,0.741010494537,41.0405439135
off_to_on,-1.67207362361,-3.35024038552,-2.58254378799,-0.129167032808,-0.182580581968,1.66899736747,-3.11684809103,-3.63157823274,-0.396106634573,-5.13679669487,-2.1835767288,-4.56309529871,-3.09135765861,24.683107768
off_to_on,1.45910837109,1.87765516902,2.70462376227,0.417342148412,0.324464070547,1.2352360193,0.9478420247,0.730808086722,0.375342143891,1.28694579136,0.633112370735,-2.4723224368,1.06816792422,-106.401557206
off_to_on,0.965264167337,2.40203718071,1.41268705599,-0.772619221614,-1.26010783941,-1.87913051681,3.14269168739,2.30406004993,-0.315526888671,3.63417339256,1.03539411982,4.16926087681,1.50382061844,12.9391343098
off_to_on,-1.29929631854,-2.31972073196,-2.73919676816,0.203143083823,0.501382227193,-0.229047185666,-2.20138754516,-1.25307550933,0.386122647005,-2.04636159308,-0.458958372567,1.70179474316,-0.854218326329,87.7786965537
off_to_on,-0.855665722213,-1.64748693641,-0.807129875349,0.149599982674,1.10685641944,0.339353338625,-2.60491069009,-0.960239720682,-0.473708645715,-2.22217221828,-0.820175458016,-3.95806076361,-0.69631425846,-20.2379328611
off_to_on,1.29471217373,2.64025145369,2.82205204159,0.752334306399,-0.29693403995,0.852350719997,3.19681829557,1.10059892999,0.440804421908,2.47664552375,1.0143908462,-0.268875185248,0.600539847546,-28.1301313953
off_to_on,0.437141484684,0.313229396099,-0.324665903508,-1.46449200981,-1.72127035635,0.321446381571,1.08138180792,-0.50963758551,-0.408297238393,0.274869200683,-0.679182469636,2.46478258901,-0.320996759134,-87.6065980228
off_to_on,-0.450618948911,-1.53402816225,-1.57895311807,0.631536355606,1.13020120818,-1.36895253546,-2.44035607394,0.518677306088,0.483891862522,-1.41317351265,0.442850871811,0.131323810627,0.850891837453,130.455656174
off_to_on,-1.70318516506,-0.932591070194,-0.456627289765,0.435273069275,0.672348083933,-1.29054535219,-1.48372491877,-0.462811035035,-0.539895384706,-0.168637806454,-0.110593991202,-2.20905822929,-0.810176036008,35.375052374
off_to_on,2.3529471189,2.88096998885,2.7430601183,-0.093337406753,0.326929046779,3.72856950972,4.05312351709,0.732231669986,0.495097170349,2.41341135787,0.22842260183,2.03516821558,0.334384033269,-114.369807511
off_to_on,-0.60620075429,-1.58185627536,-1.73414484095,-0.946329762032,-2.34356541895,-1.35831657219,-1.39414132623,-1.57761967036,-0.481011954479,-2.7020648255,-1.15434133207,-1.57497999038,-0.90961261223,-51.2160498445
off_to_on,-0.580496862876,-0.666734897544,-0.624438373269,1.18819926611,1.08987590092,-2.15606852817,-1.8420298845,1.0369813984,0.555280092481,0.103657523064,1.44360784006,0.196390272694,1.57115850603,129.084062175
off_to_on,-0.0638880755033,0.957690117862,1.06547665081,-0.662552665489,1.3950346327,1.48398809037,1.03352660529,0.910483472739,-0.586520855268,2.28991067891,-0.18548933754,1.80558448082,-0.521782517058,68.4940442234
off_to_on,0.68477789531,0.383606040232,0.237245882429,0.24189203713,-0.537953099144,1.53978056959,1.41914859571,-0.897301371718,0.538133537779,-0.741585416273,-0.810193927327,-0.836159524391,-0.902260441307,-193.086155134
off_to_on,-0.218753230525,-1.15354427259,-1.02234922855,-0.236004137072,-1.79184867642,-2.24153723432,-1.25302480714,-1.2385917086,-0.537089655668,-2.38033355963,-0.044450735781,-2.36756560734,0.425175792693,23.9135541822
off_to_on,-0.0739057282179,0.593805928628,0.558297885378,0.543632868168,1.25128369686,0.385642394493,-0.490593148608,1.45165998968,0.600891526065,1.78538976062,1.29686449888,2.22932254468,1.11806243415,105.344467913
off_to_on,-0.746155179303,-0.165366002333,-0.259424542932,-0.954845004041,0.460323869172,1.03732097859,0.0975683512255,0.303510026205,-0.61057043903,1.04975820874,-1.1183700634,0.978382830842,-1.53379995764,39.4090021292
off_to_on,1.57693523112,0.888091472808,1.05153156206,0.98170474392,0.281499821937,-0.055022877137,1.85428244427,0.223600375487,0.565628367181,-0.430263288258,0.287810374203,-1.06274236642,0.777009850169,-156.236819196
off_to_on,-1.11995668945,-1.50704561998,-1.62184852296,-0.419027399148,-1.61001277798,-2.45379296201,-1.77668686507,-2.43326386518,-0.573910685932,-2.53358752021,-0.318199689083,-2.16262542542,-0.235330687481,25.5493243548
off_to_on,0.243620487793,0.946008846494,0.812453653453,-0.0379608458081,0.763983511224,2.9887086182,0.11245266072,1.7500610873,0.620950299679,2.15440879179,0.928409861859,2.80063909784,0.530827524791,78.5333191645
off_to_on,-0.700798989963,-0.490416039692,-0.160541595278,-0.327978156763,-0.0605474738253,0.186430391363,-0.445487746754,0.637190521981,-0.61227495268,0.608159941215,-1.06568393731,-0.28022011859,-1.18520963769,35.406929016
off_to_on,1.68326888934,0.944019835764,0.999891931686,1.0689157367,1.36645500585,-2.6633508739,1.89852771639,-0.0779298602185,0.574981132561,-0.521955477098,0.59684588427,-0.767514185389,1.137093589,-115.914623823
off_to_on,-0.698760464767,-0.551263538861,-1.18145252373,-1.14607815995,-1.55396944637,-0.0465076648322,-0.457057630929,-1.57870550346,-0.588532567229,-1.28616983514,-0.0555297731412,-0.0777763611711,0.00802467795842,5.83473327875
off_to_on,-1.41603813695,-1.03698239684,-0.84639942493,0.455666439688,-0.660076780988,3.52137147455,-2.14318456754,-0.0168327882531,0.615585492441,0.40745426525,-0.00864397281409,0.130785289429,-0.74708743421,62.6626244936
off_to_on,0.88555290301,0.827509891293,1.74618233422,-0.00402238486676,1.20583469585,-1.17111356908,0.609388536547,1.81486572014,-0.592513563807,1.18225467623,-0.584713206855,-0.185547234097,-0.300995348052,31.0922449686
off_to_on,2.03840360179,1.74511949247,1.02320463465,0.480146310703,1.21381861704,-2.90682687004,3.01029876193,0.64587590788,0.564357756949,0.55729971993,1.13600465034,1.37595101319,1.513507915,-72.4661343791
off_to_on,-2.52080566486,-2.49793814202,-3.29002883756,-1.17632654089,-2.16740486945,0.727200799914,-2.20208455637,-3.31266214673,-0.578753094858,-2.78482957229,-0.808855022906,-1.29128244595,-0.834178453386,-22.5466345016
off_to_on,-0.136863486501,0.119194477366,1.14142629997,0.891100786721,0.320639587601,4.01884536079,-1.12216498631,1.33458210941,0.585625396551,1.32171120646,0.179987065343,-0.279531889683,-0.0619607344046,55.6044004758
off_to_on,0.722316548465,0.684614938036,1.31295067642,0.13564362471,0.171687405097,-2.68311707525,0.0830098302787,1.08264621792,-0.55295899613,0.776168387065,-0.411313617432,-0.396569462316,-1.14666938332,22.687124248
off_to_on,1.97286446076,1.77040619763,0.504428658739,-0.260083620013,1.43377105518,-1.4206166834,2.94998370559,0.569118799794,0.533274099645,0.563002057188,1.03821447989,2.67428313956,2.33624902604,-30.1215531634
off_to_on,-2.38032653722,-2.26187496357,-2.5835113192,-0.937678226884,-1.16221131492,0.104207383976,-0.987742708012,-2.05280561523,-0.543926199844,-2.2660890434,-0.80921009502,-1.45423971623,-0.640049105769,-50.9185519103
off_to_on,-1.03138621405,-1.07943996888,0.243619678917,1.55171570007,-0.797378556063,2.68355480492,-2.49507861953,-0.155386635954,0.532590900069,0.50336686286,0.131112826681,-2.09259900968,-1.54700515757,53.6270896696
off_to_on,2.18372280108,2.25115541598,2.16785288932,-0.377867399046,0.258320661483,0.475505180282,0.148468655041,1.42661321963,-0.495434260347,1.70019300452,-0.136048221,1.53140201586,0.583683031133,13.2168125237
off_to_on,1.08754136059,1.23283861666,0.23512281799,-0.700143768649,1.85080601365,-3.67271190906,3.35066268378,0.796919107041,0.482373579313,-0.56212386013,0.408200378527,2.15092135026,1.62698989114,0.726461038772
off_to_on,-2.65675347953,-3.02030088363,-2.80206929318,-0.260514589208,-1.05432030247,-0.901911635291,-0.30758633179,-1.56357412459,-0.485393324718,-1.55992165485,-0.232065016784,-1.99100553734,-1.30913504562,-65.663152358
off_to_on,-0.111413292577,-0.0375733538317,0.503303813719,1.65790641784,-1.18771335005,5.50803243597,-3.1982308602,-0.566410176454,0.459165099643,1.40506377654,0.386002771286,-1.21078138342,-0.314548324806,49.2898759551
off_to_on,1.39977727542,1.78463325063,1.77430051486,-0.977733436514,0.1343577635,-0.969227305598,-1.08745265806,0.251910831482,-0.421968197207,-0.4314329157,-1.1840639382,0.609997143131,0.05161783417,2.7283485114
off_to_on,1.44675898583,1.18746275287,0.961412253439,-0.660737008552,2.42614132552,-4.33156094104,5.63677521366,2.72729788741,0.413058340076,0.596773366258,1.12025762712,2.70293910644,1.18093475512,22.2398370173
off_to_on,-2.77138810319,-3.01587621894,-3.41104391511,0.432707324842,-1.50826576154,0.0541829640627,-0.980446584484,-2.21381281116,-0.405979983394,-0.686021796883,0.169788301314,-1.89492399076,-0.971272444778,-67.2567900153
off_to_on,-0.0877364287821,0.200591933166,0.404472281201,1.14992603379,-1.12172064058,5.56511705766,-4.80475750343,-1.46821421458,0.369001705945,0.0476998140664,-0.582680966778,-1.67011692802,0.174270380833,40.584307286
off_to_on,1.71308741479,1.85423170046,2.57847161124,-1.31912258083,0.517745561504,-1.48407294449,1.01790667477,1.60874527153,-0.334982394627,-0.197284574189,-0.64060900095,1.0622300053,-0.330145061326,-6.46295518988
off_to_on,0.460546150782,0.173232459335,-0.199268370104,0.0393678893714,1.6923822833,-4.68551030499,4.82440436656,1.48329092114,0.327516369869,0.835346727802,1.21478332974,2.29949827773,0.370201296654,35.385979695
off_to_on,-1.34442119734,-1.37074839624,-2.18479223348,0.337446020988,-0.821543467151,1.5727512621,-1.4959050321,-1.3141353365,-0.309564780334,0.111530721589,0.0473968713332,-1.32656918462,0.49557229153,-59.5245687107
off_to_on,-1.12637257358,-0.952663708028,-0.49110679078,0.47769438547,-1.58033985907,4.33640882108,-4.58751813474,-1.57454869655,0.266316031593,-1.62562805835,-0.99717209906,-2.71428927442,-0.71176725018,29.3936932763
off_to_on,1.5967911563,1.69459214959,2.55580716486,-0.671957938315,0.928040310311,-1.89824162084,2.1867910583,1.01082469392,-0.237276820074,0.517319135036,0.00509904858293,2.17054291526,-0.357918576338,-13.2407160753
off_to_on,1.82466637099,1.63325162715,1.05430130135,0.0190832579286,1.67136131711,-3.67135724932,4.0227411154,2.17223703677,0.228704639931,2.27445827593,1.29681834201,2.748050853,1.08454733073,40.6511004999
off_to_on,-3.13915840055,-3.40024160057,-4.11277087074,0.0924827890279,-1.84399418979,1.7036823431,-3.51350651512,-1.94989506157,-0.200726584642,-2.27818985645,-0.974231099396,-3.99677390809,-0.757755081696,-45.9375725789
off_to_on,-0.256513812917,0.309298696614,0.700473539334,0.355753187661,-0.214234734082,4.03729405622,-1.39781891348,-0.977844862384,0.155558268214,-0.716878184992,-0.217511066971,-0.33506969814,0.414788443763,17.9137965992
off_to_on,2.34605391476,2.34756071789,3.21890763014,-0.237364009797,0.962892558051,-3.38095093617,2.23093763616,1.00420773692,-0.132006361548,1.68133843205,0.45894865956,3.03474990963,-0.311015176318,-17.3601581565
off_to_on,0.327009701372,-0.449000481644,-0.822701303085,-0.241232568544,0.176607865353,-2.02061706945,0.646500260711,1.41126558914,0.120293148773,0.95621863572,0.314805344681,-0.242091760324,-0.133997131221,39.2562350947
off_to_on,-2.31919668592,-1.81249134493,-2.96557331674,0.0606934078895,-0.885308388565,3.31806578113,-1.55019807963,-1.16281702989,-0.0844402812476,-2.08353289355,-0.627117031591,-2.51017750111,0.537232985184,-29.5006284297
off_to_on,-0.348970221884,0.184071151611,0.93243823757,0.445872518848,0.194271629457,-0.0740776236571,-0.34859887472,-1.69644750775,0.0411618376453,-1.13785912861,-0.201181384701,0.290513363911,-0.378237607106,5.326771163
off_to_on,2.89900756058,2.14092071209,3.21718834536,-0.29680716011,0.803495328152,-1.38540718613,2.03879473392,2.46578965934,-0.0226257738928,3.49723596005,0.960482805113,2.88031937658,0.221312505387,-9.63923730024
off_to_on,-0.81719009294,-0.971780009761,-2.05178739194,-0.192639755192,-0.942435371314,0.111795958181,-1.48084721532,-0.0298346649724,0.00654731221906,-0.375719873669,-0.285879628313,-1.29890023368,-0.253476219427,15.2676372758
off_to_on,-2.16698666517,-1.50570379299,-2.32840035481,0.165384339864,0.030571113505,-0.0510977965224,-1.30595427233,-2.12511169679,0.0341625681183,-3.61999286459,-0.994563303616,-2.43391221514,-0.201941909567,0.100604193925
off_to_on,1.23604133291,1.26969320232,2.65196158243,0.053080711042,0.907660103569,0.848428661393,3.14995644163,1.5513118399,-0.0725956364225,1.93676550034,0.796290887154,1.95795536656,0.649033042065,12.469438573
off_to_on,1.30197738169,0.662358661873,0.925135831154,0.249201121142,-0.549162887363,0.635283616415,-0.384817839966,0.634576289324,0.0871797410376,2.62675524127,0.708925708448,1.7411345472,0.0500953419831,-60.2312704641
off_to_on,-0.88209279719,-0.762109872777,-2.01717860418,-0.584140790185,-0.55527880272,-1.91029394383,-3.55183054269,-1.65654234331,-0.107872377316,-2.48097920117,-0.949061251833,-2.03491051859,-0.764323055687,61.7878275773
off_to_on,-1.41108058311,-0.911910089148,-0.815745944653,0.144312688612,0.4762660718,-1.24934808742,1.33727499977,0.183622265779,0.150021649775,-1.90074352946,-0.618675346795,-1.69855766377,-0.283898542487,-0.276661297517
off_to_on,1.23609829185,1.1338153418,2.15861907032,0.482930388739,0.48411459019,4.15368912433,4.01671986857,1.50048949631,-0.181666538639,2.9208882711,1.06659251595,2.72349780158,1.28976295779,-28.2218022207
off_to_on,1.6833048303,1.19585602825,0.892946209072,-0.151202305311,0.0233424283327,0.549456990901,-1.85022903377,-0.14172220063,0.193573302084,1.30524855178,0.930592022039,1.50039842529,0.534160824375,-10.6579916938
off_to_on,-3.10379210272,-2.93117326289,-3.71173867626,-0.754526884591,-1.58560676308,-6.94851257757,-5.6618008072,-2.64638866986,-0.218155288649,-4.04732306186,-2.15773226955,-4.50913668259,-2.84994813316,28.5526223962
off_to_on,0.679546511894,1.02133427151,1.44484621721,0.781666963776,1.12777451046,2.95033065969,4.66454353912,1.95663436619,0.25836688552,1.18767922695,0.263873976379,1.27540628814,1.31426516658,19.8153594444
off_to_on,2.22930853147,2.19058678112,2.6988434486,0.13597092489,0.972010366401,6.50323906057,4.38041043144,1.56493522455,-0.28229280213,2.48478748634,1.61523558232,3.29687506795,1.99964352227,-66.9867396585
off_to_on,-1.27654851981,-1.6538901229,-2.09954524211,-0.46697864141,-0.841554171421,-4.73472415586,-5.33577853945,-1.92177016352,0.292678753551,-1.54704735446,-0.131303477899,-2.20688705928,-1.40352814338,59.6004289009
off_to_on,-1.86692019394,-1.87401938585,-2.12199361765,-0.378859171389,-1.4382179875,-6.13553550763,-3.60752019,-1.26768506438,-0.319605462204,-1.58427050315,-2.02189343214,-2.22745227155,-1.86210394002,-22.9208887105
off_to_on,1.84841196719,2.16512234383,2.61649969063,1.07843644941,1.45494735835,6.43805303576,5.62686056405,1.74422741551,0.354913991653,1.47804116435,0.818432252445,2.55072582084,1.50370495581,-1.83711174739
off_to_on,1.13037790009,1.46235005677,1.29457036145,-0.63616663054,0.999856559803,4.86940713113,2.79143104097,1.2387032443,-0.371069004624,1.09160555498,1.52785253724,1.10612552945,1.78304284253,-3.54679110637
off_to_on,-1.40630502056,-2.11539036063,-2.27843435369,-0.0667676738542,-1.1657765849,-6.60634312467,-5.18673451953,-1.31978122418,0.380731025216,-1.05885851764,-0.499713447047,-1.79775162778,-1.27154697314,21.6433517071
off_to_on,-1.70482389161,-1.99091534026,-1.53730298178,-0.0703413655549,-1.4460597298,-4.92349083353,-2.88565488585,-2.1832422232,-0.407902937684,-1.78955106004,-2.20313392722,-1.55191756382,-2.66159144189,0.138628407435
off_to_on,2.54733606712,3.61725697482,3.2803668293,0.61395531865,2.03907100359,8.04817813477,6.04092437508,2.79554287944,0.43602515766,2.62119164869,1.75284652121,2.6465341279,2.76196326956,-57.7034900089
off_to_on,-0.0689224133102,-0.0974588407412,-0.479728311439,-0.640449742815,-0.0114789698634,2.7803581701,0.42976246764,0.111265962683,-0.445015181113,-0.315420398859,0.751607061041,0.0483154422077,1.08326181813,51.3708668457
off_to_on,-0.432460351187,-1.6482389678,-0.972934449352,0.344456512638,-0.201212897741,-6.17908616464,-3.17627857096,-0.594253463539,0.4542548604,-0.89902672923,-0.575692111968,-0.7731110759,-1.4253206968,34.9984566602
off_to_on,-1.54093498721,-1.04670040993,-0.865462499778,-0.402434597321,-1.49150846282,-3.97575912089,-1.39074531827,-1.19953365171,-0.479338095993,-0.461325482482,-1.54745660825,-1.72439224062,-2.16337744096,-53.4548961914
off_to_on,0.740121752609,1.71497804959,0.883420578676,0.653266513547,0.838677943708,6.51563599722,2.19656279207,0.10207179654,0.498824965931,0.933066745592,1.22342794238,1.5488214416,2.24480350421,-38.9779942291
off_to_on,2.08583591604,1.28265515631,1.35153002916,-0.580717351778,1.31831900806,4.34864961924,1.67934235936,1.8654406394,-0.501655196633,0.431415988276,0.786360801853,2.08658859467,1.6226143428,57.2752756001
off_to_on,-0.768974742674,-1.21339637824,-0.530860165038,0.403600669887,-0.313312188197,-6.9500786296,-0.551703023283,0.540107438439,0.510253290851,-0.314179105918,-0.340271977122,-2.19675787973,-1.89107213989,59.4117118444
off_to_on,-3.11295446777,-2.4254941749,-2.3893394092,-0.590000750153,-2.39802782965,-4.57405948846,-3.2791408199,-3.33398862269,-0.531001226457,-1.42129605127,-1.62165895983,-2.50908847668,-2.01757291834,-91.7415365275
off_to_on,2.1330709005,2.20501223734,1.45536092712,0.834341391372,1.56532545684,8.34143951891,0.580330849899,0.463297571114,0.541269488706,1.05154706639,1.16957342039,4.08598338126,2.69355248822,-31.1065385178
off_to_on,1.96608672827,1.48507393117,1.38438832672,-0.569261750006,1.2203191055,2.16749362489,3.18374689417,2.68187878182,-0.539093454261,0.731949677121,0.476108315151,0.152741225663,0.526749578347,57.4405410352
off_to_on,-0.797051444095,-0.513348193521,0.364466499345,0.110608628199,-0.394837870726,-6.30533545341,1.57048103588,0.944682570439,0.54638336368,0.625684002386,0.403519164977,-2.3438622921,-0.703846055719,85.5243979422
off_to_on,-3.96048077266,-3.86625273489,-3.75594818352,-0.258143711661,-2.53477845796,-2.61358713134,-6.50861721922,-5.05197385447,-0.560914783239,-3.57466447387,-2.10832839467,-1.4198194722,-2.48136666156,-114.880717916
off_to_on,3.02079810093,2.50548009401,1.48220608783,0.925120212342,1.94873156006,6.53202612016,0.527150603084,1.37446418056,0.562172687098,1.91369302946,0.872881847352,3.91010914219,2.27390020833,-36.9494267542
off_to_on,2.55699673635,3.05258466374,2.98777847776,-1.16207624336,0.974912441451,0.228946045364,6.52472426152,3.8980542153,-0.55608394817,2.79520666344,1.22218372764,-0.277613298697,1.41487138104,56.5270664814
off_to_on,-2.982660122,-2.64224340025,-1.47428716023,0.627858806023,-0.988128426326,-3.14892833626,-1.4410448944,-1.63612225481,0.561100030107,-2.52489379806,-0.166011409486,-3.18916097128,-1.79202443114,113.300000586
off_to_on,-2.00007020191,-2.9015710532,-2.96581221912,-0.119290901541,-1.18106814996,-0.732237527394,-6.55236590671,-3.20795762566,-0.568102809746,-2.44088693208,-1.96961133905,0.757804376006,-1.61463157384,-130.286189701
off_to_on,3.30090438552,3.38491449036,2.16797921775,0.306824070752,1.28112590432,0.587434200186,3.13067801905,2.05703815641,0.561197340737,3.4571513581,1.15858243761,2.98827247161,2.47908490209,-48.4342031511
off_to_on,0.360365939844,1.2599224977,1.41692478815,-0.760314521554,0.0235488714112,1.76073455324,4.36040729652,1.29549271154,-0.552086366264,0.587413539541,0.678283964891,-2.2298736682,0.1776454897,55.1188565683
off_to_on,-1.46896044651,-1.80506318012,-0.526064254118,0.7798262239,0.323359329889,2.33392778101,-2.01090802885,0.0560360473696,0.553754938532,-1.68473816445,0.182872939836,-0.516967947467,-1.01238542783,134.892363695
off_to_on,-1.4122565413,-2.25753128775,-2.57520656729,-0.477147937456,-1.30079014496,-5.51819224672,-4.7655654072,-2.54936315835,-0.552599171486,-1.72260950739,-1.82093681815,0.591660105079,-1.2001545361,-131.488911232
off_to_on,2.39939996013,3.08905099737,1.81721705377,0.327317744654,0.842729524288,-0.833046525384,3.47538153623,0.973750845524,0.53881881145,2.54192890722,0.911128045031,1.00631700995,2.25966017153,-69.1541224486
off_to_on,-0.421080212592,-0.0943933973977,0.474870442981,-0.306626046697,-0.374946440323,5.17701752101,2.07364189422,0.79672082672,-0.527304185703,0.398381925549,0.489639759602,-1.51562477614,-0.825777822131,58.0402394738
off_to_on,-0.271630616204,-0.740932036125,0.275448409354,0.268784195775,1.01096691649,1.77409017151,-1.50556682832,0.986860741509,0.524642908287,-0.720546504112,0.494872611804,1.16420715838,-0.319520176262,146.522394435
off_to_on,-0.428481086998,-0.526654895737,-1.2048395711,-0.490328158103,-0.761419034763,-5.95299242244,-2.19956867065,-1.73775743273,-0.515401623426,-1.79486399913,-1.46398361364,-0.39051532527,0.147519785353,-120.899023976
off_to_on,-0.346418397325,-0.15968231858,-0.765638988717,0.98046286308,-0.694778080876,-1.83196236024,0.877926663125,-1.29606273209,0.496269016205,0.957587032283,-0.105394847609,-1.19443574463,0.0200355390071,-93.7070909099
off_to_on,1.02108598963,1.02680074579,1.55836688492,-1.0124794247,0.574470171911,5.45282947971,2.33366267045,2.43075486052,-0.482699666878,2.34978244885,1.2400172327,1.70299126951,-0.140860984757,63.1182266259
off_to_on,0.943360760815,1.10111003378,1.26374789207,0.285999586658,1.23813787795,3.66295211365,-0.501688889785,1.2941111883,0.474994233538,-1.28309567784,0.65721741887,0.644812727874,0.780134432381,149.039977903
off_to_on,-2.53523520033,-2.72415673348,-2.69123483553,0.262893781405,-1.50329350449,-7.16176894499,-3.17053896594,-3.80631580337,-0.458381993971,-3.14527960442,-2.27700295008,-2.89159265116,-1.04129597958,-102.683511257
off_to_on,0.72575958576,0.53345585429,0.355161534975,0.173720035306,-0.014116218726,-3.23939282328,2.21974605177,1.14219110964,0.435465959144,3.55949570831,0.713942991808,1.72305394573,0.543271070508,-116.812815756
off_to_on,1.02380530459,1.23731237858,0.717641201814,-0.918181774236,0.208840348583,7.06115085116,0.927358630807,1.72382473239,-0.419980913395,0.128342235621,0.922509347837,0.451229164227,-0.539716857927,67.5591247889
off_to_on,0.578016841111,0.736352763885,1.28005363108,0.864507410854,1.06228303386,4.59467609874,-0.663456359732,-0.366513925006,0.406915292207,-1.598413249,0.267794251067,-0.271593312839,1.03658919678,144.864993251
off_to_on,-2.0757860179,-2.06187415449,-1.45250504275,-0.157667453406,-1.03042282301,-9.86248236925,-1.42252887104,-2.0465843627,-0.384163911573,-0.075736112057,-1.56810721991,-0.577806698953,-0.508811176196,-80.8049433769
off_to_on,0.259776859743,-0.17464995036,-1.01495640325,-0.20323399396,-0.178583701246,-2.01709169169,0.918307513197,1.40844659696,0.358931892092,0.947764967243,0.443459069985,0.0955179722974,-0.547511424087,-135.68675169
off_to_on,1.5756252191,1.53429470749,1.02424897075,-0.133557530883,0.173733098694,9.80269723198,0.994255777888,0.956253890011,-0.341557305049,-0.575814731238,0.732710031378,-0.12749253752,0.202395967906,70.4402438252
off_to_on,-0.471681408871,0.282628128638,1.38740060643,0.632875492937,0.569203764827,-0.477795221189,-0.838793152538,-1.69489034477,0.323283382667,0.496715279216,0.021490974804,0.980101310923,0.736249066696,136.446510789
off_to_on,-0.841935453255,-1.01970640743,-0.944649502099,-0.730272503762,-0.106619882926,-8.132527599,-0.666640089463,0.198209058249,-0.29597906028,0.276119552626,-0.690314538477,0.00942555490494,-0.151256001785,-59.212012294
off_to_on,0.381169469681,-0.482571277262,-1.42219216138,0.346583230539,-0.487079973082,2.34421426132,1.09284586834,1.7215391486,0.269701236477,-1.2867483866,0.150243519365,-1.46552138358,-0.663491231582,-148.531379103
off_to_on,-0.49709512296,-0.096188637621,0.13521918601,0.132495868676,-0.558462497617,4.88309832201,-0.775665264715,-2.07580776052,-0.250461663714,-0.493396930511,-0.261692887551,-0.606852383818,-0.644518608257,71.5411008904
off_to_on,1.51091185539,2.39677635388,2.99643670385,-0.1549904258,1.55467722658,-1.44020209403,0.699377773552,0.511823080376,0.227604358089,3.26773362271,1.0580814772,3.39458457686,2.09476933697,125.958621884
off_to_on,-0.552262234506,-1.2731640137,-1.70906163302,-0.338695897392,-0.461485836938,-4.09722550934,-0.199210355917,0.950624404618,-0.19751158926,-1.565449056,-0.347882501049,-1.05030466097,-0.643868952009,-40.8297489446
off_to_on,-1.27779400742,-1.89897963673,-1.92861892983,0.648668232888,-0.900610333823,2.20231084357,-0.453411703993,-0.342905683561,0.171218237339,-2.58344933028,-1.02174214214,-2.99730764444,-1.44726887336,-155.006305141
off_to_on,0.132984556044,1.00039444322,1.25300229531,-0.276551576797,0.215125989576,2.12522716579,-0.219859609354,-1.05809720627,-0.150240203013,1.73936518063,0.215747991327,1.20488006566,0.438478141873,71.381574118
off_to_on,1.88762996119,2.05918153741,1.70074795217,-0.194654163764,0.983809324064,-2.04113300542,1.00846553518,0.581121493843,0.123843407113,2.48125445219,1.45881550669,3.05351440883,1.48183001952,115.059384406
off_to_on,0.101333083305,-0.459177125218,-0.418849576619,0.0241778782731,-0.345673991932,-0.606948237551,0.609967179066,1.23337725151,-0.0927385222994,-1.49212182158,-0.501543889732,-1.09017322914,-0.147455643261,-27.4015328201
off_to_on,-3.13880262021,-3.29217898544,-2.64814304333,0.383031631437,-1.04074581912,1.73326929492,-2.55780269409,-1.42881471085,0.0672240662838,-3.38753214272,-1.68364461874,-3.94498135511,-2.30289834369,-155.872960813
off_to_on,0.904651884189,1.39049612598,0.858529569868,-0.21733479475,0.913743763109,-0.565641504618,0.643017997075,-0.293911666817,-0.0448141938183,2.5823468873,1.00344743823,2.38790219834,1.1563398255,71.0657704075
off_to_on,3.47673718533,3.54277394931,2.98161586829,-0.250975617174,0.383180404525,-1.47744240589,2.96453455115,1.28455993728,0.0162401559898,3.24038958048,1.49148909274,3.45337327546,1.93362236173,102.947700837
off_to_on,-2.27995630544,-2.68109512091,-1.74323208688,0.248376159305,-1.08836967761,1.56888150822,-2.34204218521,-0.662608107311,0.0142278273198,-3.88573953227,-1.49800652129,-3.57213800822,-1.9295987218,-11.9760786867
off_to_on,-2.23569986219,-2.22777755494,-2.15349911045,0.0355990122617,0.678188546611,1.41749553078,-1.42315558323,0.160240663314,-0.0383663525092,-1.39229408158,-0.612446735528,-1.30121468164,-0.623711910785,-169.527939488
off_to_on,1.98906320647,2.38462571965,1.57833063071,0.027335804654,0.295345942866,-3.2808156268,1.99269260039,-0.189218693389,0.0616801250469,3.23178611846,1.08413701237,2.51073444299,1.38916704573,91.4612576973
off_to_on,1.78534033933,1.49347283814,1.76998210573,-0.187804775606,-1.00102578481,0.300854446352,0.624134605187,-0.497112856583,-0.0908808781412,0.261998242352,0.11790498184,0.210146439079,-0.0511527881947,91.1799343888
off_to_on,-1.63821792079,-1.74741404514,-1.42072423348,-0.031118202293,0.565401013376,3.430492564,-1.05569690609,1.2101705678,0.119291100055,-1.94038977474,-0.300167430526,-0.86503706777,-0.535984112989,-41.6404130973
off_to_on,-1.82111961946,-1.36864106707,-1.63751312834,0.170302066347,0.565642180999,-2.43301431556,-0.724503807337,-0.268978425535,-0.141596385707,-0.062149617033,-0.3713193624,-0.314968275884,-0.0346975993894,-112.840028515
off_to_on,2.22811128718,1.84308008168,2.11944588843,0.235873248917,-0.456012508439,-0.856901549364,0.834963419411,-0.797590151869,0.165064915393,1.25567361636,0.245904958886,0.0500418286099,0.487722698551,69.0919287589
off_to_on,0.206500373784,-0.023836057497,-0.306116214242,-0.515598874972,-1.09057135087,1.38818981975,-0.285649043856,-0.465774295172,-0.193294459181,-0.94377036204,-0.09830331541,-0.24338720426,-0.899026350895,59.2428759776
off_to_on,-0.720728601791,-0.00717788345782,-0.506751529075,0.0818774758186,1.45595700875,-0.0507086765559,1.42275871814,1.91724720288,0.21851280106,1.10664390645,0.75778183189,2.070106353,1.08937980655,-7.50689386236
off_to_on,-0.317902213627,-0.504619272643,0.555154930682,0.268335405476,0.264480529268,-0.326306730051,-1.02663080497,-0.116814691736,-0.238605779669,-0.207111150707,-0.594470288961,-1.19465912562,0.0940195937854,-107.982594175
off_to_on,-0.145836919082,-0.998119825782,-0.835015229214,0.280375905431,-1.19309133176,0.462198999301,-2.54039941617,-2.46518350725,0.26129782759,-2.20895458695,-0.801840784602,-2.70408585733,-1.6223245086,54.6629004879
off_to_on,0.893322473189,1.74137832217,0.0933784920291,-0.972089987131,-0.139668523743,-0.758965178726,3.11964441355,1.16202172675,-0.287045039175,1.90730572539,0.91262376449,2.87740787131,0.953249798173,40.4559563016
off_to_on,0.227924348882,0.697746753674,1.29632995054,0.68562828633,1.06187079114,-0.300857846158,2.11129602491,2.0896569923,0.308242818736,1.85134193754,0.887878217465,1.88901706178,1.23161436335,26.1342671081
off_to_on,-1.476576728,-2.82946866864,-1.08244599083,0.180160903049,-0.137644515385,1.18433079588,-5.12587041337,-2.06434515555,-0.325770554711,-3.37638971429,-1.74162148393,-4.07001635157,-1.81703281601,-104.822516927
off_to_on,1.09396426192,1.50829339833,0.0743370938312,-0.343675705808,-0.104012376332,0.839294796613,0.649256995319,-0.244034298159,0.346643074945,0.643455769587,0.498256627252,0.854097989101,0.542117528705,9.73918796827
off_to_on,-0.424131575995,0.774188004423,-0.544070932076,-0.433012242204,-1.27156469299,-3.02668627335,3.72799887371,0.18320740342,-0.368596975677,1.38183010065,0.497709999245,1.81917000301,0.230993854533,87.0722163468
off_to_on,0.376072611184,-0.808944675606,1.14474503394,1.08945699081,1.40646310157,1.35262491062,-0.80255173556,1.53368273201,0.385236977437,-0.15235416726,0.0800483994395,-0.663803195617,0.166394535148,-15.930067223
off_to_on,-0.199721549218,-0.761707389396,-0.11098825779,-0.740138836504,0.319708225689,1.37059539776,-3.90042836546,-1.01088292623,-0.399839288388,-1.27337885824,-0.83986991889,-1.15772961328,-0.683769659804,-28.7929047967
off_to_on,0.146868814296,1.6564758813,-0.411311251258,-0.145153737847,-0.676049890776,-0.663452819363,2.49414053339,-0.909135199738,0.417827418439,1.02243336381,0.768007763715,1.46992695557,0.871209641604,-92.6985647735
off_to_on,-0.54244516346,-0.742550811298,-0.723297028601,0.238310300151,-0.872678139793,-1.27383826998,2.24955823794,0.801614565578,-0.434960139878,-0.160690935756,-0.28906169808,-0.757519322324,-0.471750103604,133.260504762
off_to_on,0.151163631687,-1.14114599049,0.601940564125,0.804010604536,1.03939711959,0.776044531854,-2.9191548732,0.682143222093,0.446760139197,-0.792801497709,-0.174415524438,-0.936300116806,-0.58994756491,39.8984946334
off_to_on,0.771856843708,1.38780715805,1.05833434558,-1.4962911644,0.473856862677,0.404595433308,-0.751078553692,-0.881618857012,-0.458059613426,1.08447020821,0.175116003341,2.01376765064,0.80773804129,-118.488192995
off_to_on,0.0768018672371,0.962534024743,-0.340685869805,0.583682518832,-0.381932906511,-0.111514473862,3.22997637312,0.290510850481,0.472173303336,0.70317518807,0.669326540165,0.299748416984,0.808972613352,-55.3200351473
off_to_on,-2.03865529902,-2.63288663496,-2.42677030028,0.649209299893,-1.34989899311,-0.312416515307,-1.90749090466,-0.631453680832,-0.483788309858,-2.76232706264,-1.35110310372,-3.62404595342,-2.04924190836,135.031656448
off_to_on,1.79909987579,1.1608390733,2.3406003692,-0.133485615589,1.45497542078,0.925187779382,-0.520621729426,1.28500093966,0.490673173374,1.70859899626,0.716580304661,2.59484426118,1.03053178635,70.3703457114
off_to_on,0.133412729794,0.416636078976,0.332105709215,-1.38489482003,0.0302696678688,-2.73372163412,0.703621658676,-1.05072211557,-0.498288529547,0.748200924694,0.0611607103957,1.18725170261,0.117746884056,-198.092950513
off_to_on,-0.237318785892,0.573974933007,-0.605108999754,1.35613327254,-0.138245267217,2.37794970086,1.01210695396,0.38218668776,0.5077031562,-0.354985902725,0.506885103169,-1.43176788516,0.540634764805,21.4385296691
off_to_on,-1.06631270063,-1.1277596553,-1.24237001618,0.125760421424,-1.05882051871,1.93508091388,-1.61239955916,-0.118555012008,-0.513449223512,-1.55293606189,-1.09105595244,-1.37790203059,-0.997078641865,112.357624627
off_to_on,0.718858160598,-0.709769586606,0.865400962748,-0.402378190059,1.13133060947,-3.39882063336,0.230933146677,0.277691667339,0.515501794459,0.943880442688,0.199571891288,1.74567368633,-0.0516491407823,38.3733254539
off_to_on,0.537335706125,1.10313504403,0.945713843552,-0.97371087395,-0.143034732187,-1.95642004847,0.724716275075,-0.343689576252,-0.519080477853,0.873781659656,0.497249922418,0.267950945358,0.318736612851,-159.54749712
off_to_on,-0.199521065383,1.38770454076,-0.452834855072,1.46895887667,-0.250603591616,5.1160279217,-0.134602330255,-0.201227224221,0.52321084969,-0.508591700835,0.505620507363,-0.757804292574,0.798868900967,23.6207999396
off_to_on,-0.773410725843,-2.00629240897,-1.22219786713,-0.26448595489,-0.0402758516143,0.348596452291,-0.362237557995,0.583138982324,-0.523066263485,-0.828651192104,-1.33107813705,-0.153899149257,-0.762612931074,84.4565407344
off_to_on,0.833675312108,-0.385433928737,1.22038433846,-0.348159408218,0.675369514212,-4.60292296201,0.652635640639,0.924791318855,0.520485003636,1.04773503727,0.595430126138,0.774798886954,-0.107799253852,34.1732049086
off_to_on,-1.12553490247,0.545434294577,-0.703971613281,-0.653318379326,-1.68209011567,-0.653956073137,-2.05508614701,-3.08633728658,-0.519748028247,-1.31568877795,-0.151954036955,-1.77008581089,-0.917668061929,-118.203299786
off_to_on,1.61038458783,2.07138292346,0.953972223252,1.23833734288,1.68696084568,5.74729130133,2.48333608373,1.87089395501,0.518298375091,1.55968014374,0.847678003466,2.09230079208,2.16329435711,4.01930096926
off_to_on,-0.429288455079,-1.95991924686,-0.506655659368,-0.293590097396,0.151138305496,-1.45946960991,0.441732869386,1.8836872107,-0.512532491431,0.0580475116362,-0.790854368449,0.25831566263,-0.37768870307,67.0926738748
off_to_on,-0.77897408408,-0.607302460851,-0.0536234102521,-0.357419872107,-1.05688400984,-3.34183048603,-2.46404138511,-1.69223748833,0.505600814699,-1.18569961347,-0.0257856334811,-1.69180096072,-1.38198786311,30.727601195
off_to_on,-0.823510995453,0.245402764552,-1.19141515491,-0.539608282887,-0.973627042653,-0.00436121835956,-0.901839054912,-2.80589751247,-0.500391399367,-1.1814053412,-0.508359761708,-1.42537456676,-0.816857673785,-74.2476163462
off_to_on,2.13179819648,1.44958214801,1.54367757404,1.44943113426,2.32725793769,3.07155891162,3.99824268925,3.16731307131,0.493377667423,2.67680953365,1.40902510677,3.26605295866,2.61047579443,-24.3686163364
off_to_on,0.6943937226,0.555327444625,1.55169793483,-0.914811494223,0.084514270956,1.03550935735,0.00334346599276,2.4390581453,-0.482498223573,0.949047651689,-0.120768579444,1.38320388694,0.631945248503,58.5845884202
off_to_on,-2.97577149095,-2.44720677655,-2.87994240026,-0.0905721364149,-2.20027259663,-2.89491359508,-4.66507953229,-3.99924140757,0.471567207611,-3.42010515406,-1.35374418402,-4.42462688423,-3.17321188998,23.4604913249
off_to_on,-0.695279251399,-1.25273610167,-1.70887919216,0.103493127362,-0.112910285051,-2.87414803269,0.610802437393,-2.2572104013,-0.461894732586,-1.10987225597,-0.372524957183,-1.48076210147,-0.740767108158,-31.7022546869
off_to_on,4.73598019592,4.59542678182,5.13255571354,0.616771397984,2.94156584546,4.83786131687,6.00989584551,5.6894400827,0.449639188447,5.13358983032,2.71234433107,6.71579690722,4.5801510251,-52.6815699848
off_to_on,-1.87705116126,-0.798203591803,-0.921065704516,-0.933918858876,-1.43145442002,1.98990462416,-3.56224954047,-0.439340117027,-0.434333651158,-1.14106202313,-1.33042528785,-1.39890755048,-1.33538000287,55.3751945313
off_to_on,-2.82669269358,-3.27923077092,-3.68298880042,0.512303976251,-1.28108955645,-4.23225786145,-3.55180858133,-3.72602979624,0.41981687678,-3.35952511708,-1.33204711733,-5.08531097398,-2.76245664073,14.9335382175
off_to_on,1.22060534698,-0.097876141646,0.613529110587,0.0236544623473,0.422232027394,-3.49249665819,2.95230140732,-0.137709822606,-0.405888913337,0.160002044765,0.51596534149,1.23876292334,0.299785060429,-0.799988702533
off_to_on,2.88585535516,4.01371104723,3.8723035788,0.0539762370679,1.7158844907,6.18604758403,3.21673609654,3.85195649533,0.388990220119,3.78365194255,1.77902189937,5.07392165302,3.1859898537,-67.1509623338
off_to_on,-1.74584525099,-0.549519094961,-1.4265470212,-0.662326737567,-1.0707490393,2.64333995991,-3.45704220754,-0.531472977547,-0.370068264615,-0.591146752404,-0.979852710667,-2.32918658281,-0.757650378236,50.0333385218
off_to_on,-1.96475595292,-3.59847321102,-2.93339190424,0.850708611096,-0.70516220365,-6.91865172092,-2.04705998868,-3.2159621076,0.352445304117,-3.35421577774,-1.20109649376,-3.53090337706,-2.56712395045,4.90507160977
off_to_on,1.67092578539,0.756286104227,1.54422216446,-0.213770655565,0.562928333785,-1.77064892429,3.63476946178,1.07358227771,-0.334682603291,0.942199869578,0.578326199219,2.3561278446,0.619606124691,20.9072670558
off_to_on,1.02600012325,3.07980879447,1.94793863292,-0.193285643594,0.40202972592,7.47208404184,0.476061263101,2.25693136722,0.313966831272,2.52296905761,1.40492253953,1.91975238541,2.22131872328,-68.3577019024
off_to_on,-1.5583279459,-1.23750201027,-1.62068954426,-0.41025737795,-0.55283303811,0.291346846447,-3.72314015041,-1.87033572944,-0.292309126033,-1.57342843139,-1.11962391046,-2.03215081917,-0.964227162179,40.5173010866
off_to_on,0.865728564744,-1.13943791203,0.111316251459,0.877157928715,0.783156654807,-6.7981127015,2.67759071294,0.46249643192,0.27213291034,0.121912902122,-0.292024678503,0.595549532037,-0.662885150275,-4.24840212185
off_to_on,-0.795034990727,-0.695720792587,-0.738431666573,-0.113275120356,-1.1090359215,-0.265555417596,0.744983832486,-0.29272090255,-0.251164859081,-0.669550046415,0.0436113479909,-0.879076909249,-0.666828812402,34.4051941645
off_to_on,-0.0111452198335,1.79125593034,0.787485033394,-0.617683053573,0.178290654103,8.05923600337,-2.93889646583,-0.28917925792,0.227624167072,-0.044553635785,0.803911620987,0.038906254743,1.41304850054,-60.2210505435
off_to_on,1.02848311651,0.606677619397,0.734014994066,-0.135788462025,0.881403545539,-2.25009649133,0.703579607898,0.544962454301,-0.204140405129,1.05749208916,-0.349422869913,1.52967388966,0.229663945844,28.7191293843
off_to_on,0.137054316065,-1.26869765122,-0.424120925162,1.10419925242,-0.0466887831889,-7.32959354017,3.75221037585,1.14670667139,0.182043403552,1.10240009474,-0.245308843989,0.244577479747,-0.74991143293,-11.27057993
off_to_on,-1.43204951936,-0.973654833218,-1.1504109665,-0.512089260067,-1.07841278094,4.49360513535,-2.68408156186,-1.43091777103,-0.158684141578,-2.25363747706,-0.1466611924,-2.35224472108,-0.44674573239,40.0725842982
off_to_on,-0.388639292901,0.728428491196,0.0599953751853,-0.550044171375,0.15780109255,5.41873252219,-3.99309084728,-1.75765284933,0.133410115116,-1.70402651438,0.236512305825,-0.509269010446,0.119474277926,-46.2447339934
off_to_on,2.16358266402,1.66706312805,1.91231014122,0.213873689503,1.00449962356,-5.68594949739,4.80845343001,2.79719629608,-0.109007066114,3.71013674063,0.386675743385,3.39430771399,1.02620857573,16.8407892193
off_to_on,0.0528924470415,-0.620283363687,-0.339614078037,0.640808195549,-0.155218778663,-3.35747244682,3.19133659205,1.31067186203,0.0857018143406,1.3778376488,-0.233336252692,0.164738911702,0.0573476754957,-15.7881964289
off_to_on,-2.45404832142,-2.26324107473,-2.26312469852,-0.312448594965,-0.769527951961,5.96423736043,-6.05465646633,-3.45624657503,-0.0609095799341,-4.46035291622,-0.612528274111,-4.05259583018,-1.45448772909,39.0255445647
off_to_on,0.720043339612,1.26170511838,1.15861695176,-0.406004825902,0.0125276086045,2.07379551049,-1.8809895953,-0.302231730036,0.0350275789876,-0.523442144656,0.585069167384,0.944846535278,0.214054876737,-29.4513343506
off_to_on,1.16987017514,1.17011170339,1.03669016325,0.13731041421,0.161246318407,-6.93043395955,5.42348269121,2.31623462107,-0.0105861468042,3.42403207853,-0.0379308786342,2.80038217584,0.830831034616,4.06121516
off_to_on,0.606210731626,0.146878342852,-0.122363614943,0.250913371706,1.17961797829,0.472489843585,2.68327365311,1.36323793175,-0.0131430551708,1.67476889126,0.149968984001,-0.0974202607658,0.900377190817,-8.5170650723
off_to_on,-1.44876928791,-1.53621276671,-0.943526413458,0.210554885416,-0.805881840878,6.24644932676,-6.06737876558,-2.40598528183,0.0383189928749,-3.46114011395,-0.0111041362022,-2.48731656168,-1.42644186551,15.2541143342
off_to_on,-1.72410943794,-1.44208890708,-1.07045208534,-0.383373707046,-1.76444987392,-2.21963306848,-3.55892785352,-2.64027094495,-0.0637094027652,-3.20320070937,-1.00680139373,-1.05102247709,-1.64831250483,0.485955312971
off_to_on,3.01937036948,3.24553508689,2.1993680265,-0.33904206872,2.01592053959,-4.70163954413,8.2828563832,4.05324851506,0.0873503428993,5.0988910248,0.935609972008,3.37787058056,2.95959410377,11.1380208811
off_to_on,0.669827932884,0.617889829566,0.373690695255,0.410183706504,0.916298379472,1.99720490326,1.84615988844,1.82781951354,-0.110666053422,2.76687999616,0.761972480126,0.533801669843,0.531719921776,-59.4508953995
off_to_on,-2.58493354753,-3.16652051387,-1.87022769434,0.578053728142,-1.79948159272,5.15738202811,-8.28932835761,-4.19580710103,0.135145469913,-5.44201827367,-1.08855594065,-2.624795817,-2.76040174981,61.7900669569
off_to_on,-0.710758514586,-0.561913758316,-0.456803163396,-0.736749858037,-0.864680165967,-3.21466477142,-0.712341926599,-1.39380479425,-0.15902056734,-2.63951881546,-0.86304850548,-1.22644887623,-0.263753804783,0.301260960041
off_to_on,2.3670324547,3.06756457652,1.61417376658,-0.204993363245,1.83827328637,-5.04527578173,7.57246795258,4.06582403452,0.181076328123,5.76686314126,1.53582146154,2.52618632562,2.70410698327,-29.2366358523
off_to_on,0.968268517115,0.706930151829,0.83040701242,0.160888799854,0.67184798994,5.08717200916,0.186733390607,1.15330054081,-0.203116608925,2.27886837951,0.427397783317,1.75708797622,-0.0287885978685,-10.3523424436
off_to_on,-2.53177762358,-3.18049758819,-1.84929244066,0.866496532205,-1.67202545719,3.38055013569,-6.71149079826,-4.01100690717,0.22584972696,-5.98418981391,-1.37835107375,-2.67798329586,-2.54240369735,28.4066774109
off_to_on,-0.825957015382,-0.518371273785,-0.644256312293,-0.556250929249,-0.676280896249,-5.89245356623,0.0121829244116,-0.618092512617,-0.247300441517,-1.38408612736,-0.370313054087,-1.90479062377,0.271942972983,20.690882159
off_to_on,2.69545727306,3.17933210051,1.9294420105,-0.711898268539,1.78763178904,-1.19017698335,5.99682638087,3.73512213865,0.267051374056,5.65331911612,1.52640175944,2.8859885305,2.51587445025,-67.5930071324
off_to_on,-0.231522951391,-0.533697970843,-0.445710005274,0.177822126332,-0.0194096072657,5.05816041786,-0.816949644098,-0.699202560439,-0.28696654359,-0.311543303536,-0.441757526724,1.07341882241,-1.26538166788,59.2514627706
off_to_on,-0.952532536335,-0.992093858031,0.177339466803,1.53744518955,-0.57454467239,0.568720305606,-3.4254491498,-1.17158775492,0.30699150478,-2.70869230458,-0.190402366787,-1.13027815229,-0.770666875543,-23.0342641559
off_to_on,-1.14440445161,-1.39106859275,-1.390067485,-1.10431255424,-1.102982146,-5.53405725669,-1.45130679226,-1.21280731537,-0.32525079787,-1.39595705847,-0.677005685792,-2.87657716605,-0.170579203752,-0.678194724639
off_to_on,1.5515418125,1.52674764137,0.348816954758,-0.93005007233,1.3528703383,1.80051004121,4.2228444206,1.58252999532,0.342053936231,2.48122793307,0.667052251208,2.00578927627,1.46331772649,-4.08241251992
off_to_on,0.746311312756,1.71956305556,1.72613982878,0.76626532699,0.331723027558,3.68278217822,1.352718151,1.41200533318,-0.35904828606,1.80997962424,0.492213634622,3.03021660721,-0.156207970586,21.0905950607
off_to_on,-1.16724909333,-1.71466460536,-0.54424252186,1.43289027403,-0.533038807993,-2.06064075002,-4.44606120751,-1.73153534752,0.375540395828,-2.09424365907,-0.330938474392,-2.75584504452,-1.35015015361,-0.00812111221973
off_to_on,-0.693789067251,-1.89068576353,-1.98535646177,-1.73179772611,-0.748854924694,-3.00604837869,-0.613733692995,-1.232602235,-0.390000224211,-2.12715718685,-0.985818477167,-2.53524155999,0.345145591901,-56.542199784
off_to_on,0.964658927237,2.21490136423,1.04286821281,-0.206198924744,0.563592389122,2.72538598858,4.37818978376,2.04850408377,0.403302903019,2.11101327546,0.928191818713,3.58877402159,1.3881125749,50.972031147
off_to_on,0.118955903366,0.947916914081,1.41981499408,0.741321956927,0.349007809348,1.92421584263,-1.16090855455,-0.193143849463,-0.41667751526,1.3455651529,0.14964138545,0.557987906444,-1.31039274551,34.5560189193
off_to_on,0.497299338559,-1.0973628438,-0.368182382825,0.748982795042,0.612802744845,-2.30490135213,-2.28757929318,-0.373645723652,0.42898726497,-0.450516902949,0.120567258653,-2.18441914819,0.195207554812,-53.8929412723
off_to_on,-1.81180203745,-1.97878975682,-2.59975037439,-1.13718398834,-1.82826714952,-2.8806476031,0.662718093973,-0.668779875189,-0.439206884297,-2.84510998336,-1.18595793028,-0.786359827472,-0.0404982163616,-37.8613094724
off_to_on,1.17839833022,2.53087046243,2.41865702124,-0.116570074155,0.628493416745,4.80031267647,2.5015511922,1.16656968073,0.448562454995,1.68567561742,0.884149683183,2.96830903901,0.867167030991,57.1392568025
off_to_on,0.244463248087,-0.0668080311276,0.361903012326,0.211139015775,0.86111803588,0.504548174934,-2.61656529062,-1.04184697477,-0.457755097612,1.24159770621,0.0812073207195,-1.56169877257,-1.19093668171,59.0300149899
off_to_on,-0.35660700153,-1.0533884941,-1.44044947529,1.21174754606,0.16424100482,-4.49552181424,-0.185545741336,0.417736345782,0.465433389139,-0.239713432976,0.191787706447,-0.858458130433,0.366343137454,-92.4022903262
off_to_on,-0.0677698261564,0.186142918601,0.149793664827,-1.39206523164,-1.4686217485,0.540312567371,2.40600673569,1.00670057711,-0.471141046484,-1.53105238836,-0.850520774152,1.47684922976,0.504715549161,-30.1103981453
off_to_on,0.122279966639,0.299791778633,0.988020143558,-0.0949958272373,0.322566042733,4.16007377301,-0.956414662117,-1.22291585064,0.476225827708,-0.129887579905,0.286714068905,-0.125973591121,-0.225541238249,57.5435632244
off_to_on,-0.520621265864,-0.448709256772,-0.953189560928,0.519995970018,0.97704952067,-1.50092596619,-2.30981563554,-0.967831742202,-0.480844258688,1.31212159378,0.357616152851,-1.31129725602,-0.56687080171,85.2427303231
off_to_on,0.986132646149,1.08444304506,0.491303262642,0.857722716114,0.276447616171,-2.76156848528,2.25721269399,2.1843500495,0.483654605487,1.08563508734,0.499584970196,1.12822170108,0.649541469285,-115.702120887
off_to_on,-0.584652023688,-1.13877203963,-0.286252878936,-1.53477842413,-1.90357014753,0.229850123392,0.570688275025,-0.45757407232,-0.484744561533,-2.56237701714,-1.54983962534,-0.344143518022,-0.622101848671,-36.1293607576
off_to_on,0.330732727116,0.45317381524,0.748322057634,0.379964610698,1.15129344079,4.18645871474,-0.311853541463,-0.3344616076,0.485374388773,0.578940227321,0.985178344735,0.958916795178,1.37300597825,56.8238257746
off_to_on,-1.14299987577,-0.521521439588,-1.47136676361,0.540432628962,0.289589553338,-2.14602010904,-2.38393088168,-1.6145656705,-0.485220166052,0.5452139441,0.119887148247,-1.67008877742,-1.45780642263,113.135315186
off_to_on,1.33403001447,0.992686669163,1.09283900953,0.228426117747,0.105880311996,-2.20219294997,1.15403813986,1.84717122389,0.483138769666,0.948276371498,0.129995198808,0.174002155827,-0.174529196222,-131.194091897
off_to_on,-0.0110998393478,-0.369527263627,0.316793347708,-1.20639150759,-1.19778837666,1.02945620524,2.1078017624,0.872606888425,-0.47966518908,-1.18429516012,-1.06292483213,1.30770132999,0.973627917238,-47.8046736072
do_nothing,-0.636512853104,-0.414236165857,-0.65262095554,0.805293317199,0.883366026445,2.34523875328,-0.194917895863,-1.30516357829,0.475809481183,-0.607673230926,0.873856288982,0.294780713069,0.852102215174,55.5310084591
do_nothing,-0.277484949833,-0.0586707639428,-0.499229566951,0.0536502230743,0.192842734679,-1.34844129509,-3.2903734758,-1.31105007513,-0.470890408701,0.841108029886,0.154516307402,-2.02024303252,-1.95939111614,134.845594101
do_nothing,0.495305132831,0.497993569441,0.816748325167,0.183452678803,-0.408496847143,-1.24808347723,0.0836766401726,1.27707172432,0.46409581596,0.622736349446,-0.321179958985,0.0632673448086,-0.297227189413,-132.392805724
do_nothing,0.354355605271,0.0681577516944,0.229241347749,-0.974260347933,-0.155175177601,0.582536520488,4.18827014183,1.35185555885,-0.45626450103,-0.81144611584,-0.602496613898,1.9843256961,1.99805842652,-68.7208789104
do_nothing,0.220557994207,0.109975829504,-0.15951767291,0.796596036174,0.677457631034,0.947800052202,0.323252832427,-0.357876557501,0.448055678047,0.180418206196,1.19098070188,0.387826944143,0.500375675878,58.4887535848
do_nothing,-1.90707304863,-1.49164399139,-1.47495764199,0.0648551384323,-1.00935298135,-0.730200147524,-6.39353071444,-3.23498094593,-0.438586160757,-0.846451541913,-0.697063380464,-3.21095213837,-3.17774037205,146.591623205
do_nothing,1.65309649153,1.76508788094,1.92477059158,-0.0620098346723,1.0513435769,1.19149775576,2.24414825299,2.35061429854,0.427440660337,1.53973057995,0.0220713881641,1.40519787641,1.49994297081,-121.733523045
do_nothing,0.0427252150361,-0.545231209344,-0.5370929256,-0.766676789024,-0.529268004264,-2.24614909432,4.68505595966,1.63868068526,-0.41559901224,-0.669965326866,-0.153920722881,1.20095575535,1.13961459289,-93.4535569812
do_nothing,-0.130213116896,-0.0434479136428,-0.244329018532,0.8877843578,-0.116443353626,0.431377201811,-1.65910329071,-1.27051754909,0.403335364176,-0.0809127952928,0.680000971938,0.223026847694,-0.226291857286,63.5455262378
do_nothing,-0.599773020965,-0.0341675944615,-0.0921477987581,-0.134980134743,0.0576972550396,2.19363950614,-4.57528937551,-2.0672644956,-0.389725046689,-0.301582911744,-0.583404203233,-1.77650226845,-1.43905362004,149.198382384
do_nothing,-0.275812823304,-0.52894418783,-0.183597794447,-0.0563478512131,0.569951777274,-0.846182787981,1.91635634424,1.34758622465,0.374750084171,0.114233443218,-0.0461691495419,-0.554073857244,0.180808563316,-103.399326555
do_nothing,0.875582384553,0.53206930909,0.584429908438,-0.584156422234,-0.763913975205,-1.76094468373,3.56045021975,1.76281350813,-0.359375174307,0.695957074956,0.222580280381,2.12016325678,1.15319332811,-116.707190874
do_nothing,0.848780172768,0.910845091982,0.448343894512,0.769643719675,0.140583926956,0.773608385333,-1.53998279719,-1.07153895968,0.343515828972,-0.201823713113,0.234075771205,0.628495712468,0.228726409628,67.9325803271
do_nothing,-1.65284605344,-1.28324032922,-1.3605640602,-0.20265127429,0.453506736958,0.617251339115,-2.47878526663,-1.42616788013,-0.326347831605,-0.952270770877,-0.577863825363,-2.44750391309,-1.24719879917,145.064071058
do_nothing,-0.450718106325,-0.183681376005,0.375353279573,-0.0649541263878,-0.0254697228855,1.11619016028,1.16917635528,1.00859696665,0.308195571602,0.839862363007,0.597655355933,0.189426355433,0.108644172905,-81.3656525213
do_nothing,0.979753841664,0.122124028809,0.278661548746,-0.198179917496,-1.1105475458,-1.39725594542,0.0348689473193,-0.312776339039,-0.289879875011,-0.518254513682,-0.640457353061,0.767985479154,-0.169378154968,-135.693950894
do_nothing,1.97134679523,1.70698109151,1.10599713093,0.314179301719,1.43151143068,-1.45838928268,2.07137973182,1.82952977887,0.271031248649,1.1382150306,0.47236289123,1.6824891621,1.80154977971,70.7546719054
do_nothing,-2.58801248333,-1.03569873119,-1.49037328215,-0.32893043594,-0.27002091586,0.517961128211,-0.657688653957,-1.12447733983,-0.251032008452,-0.605866871867,0.122641682911,-1.70255234409,-0.782278167442,136.625084779
do_nothing,-1.24193563202,-1.59511434007,-0.712399435189,0.509586572204,-0.845965295061,4.13438999994,-3.53243602424,-2.44829192737,0.230454838324,-1.41700599488,-0.269287665058,-1.66439670892,-1.96771370772,-59.5959227906
do_nothing,2.63296683264,0.786098502299,1.47025110052,-0.307320327545,0.290593205664,-2.24661338296,1.08782308423,1.95745100853,-0.209889064946,1.16292749933,-0.484061553133,1.71659093271,0.854821323209,-148.618452486
do_nothing,0.944132708986,2.20372726847,0.869077488146,-0.226531848156,0.859030296573,-5.28943212488,4.51917977859,2.52564632774,0.188782990096,1.63047847825,0.75006892234,1.87494564032,2.50608933295,71.8141635869
do_nothing,-2.17954363006,-0.77579034013,-1.39504370903,-0.0814732687449,-0.415744115604,4.53507262586,-1.3223275873,-2.15698622913,-0.16678612439,-1.73641754902,0.309622516281,-1.80028469204,-1.17288517365,126.053579286
do_nothing,-1.39007548162,-3.09026829076,-1.49193318543,0.96935352562,-0.941802579027,4.61551588961,-5.35853417205,-2.65945959034,0.144605472443,-1.50009946762,-0.902449034745,-1.93382016995,-2.98533933307,-41.0295557106
do_nothing,2.02647743154,1.23676707155,1.76073743706,-0.548975094218,0.512493174849,-5.84673436068,1.36185137478,1.88402803988,-0.122558031276,1.88001185532,-0.382759810293,1.75231304615,1.73277456262,-155.147208212
do_nothing,2.42665701335,4.16162061217,2.36611836791,-0.897348704213,1.46196618339,-2.9259280165,6.72898805093,3.58075115061,0.100022533869,1.83905238164,1.59250106629,2.24656579443,3.39544273638,71.6462945601
do_nothing,-3.4306201926,-3.23707857364,-3.52018433603,0.77579792575,-1.64104546641,5.09418916689,-2.78133265519,-2.72663073588,-0.0769292731312,-2.98685231794,-0.587239751907,-2.62124770126,-3.15529081187,115.017192743
do_nothing,-1.44306566787,-2.77395424392,-1.05854783765,0.891411047842,-0.602958988002,2.86199270663,-6.21092428657,-3.13524105215,0.0540046936097,-0.422164950975,-1.02731276806,-0.779781336356,-2.00999727161,-27.4247814846
do_nothing,3.27645897089,3.27559512211,3.39567083789,-1.06527861735,1.59931473923,-5.2087150565,2.77855938325,2.30723472958,-0.0312976059745,2.07753136771,0.639033708203,1.51320579384,2.85105921978,-156.05032538
do_nothing,0.903508726446,1.81938587486,0.40015384559,-0.628157868066,0.383417750964,-2.26687995431,6.25293063461,3.53083404046,0.00822195610904,0.22412116141,0.788355596706,0.457791589958,1.28797960636,71.3644791966
do_nothing,-2.52109691221,-2.42253238739,-2.61818398009,1.07615796342,-1.7984151328,5.17007275081,-2.73299079421,-2.0750801666,0.0150394207611,-0.876709174052,-0.572527784058,-0.14670068006,-2.03400922893,102.717540134
do_nothing,-1.54324402435,-2.26509375239,-1.09696221675,0.419236628549,-0.145055828274,1.08624895321,-6.98588047456,-4.77026392725,-0.0378402935792,-1.69692434685,-0.916534329355,-1.58285675202,-1.74577751358,-11.7898200682
do_nothing,3.1346313303,2.95533021658,3.2677467137,-0.969228793415,2.33536394813,-3.99528683043,4.29834863231,3.77725278126,0.0603588118542,1.85507375326,1.07275899637,0.584192312416,2.56697132907,-169.832720232
do_nothing,0.93076620359,1.57856382128,0.701246737694,-0.290147398637,-0.93737049771,-0.973660871098,5.75523377739,3.98018757931,-0.0830626884883,1.570547316,0.363143301262,1.47232497232,1.06315043583,91.8243318861
do_nothing,-2.97378038646,-2.929919627,-3.42838761731,0.909379208721,-1.84570809385,3.5323227111,-4.90674651377,-4.86878372795,0.105576279985,-2.42952462514,-1.04399819176,-0.736937393706,-2.53886872773,91.3235054647
do_nothing,-0.362092069181,-0.646038068036,-0.100889172296,-0.0651230698115,1.46629287252,0.458569967629,-3.74861221344,-1.91798027798,-0.12740654245,-0.856230844665,0.0722360330243,-0.953146070793,-0.204929811789,-42.8610102947
do_nothing,2.19698065054,2.07772360649,2.91544483911,-0.330525141083,1.14820536067,-3.12921790288,3.75804339755,3.93195230082,0.148892156829,2.10365022517,0.77811990568,0.137281189194,1.85878271516,-111.23186827
do_nothing,0.732406248982,0.574494999201,0.207715473772,-0.304622214194,-1.4706506606,0.787981700904,3.00626469115,1.13333984828,-0.170329580686,0.806636359046,-0.292431819544,1.37524046753,0.00885047664029,69.0846056236
do_nothing,-2.22639293843,-1.65476815721,-2.7481857669,0.53073258615,-0.563403211509,1.75908147713,-2.51742799888,-2.99049549791,0.191228420819,-1.98559667069,-0.346383422817,-0.313263141963,-1.53185996407,56.876384093
do_nothing,-0.97692517081,-0.777905735915,-0.643345271957,-0.0392681971775,0.846055387501,-1.94574941097,-3.47137407002,-1.20319431456,-0.211289216808,-1.15106331483,-0.105859222973,-1.94019273646,0.0743966844784,-5.09074084344
do_nothing,3.31035237663,2.39700983542,3.88531403419,-0.133426713153,1.17857528754,1.19765147252,2.91466193457,3.32422437087,0.230933105601,3.08163699984,0.883502007995,2.06761504087,1.99776630534,-107.918884397
do_nothing,-1.01699153569,-1.07144515555,-1.25033178573,-0.168053974981,-1.72299939595,0.36041583605,2.15125352872,-0.472779328068,-0.250265518135,-0.551255002519,-0.756662071907,-0.0974276253661,-1.83135745724,53.8420399033
do_nothing,-1.78594744779,-0.687172078239,-2.27121909743,0.412456070421,-0.158859532643,-1.83259178515,-1.32158185821,-1.45440094481,0.268763986817,-1.83512366076,0.042222097252,-1.29501174696,-0.168097815359,37.9506354826
do_nothing,1.21721130393,1.00761091152,1.04920030213,-0.575095514943,1.04952137701,0.410693536344,-2.72484494945,0.135053727398,-0.286330062439,0.484695662692,0.230046732518,0.540617638874,1.54288225328,31.5486944228
do_nothing,0.690077304521,-0.36640206306,1.41726405317,0.542687205433,0.330690089053,2.33937888963,0.784516830941,0.572990620923,0.303390661198,1.3048352788,0.076766857995,1.17373455877,-0.681757063412,-107.853913376
do_nothing,-1.03399084183,-0.565541584043,-0.60538150334,-0.0404210628897,-1.13274399066,-1.50226874505,3.44678642283,0.301689295286,-0.319871319611,-0.376383110155,-0.448392678599,-1.28476641899,-1.26031690418,8.40751646976
do_nothing,0.213402659753,0.998144986509,-0.871227782095,-0.230912027985,0.014817671989,-1.69942583306,-1.01248485279,-0.0599450031107,0.335292555189,-0.910062383859,0.533302795745,-0.602856871519,1.44930666917,88.2551676627
do_nothing,0.366789794934,-0.201173405868,-0.148077421265,-0.486006936551,0.70198596154,1.54239271875,-3.88862256882,-0.922868836099,-0.349735686644,0.0166720516606,-0.25403755504,1.3564942677,0.446565826496,-13.8449577672
do_nothing,-0.115352004828,-0.513354616838,1.37411202834,1.16605485706,0.307411536843,1.45171074714,2.17094091749,0.515883474416,0.363568896938,1.40143796449,0.0418393805399,0.961074746111,-1.06813416606,-30.7194461207
do_nothing,-1.077304726,-0.703245930055,-0.784536508921,-0.504443256782,-1.30827249515,-2.22337084819,2.22404568107,-0.157895421394,-0.376573578782,-1.34567583558,-0.574148523209,-3.00100088164,-1.18929973923,-94.1580135086
do_nothing,2.00478394128,2.27336322346,0.409189134853,-0.55351343062,1.04546132272,1.00023206213,-0.546144668728,1.49927026216,0.388371410737,0.555785599633,1.30790542778,1.20115311478,2.71766382904,135.241121935
do_nothing,-0.938128364795,-1.22955869977,-1.06657022518,0.297456296214,-0.404237432455,-0.861647652549,-3.49640240427,-1.84182960426,-0.399181201228,-0.107288679663,-0.754727076855,1.65838138774,-0.63467727543,40.6557588916
do_nothing,-0.959815022552,-1.08925465568,0.678758770917,0.866048306128,0.129054048404,0.415755148191,1.59749789775,-0.553947045831,0.40926736974,-0.00290934816266,-0.617334406381,-0.86314234582,-1.65569279899,-119.739463929
do_nothing,0.717734606648,0.911852633856,0.605972719904,-1.31010849602,-0.0422984370858,1.50757782639,2.73176736048,1.92008710972,-0.418318721932,-0.28728792289,0.429464489749,-1.94858008061,0.2622733865,-56.4389875038
do_nothing,0.986782016287,1.04710876402,-0.499649666208,0.721834218791,0.217581844841,-1.21012523835,-1.50258586332,0.234741624087,0.426093924906,0.570201196847,1.21753543815,1.6432117552,1.89358787399,136.557048133
do_nothing,-0.699283246738,-0.904528802721,-0.416863118365,-0.0067865245537,-0.553295526848,-1.77310639668,-2.36967345454,-1.98822724979,-0.432895330333,0.197799945508,-1.26978690489,1.45786892315,-0.391839380422,70.9301073884
do_nothing,-1.02793806714,-0.88078218377,0.207243589246,-0.102484062924,0.35944264298,1.86751486594,1.66999683345,0.349981199465,0.438861420766,-1.06081572166,-0.584825841884,-2.2437257455,-2.00679294518,-199.034063918
do_nothing,0.257431549194,0.318947090853,-0.142599752399,-0.518818564687,0.0363134465068,1.12454956505,1.17932781621,1.04757196432,-0.443646076542,-0.371405384129,0.757627879,-0.827488455891,0.145207648534,20.7802860308
do_nothing,2.54859889317,2.26789399473,1.61977042091,1.15612120326,0.554603557141,-0.526055767116,-0.0781993233881,0.848461715958,0.447156940916,2.8772643372,1.51027585505,3.68058370962,3.43290929828,113.028281322
do_nothing,-2.65473011937,-2.47523988716,-2.05753810638,-0.736493361628,-1.4889251769,-3.13390109796,-2.58181328761,-2.58912298951,-0.449723793119,-2.27926953365,-2.1972962407,-2.64432700348,-2.41786276443,39.150344326
do_nothing,-0.406642398092,-0.161400560636,-0.161880897117,-0.274720545575,0.914098458823,2.0416602717,1.55899333587,0.959478778739,0.451359434023,-0.999943346816,-0.0748164411667,-0.931978969755,-1.66083915737,-160.212531941
do_nothing,1.75419341078,1.3954994194,1.43702370498,0.0422387555656,0.455334389923,2.44867070015,0.86018372379,1.0552599717,-0.451737503175,1.64420381426,1.22423970187,2.44253760249,1.76170429899,23.2109123321
do_nothing,0.418599989097,0.192922293047,0.569739013949,1.27502481594,-0.166873632117,-1.22221590306,-0.396154830044,-0.243209453695,0.450904833945,1.1790338469,0.66349892985,0.137111744347,2.02039350328,84.3264691336
do_nothing,-2.12026645964,-1.35439290997,-1.966768175,-1.22402286103,-1.23389331736,-3.74829840198,-0.735644755222,-1.09570451492,-0.449168615836,-2.00152893777,-1.7860681361,-2.87703075468,-2.630721973,35.413500974
do_nothing,0.621859320751,0.359844097217,-0.141030898609,-0.351142298313,0.941159452007,1.97285517254,-0.367493992412,0.220864641536,0.446435078687,-0.761068007567,0.0101010591423,1.18428655319,-1.06751503955,-118.88986569
do_nothing,1.44611057116,0.650613705987,1.88626543288,0.488502092204,0.698221246943,4.19176931263,0.78408056826,0.872458652639,-0.442442050497,1.68470813471,1.15768292434,2.26401371941,2.32531870878,3.87587723091
do_nothing,-0.835487024417,-0.0777009356851,0.162284540312,1.31471049541,-0.636077121344,-2.49390441267,1.41035000276,0.216021534876,0.43734876773,1.24264600061,0.519101590653,-1.22625678144,1.06471700191,66.4204316951
do_nothing,-1.52558347223,-1.00540718683,-2.58542963661,-1.71645902278,-1.13681130871,-5.2326715222,-2.17197987448,-1.74974878848,-0.431401973606,-2.62996598599,-1.88348924779,-2.86279002158,-2.98076991175,32.2312207047
do_nothing,2.44279777741,1.43919937589,1.56812660772,-0.220469020652,1.6433522905,4.98566245691,-0.175297502598,1.50716886769,0.424433574544,0.162655405942,0.671899530586,2.8509603537,0.462692967373,-74.9707396724
do_nothing,-1.01613255118,-1.22639841233,0.453315049812,1.04917879293,-0.489194764551,3.2265211342,0.800776428361,-0.571098896247,-0.416275032532,0.931281519643,0.463175333317,0.877116346895,1.23337773667,-24.2761672518
do_nothing,-0.547494389883,0.506175881682,0.00665869382813,0.610344682875,0.0381980344031,-4.5866371669,1.80758375931,0.342886583311,0.407160580218,1.54812276122,0.4646631521,-1.07322516388,0.987007093359,57.6482377115
do_nothing,0.344825025554,0.274346518055,-1.25927572484,-1.62956662511,-0.517564846801,-3.37722346754,-2.09641487117,0.0301917426139,-0.397254168291,-2.17275699964,-1.15473591263,-2.14726332271,-2.3344522695,24.9109269274
do_nothing,0.591688806254,-0.218701044898,0.439992652867,0.464501660693,0.219103214407,6.08087427386,-1.38593618146,-0.749709896436,0.386352048205,-1.1451107183,0.0468232793283,1.5599503012,-0.345123755696,-32.3228944491
do_nothing,-0.34515017812,-0.420863607043,1.04092271124,0.361004884186,0.334706358938,1.61894781605,2.30920474217,0.179645909197,-0.374391868949,2.40892469668,0.599444051237,2.3903612479,2.34514067186,-52.4593292318
do_nothing,-0.492360076759,0.328963607292,-0.554925474263,0.39790282656,0.403520962605,-6.29599866776,1.19855126217,1.36287952891,0.361641671138,0.888161689225,0.546339267702,-2.02798162625,0.0382633424999,54.4139371034
do_nothing,0.0558970464372,0.299086588328,-0.99496959804,-0.766177394053,-1.14726522977,0.0355104952016,-2.61495475175,-1.17576309975,-0.348176370815,-2.61158100522,-1.20696261839,-2.31822307207,-2.5811322969,16.0896314169
do_nothing,1.11856401336,0.148573446952,1.26427205068,0.0989571268674,0.172763549024,6.23956749897,-0.3026291961,-0.66606310282,0.333795049504,-0.0939902119977,0.100125881765,2.8349638967,1.05237874076,-1.20574794974
do_nothing,-1.05837507461,-1.45373402975,-0.465451438415,-0.0292998179012,0.681202118508,-2.62605926651,1.37447219711,0.69049934453,-0.318537945151,1.33267196237,0.540562786855,0.688674300908,1.24135834123,-66.8957755354
do_nothing,0.198886762544,1.52298736441,0.266214309,0.554180340406,0.601699463733,-3.50837533922,1.55855567075,1.65711448047,0.302668199721,1.57367563227,0.639535552817,-1.27171295397,-0.0294857224369,49.2129190907
do_nothing,-0.407195712235,-0.115811051614,-0.730000004598,-0.269244874884,-1.83999583887,1.96750378571,-2.60829332734,-2.47778727491,-0.286179749194,-2.68890078076,-1.52760924833,-1.42954512381,-2.18678595208,5.63550746926
do_nothing,1.03300976144,-0.68421485022,0.657039540645,-0.187784970859,0.61298638749,3.13571893472,-0.374072892349,0.183435457039,0.268907235042,-0.542956684141,0.484846176362,1.70795239615,1.2073828016,20.7760491177
do_nothing,-0.150794653005,0.171406421428,0.211806417706,-0.428486382614,0.999737629535,-2.4577290436,2.04260505183,1.72798816864,-0.250976611131,2.1811677479,0.852962539568,0.527002477519,1.31634470801,-68.1560581681
do_nothing,-1.23159358921,0.172308933178,-0.855113110116,0.876180198567,-0.401636184113,-2.28933537079,-0.166091648117,-0.844791089899,0.2326147949,0.337229292186,-0.592111005911,-0.984716609646,-1.32551755017,39.9431956312
do_nothing,0.712914583134,0.159739650012,0.471517944387,0.0183394267229,-0.782546890422,2.86004716138,-1.06516355366,-0.568191687085,-0.213753523972,-1.524190712,-0.556816019569,-0.00785344792566,-0.642729546552,-3.96964068329
do_nothing,0.816524320361,-0.102142608848,0.392976445503,-0.51388175066,0.32479663061,1.1105904079,-0.088909473161,0.385958346999,0.194286066529,-0.718432092636,0.909209754853,-0.163971485353,1.14018589648,34.54122062
do_nothing,-0.756149079538,-0.420508969073,-0.614847030736,-0.526553267655,0.416551461025,-2.89837710971,0.484353400787,-0.0252742986962,-0.174398219929,1.21943431788,-0.257966334054,0.187751789847,0.184087914272,-60.1344072247
do_nothing,-0.172490591518,0.563011175098,0.29260680156,0.961556678867,0.269283231891,0.461938593735,0.858545980667,0.807483222266,0.154259796794,1.51201287621,-0.276902596655,1.2918114692,-0.639533395142,28.4510576299
do_nothing,-0.448675761793,-0.60089461902,-0.503084505058,0.354921013319,-1.07612168074,1.56535932103,-1.36032060148,-1.30293775897,-0.133765302036,-2.28826483239,-0.11507678889,-1.64866043117,-0.704490159605,-11.4031665211
do_nothing,1.49854550964,0.915823066719,0.955970546446,-0.993763975262,0.565299004376,-0.368910583556,0.326843774371,0.377112151466,0.112860801256,-0.311441596663,0.808174023932,-0.274371270464,1.64867041163,40.4255571101
do_nothing,-0.344274886317,-0.520459355474,-0.269045573747,-0.304442590667,0.254783128505,-1.57805953057,0.340288122941,0.622644656164,-0.0915336738947,1.48285461775,-0.495039739946,1.23363510026,-0.522173092948,-46.3069414693
do_nothing,-1.4149095624,-0.627739053797,-0.851998360431,1.08463794022,-0.257685708521,1.47124721059,-0.0136742229671,-0.384810998035,0.0688114221369,0.304630022357,-0.568430688834,0.224739653675,-1.06678278657,16.899440779
do_nothing,0.527088186094,0.668115499311,0.332649032907,0.00119102335436,-0.0433459583266,0.379994492732,-0.1637884358,-0.277816572604,-0.0427625579855,-1.14056857686,0.557241447728,-1.09704353079,0.767836817891,-16.2605461526
do_nothing,1.22942978657,0.32961254594,0.796864920073,-0.765198688167,0.042149804231,-2.07187893144,-0.44779647185,0.0645391924073,0.0154802794868,-0.412257546944,0.581926168429,-0.323880274219,0.524757270711,39.5362918376
do_nothing,-0.0561887948397,0.0914635760988,0.269167635871,-0.0134581815969,0.153740459901,1.8342981287,1.15871259187,0.759226823428,0.00062511496304,1.45513738874,-0.506567745299,1.66595547936,-0.193847078503,-29.6797190634
do_nothing,-1.98887882294,-1.3481174153,-1.92995971023,0.539034245593,-0.42795956609,0.693175083747,-0.619467721014,-0.810168753426,0.00500450028637,-0.5660404471,-1.01775270978,-0.758873191918,-1.11863770923,4.43315756389
do_nothing,0.34826004277,0.0942564455755,0.179002059006,0.0396407713631,0.445985912239,-2.76892330731,-1.25044981429,-0.412348017979,-0.00851877216459,-0.750428938139,0.958195138963,-1.24423791758,0.401551411166,-9.23383810195
do_nothing,2.65800007871,2.39611104126,2.96662197662,-0.292473107657,0.233004972928,1.06506361074,1.90652248496,1.4633700742,-0.0401065064248,1.29722957258,1.18484819788,1.70084938647,1.66248284333,15.8476908837
do_nothing,-1.32352575352,-1.2462651136,-1.75285926817,-0.0554527801993,-0.874814570373,2.35745886331,0.325425613325,-0.71179609288,0.130989859296,-0.82450234475,-1.55615621605,0.102292577201,-1.18626797997,0.0804552344952
do_nothing,-2.27357829923,-2.20452077468,-2.31990976635,-0.227878570073,0.316213899773,-1.80497256007,-2.15255936864,-0.855924581226,-0.160852108255,-0.457848236065,-0.970590032601,-1.5652372083,-1.47023909309,11.9402929334
do_nothing,1.44387315003,1.62963433412,2.20622008447,0.718869580573,0.708742524617,-2.23618134016,0.091779671598,0.776773671074,0.0822315083482,1.09130432289,2.02025551463,0.144503064581,1.56344665735,-60.7708656596
do_nothing,2.15785341922,2.01861436073,1.6007822794,-0.0476203291482,-0.587247120948,2.57423867486,2.31268613788,0.483108842967,-0.0313461781499,-0.14730403285,0.289604491332,1.75672718582,1.14779879161,63.1881430755
do_nothing,-1.0278901959,-1.3504615388,-1.6110487313,-0.814409181654,-0.128906543248,2.2752951913,0.108590569874,0.056231128946,0.143782440138,-0.373819639686,-1.51059404041,0.14517231465,-1.28909267007,-1.3253210465
do_nothing,-3.53670851084,-3.12382197296,-2.39440640618,0.0737679094491,-0.19413961748,-4.41729834553,-3.8141718145,-2.02413313672,-0.297531178164,-1.02820770093,-0.774662067206,-3.50906167408,-2.01938993864,-26.6431073088
do_nothing,2.92711363294,3.01302981402,2.74319831233,1.1720804702,0.947497112205,-0.0242195638982,1.84540084122,1.52187763285,0.274242424433,1.66796503083,2.21251968268,1.90565125181,2.78099514752,-13.6010910591
do_nothing,2.52279884216,2.0498903126,1.39963402447,-0.744323744119,-0.476030440367,3.7732638444,2.95506535617,1.40103438598,-0.134554150848,0.438692860609,0.0300882824197,2.97622311125,0.881111090081,30.0942168116
do_nothing,-3.42495933921,-3.16179348626,-2.46916030055,-0.523461905197,-0.54024173395,-0.900369364194,-2.29740673773,-1.8423928071,0.135269314384,-1.84115999213,-1.86054024256,-2.77968314626,-2.78065013559,22.5415959867
do_nothing,-1.42370016644,-1.23472986927,-0.885234882578,0.384083301142,0.386325653075,-3.08179055572,-2.20976466028,-0.930897486618,-0.290885759389,-0.0955623094756,0.0993014839573,-2.12718938075,-0.110701238848,-71.1836519528
do_nothing,2.96665055261,2.71134022067,1.67978865145,0.725192452092,0.425691010661,1.27640541701,2.04635371289,1.67047696715,0.359639153532,1.57470144075,1.73586494809,2.6369998705,2.22404015073,59.974560311
do_nothing,0.991996638041,0.871965075941,1.28473842319,-0.844478894014,-0.456861874955,2.62035710575,1.85408978582,0.795214137215,-0.276888952454,0.234165602907,-0.463338092773,1.68516551194,-0.0773706811771,-20.4329015462
do_nothing,-2.18655764153,-1.81779399545,-1.29032325132,0.111495925489,0.160451778712,-1.28094062244,-1.15608597827,-1.12071559878,0.239997522555,-1.1074201942,-1.00458826529,-1.65633115508,-1.4386283506,-0.45762414122
do_nothing,-1.83165795329,-2.0216080934,-2.5211864636,0.0533385463423,-0.486924367705,-3.24741912707,-3.12836182124,-1.87575445719,-0.324870631489,-1.62793815837,-0.253932605069,-2.97397050163,-1.00893017472,-10.3372645117
do_nothing,3.30074483725,3.27873280409,3.07175321034,0.277761486509,0.737724733233,3.19394168827,2.47166466937,2.58024762623,0.375984942808,2.8133776174,1.75839405639,2.67260985905,2.68731056745,26.2496081501
do_nothing,0.414129968341,0.472388847846,0.934878634768,-0.305658819523,-0.319825288663,1.37932455043,2.02521941742,0.328174261603,-0.329836138179,0.455788932124,-0.76980468271,2.30078401805,-0.240593234442,3.24242212128
do_nothing,-2.01599928397,-2.28579022876,-2.34647949439,0.311362133046,0.267318802752,-2.62556774937,-1.5417058461,-1.29078988734,0.313795101364,-2.13080056568,-0.738827704243,-1.75212339677,-1.67385787875,-63.1253620645
do_nothing,-1.25790163629,-0.80200748385,-1.10628325813,-0.613763169782,-0.906925253713,-1.55584317628,-2.79252289624,-0.977292077829,-0.373261077819,-1.24301024044,0.224427358021,-3.63444708884,-0.514666035395,51.6527635027
do_nothing,2.50986674744,2.60803875351,2.87552094391,0.603370702693,0.716565942982,3.72298602261,1.81833535852,1.24376697571,0.400781238538,2.98172890605,0.959101451131,2.79312563093,2.34651593525,37.4169060687
do_nothing,1.11756930795,0.337330752684,0.280443291857,-0.226950873359,0.61010175,0.406567461987,3.33560452431,1.29232699302,-0.369004509866,1.06023440813,-0.645571726517,3.62248248571,0.0213189455672,-51.5412114454
do_nothing,-2.82932313197,-2.68786315672,-2.81223575819,0.33649833649,-0.926340655004,-4.22848401024,-2.76319758387,-1.40367038099,0.368653689399,-3.65312207948,-0.278441841663,-3.69838344234,-2.36270826561,-44.3190377399
do_nothing,-0.869894912683,0.178110176911,0.384992101668,-0.784335008127,-0.663502563315,1.01600803518,-3.25007416525,-1.48185760221,-0.408972781851,-0.605619530265,0.00436501595144,-2.90369728607,0.267009812311,59.649588254
do_nothing,3.67821329797,3.20461654843,3.15412087099,0.527692566554,1.860062871,4.60519363106,4.42031342775,2.30345537985,0.413497079443,4.73165014964,0.924290459275,4.53686427151,2.78269721218,60.2519151813
do_nothing,-1.25396152992,-2.46292982275,-2.69980383342,0.121022923452,-0.929812406391,-3.92267531108,0.639040316053,-0.430245368988,-0.390762929097,-1.92868113923,-0.952792234602,0.309743151897,-1.96137590914,-90.5029724977
do_nothing,-1.3832156152,-0.534361449725,-0.341190897355,0.0889280613364,-0.411743127105,-1.66801757576,-2.59569483427,-0.0543576626429,0.406037830119,-2.33378832927,0.306429540282,-1.78133008963,-0.555179069205,-35.155195498
do_nothing,-0.158537519389,1.09228514447,1.2886145325,-0.844430158423,0.0501333471619,3.07856762404,-1.20226325134,-0.853587284685,-0.434900290076,0.941527093138,-0.284390454087,-1.47853446013,0.40976566439,59.9884285258
do_nothing,2.00087800353,0.741321901577,0.504455887114,0.811342803353,1.0750428647,1.45390448372,3.17440365487,0.19484162394,0.420047235979,2.46386924424,0.805391568369,1.53407797321,1.15281333308,85.5540914446
do_nothing,-0.290586285146,-1.33193155402,-1.58901759782,-0.176378907637,-0.925388194151,-3.73699841426,-0.196410708564,0.616323519728,-0.397555586077,-1.56367727371,-0.633808177012,1.58761055364,-0.689434143303,-114.276392535
do_nothing,-1.55864832408,-0.147034892206,0.258463287177,0.108924022362,-0.167315560319,-0.252671000873,-2.08364683841,0.788345450144,0.418258662941,-1.36987727756,-0.260562597534,-0.855556976614,-0.755512400144,-39.3699642596
do_nothing,0.0490753498886,0.966887071166,1.14597833051,-0.50400306534,0.399702365998,3.45023120447,0.609751475739,-1.38167712263,-0.439300454703,1.22698522267,0.429531188651,-2.30833185365,0.314393724976,58.6060670672
do_nothing,1.71473223478,0.138558092769,-0.33259189473,0.566381226008,0.407051964727,-0.0800963267431,1.14176593317,-1.01942747283,0.416641980451,0.848985707692,0.615150254473,1.09705663999,1.05703595547,112.771605628
do_nothing,-0.557977863712,-1.25019613951,-1.39171748683,-0.490481659625,-0.848205479652,-4.00060638483,-1.08512249345,1.62372349969,-0.395902403774,-1.40544885616,-1.39537972884,2.06110138881,-0.894705031863,-130.243785729
do_nothing,-0.611524205201,1.04567401305,1.58302555698,0.601683517371,0.451644032528,1.65747756311,0.897997560943,2.23557674137,0.413222870209,0.930303084382,0.7851053605,-0.208913811477,0.0511831163573,-49.0231567974
do_nothing,-0.992766082006,-0.699593254605,-0.572371044462,-0.366691381768,-0.237890233487,2.48204159322,-0.982229255859,-4.24012195739,-0.422952066199,-0.953178625271,0.174698212338,-3.74924100562,-0.583993306762,56.0699630276
do_nothing,2.30418166153,0.946318355593,0.256495550811,-0.177599735598,0.762020267247,-0.425897592653,0.398164142311,0.332076628548,0.39771768157,0.73541512004,-0.0393407119251,2.42006735664,1.53203756795,134.467895391
do_nothing,-0.499890276448,-0.637695814881,-0.578463517867,-0.0333007279922,-1.09052560412,-3.98760799024,-0.0140146735434,2.9858367623,-0.3813798681,0.0494370578741,-0.743210815524,1.87332131654,-0.855533719897,-132.124692906
do_nothing,-1.40666520888,-0.436238714848,0.245762835007,0.939803377867,0.351790663325,1.81536469882,0.424140543441,-0.487886147287,0.392269670834,-0.245706153862,0.787838032876,-1.93447925451,-0.624598748562,-68.3301261034
do_nothing,0.416046392831,0.609241344816,0.381621028083,-1.06403449249,0.643821428123,3.79954500535,-0.114151194003,-2.41435092854,-0.389695369329,-0.122546412884,-0.0635584342535,-1.09810754974,0.708852175497,58.2130891863
do_nothing,0.980762993065,0.433990446082,-0.171302285983,0.185588419343,-0.448283658451,-2.65678728121,-0.814999663134,0.656225358365,0.364203769603,0.137036747035,-0.274877721627,1.4403952703,0.440191026014,146.278532744
do_nothing,-0.202937931226,-0.845087948214,-0.394156650761,0.229669592053,-0.73252830431,-3.50038858053,0.101242150339,1.42482373149,-0.352368455646,-0.145647652082,-0.212053954932,0.33325015636,-0.919264799938,-122.283648146
do_nothing,-0.432532207788,0.141295495135,0.450479679915,0.272464260435,1.22183106333,3.78364918234,1.56130364752,0.199929608049,0.355442203267,0.50874971806,0.763869485357,-0.252893918385,0.29515262779,-91.8644878736
do_nothing,-1.04651082959,-0.0178807173185,-0.564423038654,-0.611775130669,-0.465544730665,1.9311700062,-1.17069038257,-1.77141921366,-0.341779692687,-0.423248266162,-0.660929982276,-0.838688631117,0.125246656145,63.0561156385
do_nothing,1.90000952969,0.853738735986,1.02245460988,0.408762444367,-0.174895510699,-3.13948185389,-0.378640978555,0.491794018573,0.317523427838,0.111454645671,0.174647032796,0.445514169228,0.370935421407,148.757400619
do_nothing,-0.247260897307,-1.12942702424,-0.816525041007,-0.259926334956,-0.263803550961,-2.00596700192,-0.0902007081787,0.203133405768,-0.309076526195,-0.838023950333,-0.129885924381,-0.179393546474,-1.04941603946,-104.714769927
do_nothing,-0.848707559973,0.620444157579,0.0819074570324,0.173373756491,0.909979651439,4.2507778768,1.39635938851,1.13936209203,0.304224481355,1.70498226862,0.659576653822,1.61025620342,1.04291911959,-114.307307185
do_nothing,-0.586166474559,-0.314944482229,-0.200291017145,0.06031335606,-0.718787275954,-0.195424235398,-0.561130647734,-1.01012701176,-0.282156471334,-0.592938545776,-0.784414144355,-1.81776626162,-0.320235818457,67.6688819942
do_nothing,1.29576309151,-0.257568562022,0.498178632115,0.11396763357,0.0207737055841,-3.22168284475,-0.863979406792,-1.07413683455,0.259887315475,-1.51690444087,-0.124670042532,-1.13258511018,-0.614338016629,144.374206699
do_nothing,0.770054781285,1.44232789743,0.709552665198,-0.736710972194,0.396030911719,1.63005705248,0.447363680695,1.46450848341,-0.25269695589,1.62011188276,0.918296262073,3.21567805734,1.0714197532,-83.3393174736
do_nothing,-1.96893117838,-1.01981068913,-1.6638449475,0.657190347255,-0.363303340451,1.42191864279,-0.0578682514639,0.101296070626,0.240416859279,0.343934796692,-0.159321686073,-0.489291603334,-0.401858235268,-132.841554132
do_nothing,-0.307182466527,-1.76836099567,-0.399723631582,0.250804323019,-0.0620627677075,-2.04099533461,0.70679168725,-0.797777155484,-0.213433836689,-1.69176548302,-1.2624706266,-3.61830949954,-1.05594881575,70.9963581605
do_nothing,2.370584535,2.81251039258,2.88042241968,-0.41395322433,0.712523368783,0.444455651135,0.588690653265,0.829642478015,0.193780271551,1.20443046052,1.1608062283,2.8312066667,1.58236392198,135.650527167
do_nothing,-0.808365042681,0.312498211801,-1.22902495908,-0.492373048954,-0.863573043168,1.11426053361,-3.06434717572,-1.39582099348,-0.185718680425,0.0435766242805,0.305149364089,1.91295758285,-0.215072317178,-62.0916177511
do_nothing,-1.2384921888,-2.56452035071,-2.10947162288,0.714787442838,0.157126425328,-0.370130272289,1.34807234534,0.716656538366,0.166862958922,-0.646043559494,-0.688978203015,-3.1349042078,-1.12119380269,-145.610285463
do_nothing,-0.0934920785894,-0.472064053346,1.00212609249,0.199327332606,0.305813709305,-2.23360394832,2.95503266015,1.21678625948,-0.138193038803,-0.127976012111,-0.62132194879,-1.45521992742,0.0646895265449,72.6571064624
do_nothing,2.16238889014,3.7094526831,2.90104231379,-0.461379511996,0.396770087255,2.31572002902,-1.83950253157,-0.637185108388,0.12145981937,1.42751729035,1.29953995874,4.44784683311,1.88249975764,124.866387215
do_nothing,-0.585660064901,-0.81153281479,-2.25221230663,-0.399948955577,-0.966070552094,1.76739835753,-3.28696469221,-1.91093933905,-0.11106028134,-0.979679377009,-0.0656212719542,-0.352280158497,-1.12647071183,-43.9122068857
do_nothing,-2.5417735213,-3.89459341463,-2.59144052059,0.643716457097,-0.13240458868,-3.86628228267,2.42589600341,0.859301467844,0.087053838654,-1.35185906587,-1.16247405255,-4.64955004667,-1.71076414655,-152.221551027
do_nothing,1.9606317107,2.47471500461,3.53440054183,0.115127910045,1.49659802078,-0.35209577575,3.65392042545,2.96394753741,-0.0592889568501,2.15213344046,0.596449494476,2.46384817265,2.11365287543,73.0622335466
do_nothing,1.51370850716,2.45196334407,0.978330472889,-0.258453266081,-0.704236714195,4.03042926825,-3.62147861988,-2.20759895897,0.0452945773744,0.131589686304,0.580079058974,3.05062381163,0.6253203079,113.747878162
do_nothing,-2.19543338628,-2.52061709495,-3.2918767766,-0.354193367825,-1.25540091919,-0.172281050731,-2.81170902043,-2.66492748333,-0.0318455707661,-1.92630944021,-0.549491054114,-2.81534416385,-1.89820340633,-30.5722834303
do_nothing,-0.726194213131,-1.44276557568,0.178495879631,0.197930163908,1.20295816632,-4.63857796377,4.01604575291,3.04481980087,0.00461044774119,0.583058376207,-0.185904401648,-1.62337381499,-0.0726383565127,-153.379261958
do_nothing,1.90197752077,1.7858886471,2.20999994628,0.528144873576,0.75470593131,1.0603837839,1.40521451793,1.54803789061,0.0203738388426,0.981633207281,0.202220175876,1.87657588252,1.19886190187,73.262155064
do_nothing,0.76512596689,1.7048164776,-0.0330424849816,-0.302463935018,-1.18955119992,5.40647282828,-2.80317949141,-2.38735701918,-0.0321776080729,0.0355673709942,0.284608349556,1.65574657329,0.615036581244,101.469477573
