label,COUNTER,INTERPOLATED,AF3,F7,F3,FC5,T7,P7,O1,O2,P8,T8,FC6,F4,F8,AF4,RAW_CQ,GYROX,GYROY,MARKER,SYNC,TIME_STAMP_s,TIME_STAMP_ms,CQ_AF3,CQ_F7,CQ_F3,CQ_FC5,CQ_T7,CQ_P7,CQ_O1,CQ_O2,CQ_P8,CQ_T8,CQ_FC6,CQ_F4,CQ_F8,CQ_AF4,CQ_CMS,CQ_DRL
off_to_on,4133.05799197,4135.41616632,4132.69049589,4134.81589104,4140.6779024,4132.82474192,4121.11122154,4123.74169146,4136.9703563,4126.59192756,4120.49285818,4128.76647651,4129.8451252,626.638736765
off_to_on,4132.66036386,4135.27719624,4132.25912373,4134.79348218,4140.48689544,4132.40493021,4120.50231235,4123.25249586,4136.97027252,4126.15776879,4120.35210876,4128.31703028,4129.37062003,608.986994647
off_to_on,4132.10590441,4135.05724331,4131.74817697,4134.75731505,4140.31628759,4132.16597061,4120.03556919,4122.9105301,4136.97020285,4125.73102306,4120.13926128,4127.88491014,4128.92104041,593.963801231
off_to_on,4131.41485091,4134.76566245,4131.17430739,4134.70869474,4140.17092629,4132.11572839,4119.72216517,4122.72897487,4136.97014975,4125.31931167,4119.87265505,4127.48011302,4128.5066166,581.996701243
off_to_on,4130.61103817,4134.41430665,4130.55606636,4134.64955217,4140.05469684,4132.25580275,4119.56870845,4122.71583612,4136.97011498,4124.9290382,4119.57115911,4127.11161039,4128.13658589,573.388000025
off_to_on,4129.7209388,4134.01686886,4129.91308198,4134.58237507,4139.97037555,4132.58126111,4119.57688605,4122.87354881,4136.97009951,4124.56510771,4119.25337426,4126.7869034,4127.8187579,568.308492462
off_to_on,4128.77263647,4133.58816369,4129.26521088,4134.51011614,4139.91952405,4133.08060424,4119.74326562,4123.19877094,4136.97010355,4124.23071343,4118.93687491,4126.51163901,4127.55913388,566.79600641
off_to_on,4127.79477066,4133.14338148,4128.63169874,4134.43608124,4139.90242837,4133.73596995,4120.05926577,4123.68237732,4136.97012653,4123.92719885,4118.63751913,4126.28930467,4127.36159703,568.758730228
off_to_on,4126.81549178,4132.6973475,4128.03038297,4134.36380151,4139.91808445,4134.52357394,4120.51129949,4124.30965583,4136.97016712,4123.65400011,4118.36885214,4126.12101542,4127.22768724,573.983112529
off_to_on,4125.86146439,4132.26381829,4127.47696842,4134.2968939,4139.96423028,4135.41437794,4121.08108938,4125.06070123,4136.97022336,4123.40867074,4118.14162377,4126.00540378,4127.15647053,582.145943231
off_to_on,4124.95695374,4131.85484502,4126.98440416,4134.23891524,4140.03742298,4136.37496534,4121.74614748,4125.91099525,4136.97029268,4123.18698797,4117.96343594,4125.93861882,4127.14450979,592.830060561
off_to_on,4124.12302752,4131.48023022,4126.56238472,4134.19321559,4140.13315772,4137.36859625,4122.48040631,4126.83215488,4136.97037205,4122.98313699,4117.83853053,4125.91443667,4127.18593949,605.542993799
off_to_on,4123.3768998,4131.14709995,4126.21699406,4134.16279652,4140.24602394,4138.35640525,4123.25498244,4127.79282467,4136.97045812,4122.78996703,4117.76772277,4125.9244804,4127.27264294,619.737755462
off_to_on,4122.7314385,4130.85960814,4125.95050482,4134.15018017,4140.36989271,4139.2986997,4124.03904844,4128.75968328,4136.97054735,4122.59930981,4117.74847881,4125.95854194,4127.39452638,634.834938029
off_to_on,4122.19485137,4130.61878391,4125.76133937,4134.15729444,4140.49812857,4140.1563116,4124.8007848,4129.69853008,4136.97063612,4122.40234837,4117.77513111,4126.00499431,4127.53987998,650.245244178
off_to_on,4121.77055837,4130.42252673,4125.64419279,4134.18537906,4140.62381788,4140.89195412,4125.50838021,4130.57541384,4136.97072094,4122.19002228,4117.8392195,4126.05127793,4127.69581236,665.391585291
off_to_on,4121.45725134,4130.26574744,4125.5903116,4134.2349167,4140.74000572,4141.47153317,4126.13104673,4131.35776425,4136.97079853,4121.95345317,4117.92994149,4126.0844414,4127.8487418,679.729923331
off_to_on,4121.24913457,4130.14064776,4125.58791583,4134.30559217,4140.83993324,4141.8653662,4126.64001616,4132.01548671,4136.97086597,4121.68437429,4118.03469131,4126.09171467,4127.9849253,692.768105213
off_to_on,4121.1363329,4130.03712477,4125.62274617,4134.39628182,4140.91726757,4142.04926359,4127.00948467,4132.52198258,4136.9709208,4121.37554718,4118.13966439,4126.06109108,4128.09100512,704.082040726
off_to_on,4121.10544793,4129.94328195,4125.67871276,4134.50507398,4140.96631694,4142.0054327,4127.21747463,4132.85505954,4136.97096113,4121.02114919,4118.23050158,4125.98189395,4128.15455121,713.328697219
off_to_on,4121.14023719,4129.84602379,4125.73861806,4134.62932014,4140.98222408,4141.72317084,4127.24658541,4132.99770073,4136.97098567,4120.61711595,4118.29294611,4125.84530359,4128.16457799,720.255518819
off_to_on,4121.22238634,4129.73170714,4125.78492289,4134.76571536,4140.96113167,4141.19931999,4127.08460817,4132.93866616,4136.97099378,4120.16142408,4118.31348607,4125.64482163,4128.11201439,724.706016441
off_to_on,4121.33234139,4129.58682004,4125.80052304,4134.91040529,4140.90031458,4140.43846472,4126.72498444,4132.67290595,4136.97098549,4119.6543014,4118.27995612,4125.37665193,4127.99010761,726.62141157
off_to_on,4121.45016607,4129.39865735,4125.76950338,4135.05911632,4140.79827465,4139.45286355,4126.16709262,4132.20177142,4136.97096148,4119.09835421,4118.18207442,4125.03998023,4127.79474325,726.038350978
off_to_on,4121.55638941,4129.1559632,4125.67783807,4135.20730414,4140.65479532,4138.26211417,4125.41635264,4131.53301776,4136.97092303,4118.49860477,4118.0118938,4124.63713929,4127.52466793,723.082843068
off_to_on,4121.63281025,4128.84951169,4125.51400816,4135.35031533,4140.47095486,4136.89256238,4124.48414402,4130.68059897,4136.97087197,4117.86243511,4117.76415021,4124.17365064,4127.18160398,717.960698873
off_to_on,4121.66322798,4128.47260101,4125.26951234,4135.48355607,4140.24909813,4135.37647447,4123.38753916,4129.66426306,4136.97081059,4117.19943747,4117.43649627,4123.65813964,4126.77025033,710.944887929
off_to_on,4121.63407342,4128.02143994,4124.93925175,4135.60266144,4139.99276862,4133.75100106,4122.14885941,4128.50896216,4136.97074154,4116.52117498,4117.02961224,4123.10212521,4126.29816823,702.360335345
off_to_on,4121.53491787,4127.49541119,4124.5217755,4135.7036587,4139.70660337,4132.05696853,4120.79506747,4127.2440983,4136.97066773,4115.84085962,4116.54719244,4122.5196913,4125.77555508,692.566785716
off_to_on,4121.35884409,4126.8972013,4124.01937914,4135.78311829,4139.39619441,4130.33754063,4119.35701478,4125.9026304,4136.97059216,4115.17295762,4115.99580976,4121.92705116,4125.21491417,681.940437101
off_to_on,4121.10266874,4126.23279328,4123.43805473,4135.83828627,4139.06792178,4128.63679811,4117.86856664,4124.52007216,4136.97051788,4114.53273528,4115.38466631,4121.34201996,4124.63063231,670.855099856
off_to_on,4120.76701144,4125.51132393,4122.78729663,4135.86719275,4138.72876331,4126.99828738,4116.36563151,4123.13341346,4136.9704478,4113.93576026,4114.72524237,4120.7834146,4124.03848084,659.663657941
off_to_on,4120.35621255,4124.74481413,4122.07977348,4135.86873178,4138.38608767,4125.46359104,4114.88512338,4121.77999962,4136.97038459,4113.39737591,4114.03086008,4120.27040255,4123.45505887,648.680602517
off_to_on,4119.87810705,4123.9477852,4121.33088179,4135.84270888,4138.04743749,4124.07097209,4113.46388814,4120.49640378,4136.97033063,4112.93216734,4113.31618101,4119.82182348,4122.89719965,638.166368984
off_to_on,4119.34366787,4123.13677896,4120.55820112,4135.78985393,4137.7203093,4122.85414174,4112.13762613,4119.31732747,4136.97028784,4112.55343897,4112.59665921,4119.45550861,4122.38136243,628.314140027
off_to_on,4118.76653623,4122.32980184,4119.78087389,4135.7117984,4137.41193761,4121.84119576,4110.93984295,4118.27456286,4136.97025769,4112.27272298,4111.88797234,4119.18762319,4121.92303287,619.239681147
off_to_on,4118.16246038,4121.54571564,4119.01893493,4135.61101741,4137.12908948,4121.05375835,4109.90086019,4117.3960479,4136.9702411,4112.09933732,4111.2054539,4119.03205637,4121.53615436,610.974655105
off_to_on,4117.54866662,4120.80359857,4118.29261693,4135.49073854,4136.87787612,4120.50636374,4109.04691614,4116.70504245,4136.97023843,4112.04001018,4110.56354868,4118.9998812,4121.2326115,603.463722339
off_to_on,4116.94318863,4120.1221006,4117.62165794,4135.35482074,4136.66358684,4120.20609664,4108.39938462,4116.2194498,4136.97024951,4112.09858563,4109.97531207,4119.09890469,4121.02178512,596.565581334
off_to_on,4116.36418177,4119.51881651,4117.02463591,4135.20760795,4136.49055045,4120.15250185,4107.97413726,4115.95130374,4136.97027358,4112.27582282,4109.45197152,4119.33332496,4120.91019549,590.057942217
off_to_on,4115.82924866,4119.0096986,4116.51835355,4135.05376313,4136.36202757,4120.3377634,4107.7810707,4115.90643665,4136.97030944,4112.56929789,4109.00256559,4119.70350849,4120.90124708,583.646265168
off_to_on,4115.35480135,4118.60852893,4116.11729383,4134.89808928,4136.28013682,4120.74714288,4107.82381601,4116.08433884,4136.9703554,4112.97341368,4108.63367227,4120.20589602,4120.99508447,576.975939092
off_to_on,4114.95548279,4118.32646788,4115.83316328,4134.7453447,4136.24581652,4121.35965693,4108.09964208,4116.47821332,4136.97040943,4113.47951831,4108.34923482,4120.83304161,4121.18856437,569.647431991
off_to_on,4114.64366777,4118.17169276,4115.67453668,4134.60005974,4136.2588226,4122.14896543,4108.59955904,4117.07522464,4136.97046922,4114.07612893,4108.15048902,4121.573784,4121.47534443,561.233818428
off_to_on,4114.42905932,4118.14913683,4115.64661315,4134.46636262,4136.31776216,4123.08443448,4109.30862162,4117.85693407,4136.97053228,4114.74925327,4108.03599194,4122.41354565,4121.84608502,551.29998677
off_to_on,4114.31839309,4118.26033521,4115.75108945,4134.34782124,4136.42016119,4124.13233288,4110.20642578,4118.79990763,4136.97059605,4115.48279793,4108.00174844,4123.33474955,4122.28875638,539.422753788
off_to_on,4114.31525721,4118.50338114,4115.98615275,4134.24730745,4136.56256361,4125.25711685,4111.26778533,4119.87647792,4136.97065797,4116.25904942,4108.04142806,4124.31734036,4122.7890398,525.21106985
off_to_on,4114.42003117,4118.87299201,4116.34659047,4134.16688943,4136.74065779,4126.42275494,4112.46356872,4121.05563555,4136.97071565,4117.05921194,4108.14666183,4125.33939225,4123.33080846,508.325486385
off_to_on,4114.62994229,4119.36068126,4116.82401122,4134.10775655,4136.94942602,4127.59404451,4113.76166956,4122.30402162,4136.97076689,4117.86398405,4108.3074058,4126.37778348,4123.8966711,488.496079007
off_to_on,4114.9392344,4119.95502888,4117.40716678,4134.0701799,4137.18331137,4128.73787132,4115.12807854,4123.58698906,4136.97080979,4118.65415507,4108.51235602,4127.40891501,4124.4685595,465.538073967
off_to_on,4115.33943935,4120.64204017,4118.08236187,4134.05351028,4137.43639612,4129.82436583,4116.52801957,4124.8696982,4136.97084283,4119.41120204,4108.74939822,4128.40944968,4125.02833972,439.364510374
off_to_on,4115.81973877,4121.40557988,4118.83393571,4134.05621362,4137.70258551,4130.82791379,4117.92710935,4126.11821044,4136.97086492,4120.11786771,4109.00607478,4129.35704733,4125.55842616,409.995382473
off_to_on,4116.36740057,4122.22786679,4119.64479737,4134.07594236,4137.97579038,4131.72798396,4119.29249763,4127.30054385,4136.97087542,4120.75870102,4109.27005131,4130.23107168,4126.04237768,377.562840852
off_to_on,4116.96827225,4123.09001173,4120.49699509,4134.10964008,4138.25010261,4132.50974343,4120.59394533,4128.38765554,4136.97087415,4121.3205427,4109.52956576,4131.0132451,4126.46545547,342.312183375
off_to_on,4117.60731147,4123.97258132,4121.37229923,4134.1536749,4138.51995768,4133.16443924,4121.80479943,4129.35431785,4136.97086141,4121.79293996,4109.77384378,4131.68822922,4126.81512382,304.598529861
off_to_on,4118.26913318,4124.85616841,4122.25277777,4134.20399646,4138.78027902,4133.68953446,4122.90282754,4130.17985931,4136.97083796,4122.16847675,4109.99346563,4132.24411099,4127.08147655,264.879242589
off_to_on,4118.93855209,4125.72195078,4123.12134461,4134.25631001,4139.0266,4134.08859617,4123.87088018,4130.84874544,4136.97080495,4122.44300789,4110.18067192,4132.67277742,4127.2575745,223.702320916
off_to_on,4119.60110031,4126.55222005,4123.96226159,4134.30626053,4139.25515975,4134.37094229,4124.69735631,4131.35098067,4136.9707639,4122.61578877,4110.32959784,4132.97016521,4127.3396824,181.69115606
off_to_on,4120.24350078,4127.33086425,4124.7615779,4134.34961956,4139.46297017,4134.551063,4125.37645536,4131.68231871,4136.97071659,4122.68949521,4110.43642842,4133.13637593,4127.32739683,139.526175222
off_to_on,4120.85407997,4128.04378922,4125.50749273,4134.38246684,4139.6478528,4134.64784091,4125.90820773,4131.84427574,4136.97066503,4122.67013159,4110.49947019,4133.17565155,4127.22366068,97.9240270555
off_to_on,4121.42310543,4128.67926634,4126.19063028,4134.40135943,4139.80844485,4134.68360149,4126.2982845,4131.84394778,4136.97061136,4122.56682901,4110.51913781,4133.09620998,4127.03466293,57.6150581956
off_to_on,4121.94303755,4129.22819699,4126.80421981,4134.4034812,4139.94417547,4134.68303168,4126.55759541,4131.6936407,4136.97055775,4122.3915391,4110.49785761,4132.90994518,4126.76962678,19.3198994405
off_to_on,4122.40868828,4129.68428702,4127.34417689,4134.38676645,4140.05521408,4134.67201002,4126.70169252,4131.41032776,4136.97050631,4122.15863218,4110.43989286,4132.6320011,4126.44049277,-16.2739825304
off_to_on,4122.81728395,4130.04412844,4127.80908636,4134.34999266,4140.14239395,4134.67639551,4126.75000396,4131.01495609,4136.97045904,4121.88441248,4110.35109918,4132.28023391,4126.06150763,-48.5349075842
off_to_on,4123.16843329,4130.30718867,4128.20009094,4134.2928385,4140.20711524,4134.72082436,4126.72492918,4130.53162819,4136.97041773,4121.58656524,4110.23862072,4131.87458069,4125.6487331,-76.9079469901
off_to_on,4123.46400594,4130.47571139,4128.52069334,4134.21590487,4140.2512325,4134.82756397,4126.65083207,4129.98668922,4136.97038387,4121.28355355,4110.11054038,4131.43635686,4125.21949225,-100.933459415
off_to_on,4123.70793075,4130.55453589,4128.77648279,4134.12069819,4140.27693219,4135.0154711,4126.55297243,4129.40775355,4136.97035866,4120.99398425,4109.97549902,4130.98750685,4124.79177293,-120.262516294
off_to_on,4123.90592615,4130.55084467,4128.9748,4134.00957658,4140.28660597,4135.29909695,4126.45641837,4128.82270593,4136.9703429,4120.73596406,4109.84229965,4130.54983478,4124.38361016,-134.668648027
off_to_on,4124.06517716,4130.47385124,4129.12435616,4133.88566119,4140.28272547,4135.68797607,4126.38498259,4128.25871308,4136.97033702,4120.52646746,4109.71951296,4130.14424265,4124.01246969,-144.055470834
off_to_on,4124.19397527,4130.33444112,4129.23482309,4133.75271608,4140.26772385,4136.18612797,4126.36022439,4127.74128054,4136.97034104,4120.38073806,4109.61510059,4129.79000324,4123.69465512,-148.45988891
off_to_on,4124.3013373,4130.14478003,4129.31641162,4133.61500168,4140.24388888,4136.79179191,4126.40055622,4127.29338753,4136.9703546,4120.31174428,4109.53607111,4129.50409399,4123.4447599,-148.050704136
off_to_on,4124.39661968,4129.91790306,4129.37945492,4133.47710768,4140.21327187,4137.49740589,4126.5204897,4126.93472932,4136.97037695,4120.32970833,4109.48818249,4129.3006158,4123.27518378,-143.122609652
off_to_on,4124.489143,4129.66729844,4129.43401191,4133.34377245,4140.17761587,4138.28983111,4126.73004993,4126.68109227,4136.97040701,4120.44172585,4109.47570279,4129.19031796,4123.19573082,-134.085700533
off_to_on,4124.58784086,4129.4064989,4129.48950458,4133.21969643,4140.13830545,4139.15081321,4127.03438054,4126.54388163,4136.97044345,4120.65149017,4109.5012379,4129.18024679,4123.2133029,-121.450804498
off_to_on,4124.70094463,4129.14869266,4129.55440048,4133.10935721,4140.0963396,4140.05766168,4127.43355368,4126.52981619,4136.97048467,4120.95913242,4109.56563274,4129.27353077,4123.33169915,-105.811107067
off_to_on,4124.83571361,4128.90636465,4129.63594956,4133.01683381,4140.05232763,4140.98412028,4127.92259127,4126.64079768,4136.97052894,4121.36118454,4109.66794878,4129.46930978,4123.55152748,-87.8207017618
off_to_on,4124.99821773,4128.69097729,4129.73998191,4132.94564727,4140.00650713,4141.90139343,4128.49169479,4126.87395629,4136.97057445,4121.85066813,4109.80551787,4129.76281086,4123.87023034,-68.1708244859
off_to_on,4125.19317728,4128.51269845,4129.87077056,4132.89862382,4139.95878205,4142.77928785,4129.12667322,4127.22186722,4136.97061937,4122.41730769,4109.97406886,4130.14556699,4124.28222217,-47.564629785
off_to_on,4125.42386197,4128.38018249,4130.03096111,4132.87778609,4139.90877797,4143.5874245,4129.80955028,4127.67292712,4136.97066193,4123.04786214,4110.16792097,4130.60577042,4124.77913224,-26.6914365677
off_to_on,4125.69204912,4128.30040864,4130.22156783,4132.88427657,4139.85591099,4144.29647271,4130.51932576,4128.21187372,4136.97070049,4123.72656436,4110.38023477,4131.12874685,4125.35014221,-6.20140872894
off_to_on,4125.99803851,4128.27857853,4130.44203338,4132.91831613,4139.7994662,4144.87935741,4131.23285902,4128.82042686,4136.97073362,4124.43565451,4110.60330979,4131.69753241,4125.98240435,13.3183643303
off_to_on,4126.34071923,4128.31807311,4130.69034751,4132.97919911,4139.73868093,4145.31239021,4131.92583852,4129.47802528,4136.97076012,4125.15598947,4110.82891575,4132.29353152,4126.66152322,31.3654635428
off_to_on,4126.71768209,4128.42046675,4130.96321758,4133.06532455,4139.67282851,4145.57627825,4132.57379713,4130.1626303,4136.97077907,4125.86770781,4111.0486435,4132.89723057,4127.3720811,47.5405678219
off_to_on,4127.12536998,4128.58559483,4131.25628253,4133.17426225,4139.60129806,4145.65696919,4133.15313191,4130.85156593,4136.9707899,4126.55092784,4111.25426073,4133.48894027,4128.09818646,61.5619822141
off_to_on,4127.55925788,4128.81166969,4131.56436009,4133.3028503,4139.52366657,4145.5462979,4133.64208686,4131.5223641,4136.97079234,4127.18645415,4111.43805783,4134.04953856,4128.82402383,73.2756790184
off_to_on,4128.01405364,4129.09543821,4131.88171631,4133.44732008,4139.43975992,4145.24240893,4134.02165935,4132.15358419,4136.97078648,4127.75646793,4111.59316951,4134.561186,4129.53438437,82.6604329946
off_to_on,4128.48391067,4129.43237312,4132.20234543,4133.60344338,4139.34970025,4144.7499379,4134.27639442,4132.72557732,4136.97077272,4128.2451754,4111.71385903,4135.00798679,4130.21515717,89.8278176582
off_to_on,4128.96264354,4129.81688871,4132.52024818,4133.76669581,4139.25393751,4144.07994539,4134.39503643,4133.22116851,4136.97075178,4128.63939009,4111.79575332,4135.37657049,4130.85376349,95.0170257023
off_to_on,4129.44393817,4130.242571,4132.82969652,4133.93242982,4139.1532642,4143.24960679,4134.37101396,4133.62623366,4136.97072464,4128.92902617,4111.83601957,4135.65657288,4131.43951883,98.584676378
off_to_on,4129.92154907,4130.70241235,4133.125474,4134.09605079,4139.04881296,4142.2816719,4134.20274122,4133.93015268,4136.97069251,4129.10748351,4111.83347634,4135.84099879,4131.96391096,100.989968176
off_to_on,4130.38947763,4131.18904086,4133.40308233,4134.25318907,4138.94203726,4141.20371671,4133.89372657,4134.126126,4136.97065676,4129.17190937,4111.78863513,4135.92645477,4132.42078605,102.775717315
off_to_on,4130.84212701,4131.69493599,4133.65890679,4134.39986154,4138.83467647,4140.04721792,4133.45248695,4134.21134648,4136.97061889,4129.12332653,4111.70367144,4135.91324534,4132.80643895,104.545984193
off_to_on,4131.27443033,4132.21262332,4133.89033484,4134.53261629,4138.72870627,4138.84648598,4132.89227397,4134.18702474,4136.97058044,4128.96662319,4111.58232716,4135.80533222,4133.11960759,106.941125899
off_to_on,4131.68195037,4132.73484237,4134.09582467,4134.64865486,4138.62627654,4137.63749768,4132.23062458,4134.05827053,4136.97054294,4128.71040499,4111.42974918,4135.61016088,4133.36137519,110.61121744
off_to_on,4132.0609499,4133.25468356,4134.27492229,4134.74592732,4138.52963893,4136.45667145,4131.4887554,4133.83383824,4136.97050787,4128.36671502,4111.25227154,4135.33836349,4133.53498715,116.188852059
off_to_on,4132.40843307,4133.76569158,4134.42822811,4134.82319633,4138.44106706,4135.33963102,4130.69082508,4133.52574863,4136.97047656,4127.95063234,4111.05715072,4135.0033517,4133.64559262,124.262359176
off_to_on,4132.72215972,4134.26193534,4134.55731683,4134.88006779,4138.36277291,4134.32000304,4129.86309394,4133.14880367,4136.97045016,4127.47976455,4110.85226572,4134.62081649,4133.69992348,135.350467193
off_to_on,4133.00063514,4134.73804616,4134.66461651,4134.91698678,4138.2968232,4133.42829342,4129.03301362,4132.72001448,4136.97042962,4126.97365368,4110.6457958,4134.20815523,4133.70592543,149.879387891
off_to_on,4133.243079,4135.18922829,4134.75325491,4134.93519932,4138.24505958,4132.69088397,4128.22828154,4132.25796549,4136.97041563,4126.45311814,4110.4458896,4133.7838486,4133.67235741,168.163210042
off_to_on,4133.44937677,4135.61124662,4134.82688204,4134.93668172,4138.20902644,4132.12918598,4127.47589589,4131.78213908,4136.9704086,4125.93955496,4110.26033934,4133.36681058,4133.60837611,190.388365739
off_to_on,4133.62001734,4136.00039725,4134.88947827,4134.92404086,4138.18990937,4131.75898081,4126.80124566,4131.31222608,4136.97040867,4125.45422746,4110.09627342,4132.97573465,4133.52312223,216.602779971
off_to_on,4133.75602029,4136.35346698,4134.94515747,4134.90038993,4138.1884873,4131.58996946,4126.22726842,4130.86744642,4136.97041567,4125.01756262,4109.95987933,4132.62845839,4133.42532469,246.710137912
off_to_on,4133.85885614,4136.66768768,4134.997974,4134.86920504,4138.20510021,4131.62554431,4125.77370485,4130.46590326,4136.97042918,4124.64848181,4109.8561679,4132.34136711,4133.32293797,280.46951089
off_to_on,4133.93036307,4136.94069163,4135.05174208,4134.83416901,4138.23963385,4131.86278691,4125.45647477,4130.12399144,4136.97044854,4124.36378619,4109.78878767,4132.12885527,4133.22282638,317.500378704
off_to_on,4133.97266325,4137.1704734,4135.10987499,4134.7990091,4138.29152187,4132.29268656,4125.28719409,4129.85587838,4136.97047284,4124.17761616,4109.75989631,4132.00286209,4133.13050739,357.292882032
off_to_on,4133.98808178,4137.35536313,4135.17525053,4134.7673357,4138.35976502,4132.90056616,4125.2728461,4129.67307228,4136.97050103,4124.10100132,4109.77009374,4131.97249478,4133.04996337,399.22294191
off_to_on,4133.97907093,4137.49401462,4135.25010789,4134.74248875,4138.44296617,4133.66669426,4125.41561439,4129.5840891,4136.9705319,4124.14151391,4109.81841883,4132.04374965,4132.98352881,442.571699939
off_to_on,4133.94814205,4137.5854101,4135.33597911,4134.7273985,4138.53937953,4134.56705625,4125.71287883,4129.59422572,4136.97056417,4124.30303549,4109.90240889,4132.21933741,4132.93185617,486.548570156
off_to_on,4133.89780667,4137.62888193,4135.43365676,4134.72446647,4138.64697172,4135.57425227,4126.15737022,4129.70544335,4136.97059654,4124.58564248,4110.01821845,4132.49861546,4132.89396059,530.31705889
off_to_on,4133.83052807,4137.62414921,4135.54319751,4134.73547135,4138.76349199,4136.65848569,4126.737474,4129.91636104,4136.97062772,4124.98561251,4110.16079129,4132.87762646,4132.86733981,573.022407257
off_to_on,4133.74868324,4137.57136587,4135.66395926,4134.76150369,4138.88654884,4137.78860359,4127.43766895,4130.22235639,4136.9706565,4125.49554975,4110.32407745,4133.34923891,4132.84816245,613.820044808
off_to_on,4133.65453479,4137.47117516,4135.794668,4134.80293158,4139.01368956,4138.93315002,4128.23908288,4130.61576694,4136.9706818,4126.1046239,4110.50128499,4133.9033827,4132.83151507,651.903814613
off_to_on,4133.55021126,4137.32476426,4135.9335086,4134.85939824,4139.14247983,4140.06139405,4129.12014374,4131.08618323,4136.97070269,4126.79891371,4110.68515502,4134.52736927,4132.81169528,686.532941924
off_to_on,4133.43769405,4137.1339123,4136.07823303,4134.92985104,4139.27058002,4141.14429724,4130.05730249,4131.62082188,4136.97071842,4127.5618425,4110.86824728,4135.20628381,4132.7825366,717.056769725
off_to_on,4133.31880877,4136.90102476,4136.22627815,4135.01259989,4139.3958156,4142.15538898,4131.02580199,4132.20496493,4136.9707285,4128.37469024,4111.04322333,4135.92343451,4132.73774914,742.936371332
off_to_on,4133.19521896,4136.62914808,4136.37488527,4135.10540198,4139.51623891,4143.07152282,4132.0004659,4132.82244979,4136.97073264,4129.21716411,4111.2031147,4136.66084275,4132.67126026,763.762269471
off_to_on,4133.06842042,4136.32195925,4136.52121418,4135.20556865,4139.63018043,4143.87349204,4132.95648136,4133.45619346,4136.97073081,4130.06800856,4111.3415644,4137.39975746,4132.57753979,779.26763928
off_to_on,4132.93973486,4135.98372683,4136.66244487,4135.31008926,4139.73628751,4144.54648825,4133.87015029,4134.08873355,4136.97072319,4130.90563437,4111.45303195,4138.12117752,4132.45189592,789.336543578
off_to_on,4132.81030236,4135.61924169,4136.79586227,4135.41576661,4139.83354948,4145.0803922,4134.71958573,4134.70276883,4136.97071023,4131.70874721,4111.53295404,4138.80636662,4132.29072988,794.006934478
off_to_on,4132.68107292,4135.23371801,4136.9189205,4135.51935758,4139.92130842,4145.4698916,4135.48533172,4135.28168257,4136.97069254,4132.45695625,4111.57785567,4139.43734737,4132.09174007,793.468348955
off_to_on,4132.55279832,4134.83266715,4137.02928593,4135.61771285,4139.99925538,4145.71442603,4136.15088835,4135.81003259,4136.97067093,4133.13134531,4111.58540895,4139.99736253,4131.85406868,788.05442124
off_to_on,4132.42602621,4134.42174908,4137.12486011,4135.70790966,4140.06741261,4145.81796482,4136.70312664,4136.27399372,4136.97064633,4133.71499054,4111.55443924,4140.47129361,4131.57838671,778.230524226
off_to_on,4132.30109896,4134.00660788,4137.20378558,4135.787372,4140.12610279,4145.78862926,4137.13258183,4136.66174004,4136.97061978,4134.19341089,4111.48488091,4140.84602837,4131.26691589,764.577027244
off_to_on,4132.17815977,4133.59269875,4137.26443888,4135.85397335,4140.17590677,4145.63817672,4137.43361765,4136.96375632,4136.97059238,4134.55493997,4111.37768692,4141.11077063,4130.92338818,747.768812038
off_to_on,4132.05716835,4133.18511518,4137.30541573,4135.90611799,4140.2176122,4145.38136946,4137.60445947,4137.17307087,4136.97056523,4134.79101035,4111.23469861,4141.25728713,4130.55294625,728.551818448
off_to_on,4131.93792775,4132.78842487,4137.32551369,4135.9427979,4140.25215532,4145.03525555,4137.64709835,4137.28540458,4136.97053939,4134.89634419,4111.05848379,4141.28008807,4130.16199012,707.717491217
off_to_on,4131.82012307,4132.40652298,4137.32371743,4135.96362345,4140.28055898,4144.61839297,4137.56707355,4137.29923391,4136.97051579,4134.86904645,4110.85215237,4141.17653911,4129.7579773,686.076065047
off_to_on,4131.70337173,4132.04251034,4137.29919118,4135.96882729,4140.30386985,4144.15004977,4137.37314484,4137.2157683,4136.97049508,4134.71060028,4110.6191596,4140.94690426,4129.34918498,664.429654391
off_to_on,4131.58728392,4131.69860308,4137.25128202,4135.9592417,4140.32309798,4143.64941364,4137.07686971,4137.03884542,4136.97047729,4134.42576631,4110.36310724,4140.59432006,4128.94444437,643.546108267
off_to_on,4131.471531,4131.37607826,4137.17953639,4135.93625133,4140.33916148,4143.13484316,4136.6921034,4136.77475,4136.97046128,4134.02239068,4110.08755266,4140.12470306,4128.55285733,624.134549198
off_to_on,4131.3559189,4131.07525866,4137.0837307,4135.9017234,4140.35283919,4142.62319016,4136.23444164,4136.43196442,4136.97044381,4133.51112894,4109.79583528,4139.54659339,4128.18350625,606.823439808
off_to_on,4131.24046307,4130.79553749,4136.96391546,4135.85791887,4140.3647333,4142.12921879,4135.72062757,4136.0208608,4136.97041807,4132.90509545,4109.49092814,4138.87093866,4127.8451672,592.141914584
off_to_on,4131.12546078,4130.53544244,4136.82047077,4135.80738819,4140.37524364,4141.66514163,4135.16794436,4135.55334617,4136.97037184,4132.21944962,4109.17532109,4138.11082315,4127.54603595,580.504984259
off_to_on,4131.01155616,4130.29273568,4136.65416957,4135.752856,4140.38455416,4141.2402867,4134.59361508,4135.04247276,4136.9702849,4131.47093213,4108.85093976,4137.28114799,4127.2934749,572.20307304
off_to_on,4130.89979241,4130.06454466,4136.4662431,4135.69709947,4140.39263152,4140.86090281,4134.01423006,4134.50202605,4136.97012611,4130.67736493,4108.51910274,4136.39826892,4127.09378769,567.39618906
off_to_on,4130.79164569,4129.84751649,4136.25844217,4135.64282521,4140.3992349,4140.53010383,4133.44522006,4133.94610334,4136.96984997,4129.85712983,4108.18051696,4135.47959888,4126.95202647,566.112859339
off_to_on,4130.68903536,4129.63798732,4136.03308687,4135.59254975,4140.4039355,4140.24794696,4132.90039167,4133.38869491,4136.96939292,4129.02864082,4107.83531,4134.54318407,4126.87183533,568.253785096
off_to_on,4130.59430686,4129.43215778,4135.79309752,4135.54848874,4140.406144,4140.01163481,4132.39153892,4132.84328014,4136.96866968,4128.20982535,4107.48309597,4133.60726311,4126.85533258,573.599994525
off_to_on,4130.51018491,4129.22626576,4135.54200089,4135.51245935,4140.40514402,4139.81582763,4131.92814309,4132.32245045,4136.9675697,4127.41763013,4107.12307076,4132.68982054,4126.90303336,581.825094099
off_to_on,4130.43969694,4129.01674879,4135.28390709,4135.4858001,4140.40013003,4139.65304866,4131.51717004,4131.83757076,4136.96595421,4126.66756616,4106.7541315,4131.80814646,4127.01381395,592.511058306
off_to_on,4130.38606834,4128.80038881,4135.0234546,4135.46931167,4140.3902477,4139.51416353,4131.16297164,4131.39849014,4136.96365398,4125.97330666,4106.37501406,4130.97841474,4127.18491756,605.166866376
off_to_on,4130.35259278,4128.57443317,4134.76572249,4135.46322113,4140.37463555,4139.3889132,4130.86729394,4131.01331073,4136.96046827,4125.34634932,4105.98444175,4130.21529106,4127.41200092,619.249202192
off_to_on,4130.34248228,4128.3366866,4134.51611089,4135.46717158,4140.35246642,4139.26647928,4130.62939067,4130.68822195,4136.95616506,4124.79575181,4105.5812777,4129.53158142,4127.68921925,634.184378766
off_to_on,4130.358703,4128.08556977,4134.28019211,4135.48023766,4140.32298781,4139.13605978,4130.44623583,4130.4274038,4136.95048296,4124.32794631,4105.16467291,4128.93793008,4128.00934667,649.39062615
off_to_on,4130.40380359,4127.82014181,4134.06353702,4135.50096681,4140.28556014,4138.98743351,4130.31282463,4130.23300038,4136.94313477,4123.94663636,4104.73420213,4128.44257472,4128.36392802,664.299890508
off_to_on,4130.47974396,4127.54008538,4133.87152213,4135.52744459,4140.2396919,4138.81149127,4130.22254784,4130.10516179,4136.93381296,4123.65277624,4104.28997991,4128.05116497,4128.7434582,678.378334869
off_to_on,4130.58773245,4127.24565521,4133.70912438,4135.55738142,4140.18507093,4138.60071293,4130.16762175,4130.04214989,4136.92219693,4123.44463122,4103.83275052,4127.76664949,4129.13758468,691.14480766
off_to_on,4130.72807981,4126.93759284,4133.58071186,4135.58821705,4140.12159063,4138.34957106,4130.13955302,4130.04050141,4136.90796199,4123.31791468,4103.36394653,4127.58923504,4129.53532938,702.186647534
off_to_on,4130.90007797,4126.61701224,4133.48983892,4135.61723787,4140.04937037,4138.05484392,4130.12961675,4130.09523993,4136.89078991,4123.26599619,4102.88571281,4127.51641957,4129.92532598,711.172314463
off_to_on,4131.10191088,4126.28526287,4133.4390552,4135.64170197,4139.96876915,4137.71582352,4130.12932502,4130.20012677,4136.87038066,4123.28017288,4102.40089428,4127.54309958,4130.29606847,717.860469783
off_to_on,4131.33060373,4125.94377818,4133.42973783,4135.65896613,4139.88039166,4137.33440799,4130.13086391,4130.34793963,4136.84646502,4123.3499948,4101.91298752,4127.66175016,4130.63616712,722.105263571
off_to_on,4131.58201562,4125.59391879,4133.46195605,4135.66660933,4139.78508624,4136.91507219,4130.12747908,4130.53076744,4136.8188176,4123.46363395,4101.42605832,4127.86267449,4130.9346076,723.857720983
off_to_on,4131.85087881,4125.23682044,4133.53437665,4135.66254751,4139.68393433,4136.46471529,4130.11379217,4130.74030968,4136.78726971,4123.60828546,4100.94462878,4128.134317,4131.18100885,723.16324951
off_to_on,4132.13088623,4124.87325644,4133.64421727,4135.64513469,4139.57823115,4135.99238996,4130.08603465,4130.96816869,4136.75172166,4123.77058907,4100.47353927,4128.4636323,4131.36587525,720.155418902
off_to_on,4132.41482604,4124.50352419,4133.78725234,4135.61324648,4139.46945762,4135.50892272,4130.04218906,4131.20612438,4136.71215374,4123.93705817,4100.01779171,4128.83649969,4131.480838,715.046294615
off_to_on,4132.69476022,4124.12736308,4133.95787406,4135.56634247,4139.35924367,4135.02644046,4129.9820323,4131.44638151,4136.66863552,4124.09450369,4099.58238122,4129.23817093,4131.51888019,708.113730179
off_to_on,4132.96224152,4123.74390998,4134.14920807,4135.50450497,4139.24932304,4134.55782258,4129.90707985,4131.68178106,4136.62133289,4124.23043973,4099.17212352,4129.6537372,4131.47454017,699.68613815
off_to_on,4133.20856154,4123.35169607,4134.35328092,4135.42845237,4139.14148045,4134.11610243,4129.82043477,4131.90596934,4136.57051234,4124.33345888,4098.79148548,4130.06860035,4131.34408741,690.125357545
off_to_on,4133.42502135,4122.948687,4134.56123447,4135.33952627,4139.03749227,4133.71384433,4129.72654953,4132.11352043,4136.51654223,4124.39356577,4098.44442586,4130.46893257,4131.12566604,679.80831285
off_to_on,4133.6032151,4122.53236646,4134.76358041,4135.23965255,4138.93906252,4133.3625245,4129.63091347,4132.30001041,4136.45989069,4124.4024595,4098.13425305,4130.84210949,4130.81940135,669.108211649
off_to_on,4133.7353167,4122.09986121,4134.95048691,4135.13127774,4138.84775675,4133.07194421,4129.53968207,4132.4620441,4136.4011201,4124.35375735,4097.86350595,4131.17710217,4130.42746556,658.376051655
off_to_on,4133.81435919,4121.64810397,4135.11208802,4135.01728297,4138.76493644,4132.84970228,4129.45926713,4132.5972375,4136.34087803,4124.2431544,4097.63386313,4131.46481503,4129.95409969,647.923201539
off_to_on,4133.83449681,4121.17402852,4135.2388059,4134.90087892,4138.69169697,4132.70075208,4129.39590935,4132.70416083,4136.27988496,4124.06851619,4097.44608462,4131.69835879,4129.40558906,638.005783035
off_to_on,4133.79124017,4120.67479005,4135.32167535,4134.78548619,4138.62881237,4132.62706497,4129.35525542,4132.78224926,4136.2189188,4123.82990384,4097.299989,4131.87324935,4128.79019116,628.811515157
off_to_on,4133.6816562,4120.14800252,4135.35266031,4134.67460603,4138.57669008,4132.62741832,4129.34196219,4132.83168964,4136.1587968,4123.52953329,4097.19446734,4131.98752635,4128.11801535,620.449587224
off_to_on,4133.50452563,4119.59198348,4135.32495204,4134.57168665,4138.53533889,4132.69732167,4129.35934949,4132.85329279,4136.10035529,4123.17167273,4097.12753373,4132.04178727,4127.40085508,612.944009172
off_to_on,4133.2604521,4119.00599624,4135.23323924,4134.47999078,4138.50435306,4132.82908872,4129.40912058,4132.84836089,4136.04442782,4122.76248353,4097.09641055,4132.03913625,4126.65197432,606.23074991
off_to_on,4132.95191823,4118.39047788,4135.07394063,4134.4024692,4138.48291459,4133.01205645,4129.49116627,4132.81855921,4135.99182248,4122.30981203,4097.09764513,4131.98504908,4125.8858513,600.158822566
off_to_on,4132.58328546,4117.74724188,4134.84539157,4134.34164549,4138.46981527,4133.23294543,4129.60346397,4132.76580017,4135.9432991,4121.82294026,4097.12725286,4131.88715897,4125.11788369,594.495315628
off_to_on,4132.16073603,4117.07964371,4134.54797699,4134.29951606,4138.4634984,4133.47634873,4129.74207844,4132.69214592,4135.89954712,4121.31230483,4097.18088062,4131.75497033,4124.364061,588.934207531
off_to_on,4131.69215738,4116.39269902,4134.18420444,4134.27746957,4138.4621197,4133.72533005,4129.9012661,4132.59973425,4135.86116492,4120.78919387,4097.25398353,4131.59951016,4123.64061095,583.108645894
off_to_on,4131.18697115,4115.69314479,4133.75871274,4134.27622893,4138.4636253,4133.96210683,4130.07367995,4132.49073042,4135.82864127,4120.26543153,4097.34200701,4131.43292886,4122.96362769,576.606227832
off_to_on,4130.65591109,4114.98943572,4133.27821335,4134.29581833,4138.46584425,4134.16878985,4130.25066751,4132.36730541,4135.80233979,4119.75305988,4097.44056622,4131.26806391,4122.34869047,568.98669047
off_to_on,4130.1107558,4114.29167,4132.75136402,4134.33555688,4138.46659164,4134.32814861,4130.42264921,4132.23163934,4135.78248672,4119.26402706,4097.54561466,4131.11798147,4121.81048219,559.801316445
off_to_on,4129.5640243,4113.61144121,4132.18857663,4134.39407956,4138.46377816,4134.42437042,4130.57956096,4132.08594698,4135.7691628,4118.80989028,4097.65359456,4130.99551196,4121.36241804,548.613282051
off_to_on,4129.02864346,4112.96161604,4131.60176342,4134.46938484,4138.45552099,4134.44378147,4130.71134053,4131.93252073,4135.76229934,4118.40154174,4097.7615625,4130.91279618,4121.01629458,535.018129191
off_to_on,4128.5175977,4112.35604035,4131.00402802,4134.55890767,4138.44025107,4134.3754995,4130.80843542,4131.77378589,4135.7616789,4118.0489646,4097.86728458,4130.88085847,4120.78196953,518.663528389
off_to_on,4128.0435715,4111.8091792,4130.40930967,4134.65961528,4138.41681137,4134.21199034,4130.86230841,4131.61236209,4135.76694047,4117.76102446,4097.96929705,4130.90922221,4120.6670819,499.267519632
off_to_on,4127.61859636,4111.33569924,4129.83199061,4134.7681222,4138.38454146,4133.9495036,4130.86591638,4131.4511243,4135.77758913,4117.54530031,4098.06692906,4131.00558086,4120.67682056,476.634469959
off_to_on,4127.2537131,4110.95000509,4129.28647822,4134.88082044,4138.34334376,4133.5883672,4130.81413916,4131.2932566,4135.79300992,4117.40795655,4098.16028596,4131.17553543,4120.81374839,450.668069737
off_to_on,4126.95866065,4110.66574384,4128.7867747,4134.99401947,4138.29372759,4133.13312502,4130.70413667,4131.14229178,4135.81248541,4117.35365538,4098.25019314,4131.42240567,4121.07768748,421.380799976
off_to_on,4126.74160102,4110.49529459,4128.3460477,4135.10409046,4138.23682793,4132.59250813,4130.53561538,4131.00213022,4135.83521654,4117.38550739,4098.338102,4131.74711985,4121.46566922,388.899436777
off_to_on,4126.60888895,4110.44926134,4127.97621584,4135.20760862,4138.17439647,4131.97923642,4130.31098909,4130.87703196,4135.86034599,4117.50505608,4098.42596178,4132.14818379,4121.97195169,353.466310551
off_to_on,4126.56489309,4110.53598913,4127.68756248,4135.30148767,4138.10876393,4131.3096545,4130.0354231,4130.77157725,4135.88698327,4117.71229135,4098.51606255,4132.62172715,4122.58810478,315.436201187
off_to_on,4126.61187416,4110.76112364,4127.48839133,4135.38310047,4138.04277368,4130.60321277,4129.71675636,4130.69059241,4135.91423083,4118.00568657,4098.61085635,4133.16162214,4123.30316218,275.268919284
off_to_on,4126.74992389,4111.12723457,4127.38473617,4135.45038045,4137.97968833,4129.88181134,4129.3653017,4130.6390406,4135.94121015,4118.38225419,4098.71276495,4133.75966796,4124.10383807,233.517791258
off_to_on,4126.97696737,4111.63352257,4127.3801366,4135.50189947,4137.92307204,4129.16903091,4128.99352999,4130.62187909,4135.96708717,4118.83761625,4098.8239835,4134.40583331,4124.97480511,190.814425981
off_to_on,4127.28882964,4112.27562761,4127.47549001,4135.53691848,4137.8766528,4128.48928024,4128.61564946,4130.6438876,4135.99109594,4119.366087,4098.94629045,4135.0885481,4125.89902932,147.850286252
off_to_on,4127.6793662,4113.04555453,4127.66898837,4135.55540887,4137.84417005,4127.86689374,4128.24709645,4130.70947436,4136.01255999,4119.96076652,4099.08087375,4135.79503519,4126.85815643,105.35571417
off_to_on,4128.14065496,4113.93172756,4127.95614581,4135.55804322,4137.82921368,4127.32521493,4127.90395795,4130.82246864,4136.03091049,4120.61364507,4099.22818356,4136.51167198,4127.83294263,64.0771603789
off_to_on,4128.66324534,4114.91918096,4128.32991976,4135.54615584,4137.83506148,4126.88570167,4127.60234945,4130.98590923,4136.04570076,4121.31571876,4099.38782015,4137.22437159,4128.80372162,24.7534393776
off_to_on,4129.23645774,4115.98988711,4128.780925,4135.52167435,4137.86452188,4126.56708816,4127.35777382,4131.20183965,4136.05661668,4122.05711762,4099.55846471,4137.91897283,4129.75089807,-11.9081262897
off_to_on,4129.84872433,4117.12321724,4129.29773545,4135.48702548,4137.91978909,4126.38463598,4127.18448794,4131.47112036,4136.06348249,4122.82724798,4099.73785869,4138.58162898,4130.65545607,-45.2548025146
off_to_on,4130.48796023,4118.29652345,4129.86726532,4135.44501898,4138.00231718,4126.34950414,4127.0949041,4131.79326883,4136.06626221,4123.61495119,4099.92283475,4139.1991855,4131.49947046,-74.7099360258
off_to_on,4131.14195228,4119.485825,4130.47521688,4135.39871497,4138.11271899,4126.46826346,4127.09905211,4132.16633754,4136.06505628,4124.40868066,4100.10940066,4139.75953776,4132.26660732,-99.7920558933
off_to_on,4131.79875212,4120.66657565,4131.10657959,4135.35128061,4138.25069501,4126.74257649,4127.20412595,4132.58683909,4136.06009388,4125.1966987,4100.29287387,4140.25196019,4132.94259966,-120.130884876
off_to_on,4132.44705975,4121.81448482,4131.74616245,4135.30584278,4138.41499614,4127.16905792,4127.41413534,4133.049726,4136.0517212,4125.96729312,4100.4680623,4140.66739915,4133.51568343,-135.479673218
off_to_on,4133.07658417,4122.90636098,4132.37913987,4135.26534346,4138.60342287,4127.739324,4127.72967838,4133.54843054,4136.04038601,4126.70901233,4100.62948398,4140.99872263,4133.97697936,-145.72339524
off_to_on,4133.67836788,4123.92094379,4132.99159006,4135.23240453,4138.81286184,4128.44023235,4128.14784645,4134.07496741,4136.02661928,4127.41091584,4100.77161574,4141.24092095,4134.32080632,-150.882483967
off_to_on,4134.24506296,4124.83969002,4133.57100429,4135.20920823,4139.03935907,4129.2543055,4128.66226704,4134.62009932,4136.01101441,4128.06283534,4100.8891596,4141.39125372,4134.5449129,-151.111917474
off_to_on,4134.77114744,4125.6474789,4134.10674564,4135.19739864,4139.27822743,4130.16032426,4129.26328455,4135.17356239,4135.99420494,4128.65563941,4100.97731358,4141.44933873,4134.65061543,-146.695616242
off_to_on,4135.25307228,4126.33320465,4134.59043724,4135.1980087,4139.52418421,4131.13406962,4129.93827284,4135.72434544,4135.97684152,4129.18149313,4101.03203359,4141.41717945,4134.64283201,-138.036269927
off_to_on,4135.68933173,4126.89022781,4135.0162623,4135.21141599,4139.77151363,4132.14918568,4130.67206793,4136.26101388,4135.95956903,4129.63410213,4101.05027217,4141.29912855,4134.53000544,-125.640884398
off_to_on,4136.08045301,4127.31666277,4135.38116192,4135.23732905,4140.01424767,4133.17813064,4131.44750401,4136.77206701,4135.94300479,4130.00892963,4101.0301815,4141.10178635,4134.32391094,-110.102514729
off_to_on,4136.42890446,4127.61548536,4135.68492072,4135.27480483,4140.24635829,4134.19317861,4132.24603143,4137.24631548,4135.92771868,4130.30337547,4100.97126906,4140.83383528,4134.03934917,-92.0788096922
off_to_on,4136.73892523,4127.79445249,4135.93013506,4135.32229626,4140.46195353,4135.16743268,4133.04839262,4137.6732649,4135.91421609,4130.51690652,4100.87449711,4140.50581347,4133.69373,-72.268125873
off_to_on,4137.01628281,4127.86583369,4136.12206386,4135.37772758,4140.65547006,4136.07580887,4133.83532939,4138.04349133,4135.90292426,4130.65113017,4100.74231996,4140.1298332,4133.30655724,-51.3840721377
off_to_on,4137.2679683,4127.84596294,4136.26836674,4135.43859394,4140.8218554,4136.89595161,4134.58829461,4138.34899465,4135.89418268,4130.70980459,4100.57865601,4139.7192523,4132.8988296,-30.1294189584
off_to_on,4137.50184156,4127.75462673,4136.37873943,4135.50208051,4140.95673296,4137.60904418,4135.29014118,4138.58351651,4135.88823779,4130.6987824,4100.38879505,4139.28830827,4132.49237691,-9.17034866138
off_to_on,4137.72624084,4127.61431123,4136.46446027,4135.56519557,4141.05654462,4138.20048144,4135.92576211,4138.74281037,4135.88524213,4130.62588683,4100.17924389,4138.85172655,4132.10915404,10.8879744959
off_to_on,4137.9495725,4127.4493368,4136.5378658,4135.62491159,4141.11866567,4138.66037826,4136.48265749,4138.82485284,4135.88525784,4130.50072222,4099.9575164,4138.42431484,4131.77051716,29.5235739247
off_to_on,4138.17989756,4127.28491288,4136.61177616,4135.67830793,4141.14148864,4138.98389371,4136.95140619,4138.8299867,4135.88826417,4130.33442306,4099.73187621,4138.02055553,4131.49650777,46.3167064114
off_to_on,4138.42453166,4127.14614925,4136.69889351,4135.72270898,4141.12447317,4139.17135919,4137.32602354,4138.76098834,4135.89416859,4130.13934774,4099.51104271,4137.65420787,4131.30517025,60.9650319823
off_to_on,4138.68967498,4127.05706197,4136.81119836,4135.75581166,4141.06816083,4139.22820653,4137.60418999,4138.62305443,4135.90282066,4129.92872493,4099.30387221,4137.33793066,4131.21192728,73.2942988587
off_to_on,4138.98008754,4127.03961285,4136.95936884,4135.77579675,4140.97415479,4139.16470043,4137.78734076,4138.42370538,4135.91402808,4129.71626242,4099.11902731,4137.08293556,4131.22903563,83.2641029942
off_to_on,4139.29882389,4127.11282052,4137.15224828,4135.78141931,4140.84506575,4138.99548753,4137.88061157,4138.17260579,4135.92757386,4129.51572943,4098.96464795,4136.89867991,4131.3651425,90.9684682559
off_to_on,4139.64703902,4127.29197898,4137.39638444,4135.77207437,4140.68442654,4138.73898137,4137.89264154,4137.88130563,4135.9432337,4129.34052522,4098.84803759,4136.79260744,4131.62495882,96.631190771
off_to_on,4140.02387509,4127.58801563,4137.69566162,4135.74783485,4140.49657885,4138.41660871,4137.83524038,4137.56290888,4135.96079283,4129.20324792,4098.77537741,4136.76994395,4132.0090627,100.596092887
off_to_on,4140.42643479,4128.00701533,4138.05104314,4135.70946033,4140.28653637,4138.05194705,4137.72293221,4137.23167976,4135.98006108,4129.1152784,4098.75148015,4136.83355412,4132.51384129,103.312530482
off_to_on,4140.84984454,4128.54993083,4138.46043711,4135.65837595,4140.05982914,4137.66978662,4137.57239308,4136.90259907,4136.00088576,4129.08639424,4098.77959397,4136.9838643,4133.13157436,105.316682836
off_to_on,4141.28740605,4129.21249157,4138.91869346,4135.59662232,4139.82233441,4137.29515209,4137.40180278,4136.59088478,4136.02316137,4129.124428,4098.86126369,4137.21885366,4133.85065766,107.20931958
off_to_on,4141.7308313,4129.98531526,4139.41773419,4135.52677822,4139.58009914,4136.95231995,4137.23013341,4136.31149177,4136.04683586,4129.2349823,4098.996255,4137.53411408,4134.65595818,109.63087916
off_to_on,4142.17055175,4130.85421758,4139.94681283,4135.45185926,4139.33915954,4136.66386635,4137.07639898,4136.0786056,4136.0719129,4129.42121198,4099.18254351,4137.92297615,4135.52928889,113.23480187
off_to_on,4142.59608912,4131.80070781,4140.49289339,4135.37519664,4139.10536272,4136.44977869,4136.95889132,4135.9051452,4136.09845023,4129.68368069,4099.41636858,4138.37669611,4136.44998568,118.660132272
off_to_on,4142.99647219,4132.80265026,4141.04113354,4135.30030079,4138.88419501,4136.32666118,4136.8944282,4135.80228925,4136.12655404,4130.02029657,4099.69234864,4138.88469644,4137.39556583,126.50443781
off_to_on,4143.36068229,4133.83506505,4141.57545216,4135.23071589,4138.68062178,4136.3070613,4136.89763927,4135.77904046,4136.15636962,4130.42632845,4100.00365266,4139.43485104,4138.34244441,137.298082659
off_to_on,4143.6781089,4134.87103639,4142.07915775,4135.16987107,4138.49894275,4136.39894058,4136.98031506,4135.84184189,4136.1880689,4130.89450178,4100.34222036,4140.01380524,4139.26668298,151.480848381
off_to_on,4143.93899716,4135.8826927,4142.53561169,4135.12093471,4138.34266677,4136.60530881,4137.15084276,4135.99425827,4136.22183532,4131.41517094,4100.69902212,4140.60732036,4140.14474434,169.381806386
off_to_on,4144.13486964,4136.84222102,4142.92889895,4135.08667798,4138.21440997,4136.92403613,4137.41375075,4136.23673487,4136.2578469,4131.97656312,4101.06434861,4141.20063323,4140.9542275,191.203224869
off_to_on,4144.25890611,4137.72287721,4143.24447885,4135.06935346,4138.11582019,4137.34785177,4137.76938143,4136.56644479,4136.29625834,4132.56508737,4101.42811952,4141.77882105,4141.67455847,217.009141073
off_to_on,4144.30626694,4138.49995441,4143.46978937,4135.07059417,4138.04753056,4137.86453171,4138.21370825,4136.97723401,4136.33718305,4133.16570071,4101.7802006,4142.32716324,4142.28761487,246.719054003
off_to_on,4144.27434784,4139.15167396,4143.59478036,4135.09133735,4138.00914408,4138.45727029,4138.73830866,4137.45967131,4136.38067604,4133.76232207,4102.1107181,4142.83149172,4142.77826523,280.106998871
off_to_on,4144.16295605,4139.65996622,4143.61235409,4135.13177666,4137.99925024,4139.10522455,4139.33049919,4138.00120701,4136.42671865,4134.33828297,4102.41036051,4143.27852274,4143.13480744,316.806060082
off_to_on,4143.97440118,4140.01111316,4143.51869528,4135.19134456,4138.01547401,4139.78421314,4139.97363333,4138.58644197,4136.47520584,4134.8768034,4102.67065776,4143.65616344,4143.34929494,356.318173862
off_to_on,4143.71349651,4140.19623028,4143.31347741,4135.26872589,4138.05455601,4140.46754659,4140.64755634,4139.19750424,4136.52593689,4135.36148008,4102.8842294,4143.95378782,4143.41774318,398.028872413
off_to_on,4143.38747017,4140.21157192,4142.99993757,4135.36190196,4138.11246214,4141.1269608,4141.32920588,4139.81452723,4136.57861002,4135.77677425,4103.04499447,4144.16247716,4143.34021307,441.22643526
off_to_on,4143.00578903,4140.05865124,4142.58481744,4135.46822316,4138.1845196,4141.73362295,4141.99334115,4140.41621929,4136.63282138,4136.10848567,4103.148337,4144.27522051,4143.12077197,485.124747391
off_to_on,4142.57990125,4139.74417334,4142.07817391,4135.58450725,4138.26557581,4142.25917708,4142.61337894,4140.98051082,4136.68806864,4136.34419948,4103.19122298,4144.28707144,4142.76733628,528.889025525
off_to_on,4142.12290646,4139.2797868,4141.49306732,4135.70715914,4138.3501758,4142.67679588,4143.16231026,4141.48526127,4136.74375923,4136.4736929,4103.17226605,4144.19525785,4142.29140308,571.663468522
off_to_on,4141.6491646,4138.68166542,4140.84514005,4135.83230738,4138.43275267,4142.96220439,4143.61366825,4141.90900502,4136.79922302,4136.48928944,4103.09174057,4143.99924232,4141.70768091,612.59981804
off_to_on,4141.17385573,4137.96993701,4140.15210097,4135.95595187,4138.50782549,4143.09464191,4143.94251556,4142.23171237,4136.85372906,4136.38614903,4102.95154273,4143.70073161,4141.03363239,650.885783755
off_to_on,4140.71250453,4137.16798122,4139.43313414,4136.07411684,4138.57019805,4143.05772891,4144.126418,4142.43553971,4136.90650585,4136.1624837,4102.7551012,4143.30363426,4140.28894309,685.772296045
off_to_on,4140.28048355,4136.301622,4138.7082525,4136.18300309,4138.61515179,4142.8402079,4144.14637083,4142.50554178,4136.95676445,4135.81968967,4102.50724053,4142.81396625,4139.49493254,716.598597256
off_to_on,4139.89250994,4135.39824308,4137.99761822,4136.27913336,4138.63862617,4142.43653022,4143.98764475,4142.43031866,4137.00372342,4135.36238863,4102.21400164,4142.23970515,4138.67392397,742.81426723
off_to_on,4139.56215065,4134.48585708,4137.32085285,4136.35948521,4138.63737942,4141.84726454,4143.64051963,4142.20257107,4137.04663479,4134.79837289,4101.88242485,4141.59059372,4137.84859013,763.997396139
off_to_on,4139.30135081,4133.59215928,4136.69636032,4136.42160614,4138.60912318,4141.07930786,4143.10087635,4141.81953918,4137.08481006,4134.13845203,4101.52030199,4140.87789499,4137.04129265,779.868264564
off_to_on,4139.12000007,4132.74359747,4136.14068538,4136.46370659,4138.55262483,4140.14588544,4142.37062009,4141.28330305,4137.11764496,4133.39620137,4101.1359055,4140.11410213,4136.27343262,790.298061141
off_to_on,4139.02555102,4131.96448861,4135.66792941,4136.48472715,4138.4677723,4139.06633277,4141.45791236,4140.6009267,4137.14464232,4132.58761632,4100.7377029,4139.31260775,4135.56482983,795.312354007
off_to_on,4139.02270289,4131.27621183,4135.28924391,4136.4843774,4138.35559763,4137.86565964,4140.37719431,4139.78443291,4137.16543175,4131.73068012,4100.33406638,4138.48733954,4134.9331481,795.089226699
off_to_on,4139.11316316,4130.69650551,4135.01242064,4136.46314486,4138.21825702,4136.5739051,4139.14899054,4138.85060142,4137.17978555,4130.8448561,4099.93298729,4137.6523713,4134.39338311,789.952185789
off_to_on,4139.29549774,4130.23889361,4134.84159485,4136.42227343,4138.05896722,4135.22529997,4137.79949015,4137.82059004,4137.18763011,4129.95051905,4099.54180607,4136.82152055,4133.95742838,780.358138944
off_to_on,4139.56507883,4129.91226227,4134.77707514,4136.36371236,4137.88189963,4133.85726189,4136.35991028,4136.71938503,4137.18905209,4129.06834319,4099.16696761,4136.00794572,4133.63373328,766.880919692
off_to_on,4139.9141361,4129.72060264,4134.81530897,4136.29003755,4137.69203546,4132.50925425,4134.86565621,4135.57509421,4137.18429937,4128.21866618,4098.81381168,4135.2237568,4133.42706464,750.190992524
off_to_on,4140.33191347,4129.66292959,4134.9489878,4136.20434863,4137.49498662,4131.22154585,4133.35530034,4134.41810277,4137.17377636,4127.42085034,4098.48640706,4134.47965356,4133.33838062,731.032104656
off_to_on,4140.80492946,4129.73337896,4135.16728975,4136.11014606,4137.2967888,4130.03391168,4131.86941047,4133.28011805,4137.15803391,4126.6926628,4098.18743637,4133.7846044,4133.36482212,710.195753973
off_to_on,4141.31733518,4129.92147924,4135.45625231,4136.01119338,4137.10367444,4128.98431865,4130.4492643,4132.19313488,4137.13775407,4126.04969671,4097.91813713,4133.14557809,4133.49982317,688.49441154
off_to_on,4141.85135989,4130.21258659,4135.79926197,4135.91137029,4136.92183459,4128.10764114,4129.13549274,4131.1883574,4137.11373026,4125.50485512,4097.67830201,4132.56733852,4133.73333771,666.734469554
off_to_on,4142.38783102,4130.58846611,4136.17764335,4135.81452236,4136.75717916,4127.43445208,4127.96669866,4130.29511583,4137.08684338,4125.06791724,4097.46633898,4132.05231106,4134.05217641,645.689882271
off_to_on,4142.90675259,4131.02799694,4136.57132663,4135.72431334,4136.61510529,4126.98993257,4126.97810012,4129.53981862,4137.05803488,4124.7452048,4097.27938945,4131.60052681,4134.44044319,626.077428745
off_to_on,4143.38792457,4131.50797504,4136.95956977,4135.6440856,4136.50028355,4126.79294024,4126.20024851,4128.94498007,4137.02827762,4124.53936247,4097.11349986,4131.20964882,4134.8800588,608.534452847
off_to_on,4143.81158421,4132.00398461,4137.32171016,4135.57673418,4136.41647079,4126.85527103,4125.65787045,4128.52836203,4136.99854556,4124.4492625,4096.96384028,4130.87508191,4135.35135556,593.599831511
off_to_on,4144.15904978,4132.49130675,4137.63791918,4135.52459907,4136.36635767,4127.18114311,4125.36887985,4128.30226503,4136.96978343,4124.47003913,4096.82496106,4130.59016501,4135.83372556,581.698793236
off_to_on,4144.41334634,4132.94583336,4137.889933,4135.48937988,4136.35145724,4127.76692387,4125.34360076,4128.27299901,4136.94287746,4124.59325266,4096.69107699,4130.34644113,4136.30630215,573.13206218
off_to_on,4144.55979304,4133.34495352,4138.0617328,4135.47207617,4136.37203912,4128.60111252,4125.58423456,4128.4405577,4136.91862805,4124.80717817,4096.5563668,4130.13399715,4136.74865317,568.069643462
off_to_on,4144.58653181,4133.66838108,4138.14014939,4135.47295566,4136.42711204,4129.66458182,4126.08459652,4128.79851281,4136.89772566,4125.09720819,4096.41527481,4129.94186152,4137.14146294,566.549395808
off_to_on,4144.48497841,4133.89889386,4138.11536919,4135.49155176,4136.51445501,4130.93107365,4126.83013719,4129.33413606,4136.88073048,4125.44635429,4096.26280124,4129.75844536,4137.4671802,568.480361355
off_to_on,4144.25017902,4134.02295849,4137.98132207,4135.52669033,4136.63069595,4132.36793455,4127.79825375,4130.02874878,4136.86805669,4125.83582906,4096.0947683,4129.57201053,4137.71060977,573.650642023
off_to_on,4143.88105825,4134.03121865,4137.73593589,4135.57654478,4136.77143456,4133.93706944,4128.95888633,4130.85828993,4136.85996198,4126.24568763,4095.90805022,4129.3711476,4137.85942796,581.739433584
off_to_on,4143.38054806,4133.91882975,4137.38124753,4135.63871707,4136.9314045,4135.59608384,4130.27538349,4131.79408554,4136.85654237,4126.65550703,4095.70075732,4129.14524693,4137.90460409,592.332664396
off_to_on,4142.7555908,4133.68562833,4136.92336576,4135.71034126,4137.10466858,4137.29957816,4131.70561114,4132.80379466,4136.85773278,4127.04508087,4095.47236636,4128.88494711,4137.84071413,604.941551152
off_to_on,4142.01701378,4133.33613064,4136.37228674,4135.78820509,4137.2848393,4139.0005517,4133.20326938,4133.85249968,4136.86331306,4127.39510723,4095.22379162,4128.58254554,4137.66613561,619.023288234
off_to_on,4141.17927701,4132.87936096,4135.74156842,4135.86888436,4137.46531592,4140.65186984,4134.71937358,4134.90390314,4136.87291933,4127.68784762,4094.95739384,4128.23235722,4137.38311719,634.003029263
off_to_on,4140.26010018,4132.32851615,4135.04787534,4135.94888428,4137.63952906,4142.20774455,4136.20384916,4135.92158805,4136.88606006,4127.90773555,4094.67692628,4127.83100867,4136.99771978,649.296294078
off_to_on,4139.27997918,4131.7004789,4134.31040988,4136.02478165,4137.80118292,4143.62517691,4137.60718429,4136.87029593,4136.90213636,4128.04191403,4094.38741956,4127.37765509,4136.5196303,664.33094094
off_to_on,4138.26160605,4131.01519725,4133.55025036,4136.09336195,4137.9444859,4144.86531067,4138.88208157,4137.71717478,4136.92046564,4128.08068281,4094.09500909,4126.87411053,4135.96185308,678.567884719
off_to_on,4137.22920941,4130.29495257,4132.78961906,4136.15174539,4138.0643603,4145.89464825,4139.98504865,4138.43295004,4136.94030769,4128.01783822,4093.80671101,4126.32488343,4135.3402877,691.519816149
off_to_on,4136.20783493,4129.56354173,4132.05110566,4136.1974967,4138.15662293,4146.6860857,4140.87786869,4138.99297299,4136.96089233,4127.85089161,4093.53015467,4125.73711227,4134.67320581,702.767278854
off_to_on,4135.22258741,4128.84540211,4131.35687276,4136.2287142,4138.21812982,4147.21972989,4141.52889556,4139.37810549,4136.98144748,4127.58115619,4093.27328156,4125.12039956,4133.98064268,711.971582107
off_to_on,4134.29785752,4128.16470996,4130.72787054,4136.24409489,4138.24687985,4147.48346985,4141.9141244,4139.57540539,4137.00122673,4127.21369671,4093.0440222,4124.48654596,4133.28372284,718.884160165
off_to_on,4133.45655759,4127.54448422,4130.18308835,4136.24297358,4138.24207399,4147.47328356,4142.01799697,4139.57858446,4137.01953533,4126.75714202,4092.84996385,4123.84919037,4132.60394185,723.3521256
off_to_on,4132.71939156,4127.00572849,4129.73886995,4136.22533543,4138.20412901,4147.19327207,4141.83391144,4139.38821964,4137.03575373,4126.22336645,4092.69802267,4123.22336631,4131.96242886,725.31989832
off_to_on,4132.10418432,4126.56664365,4129.40831835,4136.19180233,4138.1346464,4146.65542294,4141.36441798,4139.0117083,4137.04935788,4125.62705182,4092.59413421,4122.62498913,4131.37921639,724.826923917
off_to_on,4131.62529458,4126.24194159,4129.20081332,4136.14359491,4138.03633869,4145.87911489,4140.62109369,4138.46296819,4137.05993558,4124.98514706,4092.54297583,4122.07029212,4130.87254381,722.001626445
off_to_on,4131.29313326,4126.04228743,4129.1216607,4136.08247245,4137.91291738,4144.89038486,4139.62410227,4137.76189278,4137.06719838,4124.31624657,4092.54773308,4121.57523205,4130.45822014,717.0518718
off_to_on,4131.11380629,4125.97389229,4129.1718883,4136.01065396,4137.76894737,4143.72098676,4138.4014558,4136.93358245,4137.0709886,4123.63991166,4092.60992064,4121.15488642,4130.14906966,710.252344422
off_to_on,4131.08889652,4126.03827329,4129.34819736,4135.93072399,4137.60967415,4142.40727793,4136.98800666,4136.00738041,4137.07128151,4122.97596126,4092.72926562,4120.82286538,4129.95448025,701.929356355
off_to_on,4131.21539505,4126.23219086,4129.64307268,4135.84552725,4137.44083055,4140.98897469,4135.424208,4135.01575061,4137.06818247,4122.34375923,4092.90365876,4120.5907612,4129.88007074,692.443707873
off_to_on,4131.48578654,4126.54776657,4130.04504851,4135.75805619,4137.26843031,4139.50782178,4133.75468918,4133.99304088,4137.06191937,4121.76152521,4093.12917553,4120.46765677,4129.92748899,682.172297874
off_to_on,4131.88828774,4126.97277769,4130.53912031,4135.671336,4137.09855583,4138.00622227,4132.0266997,4132.97417959,4137.05283078,4121.24569464,4093.40016667,4120.45971246,4130.09434725,671.4892358
off_to_on,4132.40723204,4127.49111718,4131.10728668,4135.58831132,4136.93714766,4136.52587471,4130.28847942,4131.99335662,4137.04135021,4120.81035056,4093.70941441,4120.5698472,4130.37429614,660.747231844
off_to_on,4133.02358671,4128.08340081,4131.72919971,4135.5117389,4136.78980271,4135.10646231,4128.58761488,4131.0827398,4137.0279873,4120.46674644,4094.04834769,4120.7975256,4130.75723307,650.260036819
off_to_on,4133.71558403,4128.72769581,4132.38289686,4135.44408986,4136.66158783,4133.78443575,4126.96944063,4130.27127577,4137.01330666,4120.2229348,4094.40730782,4121.13865877,4131.2296359,640.286666798
off_to_on,4134.45944225,4129.40034055,4133.04558414,4135.38746466,4136.55687437,4132.59192676,4125.47554181,4129.5836204,4136.99790514,4120.0835123,4094.7758535,4121.58562193,4131.77500805,631.01808122
off_to_on,4135.23014854,4130.07682035,4133.69443801,4135.3435236,4136.47919837,4131.55582445,4124.14240888,4129.03923794,4136.98238851,4120.04948775,4095.14309357,4122.12738816,4132.37441767,622.566889011
off_to_on,4136.00227418,4130.73266324,4134.3073935,4135.31343454,4136.43115033,4130.69704114,4123.00028976,4128.65170188,4136.96734842,4120.11827563,4095.49803495,4122.74977413,4133.00711114,614.960538588
off_to_on,4136.75079067,4131.344319,4134.86388706,4135.29783926,4136.41429701,4130.02998856,4122.0722768,4128.42822205,4136.95334045,4120.28381356,4095.82993332,4123.43579022,4133.65117896,608.138309211
off_to_on,4137.45185663,4131.88998661,4135.3455256,4135.29683925,4136.42913711,4129.56227861,4121.37365749,4128.36941464,4136.94086411,4120.53679841,4096.12863422,4124.16608465,4134.2842511,601.952268289
off_to_on,4138.08354647,4132.35035772,4135.73665683,4135.3100006,4136.47509145,4129.29465586,4120.91154814,4128.46932192,4136.93034546,4120.86503115,4096.38489256,4124.91946836,4134.88419836,596.172198185
off_to_on,4138.62649526,4132.70924807,4136.02482067,4135.33637771,4136.55052724,4129.22116112,4120.68481922,4128.71567934,4136.92212294,4121.25385687,4096.59065924,4125.67350484,4135.42981633,590.49433335
off_to_on,4139.06443775,4132.95409346,4136.20106669,4135.37455435,4136.65281528,4129.32951773,4120.68431091,4129.0904183,4136.91643697,4121.68668303,4096.73932473,4126.40514733,4135.90146978,584.553590842
off_to_on,4139.38462426,4133.07629348,4136.26012847,4135.42270034,4136.7784177,4129.60172489,4120.89332684,4129.57038452,4136.91342342,4122.14555647,4096.82591119,4127.09140359,4136.28167689,577.938831084
off_to_on,4139.5781016,4133.07139259,4136.20045184,4135.47864178,4136.9230034,4130.01483513,4121.28838488,4130.12824406,4136.9131113,4122.61177756,4096.8472066,4127.71000762,4136.55561545,570.21055708
off_to_on,4139.63985277,4132.93909588,4136.02408049,4135.53994233,4137.08158739,4130.54188686,4121.8401947,4130.73354273,4136.91542462,4123.06652933,4096.80183685,4128.24007719,4136.71153602,560.920354646
off_to_on,4139.56879529,4132.68312378,4135.73640832,4135.60399266,4137.24868979,4131.15295745,4122.51482471,4131.35387887,4136.92018808,4123.49149902,4096.69027421,4128.66273596,4136.7410705,549.631298016
off_to_on,4139.36764352,4132.31091704,4135.34581371,4135.66810529,4137.41850988,4131.8162986,4123.27501494,4131.95614608,4136.92713652,4123.86947082,4096.51478303,4128.96168081,4136.63942889,535.938497731
off_to_on,4139.04264586,4131.83320913,4134.86319535,4135.72961159,4137.58511005,4132.49951331,4124.08158819,4132.50780026,4136.93592755,4124.18487097,4096.27930635,4129.12367696,4136.40548076,519.488953154
off_to_on,4138.60321194,4131.26348844,4134.30143334,4135.78595803,4137.7426043,4133.17073314,4124.89490939,4132.97810509,4136.94615675,4124.42424897,4095.98929896,4129.1389667,4136.04172292,499.999890992
off_to_on,4138.06144919,4130.61737633,4133.6748013,4135.83479828,4137.88534571,4133.79975474,4125.67634208,4133.33931126,4136.95737493,4124.57668223,4095.65151502,4129.00158099,4135.55413836,477.27482323
off_to_on,4137.43163045,4129.91194987,4132.99835686,4135.87407828,4138.00810723,4134.35909658,4126.38965107,4133.56772753,4136.96910663,4124.63409397,4095.27375964,4128.70954595,4134.95195536,451.216640931
off_to_on,4136.7296164,4129.16503967,4132.28733782,4135.90211099,4138.10625042,4134.82493982,4127.00230253,4133.64464535,4136.98086916,4124.59147779,4094.86461466,4128.26498025,4134.24731859,421.837171162
off_to_on,4135.97225729,4128.39453332,4131.55659009,4135.91763836,4138.17587699,4135.17792225,4127.48661654,4133.55708463,4136.99219143,4124.44702483,4094.4331498,4127.67408175,4133.45488632,389.262758564
off_to_on,4135.1767979,4127.6177139,4130.82005128,4135.91987822,4138.21395846,4135.40375987,4127.82073194,4133.29833376,4137.00263189,4124.2021523,4093.98862992,4126.94700533,4132.59136965,353.735585407
off_to_on,4134.36030849,4126.85066001,4130.09030998,4135.90855455,4138.21843973,4135.49367733,4127.98935048,4132.86826465,4137.01179478,4123.86143455,4093.54022874,4126.09763574,4131.67503007,315.61060841
off_to_on,4133.53916202,4126.10773057,4129.37825683,4135.88390996,4138.18831309,4135.44463585,4127.98423506,4132.27341085,4137.01934433,4123.43244024,4093.0967588,4125.14326202,4130.72515211,275.348160553
off_to_on,4132.72857509,4125.40115266,4128.69283838,4135.84670018,4138.12366035,4135.25935428,4127.80444608,4131.52680551,4137.02501615,4122.92548166,4092.66642623,4124.10416155,4129.76150697,233.502434909
off_to_on,4131.94222655,4124.74072628,4128.04092029,4135.79817049,4138.02566169,4134.94612659,4127.45630944,4130.64758449,4137.02862569,4122.35328448,4092.25661783,4123.00310428,4128.80382294,190.706228428
off_to_on,4131.19196398,4124.1336546,4127.42726133,4135.74001502,4137.89657105,4134.51844587,4126.95311988,4129.66036859,4137.03007329,4121.73058878,4091.87372679,4121.8647895,4127.87127673,147.652470313
off_to_on,4130.48760419,4123.58450261,4126.85459496,4135.67432011,4137.73965884,4133.99445188,4126.31459296,4128.59444726,4137.0293459,4121.07369468,4091.52302164,4120.71523009,4126.98201914,105.073186371
off_to_on,4129.83683014,4123.0952818,4126.32381082,4135.60349358,4137.5591237,4133.39622523,4125.56608853,4127.48279378,4137.02651537,4120.39996802,4091.20856163,4119.58110075,4126.15274677,63.7166524435
off_to_on,4129.24518239,4122.66565285,4125.83422396,4135.53018211,4137.35997589,4132.7489566,4124.73763678,4126.36094794,4137.02173348,4119.72732362,4090.93316,4118.48906885,4125.39832962,24.3235629499
off_to_on,4128.7161398,4122.29323326,4125.38391584,4135.45717932,4137.14789576,4132.08002255,4123.86280479,4125.26580722,4137.01522405,4119.07370397,4090.69839492,4117.46512689,4124.73150285,-12.3969183285
off_to_on,4128.25128034,4121.97399231,4124.97012773,4135.38732742,4136.92907098,4131.41800115,4122.97744662,4124.23437006,4137.00727234,4118.45657127,4090.50466596,4116.53394596,4124.16262837,-45.7903501645
off_to_on,4127.85050981,4121.70271185,4124.58968451,4135.32341563,4136.7100169,4130.791661,4122.1183829,4123.3024759,4136.99821252,4117.89242914,4090.35129205,4115.71826834,4123.69953004,-75.278599067
off_to_on,4127.51234348,4121.47348842,4124.23942558,4135.26807877,4136.49738468,4130.22895637,4121.32205704,4122.50358575,4136.98841334,4117.39638768,4090.23664495,4115.03835535,4123.34740351,-100.379026367
off_to_on,4127.23422373,4121.28025043,4123.91661902,4135.22369953,4136.29776188,4129.7560604,4120.62321487,4121.86764462,4136.978263,4116.98178274,4090.1583106,4114.51150421,4123.10879915,-120.720573754
off_to_on,4127.01285584,4121.11726357,4123.61933638,4135.19231773,4136.11747071,4129.39646655,4120.05365289,4121.42006345,4136.96815356,4116.65985701,4090.11326936,4114.15164437,4122.98367438,-136.056156189
off_to_on,4126.84454409,4120.97959876,4123.34676772,4135.17554975,4135.96236953,4129.17018643,4119.64107738,4121.18085331,4136.95846559,4116.43950798,4090.09808546,4113.96902133,4122.96950978,-146.270899496
off_to_on,4126.72551088,4120.86353904,4123.09945945,4135.1745209,4135.83766322,4129.09306889,4119.40811271,4121.16393926,4136.9495537,4116.32710527,4090.10909625,4113.96997308,4123.06148172,-151.385895482
off_to_on,4126.65218312,4120.76690497,4122.87946187,4135.18981328,4135.74772807,4129.17626113,4119.37149149,4121.37667424,4136.94173339,4116.32637849,4090.14259208,4114.1568024,4123.2526838,-151.557286519
off_to_on,4126.62143228,4120.68928218,4122.6903776,4135.22143135,4135.69595697,4129.42582802,4119.54145317,4121.81956724,4136.93526984,4116.43837508,4090.19497924,4114.52774608,4123.53438844,-147.070637839
off_to_on,4126.63075711,4120.63213935,4122.53730721,4135.2687869,4135.68462968,4129.84254078,4119.92137004,4122.48623223,4136.93036888,4116.6614863,4090.26291947,4115.07704093,4123.89633994,-138.330715797
off_to_on,4126.67840136,4120.5988298,4122.42669324,4135.33070448,4135.7148131,4130.42184084,4120.50761164,4123.3635579,4136.92717047,4116.99153814,4090.34344174,4115.79508416,4124.32707031,-125.846964118
off_to_on,4126.76340263,4120.59447549,4122.36606876,4135.40544797,4135.78629547,4131.15397874,4121.28965034,4124.43209059,4136.92574505,4117.42194275,4090.43402297,4116.6686841,4124.81422902,-110.215146554
off_to_on,4126.88557184,4120.62573754,4122.36372129,4135.49076783,4135.89755767,4132.02432226,4122.25040262,4125.6666169,4136.92609257,4117.94390444,4090.53263643,4117.68139521,4125.34491788,-92.0957861435
off_to_on,4127.04540709,4120.70048301,4122.42828701,4135.58396799,4136.04578388,4133.01382181,4123.36679229,4127.03692547,4136.92814431,4118.54667338,4090.63776763,4118.81392888,4125.90602253,-72.1901653246
off_to_on,4127.24394847,4120.82736261,4122.56829384,4135.68199061,4136.2269129,4134.0996161,4124.61051477,4128.50872248,4136.93176744,4119.2178386,4090.7483986,4120.04462965,4126.48453178,-51.2147546602
off_to_on,4127.48258382,4121.01531836,4122.79167449,4135.78151598,4136.43572973,4135.25575723,4125.94897434,4130.04467001,4136.93677185,4119.94365107,4090.86396295,4121.35000382,4127.06783656,-29.8750115821
off_to_on,4127.76281774,4121.27304395,4123.10527299,4135.87907438,4136.66599628,4136.45403114,4127.3463608,4131.60551308,4136.94291909,4120.70936668,4090.98427447,4122.70528564,4127.64400052,-8.83953131634
off_to_on,4128.08601817,4121.60842305,4123.51436842,4135.97116595,4136.91061836,4137.66484641,4128.76482798,4133.15125864,4136.94993301,4121.49959916,4091.10943388,4124.0850252,4128.2019956,11.2844662528
off_to_on,4128.45315623,4122.02797247,4124.02224001,4136.05438384,4137.16184531,4138.85816229,4130.16573357,4134.64236906,4136.95751153,4122.29867376,4091.2397189,4125.46368188,4128.73189743,29.9733698326
off_to_on,4128.86455516,4122.53631735,4124.62979584,4136.12553605,4137.41149695,4140.00442564,4131.51089846,4136.04093239,4136.96533919,4123.09097369,4091.37546414,4126.81620807,4129.22503723,46.8062644914
off_to_on,4129.31966351,4123.13572481,4125.33528493,4136.18176063,4137.65121173,4141.07548626,4132.7638438,4137.31177361,4136.97309987,4123.86127316,4091.51693782,4128.11860832,4129.67410915,61.480121372
off_to_on,4129.81686636,4123.82571995,4126.13410843,4136.22062963,4137.87270843,4142.04546143,4133.89096456,4138.42347271,4136.98048922,4124.59505151,4091.66422276,4129.34846085,4130.07323337,73.8204809389
off_to_on,4130.35334594,4124.60280491,4127.01874165,4136.24023755,4138.06805335,4142.89152199,4134.86260136,4139.34925927,4136.98722626,4125.27878451,4091.81710871,4130.48538925,4130.41797729,83.7871910277
off_to_on,4130.9250006,4125.46029754,4127.97877371,4136.23927051,4138.22992399,4143.59457535,4135.65397505,4140.06775676,4136.99306385,4125.9002091,4091.97500272,4131.511474,4130.70533854,91.4749484304
off_to_on,4131.52642787,4126.38830102,4129.00106664,4136.21705377,4138.35185998,4144.13982412,4136.24595378,4140.56355492,4136.99779749,4126.44855805,4092.13686331,4132.41159547,4130.93369462,97.1085909036
off_to_on,4132.15097418,4127.3738107,4130.07003105,4136.17357572,4138.42849218,4144.51718324,4136.62562765,4140.82759353,4137.00127221,4126.91476152,4092.30116245,4133.17370169,4131.10272493,101.033288861
off_to_on,4132.79085042,4128.40095786,4131.16801003,4136.10948764,4138.45574112,4144.72154297,4136.78667258,4140.85734682,4137.00338738,4127.29161164,4092.46587818,4133.7889962,4131.21331112,103.699984496
off_to_on,4133.43730907,4129.4513849,4132.27575838,4136.02607971,4138.43097694,4144.75287034,4136.72949214,4140.65680379,4137.00409921,4127.57388641,4092.62851823,4134.25204281,4131.26742143,105.64661149
off_to_on,4134.08087544,4130.50473979,4133.37300005,4135.9252344,4138.35313405,4144.6161465,4136.46113394,4140.23624635,4137.00342096,4127.75842906,4092.7861734,4134.56078595,4131.26798439,107.475793558
off_to_on,4134.71162344,4131.53927322,4134.43904299,4135.80935959,4138.22277561,4144.32114375,4135.99498498,4139.61183392,4137.00142087,4127.84417942,4092.93559763,4134.71648725,4131.21875656,109.829859517
off_to_on,4135.31948365,4132.53251664,4135.45342829,4135.6813044,4138.04210445,4143.88205173,4135.35025856,4138.80500985,4136.99821801,4127.8321553,4093.07331036,4134.72358113,4131.12418853,113.364120649
off_to_on,4135.89457072,4133.46201608,4136.39658868,4135.5442615,4137.8149192,4143.31696804,4134.55129264,4137.84175123,4136.99397617,4127.72538343,4093.19571596,4134.58945508,4130.98929286,118.71942715
off_to_on,4136.42751531,4134.30609312,4137.25049045,4135.4016599,4137.5465163,4142.64727298,4133.62668673,4136.75168937,4136.98889619,4127.52878159,4093.29923417,4134.3241627,4130.81951676,126.495051733
off_to_on,4136.90978629,4135.04460297,4137.99923329,4135.25705255,4137.24354064,4141.89691149,4132.60830917,4135.56713239,4136.98320694,4127.24899549,4093.3804355,4133.94007975,4130.62062158,137.222939883
off_to_on,4137.33398835,4135.65965851,4138.6295835,4135.11400297,4136.91378945,4141.09160717,4131.53021117,4134.32202425,4136.97715555,4126.89419552,4093.4361753,4133.45151526,4130.39857033,151.344318084
off_to_on,4137.69412198,4136.13628994,4139.13141862,4134.97597493,4136.56597575,4140.2580341,4130.42748592,4133.05087605,4136.97099698,4126.47383961,4093.46372031,4132.87429016,4130.15942375,169.189564048
off_to_on,4137.98579376,4136.46301189,4139.49806458,4134.84622906,4136.20945904,4139.42297238,4129.33511216,4131.78770491,4136.96498373,4125.99840965,4093.46086222,4132.22529661,4129.90924463,190.962120085
off_to_on,4138.20636731,4136.63227316,4139.72651065,4134.72772972,4135.85395202,4138.61247245,4128.28682113,4130.56501517,4136.95935577,4125.479129,4093.426013,4131.52205077,4129.65400983,216.727078467
off_to_on,4138.35504787,4136.64076898,4139.81749241,4134.62306495,4135.50921294,4137.85105276,4127.31402467,4129.41285363,4136.95433127,4124.92766944,4093.35827805,4130.78225119,4129.39952928,246.40489162
off_to_on,4138.43289648,4136.48960174,4139.77543826,4134.53438175,4135.18473404,4137.16095414,4126.44483951,4128.35796825,4136.95009846,4124.3558556,4093.2575039,4130.02335444,4129.15137124,279.770465933
off_to_on,4138.44277324,4136.18428238,4139.60828109,4134.46333834,4134.8894364,4136.56147283,4125.70323931,4127.42309502,4136.94680883,4123.77537453,4093.12429851,4129.26217804,4128.91479314,316.457693568
off_to_on,4138.38921248,4135.73457172,4139.32714227,4134.41107403,4134.63138161,4136.06839228,4125.10836098,4126.62639301,4136.94457199,4123.19749726,4092.96002311,4128.51453955,4128.69467755,355.969271022
off_to_on,4138.27823516,4135.15416726,4138.94590066,4134.37819714,4134.4175103,4135.69353077,4124.67398593,4125.98104156,4136.94345236,4122.63281845,4092.7667557,4127.79493865,4128.49547264,397.69145435
off_to_on,4138.11710685,4134.46024747,4138.48066379,4134.36479018,4134.25341622,4135.44441885,4124.40821075,4125.49500813,4136.94346766,4122.09101908,4092.54722725,4127.11628773,4128.32113707,440.913215094
off_to_on,4137.91405123,4133.67289074,4137.94916195,4134.37043131,4134.14316377,4135.32411698,4124.31331528,4125.17098898,4136.94458939,4121.58065676,4092.30473346,4126.48969458,4128.17508942,484.849095409
off_to_on,4137.67793118,4132.81439178,4137.37008918,4134.3942303,4134.08915536,4135.3311799,4124.38582933,4125.00651963,4136.94674507,4121.10898761,4092.0430257,4125.92430023,4128.06016315,528.664923215
off_to_on,4137.41791077,4131.90850201,4136.76241706,4134.43487703,4134.0920534,4135.45976984,4124.61679343,4124.99424671,4136.94982228,4120.68182407,4091.76618627,4125.42717341,4127.97856854,571.505443439
off_to_on,4137.14311261,4130.97962446,4136.14470893,4134.4907002,4134.15076013,4135.69991515,4124.99220264,4125.12234817,4136.95367407,4120.30343226,4091.47849414,4125.00326276,4127.93186405,612.522852135
off_to_on,4136.86228531,4130.05199555,4135.53446204,4134.55973386,4134.26245617,4136.03790573,4125.49361676,4125.37508439,4136.95812574,4119.97647321,4091.18428768,4124.65540717,4127.92093982,650.905189004
off_to_on,4136.58349524,4129.14888692,4134.94750439,4134.63978918,4134.42269688,4136.45681087,4126.09891512,4125.73345946,4136.9629825,4119.70199136,4090.88783159,4124.38440342,4127.9460164,685.903552953
off_to_on,4136.31385547,4128.29185943,4134.39747037,4134.72852898,4134.62556316,4136.93710054,4126.78316923,4126.17596848,4136.96803777,4119.47945309,4090.59319453,4124.18912978,4128.00666159,716.857153943
off_to_on,4136.05930279,4127.50009888,4133.89537583,4134.82354253,4134.86386142,4137.45734783,4127.51960241,4126.67940484,4136.97308178,4119.30683691,4090.30414358,4124.06672227,4128.1018272,743.215299212
off_to_on,4135.82443167,4126.78985902,4133.4493089,4134.92241798,4135.12936589,4137.99498798,4128.28060252,4127.2196997,4136.97791004,4119.18077469,4090.02406029,4124.0127991,4128.22990689,764.555529495
off_to_on,4135.61239127,4126.17403223,4133.06424816,4135.02281021,4135.41309481,4138.52710841,4129.03875152,4127.77276543,4136.98233146,4119.09674145,4089.75588204,4124.02172698,4128.38881428,780.597267796
off_to_on,4135.42484918,4125.66186236,4132.74201405,4135.12250172,4135.70561121,4139.03124372,4129.76783572,4128.31531493,4136.98617571,4119.04928872,4089.50207041,4124.08692125,4128.57607943,791.210513509
off_to_on,4135.26202254,4125.25880757,4132.48135407,4135.21945498,4135.99733765,4139.48614945,4130.44380102,4128.82563038,4136.98929962,4119.03231431,4089.26460706,4124.20117002,4128.78895986,796.419300361
off_to_on,4135.12277449,4124.96655454,4132.27815643,4135.31185506,4136.27887421,4139.87252885,4131.04562018,4129.28425738,4136.99159228,4119.03935892,4089.04501545,4124.35697122,4129.0245616,796.399830661
off_to_on,4135.00477119,4124.78317875,4132.12578168,4135.39814194,4136.54130856,4140.17368798,4131.55604254,4129.6746039,4136.99297877,4119.06391836,4088.84440555,4124.54687035,4129.27996445,791.473394518
off_to_on,4134.90469218,4124.70343977,4132.0154971,4135.47703258,4136.77650755,4140.37609692,4131.96220073,4129.98342731,4136.99342239,4119.09975864,4088.663537,4124.76378612,4129.55234533,782.094373515
off_to_on,4134.81848471,4124.71919497,4131.93699458,4135.54753336,4136.97738056,4140.46983841,4132.25605386,4130.20119684,4136.99292526,4119.14122059,4088.50289542,4125.00131146,4129.83909355,768.83380526
off_to_on,4134.74165105,4124.81991056,4131.87896936,4135.60894347,4137.13810569,4140.44892907,4132.43465199,4130.32232262,4136.99152737,4119.18350031,4088.36277553,4125.25397743,4130.13791168,752.35914196
off_to_on,4134.66955586,4124.99324525,4131.82973462,4135.66085058,4137.25431115,4140.31150311,4132.50021256,4130.34524681,4136.98930417,4119.22289192,4088.24336469,4125.51746887,4130.4468963,733.410968162
off_to_on,4134.59773971,4125.22567904,4131.77784527,4135.70311967,4137.32320573,4140.0598535,4132.46000593,4130.27239587,4136.9863627,4119.25698018,4088.14482019,4125.7887815,4130.76459309,712.777545417
do_nothing,4134.52222431,4125.50315836,4131.71270357,4135.73587611,4137.3436537,4139.70033067,4132.32605368,4130.10999753,4136.98283666,4119.28477176,4088.06733395,4126.06631218,4131.09002204,691.268119882
do_nothing,4134.43979491,4125.81172882,4131.62512073,4135.7594842,4137.31619182,4139.24310375,4132.11465026,4129.8677702,4136.97888043,4119.30675618,4088.01117913,4126.34987647,4131.42266932,669.68596089
do_nothing,4134.34824663,4126.13812843,4131.50781009,4135.77452152,4137.24298817,4138.70179441,4131.84572529,4129.55849662,4136.97466245,4119.32489081,4087.97673446,4126.64065068,4131.76244471,648.802094839
do_nothing,4134.246583,4126.47031724,4131.35579165,4135.78175019,4137.12774478,4138.09299701,4131.54206997,4129.19749807,4136.97035812,4119.34250762,4087.96448351,4126.94103907,4132.109605,629.330659787
do_nothing,4134.13515704,4126.79792301,4131.16669099,4135.78208519,4136.97554824,4137.43570287,4131.22845626,4128.80202848,4136.96614267,4119.36414359,4087.97498841,4127.25447044,4132.4646459,611.906732698
do_nothing,4134.01574719,4127.11258666,4130.9409202,4135.77656031,4136.7926744,4136.75064892,4130.93068171,4128.39061052,4136.96218407,4119.39530031,4088.00883888,4127.5851314,4132.82816697,597.067376783
do_nothing,4133.89156304,4127.4081961,4130.68173287,4135.76629194,4136.58635491,4136.05961371,4130.6745748,4127.98233717,4136.95863652,4119.44214165,4088.06657948,4127.93764672,4133.20071521,585.236527708
do_nothing,4133.76717841,4127.68100154,4130.39514976,4135.75244094,4136.36451443,4135.38468472,4130.48499707,4127.5961627,4136.9556345,4119.51114146,4088.14861937,4128.31671919,4133.58261482,576.714191003
do_nothing,4133.6483926,4127.92961103,4130.08975707,4135.73617302,4136.1354885,4134.74752146,4130.38487824,4127.25020702,4136.95328784,4119.60869597,4088.25513009,4128.72674466,4133.9737918,571.670263571
do_nothing,4133.54202403,4128.15487037,4129.77638455,4135.71861809,4135.90773221,4134.16863801,4130.39431913,4126.9610965,4136.95167782,4119.74071801,4088.38593793,4129.17141927,4134.37360338,570.143123055
do_nothing,4133.45564362,4128.35963677,4129.46767592,4135.70082965,4135.68953004,4133.6667279,4130.52979514,4126.74336329,4136.95085453,4119.91223248,4088.54041849,4129.65335844,4134.78068304,572.042952824
do_nothing,4133.39725864,4128.54846083,4129.17756887,4135.6837453,4135.48871707,4133.25805282,4130.80348966,4126.60892344,4136.95083548,4120.12699332,4088.71740117,4130.17374726,4135.19281206,577.159590691
do_nothing,4133.37496005,4128.72719504,4128.92070596,4135.66815008,4135.31242088,4132.95591469,4131.22278201,4126.56665185,4136.95160564,4120.38714304,4088.91509149,4130.7320424,4135.60682811,585.17451202
do_nothing,4133.39654845,4128.90255046,4128.711801,4135.65464435,4135.16683299,4132.7702289,4131.78990956,4126.62206903,4136.95311865,4120.69293436,4089.1310187,4131.32574353,4136.01857972,595.676394824
do_nothing,4133.46915519,4129.08162516,4128.56498751,4135.64361794,4135.05701707,4132.70721301,4132.50181719,4126.7771511,4136.95529939,4121.04253134,4089.36201463,4131.95025014,4136.42293373,608.179580887
do_nothing,4133.59887531,4129.27142907,4128.49317686,4135.63523223,4134.98676027,4132.76920197,4133.35020092,4127.0302704,4136.95804753,4121.43190422,4089.60422845,4132.59881577,4136.81383993,622.144652181
do_nothing,4133.79042911,4129.47842937,4128.50745319,4135.62941161,4134.95847175,4132.95459644,4134.32174533,4127.37626962,4136.96124208,4121.85482773,4089.8531802,4133.26260747,4137.18445467,637.000284894
do_nothing,4134.0468681,4129.70813936,4128.61653098,4135.62584518,4134.97313162,4133.25794624,4135.39854782,4127.80666789,4136.96474665,4122.30298835,4090.10385345,4133.93087386,4137.52732202,652.165519049
do_nothing,4134.3693394,4129.96477084,4128.82629843,4135.62399952,4135.0302911,4133.67016649,4136.5587155,4128.30999258,4136.96841522,4122.76620041,4090.35082573,4134.59121953,4137.83460806,667.071589205
do_nothing,4134.75692075,4130.2509666,4129.1394665,4135.62314234,4135.12812351,4134.17887843,4137.77711409,4128.87222578,4136.97209817,4123.23272566,4090.58843272,4135.22997849,4138.09838079,681.182503374
do_nothing,4135.20653481,4130.56762471,4129.55533884,4135.6223768,4135.26352342,4134.76886265,4139.02624215,4129.47734968,4136.97564831,4123.68968527,4090.81096046,4135.83267385,4138.31092496,694.013631976
do_nothing,4135.71294813,4130.91382123,4130.06971271,4135.62068502,4135.43224969,4135.42260725,4140.27719882,4130.10797118,4136.97892671,4124.12354801,4091.01285751,4136.38454609,4138.46507871,705.14767019
do_nothing,4136.26885603,4131.28683185,4130.67491498,4135.61697948,4135.62910611,4136.12093043,4141.50070868,4130.74600181,4136.98180808,4124.52067399,4091.18895782,4136.87112814,4138.55457659,714.247457874
do_nothing,4136.86505068,4131.68224775,4131.359972,4135.61015977,4135.84815224,4136.84365401,4142.66816502,4131.37336703,4136.98418549,4124.86788985,4091.33470373,4137.27884229,4138.57438258,721.065273342
do_nothing,4137.49066605,4132.09417609,4132.11090623,4135.59917232,4136.08293567,4137.57030316,4143.75265136,4131.97271714,4136.98597426,4125.15306954,4091.44635813,4137.59559239,4138.52099614,725.44835259
do_nothing,4138.13349087,4132.5155118,4132.91114819,4135.58307004,4136.32673697,4138.28080657,4144.72990229,4132.52811192,4136.98711486,4125.36569391,4091.52119527,4137.81132435,4138.39271544,727.340518381
do_nothing,4138.78033789,4132.93826503,4133.74204828,4135.56106903,4136.57281797,4138.95617124,4145.57916722,4133.02565212,4136.98757479,4125.49736342,4091.55766009,4137.91852922,4138.18984302,726.779933764
do_nothing,4139.41745618,4133.35392673,4134.58346948,4135.53259939,4136.81466457,4139.57910651,4146.28394482,4133.45403303,4136.98734931,4125.54223957,4091.55548746,4137.91266521,4137.91482202,723.893124278
do_nothing,4140.03097128,4133.7538538,4135.41443914,4135.49734763,4137.04621526,4140.13457358,4146.83256078,4133.8049983,4136.98646107,4125.4973936,4091.51577399,4137.79247809,4137.57229355,718.885542409
do_nothing,4140.60733724,4134.12965496,4136.2138358,4135.4552885,4137.26206741,4140.61023991,4147.21856742,4134.07367594,4136.98495866,4125.3630447,4091.44099719,4137.56020344,4137.16906945,712.029072785
do_nothing,4141.13378368,4134.47355903,4136.96108566,4135.40670445,4137.45765407,4140.9968221,4147.44095051,4134.25878284,4136.98291411,4125.14267428,4091.33497898,4137.22163872,4136.71401787,703.646991482
do_nothing,4141.59874177,4134.77874848,4137.63684298,4135.35219185,4137.62938535,4141.28830619,4147.50413523,4134.3626889,4136.9804196,4124.84300849,4091.20279295,4136.78607851,4136.21786317,694.096991875
do_nothing,4141.99223336,4135.03964394,4138.22362952,4135.29265319,4137.77474969,4141.48204007,4147.41779139,4134.39133695,4136.97758332,4124.4738668,4091.0506178,4136.26611233,4135.69290517,683.752967625
do_nothing,4142.30620952,4135.25212778,4138.70640989,4135.22927568,4137.892372,4141.57869846,4147.19644548,4134.35402026,4136.9745249,4124.04788044,4090.88554155,4135.67729042,4135.15266687,672.986296499
do_nothing,4142.53482623,4135.41369893,4139.07308291,4135.16349685,4137.98202744,4141.58212638,4146.85891471,4134.26302509,4136.97137038,4123.58009051,4090.71532406,4135.03766887,4134.61148314,662.147393662
do_nothing,4142.67464757,4135.52355426,4139.31487192,4135.09695842,4138.04461093,4141.49907172,4146.42758517,4134.13315104,4136.96824707,4123.08744063,4090.54812712,4134.36725081,4134.08404541,651.548298009
do_nothing,4142.72476926,4135.58259556,4139.42660157,4135.03145022,4138.08206496,4141.33882118,4145.927562,4133.98112756,4136.96527848,4122.58818375,4090.39222321,4133.68734471,4133.58491996,641.447019474
do_nothing,4142.68685828,4135.59336454,4139.40685233,4134.96884615,4138.09726916,4141.11275647,4145.38572431,4133.82494874,4136.96257947,4122.10122652,4090.25569483,4133.01986439,4133.12805815,632.034309928
do_nothing,4142.56510717,4135.55991085,4139.25798855,4134.91103488,4138.0938972,4140.83384971,4144.82972097,4133.68315213,4136.96025189,4121.64543691,4090.14613672,4132.38659767,4132.72631778,623.42342731
do_nothing,4142.36610413,4135.48760094,4138.98605999,4134.85984764,4138.07624712,4140.51611772,4144.28694517,4133.57406964,4136.95838075,4121.23894279,4090.07037325,4131.80847156,4132.39101407,615.643345598
do_nothing,4142.09862284,4135.38287709,4138.60058104,4134.81698629,4138.04905243,4140.17405638,4143.78352635,4133.51507901,4136.95703123,4120.89844884,4090.03420212,4131.3048416,4132.13151777,608.63572639
do_nothing,4141.7733382,4135.25297813,4138.11419603,4134.7839542,4138.01728157,4139.82207664,4143.34337725,4133.5218851,4136.95624648,4120.63859888,4090.04217496,4130.89283164,4131.95491588,602.255816819
do_nothing,4141.40247682,4135.10563406,4137.54224236,4134.76199319,4137.98593374,4139.47396389,4142.98733127,4133.60785815,4136.95604635,4120.47140811,4090.09742329,4130.58674756,4131.86574781,596.277279228
do_nothing,4140.99941326,4134.94874814,4136.90222742,4134.75202902,4137.9598389,4139.14238219,4142.73240206,4133.78345471,4136.95642708,4120.40578704,4090.20153675,4130.39758574,4131.86582677,590.400796942
do_nothing,4140.57822509,4134.79008034,4136.21323766,4134.75462799,4137.94346958,4138.83844308,4142.5911922,4134.05574351,4136.95736194,4120.44717508,4090.35449824,4130.33265282,4131.95415298,584.266144313
do_nothing,4140.15322205,4134.63694617,4135.49530161,4134.76996662,4137.94077143,4138.57135698,4142.57147265,4134.42805527,4136.95880274,4120.59729806,4090.55467846,4130.39531014,4132.12692226,577.467264262
do_nothing,4139.73846593,4134.49594458,4134.76873023,4134.79781563,4137.95501883,4138.34818053,4142.6759486,4134.89977144,4136.96068219,4120.85406009,4090.79889008,4130.58485169,4132.37763049,569.569768995
do_nothing,4139.34729877,4134.37272714,4134.05345905,4134.83753912,4137.98870053,4138.1736689,4142.90222061,4135.466262,4136.96291697,4121.21157575,4091.08249967,4130.89652041,4132.69727106,560.13017462
do_nothing,4138.99189696,4134.27181901,4133.36841681,4134.888109,4138.04343935,4138.05023638,4143.2429426,4136.11897738,4136.96541135,4121.66034377,4091.39959344,4131.32166272,4133.07461933,548.716102596
do_nothing,4138.68286839,4134.19649933,4132.73094382,4134.94813426,4138.11994858,4137.97802315,4143.68617065,4136.84569356,4136.96806124,4122.18755803,4091.74319036,4131.84801631,4133.49659471,534.926633474
do_nothing,4138.42890801,4134.1487464,4132.15628147,4135.01590408,4138.21802615,4137.95506183,4144.21588926,4137.63090381,4136.9707585,4122.77754656,4092.10549474,4132.46012174,4133.94868828,518.411983536
do_nothing,4138.23652539,4134.12924919,4131.6571515,4135.0894435,4138.33658629,4137.97753273,4144.81269484,4138.45634448,4136.9733953,4123.41232439,4092.47817865,4133.13984398,4134.41544122,498.891693229
do_nothing,4138.10985479,4134.13748402,4131.24343928,4135.16657972,4138.4737267,4138.04009313,4145.45461016,4139.30163689,4136.97586839,4124.07224138,4092.85268358,4133.86698641,4134.88095791,476.170567356
do_nothing,4138.05055518,4134.17185114,4130.92199125,4135.24501715,4138.62682763,4138.13626288,4146.11799787,4140.14502217,4136.9780831,4124.7367025,4093.2205298,4134.61997624,4135.32943579,450.151688697
do_nothing,4138.05780358,4134.2298631,4130.6965311,4135.32241861,4138.79267814,4138.25884692,4146.77853681,4140.96416129,4136.97995694,4125.38493413,4093.57362202,4135.37659728,4135.74569361,420.845936088
do_nothing,4138.12838153,4134.30837365,4130.56769463,4135.39648999,4138.96762347,4138.40037412,4147.41222163,4141.73696924,4136.98142257,4125.99676737,4093.90453931,4136.11474385,4136.11567911,388.37757054
do_nothing,4138.2568503,4134.40383331,4130.53317757,4135.46506505,4139.14772655,4138.55353258,4147.9963446,4142.44244938,4136.98243022,4126.55340752,4094.20679799,4136.81316809,4136.42693737,352.985603577
do_nothing,4138.43580661,4134.5125566,4130.5879864,4135.52618703,4139.32893645,4138.71158195,4148.51041897,4143.06149375,4136.98294925,4127.03815859,4094.47507702,4137.4521932,4136.66902249,315.020824628
do_nothing,4138.65620687,4134.63098456,4130.72477733,4135.57818359,4139.50725602,4138.86872531,4148.9370052,4143.57761545,4136.982969,4127.43707274,4094.70539652,4138.01436605,4136.83383646,274.938532578
do_nothing,4138.90774558,4134.75592699,4130.93426563,4135.61973174,4139.67890149,4139.02042435,4149.26240552,4143.97758168,4136.9824988,4127.73949671,4094.8952422,4138.48502467,4136.91588196,233.287183757
do_nothing,4139.1792706,4134.88476926,4131.20568461,4135.64990971,4139.84044699,4139.1636437,4149.47719764,4144.25191999,4136.98156717,4127.93849121,4095.04363016,4138.85275898,4136.91241858,190.693328203
do_nothing,4139.45921719,4135.01563067,4131.52727204,4135.66823337,4139.98894796,4139.29701211,4149.57658474,4144.39527505,4136.98022033,4128.03110312,4095.15110875,4139.10974669,4136.82351495,147.843351593
do_nothing,4139.73604137,4135.14746314,4131.88676105,4135.67467546,4140.12203812,4139.42089016,4149.56054648,4144.40659947,4136.97851999,4128.01847616,4095.21969644,4139.25195074,4136.65199314,105.462666091
do_nothing,4139.99863357,4135.28008202,4132.27185297,4135.66966651,4140.23799601,4139.53733818,4149.4337835,4144.28916926,4136.97654056,4127.90579191,4095.25275698,4139.27916979,4136.40326561,64.2930946353
do_nothing,4140.23669467,4135.41412392,4132.67065099,4135.65407758,4140.33577845,4139.64998194,4149.20545658,4144.05042217,4136.974366,4127.70204002,4095.2548155,4139.1949392,4136.08506916,25.0692658505
do_nothing,4140.44105839,4135.55093049,4133.07203628,4135.62918516,4140.4150197,4139.76377969,4148.88873044,4143.70162516,4136.97208626,4127.41962432,4095.23132195,4139.00628562,4135.70710505,-11.5051218959
do_nothing,4140.60394754,4135.69236171,4133.46597175,4135.59661988,4140.47599721,4139.88469943,4148.5001405,4143.25738479,4136.9697936,4127.07381881,4095.18837045,4138.72334469,4135.28059839,-44.7803003645
do_nothing,4140.71915485,4135.84054618,4133.84372312,4135.55830099,4140.51956607,4140.01932077,4148.05880922,4142.73502169,4136.9675789,4126.6820951,4095.13238548,4138.35885724,4134.8177941,-74.1818530963
do_nothing,4140.78214325,4135.99758076,4134.19799139,4135.51635912,4140.54706609,4140.17438041,4147.58554549,4142.15383617,4136.9655281,4126.26334893,4095.06978742,4137.92756461,4134.33140988,-99.2297736615
do_nothing,4140.79006446,4136.16519512,4134.52295565,4135.47305031,4140.56020674,4140.35628393,4147.10186604,4141.53429706,4136.96371887,4125.83705873,4095.00665172,4137.44552916,4133.8340695,-119.554461867
do_nothing,4140.74169873,4136.34440002,4134.81423015,4135.43066474,4140.56093618,4140.57060857,4146.62898203,4140.89718936,4136.96221774,4125.42241245,4094.94837625,4136.9294088,4133.33774099,-134.909070137
do_nothing,4140.63732275,4136.53514038,4135.06874327,4135.39143356,4140.55130149,4140.82162274,4146.18679522,4140.26275764,4136.9610777,4125.03744035,4094.8993721,4136.39571725,4132.85320517,-145.177739034
do_nothing,4140.47851583,4136.73597516,4135.2845509,4135.35743748,4140.53330734,4141.11184728,4145.79294823,4139.64988238,4136.96033633,4124.69819166,4094.86279176,4135.86010182,4132.38957906,-150.379394833
do_nothing,4140.26791768,4136.94380643,4135.46059927,4135.33052084,4140.50878048,4141.44168184,4145.4619709,4139.07532422,4136.96001471,4124.41799066,4094.84030802,4135.33667034,4131.95391655,-150.666919662
do_nothing,4140.00895287,4137.15367859,4135.59645527,4135.31221436,4140.47924705,4141.80911774,4145.20456088,4138.5530683,4136.96011689,4124.20680539,4094.83195474,4134.83739639,4131.55090602,-146.321649636
do_nothing,4139.7055379,4137.35866616,4135.69202343,4135.30366974,4140.44582865,4142.20955512,4145.02703089,4138.09379587,4136.96063005,4124.07075728,4094.8360385,4134.37162886,4131.18267992,-137.743315017
do_nothing,4139.36178707,4137.54986447,4135.74726845,4135.30560867,4140.40916258,4142.63573816,4144.93094841,4137.70450475,4136.96152542,4124.01179454,4094.84912721,4133.94572721,4130.84874666,-125.435708636
do_nothing,4138.98173238,4137.71649279,4135.76196128,4135.31828817,4140.36935014,4143.07781672,4144.91298469,4137.3882938,4136.96275973,4124.02754554,4094.86611882,4133.56283808,4130.54604937,-109.988543596
do_nothing,4138.56907145,4137.8461137,4135.73546464,4135.34148373,4140.32593558,4143.52353727,4144.96498149,4137.14431886,4136.96427718,4124.11136086,4094.88038943,4133.22282302,4130.26915035,-92.0561214162
do_nothing,4138.1269562,4137.92496738,4135.66657184,4135.37449067,4140.27791688,4143.95856005,4145.07423392,4136.9679209,4136.96601197,4124.25254479,4094.88401739,4132.92234077,4130.01053442,-72.3335647021
do_nothing,4137.65783298,4137.93841392,4135.55340994,4135.41614396,4140.22378815,4144.36689398,4145.22397869,4136.85091964,4136.96789107,4124.43676961,4094.86807601,4132.6550814,4129.76101951,-51.5314714825
do_nothing,4137.1633429,4137.87147177,4135.39341545,4135.46485566,4140.16161194,4144.73143564,4145.39406841,4136.78205948,4136.96983725,4124.64665828,4094.82298555,4132.41214323,4129.51025752,-30.349922589
do_nothing,4136.64428844,4137.70943531,4135.18338712,4135.51866892,4140.0891185,4145.03459356,4145.56180436,4136.74758816,4136.97177229,4124.86251386,4094.73891166,4132.18253724,4129.24730484,-9.45281536684
do_nothing,4136.10066921,4137.43855016,4134.91961628,4135.57532681,4140.00382752,4145.25897412,4145.70289333,4136.7319428,4136.97361998,4125.06316718,4094.60619612,4131.95379767,4128.96123779,10.5564997339
do_nothing,4135.53178625,4137.04672042,4134.5980908,4135.6323538,4139.90318686,4145.38810144,4145.79248836,4136.71851312,4136.97530921,4125.22690874,4094.41580309,4131.71267232,4128.64178589,29.1573410691
do_nothing,4134.93641062,4136.52421916,4134.2147644,4135.68714739,4139.78472181,4145.40714019,4145.80626985,4136.69044807,4136.97677659,4125.33246618,4094.15976384,4131.44586177,4128.27995448,45.9307139502
do_nothing,4134.31300871,4135.86437145,4133.76587904,4135.7370766,4139.64618803,4145.30358875,4145.72152149,4136.63147016,4136.97796882,4125.35998676,4093.83160165,4131.14077489,4127.86860809,60.5744737686
do_nothing,4133.66001346,4135.06417819,4133.24832462,4135.77958399,4139.48572066,4145.06791029,4145.51815663,4136.52666169,4136.97884461,4125.29198325,4093.42671963,4130.78626638,4127.40298745,72.9140250311
do_nothing,4132.97612816,4134.12484996,4132.6600174,4135.81228706,4139.30197278,4144.694071,4145.17965237,4136.36318868,4136.97937602,4125.1142034,4092.94273452,4130.37332308,4126.88113535,82.9081150771
do_nothing,4132.26064737,4133.05222146,4132.00027702,4135.8330749,4139.09423627,4144.17995809,4144.69385286,4136.13093083,4136.9795493,4124.81638523,4092.37974115,4129.89566734,4126.30420977,90.6494670737
do_nothing,4131.51377799,4131.85702054,4131.27018082,4135.84019591,4138.86253945,4143.52765494,4144.05360804,4135.8229904,4136.97936517,4124.39286495,4091.74049431,4129.35024891,4125.67666678,96.3601936627
do_nothing,4130.73694288,4130.55496969,4130.47287479,4135.83233266,4138.6077163,4142.74355697,4143.25722021,4135.43605777,4136.97883842,4123.84300924,4091.030497,4128.73760108,4125.00630045,100.382133956
do_nothing,4129.93304964,4129.16670399,4129.6138213,4135.80866058,4138.33144387,4141.83831879,4142.30867865,4134.9706181,4136.97799707,4123.17145024,4090.25798728,4128.06204247,4124.30413251,103.162454322
do_nothing,4129.10670779,4127.71749555,4128.70096626,4135.76888792,4138.03624514,4140.82663084,4141.21767041,4134.43099028,4136.97688101,4122.38810921,4089.43381951,4127.33171197,4123.58415068,105.235038451
do_nothing,4128.26437966,4126.2367819,4127.74481091,4135.71327497,4137.72545661,4139.72683178,4139.9993647,4133.82519686,4136.97554011,4121.50800314,4088.57123994,4126.55843189,4122.86290082,107.198357245
do_nothing,4127.4144522,4124.75750343,4126.7583771,4135.64263171,4137.40316077,4138.56036967,4138.67397735,4133.1646707,4136.97403209,4120.5508372,4087.68556064,4125.75740126,4122.1589444,109.690648861
do_nothing,4126.5672205,4123.3152625,4125.75705928,4135.55829379,4137.07408566,4137.35113248,4137.2661306,4132.46381112,4136.97242003,4119.5403951,4086.79374038,4124.94672915,4121.4921991,113.363347942
do_nothing,4125.7347771,4121.94732487,4124.75836093,4135.46207763,4136.74347493,4136.12467417,4135.8040324,4131.73940887,4136.97076982,4118.50374822,4085.91388501,4124.14682459,4120.88318591,118.853774961
do_nothing,4124.93080555,4120.69149185,4123.78151863,4135.35621641,4136.41693324,4134.90736728,4134.31850659,4131.00996463,4136.96914743,4117.47031251,4085.06468381,4123.37966707,4120.35221179,126.758129021
do_nothing,4124.17028142,4119.58487879,4122.84702244,4135.24327947,4136.10025304,4133.72551669,4132.84191252,4130.294931,4136.96761636,4116.47078995,4084.26480157,4122.66798717,4119.91852115,137.605820148
do_nothing,4123.46908873,4118.66264247,4121.97604713,4135.12607864,4135.7992301,4132.60447027,4131.40699741,4129.61391124,4136.96623513,4115.53603708,4083.53224915,4122.03439224,4119.59945275,151.836130315
do_nothing,4122.84356489,4117.95670454,4121.18981405,4135.00756535,4135.51947552,4131.56776299,4130.04572836,4128.98585021,4136.96505514,4114.69590754,4082.88375697,4121.50047519,4119.40964007,169.778106507
do_nothing,4122.30999099,4117.49452129,4120.50890766,4134.89072285,4135.26623256,4130.63632842,4128.78815197,4128.42825326,4136.96411869,4113.97811733,4082.33417695,4121.08594602,4119.36029249,191.634467691
do_nothing,4121.88404739,4117.29795032,4119.95257385,4134.77845813,4135.04420608,4129.82780857,4127.66132809,4127.95646731,4136.96345761,4113.40718087,4081.89593767,4120.80782513,4119.45859211,217.470156471
do_nothing,4121.58025635,4117.38226244,4119.53802838,4134.67349806,4134.85741164,4129.1559876,4126.68838071,4127.5830551,4136.96309213,4113.00346288,4081.57857553,4120.67973444,4119.70723606,247.205991413
do_nothing,4121.41143409,4117.75534294,4119.27980426,4134.57829386,4134.70905019,4128.63036916,4125.88770317,4127.3172893,4136.9630304,4112.78238586,4081.38836189,4120.71131795,4120.10414857,280.617682883
do_nothing,4121.38817448,4118.41711976,4119.1891653,4134.49493776,4134.60141288,4128.2559114,4125.2723476,4127.16478711,4136.96326837,4112.75382555,4081.3280417,4120.90781684,4120.64237896,317.340271578
do_nothing,4121.5183855,4119.35924839,4119.27361094,4134.42509491,4134.53581921,4128.03292697,4124.84962007,4127.12729966,4136.96379024,4112.92171875,4081.39669529,4121.26981715,4121.31019433,356.87784382
do_nothing,4121.80689766,4120.5650738,4119.53649396,4134.36995291,4134.51258985,4127.95714968,4124.62089369,4127.20266303,4136.96456932,4113.28389848,4081.58972924,4121.79318004,4122.09136641,398.618179057
do_nothing,4122.25516102,4122.00987979,4119.97676841,4134.33019057,4134.5310544,4128.01996355,4124.58164325,4127.38491085,4136.96556934,4113.8321621,4081.89899798,4122.46915647,4122.96564398,441.8517991
do_nothing,4122.86104404,4123.66142533,4120.58888045,4134.30596669,4134.58959239,4128.20878472,4124.72169595,4127.66454145,4136.96674604,4114.55256855,4082.31305198,4123.28468035,4123.90939379,485.794722832
do_nothing,4123.61874395,4125.48075656,4121.36280945,4134.29692893,4134.68570495,4128.50758172,4125.02568499,4128.02892624,4136.96804915,4115.42595158,4082.81750421,4124.22282617,4124.89638555,529.614091943
do_nothing,4124.51881425,4127.42327276,4122.28426092,4134.30224226,4134.81611323,4128.89751492,4125.47368572,4128.46284054,4136.96942445,4116.42862698,4083.39550136,4125.26341089,4125.89869051,572.455727789
do_nothing,4125.54831095,4129.44001455,4123.33500763,4134.32063534,4134.97687931,4129.35767197,4126.04200717,4128.94909363,4136.97081603,4117.53326424,4084.02828307,4126.38371336,4126.88765818,613.472609304
do_nothing,4126.69105554,4131.47913406,4124.49336941,4134.3504631,4135.16354424,4129.86587298,4126.70410728,4129.46923105,4136.97216855,4118.70988687,4084.69580858,4127.55928059,4127.83493288,651.853229679
do_nothing,4127.92800826,4133.48749941,4125.73481756,4134.38978259,4135.3712783,4130.39951643,4127.4315958,4130.00427982,4136.97342936,4119.92696085,4085.37742832,4128.76478732,4128.71347029,686.848797573
do_nothing,4129.23774157,4135.4123798,4127.03268425,4134.43643907,4135.59503767,4130.93643517,4128.19528672,4130.53550609,4136.9745506,4121.15252806,4086.0525757,4129.97491367,4129.49851412,717.798296171
do_nothing,4130.59699957,4137.20315319,4128.35895327,4134.48815865,4135.82972219,4131.45572978,4128.96626068,4131.04515453,4136.97549092,4122.35533994,4086.70145406,4131.16520602,4130.16849488,744.150497181
do_nothing,4131.98132557,4138.81297657,4129.68510442,4134.54264372,4136.07032862,4131.93854694,4129.71689799,4131.51713986,4136.97621702,4123.50594736,4087.30569323,4132.31288734,4130.70581527,765.482143425
do_nothing,4133.36573747,4140.20035872,4130.98298185,4134.59766715,4136.31209427,4132.36877172,4130.42184406,4131.93766314,4136.97670479,4124.57770449,4087.84895171,4133.39758624,4131.0974917,781.511659779
do_nothing,4134.7254287,4141.33057837,4132.22565529,4134.65116141,4136.5506266,4132.7336061,4131.05887177,4132.29572862,4136.97694005,4125.54764877,4088.31744223,4134.40195824,4131.33562687,792.107921727
do_nothing,4136.03647169,4142.17689538,4133.38824384,4134.70129916,4136.78201474,4133.02401071,4131.60960928,4132.58354112,4136.9769189,4126.39722492,4088.70036195,4135.31217788,4131.41769528,797.293795956
do_nothing,4137.27650071,4142.72150953,4134.44867332,4134.74656208,4137.00292011,4133.23499252,4132.06010749,4132.7967692,4136.9766477,4127.11282825,4088.99021221,4136.11828708,4131.34663103,797.244361088
do_nothing,4138.4253516,4142.95623049,4135.38834099,4134.78579532,4137.21064387,4133.36572733,4132.40122759,4132.93466466,4136.97614252,4127.68615055,4089.18299761,4136.81439084,4131.13071507,792.279912718
do_nothing,4139.46563756,4142.88283225,4136.19266535,4134.8182455,4137.40316998,4133.41951277,4132.62883653,4133.00003544,4136.97542836,4128.11432039,4089.27829869,4137.3986984,4130.78326687,782.854047824
do_nothing,4140.38324203,4142.51307654,4136.85150285,4134.84358082,4137.57918377,4133.40355481,4132.74380612,4132.99907472,4136.97453796,4128.39983771,4089.27921778,4137.87341338,4130.32215318,769.537300837
do_nothing,4141.16771266,4141.86840112,4137.3594182,4134.86189249,4137.73806632,4133.3285981,4132.75181878,4132.9410549,4136.97351031,4128.55031014,4089.1922019,4138.24448207,4129.76913313,752.99696086
do_nothing,4141.81254299,4140.97928026,4137.71579969,4134.87367758,4137.87986593,4133.20841688,4132.66299056,4132.83789984,4136.97238902,4128.57800553,4089.02675097,4138.52121355,4129.14906494,733.973832163
do_nothing,4142.31533168,4139.8842756,4137.9248156,4134.87980423,4138.0052483,4133.0591884,4132.49132899,4132.70365346,4136.97122044,4128.49924103,4088.79502346,4138.71578921,4128.48900385,713.25680344
do_nothing,4142.67781255,4138.62880655,4137.99521257,4134.88146112,4138.11542772,4132.89877463,4132.25404931,4132.55386639,4136.97005181,4128.33363489,4088.51135489,4138.84268258,4127.8172249,691.656160441
do_nothing,4142.90575269,4137.26367866,4137.93996175,4134.88009369,4138.21208195,4132.74594139,4131.97077852,4132.40492593,4136.96892938,4128.10325113,4088.19170747,4138.918013,4127.16220636,669.976609498
do_nothing,4143.00872077,4135.8434182,4137.77576382,4134.87733035,4138.29725447,4132.61954609,4131.66268043,4132.27335671,4136.96789655,4127.83167134,4087.85307168,4138.95885852,4126.55161157,648.990976743
do_nothing,4142.99973228,4134.42446811,4137.52242939,4134.87490208,4138.37324773,4132.53772674,4131.3515383,4132.17512126,4136.96699227,4127.54303003,4087.51284209,4138.98255506,4126.01130695,629.415509719
do_nothing,4142.89478373,4133.06330705,4137.20215612,4134.87455913,4138.44251187,4132.51712462,4131.05883263,4132.12494958,4136.96624955,4127.26105137,4087.18819056,4139.00600899,4125.56445316,611.887635483
do_nothing,4142.71229182,4131.81455666,4136.83872827,4134.87798849,4138.50753298,4132.57217193,4130.80485157,4132.13572587,4136.96569431,4127.00812466,4086.89545983,4139.04504968,4125.23070354,596.946925534
do_nothing,4142.4724576,4130.72914336,4136.45666803,4134.88673557,4138.57072517,4132.71447356,4130.60786983,4132.21795805,4136.9653445,4126.80445435,4086.64959956,4139.11384654,4125.02553977,585.019889808
do_nothing,4142.19657838,4129.85257953,4136.08036964,4134.90213316,4138.63433042,4132.95230844,4130.48342828,4132.3793521,4136.96520956,4126.66731689,4086.46366468,4139.22441223,4124.95976926,576.409075985
do_nothing,4141.90633217,4129.22342525,4135.73324869,4134.92524056,4138.70032999,4133.29027107,4130.44374267,4132.62450838,4136.9652902,4126.61045243,4086.3483937,4139.38620934,4125.03920215,571.286791089
do_nothing,4141.6230606,4128.87198562,4135.43693832,4134.95679501,4138.77037072,4133.72906811,4130.49726327,4132.95475213,4136.96557861,4126.64361397,4086.31188073,4139.60587387,4125.26451888,569.693593271
do_nothing,4141.36707607,4128.81929074,4135.21056244,4134.99717741,4138.84570888,4134.26547782,4130.64840148,4133.36810394,4136.96605893,4126.77229008,4086.35935166,4139.88706352,4125.63133163,571.541525591
do_nothing,4141.15701797,4129.07639577,4135.07011292,4135.04639353,4138.92717367,4134.89247351,4130.89743146,4133.85939056,4136.96670801,4126.99761057,4086.49305065,4140.23043396,4126.13043582,576.621883713
do_nothing,4141.00928061,4129.64402707,4135.02795372,4135.10407137,4139.01515138,4135.59950516,4131.24056747,4134.42048972,4136.96749655,4127.31643671,4086.7122386,4140.63374061,4126.74824028,584.617131705
do_nothing,4140.9375325,4130.51258805,4135.09246934,4135.16947481,4139.1095906,4136.37292632,4131.67021022,4135.04069704,4136.96839035,4127.72162982,4087.01330116,4141.09205814,4127.46735759,595.11641671
do_nothing,4140.95234301,4131.66252503,4135.26786917,4135.2415327,4139.21002738,4137.19654765,4132.17534788,4135.70719738,4136.96935177,4128.20248373,4087.38995928,4141.59810454,4128.26732966,607.633999232
do_nothing,4141.06092794,4133.06504011,4135.55415252,4135.31888231,4139.31562868,4138.05229199,4132.74209137,4136.40561807,4136.97034131,4128.74529969,4087.83357153,4142.14265181,4129.12545812,621.629820507
do_nothing,4141.26702056,4134.68312489,4135.94723267,4135.39992514,4139.42525113,4138.92092146,4133.35431773,4137.12063797,4136.9713192,4129.33407574,4088.33351392,4142.71500175,4130.017705,636.531370661
do_nothing,4141.57086989,4136.47287705,4136.43921191,4135.48289271,4139.5375119,4139.78280373,4133.99439177,4137.83662408,4136.97224696,4129.9512781,4088.8776203,4143.30350287,4130.91962676,651.755996052
do_nothing,4141.96936309,4138.38505173,4137.01879386,4135.56591974,4139.65086751,4140.6186836,4134.64393325,4138.53826687,4136.97308897,4130.57865934,4089.45266468,4143.89608332,4131.80730401,666.732790523
do_nothing,4142.45626395,4140.36679083,4137.6718145,4135.64712141,4139.76369673,4141.41042635,4135.28459603,4139.21118604,4136.97381371,4131.19808687,4090.04486579,4144.48077546,4132.65822996,680.923255737
do_nothing,4143.02255542,4142.36346749,4138.38186875,4135.72467165,4139.87438329,4142.14170183,4135.89882581,4139.84248088,4136.97439502,4131.79234582,4090.64039404,4145.04620879,4133.45212318,693.83998934
do_nothing,4143.65687059,4144.32057885,4139.13100669,4135.79687907,4139.9813945,4142.79858172,4136.47056454,4140.4212019,4136.97481296,4132.34588246,4091.22586151,4145.58205137,4134.17163366,705.062760229
do_nothing,4144.34599308,4146.18561874,4139.90047088,4135.86225788,4140.08335196,4143.37002714,4136.98587288,4140.93872464,4136.97505448,4132.84545792,4091.78877714,4146.07938292,4134.8029165,714.251450243
do_nothing,4145.07540612,4147.90986294,4140.67144553,4135.91959074,4140.1790912,4143.84824897,4137.43344608,4141.38901128,4136.97511381,4133.28068652,4092.31795102,4146.53098717,4135.33605303,721.155473156
do_nothing,4145.82986754,4149.45000302,4141.42578778,4135.96798131,4140.26770761,4144.22892945,4137.80500404,4141.76875054,4136.97499249,4133.64443861,4092.80383396,4146.93155486,4135.76530588,725.619416883
do_nothing,4146.59398802,4150.76957034,4142.14671249,4136.00689429,4140.34858645,4144.51129913,4138.09554178,4142.07737215,4136.97469922,4133.9330935,4093.23878144,4147.2777928,4136.08920103,727.584787653
do_nothing,4147.35278937,4151.84009945,4142.81940371,4136.0361809,4140.42141612,4144.6980703,4138.30343308,4142.31693727,4136.97424927,4134.14663422,4093.61723371,4147.5684382,4136.31043668,727.087865293
do_nothing,4148.09222124,4152.64198951,4143.43152874,4136.05608854,4140.48618405,4144.79523323,4138.43038574,4142.49191162,4136.97366383,4134.2885819,4093.93580719,4147.80418094,4136.43562529,724.253808968
do_nothing,4148.79961598,4153.16503325,4143.97363486,4136.0672538,4140.54315577,4144.81172744,4138.4812536,4142.60883322,4136.97296898,4134.36577371,4094.19329578,4147.98750003,4136.47488146,719.287282793
do_nothing,4149.46406404,4153.40859525,4144.43941297,4136.07067852,4140.59283825,4144.75900428,4138.46371617,4142.67589121,4136.97219458,4134.3879945,4094.39058434,4148.12242352,4136.44127373,712.459996586
do_nothing,4150.07669618,4153.38143424,4144.82581854,4136.06768979,4140.6359295,4144.65050097,4138.38784261,4142.70243647,4136.97137299,4134.3674781,4094.53048022,4148.21422423,4136.35016421,704.095673103
do_nothing,4150.6308628,4153.10117825,4145.13304607,4136.05988508,4140.67325709,4144.50104849,4138.26556122,4142.698448,4136.97053776,4134.31830029,4094.61747261,4148.26906626,4136.21846367,694.553053341
do_nothing,4151.12220609,4152.59347451,4145.36436012,4136.04906491,4140.70570895,4144.32623797,4138.11005968,4142.67398133,4136.96972225,4134.25568982,4094.65743202,4148.29361947,4136.06383377,684.207631017
do_nothing,4151.54862589,4151.89084942,4145.5257923,4136.03715568,4140.73416011,4144.14177093,4137.93514311,4142.6386255,4136.96895833,4134.19528832,4094.65726508,4148.29466112,4135.90386993,673.432861681
do_nothing,4151.91014516,4151.03132478,4145.62571999,4136.0261264,4140.75939938,4143.96281882,4137.75457842,4142.60099464,4136.96827516,4134.1523916,4094.62454137,4148.27868407,4135.75529906,662.581618107
do_nothing,4152.20868565,4150.05684631,4145.67434736,4136.01790289,4140.78205978,4143.803417,4137.58145319,4142.56827792,4136.96769806,4134.14120619,4094.56710987,4148.25153111,4135.63322586,651.968659618
do_nothing,4152.44776837,4149.01158724,4145.6831138,4136.01428359,4140.80255671,4143.67591628,4137.42757647,4142.54586871,4136.96724761,4134.17415399,4094.49272275,4148.21807328,4135.55045911,641.854848306
do_nothing,4152.63215682,4147.94019489,4145.66405767,4136.01686067,4140.82103714,4143.59051254,4137.30294647,4142.5370897,4136.96693894,4134.2612559,4094.40868392,4148.18194793,4135.51694598,632.433780428
do_nothing,4152.76746385,4146.88604985,4145.62916556,4136.02695012,4140.83734293,4143.55487205,4137.21530761,4142.54302621,4136.96678125,4134.40962203,4094.32153773,4148.14536955,4135.539338,623.821408806
do_nothing,4152.8597448,4145.88960737,4145.58973775,4136.04553356,4140.85099058,4143.57386605,4137.16981527,4142.56247512,4136.96677754,4134.62307211,4094.2368121,4148.109023,4135.62070761,616.049115126
do_nothing,4152.91510053,4144.98688692,4145.55580053,4136.0732143,4140.86116911,4143.64942446,4137.16882237,4142.59201159,4136.96692468,4134.90190453,4094.15882709,4148.07204594,4135.7604281,609.060554111
do_nothing,4152.9393134,4144.20817027,4145.53559355,4136.11018919,4140.86675704,4143.780514,4137.21179701,4142.62617082,4136.96721361,4135.24282674,4094.09057737,4148.03210284,4135.95422391,602.712440123
do_nothing,4152.93753752,4143.57695919,4145.53515741,4136.1562375,4140.86635834,4143.963241,4137.29537459,4142.65773686,4136.96762986,4135.63905304,4094.03369312,4147.98554956,4136.19439103,596.779286772
do_nothing,4152.91406159,4143.1092331,4145.55804205,4136.21072695,4140.85835689,4144.19107493,4137.41354265,4142.67812546,4136.96815422,4136.08056839,4093.98847991,4147.92768274,4136.47018029,590.96194818
do_nothing,4152.87215881,4142.81303437,4145.60515089,4136.27263672,4140.84098755,4144.45518387,4137.55795031,4142.67784332,4136.9687636,4136.55454935,4093.95403447,4147.85306435,4136.76832891,584.899653291
do_nothing,4152.81403355,4142.68839495,4145.67472975,4136.34059611,4140.81242146,4144.74486911,4137.71832941,4142.64700222,4136.96943207,4137.04592571,4093.92842892,4147.7559077,4137.07371948,578.185078474
do_nothing,4152.74086915,4142.72760406,4145.7625027,4136.41293734,4140.77086225,4145.04808181,4137.88300945,4142.57586381,4136.97013188,4137.53805994,4093.90895308,4147.63050784,4137.37013923,570.381874795
do_nothing,4152.65297546,4142.91580218,4145.86194997,4136.48776008,4140.71464889,4145.35200037,4138.03950466,4142.4553894,4136.97083465,4138.01351564,4093.89240111,4147.47169711,4137.64110831,561.043960054
do_nothing,4152.55002927,4143.23187339,4145.96471641,4136.563005,4140.64236091,4145.64364458,4138.17514816,4142.27776922,4136.97151248,4138.45488256,4093.87538685,4147.27530436,4137.87074206,549.735806557
do_nothing,4152.43139542,4143.64959593,4146.06113243,4136.63653341,4140.55292086,4145.91049977,4138.27774576,4142.03690623,4136.97213905,4138.84562231,4093.85467048,4147.03859627,4138.04461025,536.05290689
do_nothing,4152.29651198,4144.13900035,4146.14082418,4136.70620967,4140.44568923,4146.14112386,4138.33622042,4141.72883206,4136.97269064,4139.17089849,4093.82747881,4146.76067883,4138.1505564,519.641583967
do_nothing,4152.14531855,4144.66787699,4146.19338504,4136.76998328,4140.3205473,4146.32571033,4138.34121838,4141.35203565,4136.97314701,4139.4183547,4093.79180193,4146.44283869,4138.17944101,500.217329017
do_nothing,4151.97870423,4145.20336882,4146.20907762,4136.82596759,4140.17796331,4146.45658239,4138.28564948,4140.90768892,4136.97349211,4139.57880648,4093.74665018,4146.08880619,4138.12577602,477.580901492
do_nothing,4151.79894915,4145.71358267,4146.17953365,4136.87251235,4140.01903868,4146.52859687,4138.16513689,4140.39975903,4136.97371465,4139.64681644,4093.69225763,4145.70492478,4137.9882216,451.631506126
do_nothing,4151.61013284,4146.16915156,4146.0984185,4136.90826757,4139.84553105,4146.53944112,4137.97835526,4139.83500104,4136.97380843,4139.62112634,4093.63022073,4145.30021518,4137.76992162,422.376471535
do_nothing,4151.4184826,4146.54468253,4145.96202809,4136.93223646,4139.6598523,4146.48981073,4137.72724068,4139.22283029,4136.97377247,4139.50492547,4093.56356368,4144.88632644,4137.47866033,389.93698735
do_nothing,4151.23263635,4146.82002854,4145.76978738,4136.94381564,4139.4650402,4146.38346051,4137.41706094,4138.57507826,4136.97361098,4139.30594061,4093.49672556,4144.47736989,4137.12682877,354.549607831
do_nothing,4151.06379668,4146.9813297,4145.52462323,4136.94282106,4139.2647037,4146.22712524,4137.05633998,4137.90564046,4136.97333303,4139.03633945,4093.43546712,4144.08963609,4136.7311971,316.563393178
do_nothing,4150.9257567,4147.02177735,4145.23318812,4136.92949883,4139.06294255,4146.03031145,4136.65663664,4137.23002909,4136.97295211,4138.71244698,4093.38669921,4143.74119927,4136.31249592,276.432728791
do_nothing,4150.83478295,4146.94206576,4144.90591716,4136.90452039,4138.86424315,4145.80496644,4136.23218352,4136.56484745,4136.9724855,4138.35428136,4093.35823804,4143.45141804,4135.89481775,234.706031023
do_nothing,4150.80934698,4146.75050859,4144.5569073,4136.86896231,4138.6733536,4145.56503599,4135.79939807,4135.92720585,4136.97195351,4137.98492419,4093.35849645,4143.24034583,4135.50485698,192.010708642
do_nothing,4150.869704,4146.46281169,4144.20361537,4136.82427139,4138.49514161,4145.32592724,4135.37628303,4135.33410172,4136.9713786,4137.6297464,4093.39612332,4143.12806874,4135.17101367,149.034896068
do_nothing,4151.03732464,4146.10150813,4143.86637943,4136.77221614,4138.33443983,4145.10389739,4134.98173824,4134.80178731,4136.97078447,4137.31551745,4093.47960622,4143.13399196,4134.92239259,106.506601693
do_nothing,4151.33419322,4145.6950758,4143.56777607,4136.71482636,4138.19588373,4144.9153918,4134.63480922,4134.3451493,4136.97019505,4137.06943032,4093.61685399,4143.27609931,4134.7877336,65.1710171496
do_nothing,4151.78199312,4145.27677131,4143.33183353,4136.65432279,4138.0837472,4144.77635697,4134.3539007,4133.97712349,4136.96963359,4136.91807814,4093.81477741,4143.57021204,4134.79431273,25.7668073751
do_nothing,4152.40120638,4144.88322588,4143.18312762,4136.59303912,4138.00178163,4144.7015548,4134.15598561,4133.70816731,4136.96912174,4136.88642068,4094.07888623,4144.02927501,4134.96685543,-10.9977561812
do_nothing,4153.2101605,4144.55285925,4143.14579315,4136.53333924,4137.95306405,4144.70390475,4134.05584052,4133.54581052,4136.9686787,4136.9967798,4094.41292105,4144.66269809,4135.32650361,-44.4679474271
do_nothing,4154.2240601,4144.32417565,4143.24248855,4136.47753258,4137.93985981,4144.79387879,4134.06533848,4133.49430191,4136.96832056,4137.26790196,4094.81853703,4145.47578073,4135.88987659,-74.0641747441
