label,COUNTER,INTERPOLATED,AF3,F7,F3,FC5,T7,P7,O1,O2,P8,T8,FC6,F4,F8,AF4,RAW_CQ,GYROX,GYROY,MARKER,SYNC,TIME_STAMP_s,TIME_STAMP_ms,CQ_AF3,CQ_F7,CQ_F3,CQ_FC5,CQ_T7,CQ_P7,CQ_O1,CQ_O2,CQ_P8,CQ_T8,CQ_FC6,CQ_F4,CQ_F8,CQ_AF4,CQ_CMS,CQ_DRL
off_to_on,5.2988555125,7.09262204211,5.62141316546,-3.2265378581,0.307900909016,-1.75197431285,4.55967530038,4.4214132,-3.59220629814,4.54350652041,-0.333436193726,4.31710907269,5.15157252085,81.8872106785
off_to_on,6.7140887642,7.5109612211,6.16533897272,-2.85487370196,0.774489177309,-1.3984253134,4.74197828895,5.6503073449,-3.06673236577,5.92253447081,-0.0504469819585,5.73674504832,5.20385297772,68.0919914404
off_to_on,7.37045987196,7.1346415504,5.99558010848,-2.3960426825,0.982819191101,-1.16454141305,4.20146582633,6.24363135887,-2.43517712944,6.67933727745,0.0667906742313,6.62858117351,4.70786958683,49.7516316199
off_to_on,7.23916528369,6.0134157533,5.14382090347,-1.84295616062,0.949622141,-1.06516191749,3.00410367409,6.14068477845,-1.70675637541,6.76201711944,0.0495036266532,6.90217294786,3.72239526827,27.7141214727
off_to_on,6.37819007312,4.27603518389,3.71925619636,-1.19264011764,0.724168043934,-1.0879869909,1.29884208719,5.35772857889,-0.89531335899,6.1862041169,-0.0522344198685,6.5275060888,2.35649594373,3.16955709351
off_to_on,4.9229656903,2.11430300964,1.89457425934,-0.449213925761,0.380019020328,-1.19658924039,-0.700822208979,3.98585225241,-0.0209383577002,5.03119086024,-0.177939404446,5.5387062833,0.757627853271,-22.3857718127
off_to_on,3.06830593298,-0.239500472792,-0.115283360811,0.373838383512,0.00402590730952,-1.33648224218,-2.74299359632,2.1803984035,0.889147164341,3.42979477924,-0.266125213327,4.03096516817,-0.904306142456,-47.2279333525
off_to_on,1.04401521422,-2.53895030652,-2.0788331213,1.25248671599,-0.315926916962,-1.44329762599,-4.56795211575,0.143237455839,1.80072325837,1.55328064694,-0.263379103575,2.15101149967,-2.45512356391,-69.5266939608
off_to_on,-0.912723404845,-4.55036374531,-3.77500505227,2.15230826421,-0.502830161514,-1.45194008566,-5.93938453113,-1.89999796104,2.67384784868,-0.406872230448,-0.131907474141,0.0821793387119,-3.73470209866,-87.5024903119
off_to_on,-2.58476629217,-6.07711669878,-5.01806280454,3.03004925521,-0.500628030887,-1.30556767572,-6.67249023823,-3.72505340174,3.46522478705,-2.25834036929,0.145379603111,-1.97427792823,-4.61345310269,-99.6045959939
off_to_on,-3.79894917886,-6.9787268522,-5.67757062198,3.83648633964,-0.281280729157,-0.963367301914,-6.65563645946,-5.13366970613,4.13143641851,-3.82644460117,0.562797839056,-3.81957705286,-5.00514122012,-104.690083614
off_to_on,-4.44380365438,-7.1828085556,-5.69120649841,4.52030921903,0.151940962703,-0.406328201648,-5.86309225185,-5.97489179052,4.63266884068,-4.96995261157,1.09295004757,-5.27728562472,-4.87472026822,-102.179715288
off_to_on,-4.4791730409,-6.68896491352,-5.06918722369,5.03261122397,0.765174705402,0.359485924053,-4.35750791013,-6.16072251337,4.9364664248,-5.59278542883,1.69060924448,-6.21057619633,-4.24046078234,-92.1667849779
off_to_on,-3.93692692124,-5.56470186967,-3.89015333268,5.33149161905,1.49843493498,1.30235072742,-2.28207601569,-5.67447955354,5.02102792881,-5.65073455313,2.29875148222,-6.53507110576,-3.17032121222,-75.4585666254
off_to_on,-2.91311350124,-3.9343933155,-2.28941628767,5.38625256196,2.27311831889,2.36687687773,0.156448982763,-4.57109379256,4.87760379637,-5.15287020869,2.85581746025,-6.22602680612,-1.77317893667,-53.5371962032
off_to_on,-1.55294303018,-1.96307840663,-0.441362039627,5.180716757,3.00150187125,3.47825236054,2.71163708632,-2.96953489066,4.51166629046,-4.15788465625,3.30317485557,-5.31926732077,-0.186108282063,-28.4367515948
off_to_on,-0.0308297904509,0.16265253963,1.46157323919,4.71529243338,3.59700775627,4.54823941381,5.12518761328,-1.03844887092,3.94268446613,-2.76610660122,3.59179525917,-3.90598500616,1.44069696891,-2.54470914672
off_to_on,1.47176640306,2.25427200263,3.23065557273,4.00755654967,3.98399116679,5.48235313457,7.15530244303,1.02316232879,3.20252090974,-1.10829536227,3.68733616857,-2.12219763347,2.95955553499,21.6527627528
off_to_on,2.78782139229,4.13917993081,4.70070810164,3.09129598018,4.10594465571,6.18763236663,8.60233382007,3.00788256078,2.33264931684,0.667454037745,3.57309669367,-0.134205170575,4.2397062073,41.8527759698
off_to_on,3.78291651186,5.67500505548,5.74584684578,2.01411814771,3.93127512924,6.5804421766,9.32886498835,4.72189221292,1.3805445475,2.40930237454,3.2506495684,1.87823466567,5.17895013562,56.2100224441
off_to_on,4.3680406202,6.75915754064,6.28953931057,0.833895731727,3.45615529542,6.59379919387,9.27215771023,6.00458782455,0.395697595661,3.97445342629,2.73829015388,3.73913425433,5.71140348648,63.5669595497
off_to_on,4.50578929121,7.33317005124,6.30824996814,-0.385573548592,2.70432919646,6.18376764974,8.44789075618,6.74372822196,-0.574257318489,5.24005545685,2.06773593757,5.2920976132,5.81077222715,63.6070085935
off_to_on,4.20967143367,7.3820742626,5.82879969744,-1.57924429104,1.72411101908,5.33452393063,6.94518637035,6.88463267093,-1.48685178109,6.11144541932,1.2797174343,6.41320210808,5.48914354554,56.9063508074
off_to_on,3.53716995311,6.92966045556,4.92035350726,-2.68537876696,0.583113981581,4.06172941184,4.9139418954,6.43271256987,-2.30717587282,6.52732007165,0.419198006879,7.01984650363,4.79184088291,44.8723301964
off_to_on,2.57800311897,6.03088456371,3.68256173121,-3.64956362901,-0.638549766766,2.41389323006,2.54632867624,5.4494253703,-3.00914918706,6.46177416204,-0.46906158995,7.07501115441,3.78934088691,29.5713127816
off_to_on,1.43959245472,4.76287683135,2.23174295847,-4.42785918603,-1.85576274217,0.471463139043,0.054895565663,4.04249795607,-3.57563684079,5.923460727,-1.34400757348,6.58694183782,2.56754527293,13.4641180684
off_to_on,0.231993151721,3.2159619078,0.687078342538,-4.98887180566,-2.98576869886,-1.6565295456,-2.35003609754,2.35188661187,-3.99754747275,4.95237003843,-2.17049086379,5.60478657204,1.21780552807,-0.919322094663
off_to_on,-0.945538851579,1.48584933291,-0.841406923848,-5.31467366334,-3.95470153843,-3.83831216505,-4.48108754829,0.533352496642,-4.27219298517,3.61487172308,-2.92003745051,4.2111206196,-0.171993029671,-11.324619066
off_to_on,-2.01455882567,-0.33224767944,-2.26172419947,-5.40062408881,-4.70274504635,-5.9275586044,-6.19044493094,-1.25830576687,-4.40128361977,1.99771265593,-3.57032709147,2.51254285494,-1.52424883984,-16.090938702
off_to_on,-2.92287098218,-2.14728321272,-3.50489562733,-5.25425694566,-5.1876084237,-7.77355548515,-7.38082202893,-2.88441554181,-4.38896330113,0.201618463519,-4.10373336925,0.629594837851,-2.77572393928,-14.39808897
off_to_on,-3.64501169668,-3.87402627798,-4.52590121821,-4.89347643372,-5.38622349152,-9.2327305047,-8.00997932801,-4.23437093481,-4.24025529119,-1.66497248343,-4.50542342148,-1.31285337874,-3.87871694355,-6.40629661088
off_to_on,-4.17819566933,-5.43325755715,-5.3010943011,-4.3443423615,-5.29476571322,-10.1806870142,-8.08883922162,-5.23324118695,-3.96019367313,-3.49167982837,-4.76156844105,-3.19386028443,-4.79963090812,6.73445783338
off_to_on,-4.53484672463,-6.75133077931,-5.82307833204,-3.63872418406,-4.92725133807,-10.5236976838,-7.67399767338,-5.84455396886,-3.55377787265,-5.17127595303,-4.85817098423,-4.90277316346,-5.51564016913,23.0116976283
off_to_on,-4.73334317731,-7.75998087656,-6.09435018135,-2.81206554291,-4.31305536234,-10.2085078665,-6.85603999554,-6.0684019821,-3.02672793691,-6.604090583,-4.78088231797,-6.34353861599,-6.01043579731,39.801976366
off_to_on,-4.78884738271,-8.397146724,-6.12110477819,-1.90143693935,-3.49372823308,-9.22932001818,-5.74545782295,-5.93560327464,-2.38686346292,-7.70183594316,-4.51598595468,-7.43716885833,-6.27013850371,54.2168974323
off_to_on,-4.70602777964,-8.60930554887,-5.90845994438,-0.943975775439,-2.51947092073,-7.63099437152,-4.45810270173,-5.49909626955,-1.64580394284,-8.39102729061,-4.05249502495,-8.12284236421,-6.28039559969,63.4998798011
off_to_on,-4.47513128084,-8.35543813799,-5.45802781463,0.024266450288,-1.44557230114,-5.50780854241,-3.10199949874,-4.82401732384,-0.820613242765,-8.6161690596,-3.38508822737,-8.35826344359,-6.02543639307,65.4214853089
off_to_on,-4.07227849752,-7.6123244046,-4.76828742697,0.96911831331,-0.329037066785,-2.99754794029,-1.7670119442,-3.97796532089,0.0650015151725,-8.34280687481,-2.51742720078,-8.11990462522,-5.48948473986,58.6195577917
off_to_on,-3.46412268536,-6.38047954292,-3.83767753849,1.85882030265,0.774446255318,-0.271206056396,-0.518360075904,-3.0228065653,0.980273498318,-7.56042472474,-1.46528587581,-7.40361334042,-4.66047499649,42.8361555956
off_to_on,-2.61624589906,-4.68974903109,-2.6698125604,2.66441254464,1.81311527178,2.48090205734,0.605591586367,-2.00904367879,1.88796821734,-6.28501806989,-0.25889732943,-6.22580963738,-3.53555721454,19.0157059253
off_to_on,-1.50397905235,-2.6034385407,-1.2798062776,3.36009190583,2.74128785681,5.06533893182,1.59144651731,-0.973316559568,2.74605816659,-4.56102680537,1.05600972766,-4.6251833749,-2.12748057201,-10.7535544186
off_to_on,-0.123832196871,-0.219892340402,0.2995692094,3.9236242477,3.52105264146,7.30243443782,2.44548549612,0.0609107843283,3.51038405272,-2.46219765734,2.41886364624,-2.66447852829,-0.470674671862,-43.4522445972
off_to_on,1.49651262237,2.32934577638,2.01321908469,4.33685404058,4.12349518902,9.04207742662,3.18606707685,1.07992324345,4.13804467538,-0.0908917318622,3.75676008812,-0.431692368747,1.37424644346,-75.4732917063
off_to_on,3.29161846647,4.88527572031,3.78173296358,4.58630345069,4.52945486329,10.1766713762,3.83504380564,2.0744485775,4.59112896067,2.42461970684,4.98875593675,1.96012587759,3.31872976107,-103.054786766
off_to_on,5.15671012132,7.27108496999,5.50289796197,4.66380622115,4.72980098328,10.6497922024,4.40956352376,3.03360841092,4.84032884513,4.93520964281,6.0316324827,4.37527999525,5.24815449606,-122.747962606
off_to_on,6.95203444308,9.30515353827,7.05706652913,4.56708687296,4.7252172394,10.4595631263,4.9154906912,3.939360739,4.86796306166,7.27843185314,6.80660751508,6.66065607487,7.02774908019,-131.860126117
off_to_on,8.513284897,10.816371965,8.31616653469,4.30017913334,4.52549670192,9.65638388637,5.34339682715,4.76257900516,4.67000186556,9.28839413747,7.24633180096,8.65405732447,8.51241469141,-128.81442912
off_to_on,9.66732007444,11.6603146018,9.15558184082,3.87358180127,4.14837803991,8.33534047917,5.66767601825,5.46165008697,4.25680349073,10.8075040793,7.30144143808,10.1954690827,9.55972791816,-113.378203187
off_to_on,10.251572249,11.7345595447,9.46765253673,3.30407447359,3.6179939685,6.62428423887,5.84889501184,5.98407567968,3.65243757755,11.6993025306,6.94596089102,11.1405678616,10.0448598968,-86.7280010283
off_to_on,10.13488475,10.9913946654,9.17521303745,2.61415522463,2.96304838448,4.6691122432,5.8390445007,6.27108507917,2.89265524184,11.8613218942,6.18095771554,11.3752998254,9.87574512752,-51.3403552447
off_to_on,9.23713469452,9.44631154195,8.24345203444,1.83111043218,2.21487928253,2.61812508865,5.58897164062,6.26477938417,2.02174303639,11.2367147609,5.03602415039,10.8299682241,9.00662402986,-10.7198299372
off_to_on,7.54495430736,7.18105385327,6.68846401598,0.98577513674,1.40558987447,0.607429394674,5.05698675189,5.91689648704,1.08864289302,9.82333115557,3.56838013779,9.49105743489,7.44810945241,31.0028103121
off_to_on,5.12117948671,4.34051646592,4.58116251377,0.111082423995,0.566431596352,-1.25082750983,4.21747891252,5.19797425958,0.142811142859,7.67900503802,1.85962976108,7.40903495672,5.27219927753,69.5524135341
off_to_on,2.10630066074,1.12342749186,2.04570748733,-0.759474320504,-0.273405009765,-2.8760336165,3.06835919454,4.10554183103,-0.769686206177,4.92205159019,0.0104308441311,4.70063462122,2.61115310303,101.010742126
off_to_on,-1.28890429303,-2.23258426262,-0.747792946806,-1.59333583102,-1.08749176322,-4.2217643615,1.63627387694,2.67000988797,-1.60939076152,1.72636551882,-1.86646909978,1.54462288141,-0.350181660279,122.274102904
off_to_on,-4.79932089073,-5.47030701299,-3.5958854019,-2.36021048785,-1.85233532965,-5.2735024855,-0.0212243917965,0.957159657808,-2.34563928172,-1.68898347827,-3.65423692921,-1.82926099814,-3.38824715696,131.409778416
off_to_on,-8.12872546947,-8.33490836693,-6.27862346103,-3.03315913833,-2.54708860197,-6.04214132579,-1.81702124493,-0.933479147048,-2.95753427248,-5.07518722624,-5.24032774685,-5.15769749298,-6.25974509078,127.866917804
off_to_on,-10.9780271289,-10.5964665543,-8.57908334081,-3.58938454698,-3.15295387999,-6.55460093597,-3.63938164785,-2.87456625212,-3.43368855702,-8.17311489131,-6.52454829691,-8.16620102365,-8.72391921666,112.516513136
off_to_on,-13.0755500129,-12.0708751365,-10.3035948282,-4.01072397111,-3.65249566083,-6.84329582347,-5.36016173931,-4.72085367579,-3.77090917283,-10.7351347684,-7.42618089395,-10.5945193533,-10.5658830716,87.5172882861
off_to_on,-14.206008781,-12.6370375032,-11.3005906428,-4.28388455923,-4.02911163901,-6.93633314084,-6.84558864122,-6.3221671399,-3.97213084763,-12.5473760472,-7.88964045139,-12.2224511565,-11.6184885736,56.0267843837
off_to_on,-14.2348515315,-12.2486001669,-11.4760622259,-4.40049130578,-4.26689786135,-6.85016546345,-7.96859551628,-7.53813446396,-4.04400341626,-13.4502568581,-7.88827415039,-12.8932620324,-11.7802824857,21.7966405661
off_to_on,-13.1250668305,-10.9389930122,-10.8039211586,-4.3570309985,-4.35108539844,-6.585992078,-8.62148805078,-8.2530341427,-3.99456740919,-13.3551213637,-7.42606954523,-12.5319557117,-11.0274412228,-11.2945665268
off_to_on,-10.9443314775,-8.81919556799,-9.33006963377,-4.1547707302,-4.26912680734,-6.13055917837,-8.72762837158,-8.38903388102,-3.8314140264,-12.2550846486,-6.53719728657,-11.1560739587,-9.41817755032,-39.7104095173
off_to_on,-7.86142479425,-6.06836264274,-7.16962531082,-3.79970724266,-4.0123841766,-5.46124929204,-8.25086424677,-7.9161956939,-3.56062647578,-10.2286675497,-5.28346667002,-8.87742305197,-7.08891003925,-60.6680384474
off_to_on,-4.13203095449,-2.91814583155,-4.49745473574,-3.30256795723,-3.57823586643,-4.5545910867,-7.20160437501,-6.85793375965,-3.18665514029,-7.43547442967,-3.74990696949,-5.89408271724,-4.24238709981,-72.4411410737
off_to_on,-0.0752514870828,0.367832941458,-1.5328673913,-2.67884286506,-2.97229871787,-3.39668302766,-5.63873169207,-5.29109069382,-2.71311200496,-4.10396051076,-2.03879974039,-2.47313742226,-1.12885701025,-74.5189495804
off_to_on,3.95678762692,3.51742627845,1.48006682224,-1.94878671377,-2.21037883573,-1.99361338894,-3.66693167085,-3.34039287825,-2.14430634201,-0.512168633427,-0.262574768593,1.07434832081,1.97783298677,-67.6055107233
off_to_on,7.61305288714,6.27411456595,4.29465625078,-1.13730133137,-1.31973541011,-0.379847980296,-1.42945763306,-1.16768644361,-1.48720932314,3.03690437581,1.46395516398,4.42364286056,4.80673673882,-53.4647874546
off_to_on,10.5778263733,8.41959646374,6.68400592294,-0.273595225183,-0.339279438419,1.37722563977,0.903181039202,1.04303374557,-0.753451025085,6.24301547236,3.03150758833,7.26879135316,7.1161224557,-34.6372498181
off_to_on,12.6013928037,9.79270718543,8.46151123691,0.609474126151,0.681566118802,3.17788425783,3.1476843741,3.10328289407,0.0390674333079,8.83674825666,4.34386518503,9.35369400673,8.71681292564,-14.0697564945
off_to_on,13.5239382318,10.3029210394,9.4974232243,1.47643999523,1.68545579123,4.89631081058,5.12429163154,4.83857284828,0.86531748005,10.6051090283,5.32451762329,10.4983842589,9.49008179517,5.2893676667
off_to_on,13.2901647808,9.93722612039,9.7298881935,2.29066451232,2.61107113747,6.39212842065,6.67343292324,6.10573466248,1.69330632274,11.4119776153,5.92193535545,10.6175403473,9.39823040097,20.8753117166
off_to_on,11.9531586955,8.7598017468,9.16943171213,3.01613125716,3.39812949576,7.52598014641,7.67105203209,6.80718118576,2.48537212796,11.2112161715,6.11306967555,9.72909017081,8.48677588544,30.8216916628
off_to_on,9.66723559084,6.90461915537,7.89652346737,3.61948526292,3.99296033145,8.17716834646,8.04100681229,6.90052865218,3.20054989679,10.0509655797,5.9047742899,7.95186208063,6.8781044504,34.1665257008
off_to_on,6.67068812923,4.56175564729,6.05255485479,4.07215744499,4.35401826359,8.2608924199,7.76317960227,6.40249589458,3.79777748825,8.0685659466,5.33297575594,5.49246626347,4.75737621434,30.9265616962
off_to_on,3.26043900223,1.95879759943,3.82521277538,4.35237153471,4.45663946034,7.74249834587,6.87631159208,5.38662755386,4.23957190973,5.47652716558,4.45957954089,2.62281644601,2.35230252539,22.0359553788
off_to_on,-0.23856524376,-0.660846458135,1.42977460717,4.44681734744,4.29637846334,6.64641346552,5.47508070589,3.97507150909,4.4957179859,2.54093755361,3.36727683477,-0.349227603864,-0.0909422708454,9.1639028129
off_to_on,-3.50588620838,-3.06063582668,-0.911772992508,4.35178900228,3.89038882209,5.05806398432,3.70152512473,2.32530175935,4.54648863154,-0.445476538126,2.15260167459,-3.11282978214,-2.33303571499,-5.5582322772
off_to_on,-6.25660366127,-5.0324411209,-2.9917104444,4.07363069829,3.27652243122,3.11798378236,1.73151507527,0.613239628535,4.38496234772,-3.19283559673,0.917761443403,-5.38708626037,-4.16533600956,-19.8586084888
off_to_on,-8.2676268927,-6.41493517273,-4.63561088342,3.62840157928,2.51009520068,1.00839844818,-0.24247113264,-0.985376571022,4.01811311874,-5.44304413844,-0.238092978063,-6.95022338924,-5.42974348788,-31.6487607393
off_to_on,-9.39674450423,-7.1071585122,-5.71760960678,3.04075684276,1.65856625209,-1.06634389848,-2.03056871339,-2.31333618001,3.46650512678,-6.99514091415,-1.22739765881,-7.66188603023,-6.03261696842,-39.3046668697
off_to_on,-9.59272476095,-7.07607526835,-6.17052842038,2.34213341464,0.794663853454,-2.90318270583,-3.46477216103,-3.2480221265,2.76260706903,-7.72441335389,-1.98171987357,-7.47613989044,-5.95147760311,-41.8679795396
off_to_on,-8.89580573603,-6.35753074917,-5.99001210248,1.56841270795,-0.0112769914581,-4.32463310654,-4.41616270123,-3.71347475948,1.94792208992,-7.59331333389,-2.45757980704,-6.44390465235,-5.23406278099,-39.1431584971
off_to_on,-7.42897102418,-5.05066563208,-5.23245119132,0.757298147341,-0.698858275097,-5.20073410161,-4.80823051224,-3.68719296299,1.06928333804,-6.65311526907,-2.63994419877,-4.70476500109,-3.99014305817,-31.6819280398
off_to_on,-5.38137173427,-3.30647097644,-4.0070886244,-0.0543185333157,-1.22410893845,-5.46563047234,-4.62477755073,-3.20101323939,0.174769873691,-5.0362762414,-2.54299100132,-2.46932450751,-2.37728753306,-20.6627620889
off_to_on,-2.98602374671,-1.31172228734,-2.46327389775,-0.83272675142,-1.56408147802,-5.12638802089,-3.91144356747,-2.33607685193,-0.690261677504,-2.94047431416,-2.20800577996,0.00567379475687,-0.582371635724,-7.68763726306
off_to_on,-0.494403642535,0.730043669022,-0.774281387294,-1.54926146153,-1.71892749326,-4.26262634595,-2.77058185583,-1.21255479635,-1.48656303384,-0.606198531349,-1.69856382549,2.44646150243,1.19899756277,5.47091042593
off_to_on,1.84925415925,2.61858924175,0.880593603063,-2.18148847728,-1.71112878454,-3.01676703572,-1.34994776856,0.0246256103717,-2.18342427032,1.70956015624,-1.09344497971,4.59219243481,2.78284391774,17.1337390917
off_to_on,3.83129519932,4.17609004225,2.33383233963,-2.71362719153,-1.58191973876,-1.57597188979,0.17363226609,1.22238547003,-2.75991798322,3.76058951304,-0.47798653632,6.2223329102,4.01482211737,25.9514909524
off_to_on,5.28737570483,5.2634538313,3.44562791408,-3.13622902398,-1.38530395914,-0.148006371209,1.61385463529,2.23653744663,-3.20489995476,5.33673992463,0.065229447253,7.17851581538,4.78408270165,31.080490623
off_to_on,6.11498371186,5.79231231278,4.11645034099,-3.44522909353,-1.1803939055,1.06585879632,2.79563900639,2.9473687805,-3.51588426651,6.28453978664,0.465361027579,7.37863212646,5.03178685059,32.2753845692
off_to_on,6.27891837412,5.73162067183,4.29512562244,-3.64057103834,-1.02304124372,1.89733007041,3.57462134953,3.27207696478,-3.69706401633,6.52106380682,0.67098325038,6.8219248395,4.7537169529,29.8887974624
off_to_on,5.80970019228,5.10836731789,3.98180439951,-3.7246586446,-0.957842701044,2.23340137006,3.8532350094,3.17277034407,-3.75685751384,6.03979043806,0.655603705578,5.58495133249,3.99711213608,24.7822132659
off_to_on,4.79563096698,4.00250595047,3.22573314766,-3.70090492286,-1.01158220076,2.03144996356,3.59154515528,2.65928305828,-3.70540881998,4.90812060937,0.420393223338,3.80935197881,2.85248219156,18.1650592404
off_to_on,3.36982980316,2.53681041319,2.11826737099,-3.57262653028,-1.18900439197,1.32501806524,2.81159302772,1.78666285933,-3.5524545656,3.25717409308,-0.00618338502599,1.68327432446,1.44164959971,11.3887706043
off_to_on,1.69398324374,0.86285862187,0.782028157722,-3.34247167459,-1.4715261965,0.219425196434,1.5947513761,0.647798439751,-3.30588982841,1.26532081926,-0.571799684678,-0.581053132187,-0.0964119428023,5.72813052882
off_to_on,-0.0592659945513,-0.855277466824,-0.642544509559,-3.01248092902,-1.81911763242,-1.12226640022,0.0724034314671,-0.637811219433,-2.9712374134,-0.862454001803,-1.20637265364,-2.7707944387,-1.62025811877,2.18277439893
off_to_on,-1.72340674789,-2.45786164212,-2.01177847497,-2.58477514646,-2.17516949042,-2.50109264249,-1.58896312469,-1.93774037692,-2.55206735151,-2.91687942825,-1.83013819093,-4.6942739634,-2.99957516536,1.32752081078
off_to_on,-3.15297809816,-3.80506469172,-3.19298172291,-2.06275793843,-2.4737681384,-3.70891952447,-3.20650391196,-3.12114215861,-2.05125114385,-4.705882439,-2.36276409202,-6.1986713949,-4.12636544803,3.23194765609
off_to_on,-4.23506580097,-4.78968665238,-4.07687243476,-1.4526275707,-2.64847027286,-4.55647207437,-4.6014203712,-4.07241812391,-1.47279306093,-6.0729162294,-2.7324474402,-7.18193306253,-4.92277523382,7.4587311556
off_to_on,-4.89660794762,-5.34579702412,-4.58706602805,-0.764928537515,-2.64145769918,-4.89888087612,-5.61865022215,-4.70256147758,-0.82388025248,-6.91031478042,-2.88395021326,-7.59801723087,-5.34509039316,13.1384078951
off_to_on,-5.10725366207,-5.45254585258,-4.6858145387,-0.0158467331284,-2.41188423148,-4.65530270758,-6.14358580811,-4.95702023063,-0.116749688773,-7.16653563301,-2.78466076671,-7.45547612813,-5.38390529425,19.1071785846
off_to_on,-4.87799759679,-5.13295751908,-4.37561706625,0.772030955117,-1.94231443335,-3.81998407754,-6.11394046118,-4.81938572356,0.630010461025,-6.84693080451,-2.42801349464,-6.81020124816,-5.06090242508,24.0857307853
off_to_on,-4.25620884248,-4.44808722378,-3.69676328755,1.56971267992,-1.24238719937,-2.46331203551,-5.52548856805,-4.31073377352,1.39102757497,-6.00846150424,-1.83392371458,-5.7538168271,-4.42301703862,26.8719815939
off_to_on,-3.31795192899,-3.48743265021,-2.72128768874,2.34267902097,-0.34918642877,-0.72277105193,-4.4311590721,-3.48496466285,2.13475404323,-4.74945028537,-1.04625844889,-4.39962243724,-3.53497003998,26.5197204186
off_to_on,-2.15864459203,-2.35689169854,-1.54415746165,3.05265010094,0.675779234457,1.21489485354,-2.93376890446,-2.42094103098,2.82513723152,-3.19596561662,-0.127719892077,-2.86811891517,-2.47121987605,22.4783161325
off_to_on,-0.883114624705,-1.1657962634,-0.27275853205,3.66012610341,1.75265067362,3.13782292132,-1.17344001264,-1.21255645482,3.42420559483,-1.48670575962,0.847178446396,-1.27400231081,-1.30831582008,14.6752843534
off_to_on,0.403975669845,-0.0146052819604,0.984138955755,4.1274698934,2.79161703526,4.83614550419,0.688644078999,0.0419543469953,3.89528339405,0.241729636505,1.8001510007,0.283883147725,-0.118452994682,3.53244797643
off_to_on,1.60654557249,1.01529685569,2.12676876231,4.4222113316,3.70261111058,6.12837958001,2.48809469014,1.25014593356,4.206443532,1.86750829445,2.65720835033,1.7287096161,1.03523153308,-10.0837654227
off_to_on,2.64378642022,1.86855978116,3.07308112014,4.52020255922,4.40510909245,6.8835463282,4.07461535809,2.33377360364,4.33376062556,3.29291433998,3.35580117549,3.00767482628,2.10138058036,-24.9681569885
off_to_on,3.45480129124,2.51889038211,3.76499088395,4.40824991938,4.83683332994,7.03612070466,5.3267213676,3.23462243159,4.26394155335,4.44965874935,3.85024115694,4.09021888526,3.04120871468,-39.7217484373
off_to_on,4.00109610325,2.96796644931,4.17168422271,4.08589299218,4.96030361402,6.59195437181,6.16226767256,3.91728073974,3.99598608924,5.30002343164,4.11485269418,4.96334233623,3.82766641241,-52.914632209
off_to_on,4.26701700172,3.24060152054,4.289852799,3.56608967409,4.76646523227,5.62460452614,6.54376933514,4.36881506374,3.54165473166,5.83427025051,4.14462457548,5.62527389972,4.44345747063,-63.24443268
off_to_on,4.25837519518,3.37700257696,4.14106521229,2.87468762004,4.27500219555,4.2628498977,6.4782057118,4.59571602313,2.92467622531,6.06520036273,3.95346490249,6.07887349101,4.87848166459,-69.6704887198
off_to_on,3.99959758594,3.42332959897,3.76678425247,2.04870144586,3.53137049804,2.67139023308,6.01171918505,4.61882551874,2.17879095252,6.02104358014,3.57047010114,6.32606790836,5.12727498903,-71.5089467922
off_to_on,3.52979419088,3.42197342761,3.22176464847,1.13355410293,2.6010020213,1.02763464053,5.2202547579,4.46718286223,1.34487478703,5.73796221644,3.03485860286,6.3643288138,5.18693884109,-68.4807798636
off_to_on,2.89815047757,3.40298926938,2.56669831329,0.179561886066,1.56147966155,-0.502039192086,4.1976552222,4.17181461299,0.4675001234,5.25336705568,2.3903606743,6.18576959285,5.05590647819,-60.7121288117
off_to_on,2.1590448047,3.37795418834,1.86100264229,-0.761970017182,0.493722761295,-1.78319130391,3.04296950467,3.76043318814,-0.408648798578,4.60098946271,1.6798810925,5.77893309974,4.733715665,-48.6930923476
off_to_on,1.3672672536,3.33717868114,1.15657407894,-1.64263196313,-0.526681209734,-2.72853122315,1.84872322712,3.25381564493,-1.24208806666,3.80828013627,0.941160535251,5.13284768347,4.22176856597,-33.2061422781
off_to_on,0.573682098261,3.25073724609,0.493166835943,-2.42037252251,-1.43691825746,-3.30548332496,0.691650076981,2.66433699367,-1.99721255213,2.89627297937,0.203970612359,4.24252115849,3.5248899391,-15.2380281618
off_to_on,-0.178366228493,3.07324969743,-0.104172599499,-3.06219445302,-2.19228006983,-3.53532812809,-0.373066487963,1.99677583223,-2.64608475659,1.88162863928,-0.510883799008,3.11478252867,2.65336386706,4.11088611733
off_to_on,-0.855656326808,2.75181226136,-0.625452334908,-3.54583735172,-2.76881505775,-3.4844059159,-1.31356910039,1.25114506161,-3.16921510908,0.780218605126,-1.1907735431,1.77330575729,1.62505169102,23.7082245508
off_to_on,-1.43652125792,2.23601461964,-1.07397536356,-3.86032716921,-3.16310634908,-3.24903548374,-2.11926664465,0.426978323093,-3.55536232042,-0.388623585957,-1.82896434229,0.26176591635,0.467175278994,42.4545920369
off_to_on,-1.91101122385,1.48864768003,-1.46283633435,-4.00541143972,-3.38938080591,-2.93669850181,-2.79565474685,-0.471731563215,-3.80051838241,-1.59814295576,-2.42137235869,-1.35563660573,-0.782612021818,59.3293530264
off_to_on,-2.27979303954,0.495552927251,-1.81023772544,-3.9900315972,-3.47451080829,-2.64653931217,-3.35717050964,-1.43186006099,-3.90634727351,-2.8113844387,-2.96302436768,-2.99664104158,-2.07615850814,73.4193733124
off_to_on,-2.55190970713,-0.726888015367,-2.13431624978,-3.83009309337,-3.45174163208,-2.45226165959,-3.81948079346,-2.42764040175,-3.87840463867,-3.98027482686,-3.44492742758,-4.56627360907,-3.35592337504,83.9365747636
off_to_on,-2.74164768289,-2.12787646126,-2.44821382515,-3.54586645766,-3.35412601493,-2.39006877522,-4.19262449383,-3.41905629625,-3.72447022056,-5.04693301985,-3.85197990675,-5.96452200038,-4.55729691592,90.2320053824
off_to_on,-2.86487637649,-3.62276246158,-2.75608351899,-3.15937925145,-3.20865556162,-2.45346185552,-4.47622807664,-4.35261201365,-3.45327653963,-5.94721092663,-4.16238457743,-7.0954166993,-5.6120280727,91.813818663
off_to_on,-2.93531667951,-5.09833566332,-3.05059593889,-2.69213753746,-3.03194725368,-2.59561344988,-4.65762501623,-5.16461104046,-3.07382524021,-6.61610463101,-4.34878097459,-7.87637157631,-6.45253068251,88.3741749207
off_to_on,-2.9612447267,-6.42251704712,-3.31232053828,-2.16344990425,-2.82809301411,-2.73883483623,-4.71319620882,-5.78670249903,-2.59536221913,-6.99436898049,-4.38103453267,-8.24657891367,-7.01673938813,79.826126028
off_to_on,-2.94312811232,-7.45753741799,-3.51112104282,-1.58952697044,-2.58894775244,-2.7895421912,-4.61269051122,-6.15310441167,-2.02795384248,-7.03546238511,-4.23034550277,-8.1733726177,-7.25311796871,66.3468534642
off_to_on,-2.87261500944,-8.07519029382,-3.60945101188,-0.983408811046,-2.29676424745,-2.65626388302,-4.32576897111,-6.20863332818,-1.38349000231,-6.71187031444,-3.87411188223,-7.65574727552,-7.12539046249,48.4192063702
off_to_on,-2.73315172506,-8.17240597405,-3.56719260985,-0.355648564298,-1.92873354274,-2.26775058,-3.8296229408,-5.91650050985,-0.676854097067,-6.01991450182,-3.30083153562,-6.72460650273,-6.61656923415,26.8603365166
off_to_on,-2.50230159613,-7.68525784186,-3.34747616567,0.284430503687,-1.46270620765,-1.58822321624,-3.11630628951,-5.26480135702,0.0730411186906,-4.98233914537,-2.51428192313,-5.43975260083,-5.73189190846,2.82516567752
off_to_on,-2.1555990174,-6.59960494586,-2.92277353404,0.927170092656,-0.883192146059,-0.62722478038,-2.19842874708,-4.27073506232,0.842642878706,-3.64824687577,-1.53627936527,-3.88405541298,-4.50034699632,-22.2260862639
off_to_on,-1.67152696812,-4.95689258407,-2.28049203357,1.56101363853,-0.186688898899,0.557634957056,-1.11208163376,-2.98183475613,1.60380430304,-2.09029460777,-0.407485880258,-2.15558962906,-2.97456124524,-46.6030235746
off_to_on,-1.036990146,-2.85414320013,-1.42731729526,2.17125366027,0.614523355678,1.86566169202,0.0837235088965,-1.47383628868,2.32461796735,-0.399404853689,0.814021885708,-0.35875778033,-1.22893482917,-68.5033973138
off_to_on,-0.252504515356,-0.437817175942,-0.391663106606,2.73935395342,1.49077048611,3.16521171762,1.31128920849,0.15477624959,2.97104297752,1.32244550877,2.05641383809,1.4045080872,0.643962490404,-86.1678111074
off_to_on,0.663731821142,2.10806727967,0.776224704461,3.24302864867,2.39590239794,4.31128929209,2.4817470727,1.79108947892,3.50920048136,2.97056960936,3.23969005663,3.04245460569,2.53858680304,-98.0566108977
off_to_on,1.67366233051,4.5784777948,2.0067129494,3.65715161931,3.27073040511,5.1660457217,3.50492659729,3.31810767354,3.90809640016,4.44613774118,4.28261391973,4.47933364743,4.34292575229,-103.028664902
off_to_on,2.71968736938,6.76691431292,3.21569037655,3.95544961652,4.04861707733,5.61912909358,4.30024175243,4.62600585069,4.14244697548,5.66405415675,5.11022756277,5.65887497804,5.9459085605,-100.498129625
off_to_on,3.72778243028,8.4858917333,4.31156522703,4.11281693695,4.66254259918,5.60479865559,4.8070405905,5.62301271514,4.19524577581,6.55934084914,5.6610860338,6.54529838836,7.24520922265,-90.5450542975
off_to_on,4.61336821539,9.58611673057,5.20370897562,4.10799372803,5.05275312389,5.11314694843,4.99287211854,6.24464651756,4.05972641949,7.09142948673,5.89336115871,7.12211292349,8.15485671245,-73.9591991371
off_to_on,5.28948695389,9.97219874631,5.81149662083,3.92628681349,5.17399861136,4.19360520137,4.8583656158,6.46018405844,3.74044186661,7.24602846655,5.7890901861,7.38923985099,8.61203182046,-52.2035502464
off_to_on,5.67646659775,9.61307100852,6.07297134959,3.56198942924,5.00140371235,2.95002218454,4.4378604541,6.27554246546,3.25328946813,7.03452207143,5.35606135148,7.35917845319,8.58244577433,-27.2939316377
off_to_on,5.71195918125,8.54585343758,5.95214291518,3.02017741203,4.53418062509,1.52784022015,3.79550905156,5.73216139479,2.6244455219,6.49113446981,4.6271098843,7.05298677489,8.06376683517,-1.60256174296
off_to_on,5.36007128641,6.87260481294,5.44402315037,2.31762147606,3.79666522365,0.0950626613445,3.01721976698,4.90194223502,1.88831441771,5.66831894993,3.65690672859,6.49677191673,7.08668858487,22.3952405406
off_to_on,4.61829878774,4.7502058343,4.57670495859,1.48265037952,2.83650047484,-1.18035832174,2.19941802349,3.87877454813,1.08472508309,4.63098751162,2.51661825241,5.71919635035,5.71341252902,42.4024497896
off_to_on,3.52115003317,2.37439606714,3.4100864096,0.553916105029,1.72015822642,-2.15352539066,1.43609345642,2.76760049981,0.255702926786,3.45026470355,1.28706066657,4.75024544643,4.03353619513,56.5749111304
off_to_on,2.13968229177,-0.0403355756619,2.0312008995,-0.421864710242,0.526332800099,-2.72270293232,0.805895068415,1.6722829263,-0.557804845625,2.1974319564,0.0511372473589,3.62121521786,2.15757797435,63.7525564117
off_to_on,0.576651801414,-2.28281621313,0.546499947181,-1.39300390362,-0.66198805414,-2.84361581408,0.361088571486,0.68371134117,-1.31887567749,0.938635737141,-1.11358952281,2.36561913848,0.208608289129,63.614180381
off_to_on,-1.04246754199,-4.16677481313,-0.928196448825,-2.306487121,-1.76580327292,-2.53582972699,0.119987305697,-0.130421004091,-1.99690979628,-0.269215379422,-2.14138087507,1.02052395108,-1.68733286348,56.7310830896
off_to_on,-2.58177885706,-5.54954664717,-2.27906047465,-3.11182829977,-2.7177197084,-1.88021382192,0.0640332836997,-0.73291040116,-2.56905805073,-1.38111806418,-2.98318972464,-0.372261462289,-3.41119537156,44.5072807215
off_to_on,-3.90925832653,-6.34580658061,-3.40570252935,-3.76476847156,-3.46799815369,-1.00774753257,0.140094044527,-1.1204781288,-3.02068405524,-2.36514197143,-3.60946095866,-1.76568931765,-4.86033869641,29.0088435325
off_to_on,-4.91138850375,-6.53479882843,-4.23140597355,-4.23047282912,-3.98832033129,-0.081163375011,0.267835670275,-1.32286971617,-3.34490151776,-3.2021975614,-4.01067583418,-3.10807312237,-5.95650695467,12.700243941
off_to_on,-5.50631240582,-6.16027130216,-4.71093330742,-4.4859360565,-4.27287549396,0.7280607345,0.351328419097,-1.3976573997,-3.54135353155,-3.88463152922,-4.19572896662,-4.34496603752,-6.6515646322,-1.88077254828
off_to_on,-5.65377319961,-5.3231614057,-4.83491617809,-4.52139170906,-4.33671721973,1.26417895723,0.293435902613,-1.42131013662,-3.614497871,-4.41395998189,-4.18847987386,-5.42223264405,-6.93040101039,-12.4683691972
off_to_on,-5.36042270199,-4.16791959305,-4.63020324041,-4.3406262027,-4.21169558577,1.40972650184,0.0111161030849,-1.47756519452,-3.5717171464,-4.79808568153,-4.02302036224,-6.28996974827,-6.81068986111,-17.3878169656
off_to_on,-4.67960835993,-2.86409838452,-4.15599751727,-3.96020923307,-3.94058042692,1.10300353029,-0.550416904498,-1.64449247646,-3.42157772633,-5.04834110174,-3.73832152829,-6.90672681777,-6.33951735439,-15.8042571266
off_to_on,-3.70542332699,-1.58538950096,-3.49611822192,-3.40775753501,-3.57021726265,0.348059376386,-1.40663020891,-1.98184245536,-3.17251683193,-5.17666416242,-3.37295804828,-7.24336548992,-5.587229843,-7.86439693096
off_to_on,-2.561544387,-0.488593048647,-2.7482115827,-2.71943650795,-3.1446696381,-0.784217478155,-2.52731449307,-2.52028372107,-2.8321507618,-5.19316072927,-2.96055293075,-7.28590394094,-4.63916481328,5.29226826206
off_to_on,-1.38609098605,0.304987647666,-2.01114930872,-1.93696571077,-2.6992861984,-2.16406966059,-3.83596651149,-3.25396072648,-2.40728264731,-5.10424886401,-2.52645454804,-7.03681921864,-3.58617435878,21.6591252635
off_to_on,-0.314317954307,0.723517603846,-1.37213555314,-1.10442441408,-2.25649080158,-3.61882548064,-5.21523085932,-4.13745257884,-1.90456337613,-4.91152284546,-2.08597031197,-6.51451119123,-2.51499857099,38.6129036175
off_to_on,0.538680229897,0.75230972067,-0.89515006867,-0.265151035563,-1.82384870168,-4.95468174181,-6.5179531675,-5.0877264834,-1.33164363612,-4.61142413706,-1.64426460027,-5.75092904088,-1.49957430523,53.259295355
off_to_on,1.09298437533,0.434304231972,-0.612262568235,0.54100209023,-1.39464426025,-5.98139003154,-7.58267779519,-5.99110813006,-0.698566169641,-4.19576109271,-1.1978114227,-4.78767559812,-0.594264863079,62.8300370355
off_to_on,1.31452325468,-0.136696664333,-0.519060772613,1.2798537894,-0.950857950776,-6.53656764447,-8.25184491595,-6.71469998625,-0.0190988609808,-3.65307494832,-0.737102039375,-3.67118150464,0.170224095698,65.0792197155
off_to_on,1.21983536599,-0.829209454537,-0.57496740577,1.92438699572,-0.468098425134,-6.50645709722,-8.39057843695,-7.12113459957,0.688291400638,-2.97080047294,-0.250166329722,-2.4477294017,0.787794541419,58.624938919
off_to_on,0.874075342001,-1.49205503097,-0.708628630469,2.45549741572,0.0782273920827,-5.84049427088,-7.90385269672,-7.08511683582,1.40007688214,-2.13811016053,0.273611515409,-1.15916997775,1.27470253541,43.1880619519
off_to_on,0.382288876294,-1.97494656552,-0.827906486734,2.86202336404,0.706401255605,-4.55792964705,-6.74999346875,-6.50993819348,2.08808385795,-1.14925871465,0.839912120756,0.159911643153,1.66442598695,19.6923026084
off_to_on,-0.125118169447,-2.14914466248,-0.833380853099,3.14014947846,1.42249280316,-2.74584716467,-4.94888360489,-5.34207217321,2.72073298759,-0.00716241104672,1.44660889999,1.4830437666,2.00033991409,-9.7925695052
off_to_on,-0.510975264544,-1.92561602652,-0.633744389192,3.29232774515,2.21596056554,-0.549080669124,-2.58385075583,-3.58209486114,3.26502781877,1.27313596104,2.08197043877,2.79052841359,2.32716793447,-42.2619803357
off_to_on,-0.651649770388,-1.26841240626,-0.161130449789,3.32588971943,3.05746117043,1.84642510202,0.203064027145,-1.29050899061,3.68909617783,2.66153790695,2.72415816084,4.06610666957,2.68234505311,-74.1190845053
off_to_on,-0.456372512316,-0.201545780124,0.615695888735,3.25153292058,3.89929564134,4.23446704531,3.2220126833,1.41244982244,3.96499729424,4.11096027295,3.34207927197,5.29221422415,3.08845341575,-101.607260604
off_to_on,0.117079229661,1.19159090017,1.68220165014,3.08185348788,4.67858494679,6.41086741895,6.25129857594,4.35333057271,4.07145516745,5.55686777731,3.89749799838,6.44473604751,3.54777315186,-121.278267288
off_to_on,1.0526325507,2.77631154855,2.97451301775,2.83006971023,5.32291334301,8.19436868127,9.05673057365,7.31794821565,3.99617372288,6.9186641497,4.34817261389,7.48836443418,4.03973673353,-130.435800131
off_to_on,2.27370089233,4.38137446241,4.38228446127,2.50904177376,5.75785192921,9.44367185363,11.4123859385,10.0688237236,3.73743256571,8.10320620603,4.65168475099,8.37368834642,4.52171669665,-127.496187239
off_to_on,3.64916131367,5.81869085045,5.75810758669,2.13064746812,5.91551697746,10.0688247435,13.1206976499,12.3660223863,3.3047474557,9.01050559858,4.76956847889,9.03697574517,4.93315625898,-112.217775909
off_to_on,5.00713382578,6.905698896,6.93271652215,1.70552707085,5.74316020409,10.0360483163,14.0299169868,13.9894251166,2.71849478385,9.54142988501,4.67133127638,9.40326511875,5.20262209211,-85.7669826929
off_to_on,6.15512334739,7.48774152204,7.73445103992,1.24316797732,5.2107509719,9.36604003912,14.0473415537,14.7602584119,2.00852793603,9.60693261956,4.33798384373,9.39289758934,5.25697217185,-50.6098778843
off_to_on,6.9041882236,7.45774586224,8.01079316021,0.752264586416,4.31659849028,8.12666852686,13.1471910039,14.559719991,1.21193734702,9.13806545148,3.76475333538,8.93106143864,5.03153846166,-10.2407916287
off_to_on,7.09417524269,6.77078666989,7.64938900436,0.241263933197,3.09026530264,6.42164851974,11.3725913166,13.3427708346,0.370208077941,8.09579334369,2.96273546948,7.95936761372,4.48006237449,31.2192591358
off_to_on,6.61680053953,5.45169380251,6.59587026906,-0.281006294309,1.59231785818,4.37716975611,8.83172235124,11.1455990069,-0.473904884057,6.47948687249,1.95933494191,6.44801368637,3.58311271827,69.5043846738
off_to_on,5.43350440796,3.5946692084,4.86602793309,-0.804733457321,-0.0891888156979,2.1285073192,5.68872577115,8.08585385059,-1.27944110622,4.33293719869,0.797441380731,4.40680304009,2.35386441055,100.705294254
off_to_on,3.58555917645,1.35481727189,2.55045205532,-1.31863810463,-1.84522842917,-0.191622299574,2.15040721184,4.35544192528,-2.00992014313,1.74685201337,-0.466617694184,1.893224016,0.84040538186,121.727143651
off_to_on,1.19480335983,-1.06754716606,-0.189419004392,-1.80969737911,-3.55471881516,-2.46171303928,-1.54993788221,0.206398894505,-2.63539399305,-1.14294978141,-1.76621995154,-0.984011154888,-0.87586508352,130.64610295
off_to_on,-1.54549365492,-3.44808108941,-3.13389082013,-2.26313412093,-5.09495742434,-4.57655419336,-5.17010568129,-4.06896838234,-3.13370822708,-4.16203462054,-3.02848671825,-4.0671228189,-2.68572807989,126.920194415
off_to_on,-4.38890359065,-5.56268360714,-6.02523429159,-2.6627052734,-6.3525219911,-6.44887742673,-8.47651409254,-8.16190675485,-3.49092502596,-7.10844080415,-4.17895581458,-7.15762005051,-4.46104857303,111.428960549
off_to_on,-7.06134461332,-7.21206110702,-8.59353515106,-2.99129402,-7.23352116155,-8.00830921488,-11.260361073,-11.7728464344,-3.70097241138,-9.76771493629,-5.1465814937,-10.0305803595,-6.06620348927,86.3387816458
off_to_on,-9.29095574162,-8.24373173542,-10.5853845128,-3.23178050454,-7.67214243863,-9.19879470067,-13.3513222787,-14.6364833975,-3.76467855835,-11.9307352487,-5.86872302144,-12.4537665352,-7.37083873029,54.8131820326
off_to_on,-10.8388523509,-8.56889001026,-11.7921480795,-3.36813785314,-7.63662234333,-9.97582384197,-14.6279857139,-16.5440020367,-3.68841526712,-13.4127197808,-6.29576881823,-14.2097639354,-8.26258839439,20.6072354646
off_to_on,-11.5270750842,-8.17213708613,-12.0744599712,-3.38667528549,-7.13203551411,-10.3046779776,-15.0245253035,-17.3603908139,-3.48260231378,-14.071526146,-6.39504743943,-15.1187764383,-8.65837623367,-12.4004158322
off_to_on,-11.2603025768,-7.11290780041,-11.3799061892,-3.27733007505,-6.19963460385,-10.1605536087,-14.5334069581,-17.035268591,-3.1603122445,-13.8232566194,-6.15370289548,-15.0594448269,-8.51306512694,-40.6772480937
off_to_on,-10.0385898723,-5.51839532725,-9.75156829696,-3.03489663025,-4.91283372477,-9.53088270664,-13.2041793946,-15.6062577946,-2.7361670597,-12.6533167249,-5.58026259025,-13.9851004955,-7.82450721237,-61.4485135579
off_to_on,-7.95943890166,-3.56877333596,-7.32611574966,-2.66007551709,-3.37027501277,-8.41955841091,-11.1386182577,-13.1946512177,-2.22564331508,-10.6214396498,-4.70470290854,-11.9332517037,-6.63444074798,-72.9999520898
off_to_on,-5.20877824661,-1.47642502778,-4.32134886812,-2.16022904732,-1.68671302832,-6.85220786876,-8.48266603363,-9.99385150776,-1.64481340771,-7.85975563762,-3.57691926038,-9.02678614153,-5.02513297437,-74.83602995
off_to_on,-2.04176941694,0.538400632919,-1.01435832777,-1.54974385621,0.0173360795586,-4.88123972368,-5.41574832132,-6.25174364907,-1.01046290486,-4.56370008545,-2.26362994043,-5.46628740234,-3.1121281193,-67.6779607232
off_to_on,1.2444017162,2.27265854318,2.28737526781,-0.849924733631,1.62612602779,-2.5892163704,-2.13815796097,-2.24872366366,-0.340450824332,-0.976338941091,-0.843878453505,-1.5138958197,-1.03387327326,-53.3071945802
off_to_on,4.3426036903,3.56336582086,5.27871444537,-0.0883769948967,3.03834440533,-0.0892042942156,1.14271081989,1.72650398604,0.345866822674,2.63254622393,0.596564666145,2.52983212331,1.06068421365,-34.2802197599
off_to_on,6.96895877355,4.30557015806,7.68967338884,0.702125006107,4.17497899749,2.47886504241,4.22642400031,5.40106992578,1.02734320509,5.9906225961,1.97147645054,6.35372844129,3.02524036618,-13.5567078057
off_to_on,8.8932671324,4.4633267304,9.3144643899,1.48524094033,4.98467025407,4.95618947713,6.93296245246,8.53978374705,1.68104797656,8.84798088302,3.20061423062,9.66551972106,4.7286838736,5.9068503443
off_to_on,9.96309311397,4.07241048218,10.0333343296,2.22305166249,5.44611875627,7.17708085566,9.11465392622,10.9627083232,2.28269471594,11.0002977741,4.21573755557,12.2197917817,6.06581487843,21.5430539387
off_to_on,10.1187222838,3.23447154391,9.82456431636,2.87830171042,5.56744006133,8.98383653829,10.6657043487,12.5569570272,2.8075330939,12.3076786965,4.96565458966,13.8412795329,6.96522772431,31.4887653293
off_to_on,9.39731133444,2.10335829671,8.76516365163,3.41673565727,5.38268532074,10.2427736871,11.5285551282,13.2818117636,3.23166615837,12.7070861162,5.41979341311,14.4408429783,7.39368382725,34.7906045492
off_to_on,7.92586889198,0.865263758836,7.02014522864,3.80934687725,4.94603905946,10.8593133563,11.6964760414,13.1669451539,3.53367280576,12.2169299599,5.56992359168,14.02231493,7.35669288433,31.4780873993
off_to_on,5.90405846616,-0.284914826407,4.8216563201,4.03435340241,4.32443430091,10.78992364,11.212066574,12.3042245181,3.69635199491,10.9332542797,5.42982915438,12.6794627481,6.89542707162,22.5005409622
off_to_on,3.57903593588,-1.16816393431,2.44048262112,4.07872954223,3.58946633506,10.0489969623,10.1616718727,10.8342067379,3.70836879878,9.01789986684,5.03294417306,10.5834657724,6.08046811646,9.54262471021
off_to_on,1.21547111999,-1.64393913336,0.15338595872,3.93915374127,2.80952646239,8.70932408935,8.66609824753,8.92893675391,3.56557893809,6.67994379242,4.42818377509,7.96242767117,5.00319122151,-5.2507171016
off_to_on,-0.935558889953,-1.62803862292,-1.78974503848,3.62228062842,2.04301400135,6.89566189411,6.86840002933,6.77298708862,3.27183881849,4.15250121873,3.67441030494,5.07537817402,3.76579281591,-19.5978773768
off_to_on,-2.66504149806,-1.10361906469,-3.19492658056,3.14430422546,1.33332812929,4.7718558159,4.91985790763,4.54478924152,2.83916789145,1.66752372892,2.83413980423,2.18385329067,2.47105396985,-31.4058452463
off_to_on,-3.82849395253,-0.124026027669,-3.94576442848,2.52984402661,0.706110335408,2.52292818666,2.96552894674,2.40020053199,2.28721048224,-0.568529706956,1.96719462009,-0.475603257924,1.21289512466,-39.0519322714
off_to_on,-4.35985454619,1.19291388309,-4.01518224317,1.81024925274,0.168930876818,0.334332962047,1.13087500009,0.459936113101,1.64203309845,-2.39537298149,1.12502718815,-2.71483390353,0.0686312907711,-41.5848000971
off_to_on,-4.2753412965,2.6784775898,-3.46583410093,1.02147184694,-0.286679153421,-1.62892234797,-0.489063786089,-1.19798809996,0.934377462423,-3.71358276965,0.346370866856,-4.41072391025,-0.906397655614,-38.8205280195
off_to_on,-3.66709055471,4.13291196264,-2.43926433828,0.201699130482,-0.681221418263,-3.24046431589,-1.83670413919,-2.54025506866,0.197556734784,-4.49167663446,-0.345279634831,-5.51335985251,-1.68143890045,-31.3252748708
off_to_on,-2.68765765405,5.34924627495,-1.13529240547,-0.611042634354,-1.0418441701,-4.42551701531,-2.89430825317,-3.57478936942,-0.534777048275,-4.7648776995,-0.942077540195,-6.04500847756,-2.25011267283,-20.2924794258
off_to_on,-1.5275701798,6.1382533711,0.215673957201,-1.38110512885,-1.39631999325,-5.16678115048,-3.68139713429,-4.3425658422,-1.23075793136,-4.62587210934,-1.45010701137,-6.09038371877,-2.62760618486,-7.33716257681
off_to_on,-0.388934844191,6.35163344669,1.38381434903,-2.07707238799,-1.76719005251,-5.50233976253,-4.24746452085,-4.90593471662,-1.8621113958,-4.20883716317,-1.88579875232,-5.7797417127,-2.84576788398,5.75927350191
off_to_on,0.541485219774,5.90071125584,2.17055678044,-2.67311597765,-2.16684071386,-5.51583450827,-4.66087546573,-5.33508792994,-2.40548091921,-3.66883268847,-2.27098638948,-5.26720306834,-2.94678489272,17.3147182126
off_to_on,1.11632902314,4.76847160448,2.43481319213,-3.14977542905,-2.59415147707,-5.32028791874,-4.99536433051,-5.69447019099,-2.84318916083,-3.15920389094,-2.62730162172,-4.70724144488,-2.97623379553,25.9836450233
off_to_on,1.24588786234,3.01354285937,2.11147100473,-3.49415730169,-3.03315177684,-5.03790793773,-5.3159225823,-6.0309024297,-3.16342822601,-2.80987051713,-2.97070897997,-4.2324332539,-2.97631354514,30.9329266902
off_to_on,0.908411738596,0.765678231481,1.21983741534,-3.69961409958,-3.45387253747,-4.77885310766,-5.66602551719,-6.36493980468,-3.35995046912,-2.70924580214,-3.30698001556,-3.93532102193,-2.98000336284,31.9333764894
off_to_on,0.151393957523,-1.78673335779,-0.138961733538,-3.76502231964,-3.81530620673,-4.62215509789,-6.05805264815,-6.68656088321,-3.43139274384,-2.89205556512,-3.62879827277,-3.85664038958,-3.00675055335,29.3574107963
off_to_on,-0.916079295519,-4.41568764092,-1.79520175376,-3.69381945517,-4.07012835137,-4.60174527561,-6.46840559145,-6.95572949178,-3.38040404381,-3.33457242767,-3.91498130827,-3.98128182764,-3.06010184395,24.0872980845
off_to_on,-2.13870591802,-6.87695075004,-3.53261139571,-3.49297724136,-4.17061529602,-4.69983770408,-6.83825209385,-7.10775197194,-3.21275424393,-3.95783771663,-4.13202858755,-4.24232141769,-3.12746963715,17.3513351929
off_to_on,-3.33592590592,-8.93518121212,-5.11635359493,-3.17208023456,-4.07504125764,-4.84887306723,-7.08009101624,-7.06274388767,-2.9365799998,-4.6384330758,-4.23788925047,-4.53239746801,-3.18199503821,10.5151476602
off_to_on,-4.32567660317,-10.3880087488,-6.3232980184,-2.74264584215,-3.75377255707,-4.94197218774,-7.08953247806,-6.73799453485,-2.56187729263,-5.22541247215,-4.18753267022,-4.72076850291,-3.18625502922,4.86082493508
off_to_on,-4.9478940703,-11.0864641245,-6.97069355182,-2.21776853294,-3.19430337906,-4.8505641959,-6.76092654917,-6.0616383698,-2.10028700151,-5.56123255702,-3.93963940552,-4.6736826114,-3.09738081902,1.38713118929
off_to_on,-5.08483569134,-10.9496238127,-6.93959999615,-1.61210454931,-2.40459393671,-4.44673181428,-6.00485988692,-4.98585606859,-1.56515114366,-5.50402143654,-3.46354761293,-4.275304369,-2.87302266201,0.659687066912
off_to_on,-4.67578999505,-9.97203547558,-6.19015768012,-0.942143530064,-1.41426401597,-3.62702433435,-4.76516491055,-3.49785789354,-0.971754704238,-4.9483635766,-2.7455171483,-3.44642573515,-2.47752233418,2.73161508341
off_to_on,-3.72452012383,-8.22333556977,-4.76686199079,-0.226650442183,-0.27344008955,-2.334152777,-3.03301433468,-1.62714604181,-0.337621850747,-3.84196953146,-1.79342323952,-2.15852511339,-1.88764140076,7.14406424194
off_to_on,-2.2987475309,-5.84035435538,-2.79331975159,0.512885023523,0.950676365066,-0.573162595666,-0.855930056406,0.552017497765,0.317286400463,-2.19611616621,-0.639160341101,-0.441381190078,-1.09723954664,13.0040017663
off_to_on,-0.521993025884,-3.01282018785,-0.457320965571,1.25197600151,2.17918970128,1.5806360288,1.65989989518,2.92344619529,0.970619509203,-0.08851770504,0.661694955932,1.61669615471,-0.120396155586,19.1254804818
off_to_on,1.44097784543,0.0355701778863,2.01171637353,1.96321950327,3.32828660454,3.9835986949,4.35479239082,5.33704361364,1.59804223037,2.34177988125,2.03307861773,3.87600335526,1.00739000623,24.2118641987
off_to_on,3.40312445884,3.06852678623,4.36993801949,2.61686953865,4.31669519819,6.43578757081,7.02806814096,7.62124996756,2.17405325887,4.90691761097,3.38425028378,6.15901166334,2.23011629722,27.0514005882
off_to_on,5.17608311787,5.85865010142,6.38736816525,3.18197634608,5.07303678243,8.701927109,9.45674036721,9.59863342578,2.67320448676,7.38870358784,4.61764505582,8.26865355729,3.47431225558,26.6976672624
off_to_on,6.59054327905,8.20681526847,7.87378114058,3.62808236819,5.54229445284,10.5387647983,11.4183866757,11.1029487001,3.071635832,9.56090614798,5.63792306284,10.0090801423,4.65401217921,22.6097269836
off_to_on,7.51369137514,9.95762644569,8.6989799073,3.92737420388,5.69072573839,11.7253342359,12.7155605099,11.9957920154,3.34877808267,11.21278919,6.36120978673,11.2064100044,5.67730372655,14.7336396293
off_to_on,7.86185148663,11.0096761129,8.80514925943,4.05710309323,5.50872493213,12.0920952499,13.1987867366,12.1810083022,3.48903326899,12.1712159277,6.72348117092,11.7270759829,6.45394175609,3.51612715983
off_to_on,7.60714436126,11.3200174596,8.21005329931,4.00201747271,5.01137296489,11.5449572019,12.7852519157,11.6152498261,3.48322606774,12.3188680649,6.68713926993,11.4917556476,6.90340414252,-10.1487880653
off_to_on,6.77778356619,10.9029487243,7.0010770344,3.7565110919,4.2366702849,10.0807827345,11.4707461489,10.3135153608,3.32963390433,11.6066346551,6.24503475778,10.4834809743,6.96270092462,-25.0299768554
off_to_on,5.45241992153,9.82382909645,5.32130157138,3.32618714877,3.24170033124,7.79204613684,9.33319084493,8.34906258166,3.03444637564,10.0589463827,5.42149430745,8.74927232792,6.59323629567,-39.708663744
off_to_on,3.74962958082,8.18912296198,3.34979132145,2.72857633354,2.09718803763,4.85973913943,6.52709971744,5.84771469128,2.61157056803,7.77166973783,4.27026397901,6.39542691173,5.78606772982,-52.7452084818
off_to_on,1.81413446986,6.13415260296,1.2789309806,1.9928226882,0.881074408126,1.53518302859,3.26943908226,2.97719916394,2.08177842678,4.90302343823,2.86963808915,3.57730878673,4.5650072537,-62.8403501022
off_to_on,-0.198405591352,3.81010773653,-0.708100578395,1.15825851439,-0.328192508299,-1.88709770471,-0.181568712287,-0.0673119658679,1.47127404491,1.65873178454,1.31536023411,0.485048100335,2.98716175973,-68.9705352071
off_to_on,-2.13619728173,1.37172294934,-2.45681449929,0.271916203474,-1.45795508706,-5.10206774458,-3.55226188318,-3.07990679522,0.809830689299,-1.72680121115,-0.287880874453,-2.67310034451,1.14070340021,-70.4822286539
off_to_on,-3.86412725706,-1.03327144012,-3.85552357587,-0.61484453286,-2.44662294084,-7.8283003328,-6.58095163738,-5.86113584952,0.128699098684,-5.01118679797,-1.83541165988,-5.68789225535,-0.860115379739,-67.1371800931
off_to_on,-5.27342552043,-3.27223445321,-4.8426237926,-1.45029781054,-3.24747327763,-9.83917777067,-9.04370538692,-8.23397880438,-0.541487389892,-7.96444707108,-3.23103685494,-8.36501641342,-2.88245102232,-59.1082703311
off_to_on,-6.28755621816,-5.23299824643,-5.40662667747,-2.1865161122,-3.83071777106,-10.9872108279,-10.7754905758,-10.0570560754,-1.17259232392,-10.3871409976,-4.39416656891,-10.5384352039,-4.78438026142,-46.9325440124
off_to_on,-6.8642729716,-6.82673339809,-5.5795734592,-2.7833066425,-4.18379621356,-11.2184368954,-11.6842723038,-11.2339451023,-1.74045836263,-12.1246615664,-5.26498027389,-12.0802410319,-6.42574672654,-31.4332880309
off_to_on,-6.9942754887,-7.98880261234,-5.42537220652,-3.21149189146,-4.31006463688,-10.5751892412,-11.7565695015,-11.7179525818,-2.22587104913,-13.0766989373,-5.80727762566,-12.9066448687,-7.67949618244,-13.6258235572
off_to_on,-6.69727605114,-8.67829442538,-5.02524176843,-3.45516350566,-4.22621699272,-9.18708715713,-11.0540715429,-11.5122311633,-2.61495829102,-13.201478759,-6.00896688507,-12.9802022069,-8.44255733317,5.37822165276
off_to_on,-6.01648504083,-8.87695477136,-4.46273579151,-3.51264342298,-3.95889453308,-7.2516622525,-9.70205171122,-10.665642655,-2.89905839316,-12.5149744559,-5.8804239948,-12.3087727093,-8.64530516641,24.4557952013
off_to_on,-5.0125401199,-8.58811030226,-3.81072452686,-3.39602814152,-3.54098375113,-5.00739234919,-7.87133276529,-9.26519613779,-3.07415972913,-11.0857830796,-5.45118115855,-10.9419556395,-8.25870822914,42.5383615826
off_to_on,-3.75775044886,-7.83593641386,-3.12225738272,-3.12935455698,-3.00807999895,-2.70287452793,-5.75632635945,-7.4261796045,-3.1400666121,-9.02669268347,-4.76554517678,-8.96582441467,-7.29841074412,58.6560216489
off_to_on,-2.33124806116,-6.66511758687,-2.42649411362,-2.74558921019,-2.395507428,-0.566302971146,-3.55208124307,-5.28122970261,-3.09947128189,-6.48412854979,-3.87778880625,-6.49671035944,-5.82522794578,71.9620301264
off_to_on,-0.815294038352,-5.14064101859,-1.72999675538,-2.28278630964,-1.73615297712,1.22072933578,-1.4332838406,-2.96954165334,-2.95710790332,-3.6266484782,-2.84750457217,-3.67459419921,-3.94182327629,81.7439316467
off_to_on,0.707354155062,-3.34721979216,-1.02275995512,-1.77986456849,-1.05921503544,2.5417853339,0.462235269273,-0.62722998786,-2.71913237314,-0.633492853246,-1.73557610969,-0.656409033408,-1.78566667475,87.4296832056
off_to_on,2.15538149374,-1.38771175079,-0.287567219774,-1.27250409278,-0.389811033841,3.354321456,2.04366263046,1.62045010401,-2.39281719181,2.31606744084,-0.601035369393,2.39069606877,0.481284131509,88.5970448651
off_to_on,3.45068395547,0.620081892659,0.489282712389,-0.789654066846,0.250743625926,3.68785895082,3.27016031829,3.66466824435,-1.98658274665,5.05214304904,0.501130019429,5.29627677158,2.68541440421,84.9922578247
off_to_on,4.52050218208,2.54868058609,1.30804814611,-0.351069333005,0.84426101702,3.63233671861,4.14679547205,5.4163740353,-1.51031617449,7.42223497764,1.52134004075,7.8939306286,4.65575928977,76.5600740431
off_to_on,5.30032277822,4.26838399009,2.1484346791,0.0338332434006,1.37491885105,3.31874866839,4.7145979289,6.80774412142,-0.97586792283,9.29788457996,2.41621179142,10.0292394349,6.2385615787,63.4823806751
off_to_on,5.73769914018,5.65665976148,2.96683514856,0.365674545968,1.82869417114,2.89519148036,5.03668468306,7.79222419497,-0.397574146692,10.5801135729,3.14909358127,11.5683347469,7.31077130606,46.2179970831
off_to_on,5.79682424487,6.60876568605,3.69870215827,0.653430889621,2.19319841911,2.50199871664,5.18286185129,8.34374727153,0.207362902779,11.2037963647,3.69064479256,12.4068367436,7.79121492706,25.5327447728
off_to_on,5.46336257835,7.048532951,4.26594409842,0.91161261613,2.45800629521,2.24964421873,5.21521507832,8.45566268082,0.818791459425,11.1410050318,4.01967178926,12.4786044347,7.64832298454,2.50745540094
off_to_on,4.74878373642,6.93797690953,4.58834191004,1.156699489,2.61544176085,2.20257103257,5.17692129134,8.13975698847,1.41393866751,10.4032062161,4.12428555527,11.7634449499,6.90358234155,-21.4872992289
off_to_on,3.6932945778,6.28431803221,4.59723184906,1.40333265044,2.66166314576,2.37112847224,5.0859077409,7.42552519053,1.96820436568,9.04201862317,4.00327833729,10.2927297325,5.63025134344,-44.857238174
off_to_on,2.36648028927,5.14312294263,4.24921252093,1.66080299063,2.59779769321,2.71253001266,4.93414590652,6.35960622759,2.45640041103,7.14811312628,3.66745926107,8.15181439591,3.94731175971,-65.8927244554
off_to_on,0.864951675991,3.6166168931,3.53749671078,1.93034529471,2.43083125066,3.14037027382,4.69242910416,5.00508267296,2.85434167213,4.84780171536,3.14057649533,5.4782941368,2.00908959528,-82.9137537295
off_to_on,-0.693358554797,1.84674494185,2.49877168645,2.20364880568,2.17397071358,3.54096477709,4.31958825185,3.44020638118,3.14063153261,2.29694776632,2.45941284082,2.4554560996,-0.00858737554137,-94.4384937381
off_to_on,-2.17814699531,0.00320886263306,1.21402909752,2.46283925426,1.84626535052,3.79378816591,3.7743869881,1.75608247638,3.2984421896,-0.327953339976,1.67268745881,-0.699210834531,-1.92445972636,-99.3560432669
off_to_on,-3.45832440263,-1.73260371481,-0.197304558707,2.68199411786,1.47138870097,3.79272700014,3.0279134715,0.0529364894802,3.31707512106,-2.84134493424,0.838528651665,-3.74997589954,-3.56863967747,-97.0801992487
off_to_on,-4.41513938471,-3.18624889976,-1.58958952412,2.83004648196,1.07562738095,3.46480846051,2.07421527852,-1.56520527746,3.19310264534,-5.06225300183,0.0204853358968,-6.46217814629,-4.79853488361,-87.6604222479
off_to_on,-4.95537429246,-4.20938578309,-2.80818775476,2.8747403017,0.685273172063,2.7835166876,0.937215183165,-2.99730434724,2.93093576737,-6.82901615794,-0.71771145644,-8.6231896621,-5.51232088774,-71.8293171545
off_to_on,-5.02295271978,-4.69718903833,-3.70946168872,2.78714681995,0.323744461024,1.77468902731,-0.327447055269,-4.1531270299,2.5427304673,-8.01376707497,-1.31818006155,-10.0629043418,-5.6585928908,-50.9726643139
off_to_on,-4.60732757917,-4.60177684326,-4.18079217354,2.54615947776,0.00884873349865,0.514156678425,-1.63617337873,-4.9613484947,2.04762480735,-8.53511441743,-1.73505051041,-10.6714372878,-5.24117696927,-27.017620739
off_to_on,-3.74728651085,-3.93975541308,-4.15768685749,2.14236641529,-0.249378315609,-0.882422607786,-2.88637284512,-5.37698189324,1.470381295,-8.36744474202,-1.93996993347,-10.4118193112,-4.31854637398,-2.24592152037
off_to_on,-2.52929706248,-2.79259617161,-3.63531672587,1.58075967958,-0.449868027252,-2.27589367518,-3.96937187487,-5.38707820466,0.839581147579,-7.54545271509,-1.92614621028,-9.32587251692,-2.99782525548,20.9498413626
off_to_on,-1.08016350171,-1.29938614263,-2.67249186386,0.88187238165,-0.600473947407,-3.52351620845,-4.78532809665,-5.0137097168,0.185569228612,-6.16291584372,-1.71023019123,-7.53212777823,-1.42391573141,40.3392121503
off_to_on,0.445501328919,0.357571855516,-1.38708353769,0.0811235233928,-0.716581699785,-4.49935395665,-5.25782467226,-4.31348392983,-0.461626773653,-4.36532316458,-1.33155941081,-5.21552307005,0.235203691559,54.1221573409
off_to_on,1.88177046623,1.97290425333,0.0569162338657,-0.773628416566,-0.818469146226,-5.11198984504,-5.34580128141,-3.37321574394,-1.07418506888,-2.33668088482,-0.848602591235,-2.60959951956,1.80554571773,61.1567643643
off_to_on,3.07004765628,3.34185553495,1.46930049401,-1.62609598727,-0.927715339531,-5.31685679933,-5.05082715576,-2.30186948269,-1.62800344771,-0.281562665861,-0.332814476103,0.0271347468608,3.12481550686,61.1135870713
off_to_on,3.87765755863,4.28476714282,2.65806798664,-2.41670873471,-1.06313012959,-5.12133053532,-4.41839250218,-1.2194042609,-2.10371351706,1.59585345574,0.139516350216,2.43820304932,4.05892138421,54.5318758636
off_to_on,4.21406084882,4.66936971388,3.45516453281,-3.08831563117,-1.23679098521,-4.58186917638,-3.53278901463,-0.243641069561,-2.48714423988,3.11351527838,0.496522888475,4.39651966026,4.51557156672,42.7649620402
off_to_on,4.04256193678,4.4280621082,3.7400346286,-3.591785859,-1.45080776181,-3.79372938032,-2.50613382663,0.523357754299,-2.76926030552,4.13149635452,0.679996170645,5.72893108763,4.45352047741,27.8166213911
off_to_on,3.38585793722,3.56787037633,3.45764247171,-3.89085312296,-1.69537885008,-2.87494778488,-1.46301424373,1.00771038761,-2.9456698762,4.56782317118,0.653403292218,6.33497624809,3.88647447763,12.0853655468
off_to_on,2.32449914294,2.17161561893,2.62826854544,-3.96563476127,-1.94855565662,-1.94717128701,-0.522949678949,1.17327588706,-3.01584751017,4.40806201444,0.407571773148,6.19750343242,2.88122685592,-1.95283805709
off_to_on,0.988206213321,0.389874251443,1.34743472365,-3.81441542461,-2.17791254018,-1.11641151249,0.216732310046,1.02694586055,-2.98224439952,3.7072627845,-0.0368316662763,5.38370509083,1.55020636209,-12.0829516928
off_to_on,-0.459094135421,-1.57554230888,-0.224378525419,-3.45349600039,-2.34405391602,-0.456810735079,0.694995495122,0.618728192513,-2.84945623018,2.5837400959,-0.630522638882,4.03626928736,0.0392256764399,-16.6651072321
off_to_on,-1.83881638587,-3.49477492173,-1.88116177269,-2.91514476418,-2.40561541103,-3.46317721966e-05,0.895944078621,0.0363121715278,-2.62359007863,1.20516763205,-1.30055041135,2.35555893232,-1.48826089115,-14.8807628381
off_to_on,-2.97950554276,-5.13707052796,-3.39760112898,-2.24391893836,-2.32517134746,0.267978126845,0.850929063631,-0.605484072131,-2.31192105184,-0.231556524816,-1.95851569348,0.574861616529,-2.86869673417,-6.87433550329
off_to_on,-3.73817161642,-6.29863565422,-4.55874427854,-1.49182096941,-2.07528391576,0.402344303686,0.633399511108,-1.17928222964,-1.92286539736,-1.52437861426,-2.51113833555,-1.06834519601,-3.95586430248,6.233246595
off_to_on,-4.01845847815,-6.82775865804,-5.18918934871,-0.712889472656,-1.643849857,0.487343837965,0.347070992233,-1.56203452394,-1.46623006262,-2.49122113028,-2.87190901978,-2.36161992134,-4.63634005899,22.4659472717
off_to_on,-3.78327583876,-6.64403893465,-5.17783721283,0.0421175419166,-1.03793552454,0.619181224851,0.109012572975,-1.65214532746,-0.953639997905,-2.99307916245,-2.97236583558,-3.1436638192,-4.84129054452,39.2375704607
off_to_on,-3.06018013106,-5.7492388069,-4.49474912589,0.730317019449,-0.285442490538,0.88617171005,0.0300715885586,-1.38459504329,-0.399003367412,-2.95214538433,-2.77153193624,-3.32404107274,-4.55333992408,53.6914475165
off_to_on,-1.93868527674,-4.22828066249,-3.19763728455,1.32005110388,0.565801458344,1.3496014752,0.195534960849,-0.741990927112,0.181142048373,-2.36257424878,-2.26224148,-2.89400825569,-3.80778520476,63.092009519
off_to_on,-0.559704806478,-2.24012449457,-1.42686018311,1.79264612685,1.45160701759,2.02848946144,0.648987063733,0.240093753363,0.767547731386,-1.29236634373,-1.47344800397,-1.92704524232,-2.68806324364,65.2167549867
off_to_on,0.901659258171,0.00047336507169,0.610680037391,2.14245009322,2.29737086783,2.89095164057,1.38194747573,1.47445726249,1.33854906188,0.124055914646,-0.468107570317,-0.568970231998,-1.31601288953,58.6952731273
off_to_on,2.25789132833,2.24816301335,2.66684007863,2.37524837998,3.02579684182,3.85390725581,2.3311018151,2.83041895624,1.87078984662,1.70183649782,0.663205571548,0.981157462251,0.161946531473,43.2473822638
off_to_on,3.33269442009,4.256110908,4.4835682208,2.50536945752,3.56551030405,4.79160863921,3.3838783959,4.1480351299,2.34036279376,3.22838735718,1.812235334,2.49696279238,1.59114870573,19.7845595476
off_to_on,3.98349745969,5.80544370084,5.82623246057,2.55195827427,3.85951913731,5.55210667892,4.39192049476,5.25681852231,2.72428265318,4.4900607268,2.8653421575,3.75423932066,2.82568267437,-9.64380958425
off_to_on,4.11996219294,6.73138272404,6.51457348457,2.53499253991,3.87244101361,5.97948804662,5.19083026104,5.99675665841,3.00214891081,5.29949181962,3.71664775874,4.56025126173,3.74415957889,-42.0574901999
off_to_on,3.71609346411,6.94281806374,6.44715825499,2.47163391147,3.59552544036,5.9387329602,5.62358672447,6.23904727643,3.15781399386,5.52016755808,4.28038034504,4.77911770277,4.26249492625,-73.8832700718
off_to_on,2.81434992221,6.43287880201,5.61601218408,2.37344054674,3.04874131672,5.33949932339,5.56441245282,5.90391507438,3.18085750874,5.08507259856,4.50085996847,4.35002968194,4.34231151973,-101.383059131
off_to_on,1.5211589189,5.27917811419,4.10936386669,2.24482943981,2.27954875903,4.15513333762,4.93967976523,4.97315912226,3.06767988831,4.00696779786,4.35885642934,3.29595706935,3.99407916853,-121.118590637
off_to_on,-0.00566989886944,3.6337060258,2.10198156532,2.082986126,1.35838478135,2.43375322435,3.74274474175,3.49567611074,2.82206853987,2.37888290759,3.87351487448,1.72171269245,3.27471542877,-130.392985475
off_to_on,-1.57610419068,1.70364329831,-0.165789913869,1.87920266353,0.371313208944,0.299285469578,2.04034425024,1.58504099049,2.45515071491,0.364625682985,3.09961618686,-0.198400370971,2.28000599824,-127.611211568
off_to_on,-2.99125139827,-0.274489775303,-2.41768740255,1.62141267959,-0.589335775236,-2.05828681865,-0.0307080691935,-0.590799820851,1.98472123044,-1.81963207061,2.12054416823,-2.24180208616,1.13279026864,-112.511017716
off_to_on,-4.06801252741,-2.06410242128,-4.3761165871,1.29751439491,-1.43523288759,-4.40266873752,-2.2764841679,-2.82667989982,1.43400932973,-3.93049696164,1.03788804494,-4.16502369228,-0.0316708253214,-86.2320736087
off_to_on,-4.66194571152,-3.4575532944,-5.79723191166,0.898953779938,-2.09197829423,-6.47872579972,-4.46718601073,-4.90229177277,0.830016533218,-5.72616793105,-0.0409582116063,-5.73380322622,-1.08142491918,-51.2117164649
off_to_on,-4.68548115872,-4.30130147639,-6.50198474805,0.423996945477,-2.50746222301,-8.04422469993,-6.36412102346,-6.6066291512,0.201606758529,-6.9953861922,-1.01558747011,-6.75208690213,-1.90283649134,-10.9181613121
off_to_on,-4.11921574509,-4.51407564939,-6.39912267856,-0.119840427308,-2.65760420551,-8.90164702794,-7.74900770399,-7.76189452731,-0.422445538609,-7.58295443128,-1.80411486946,-7.0862910996,-2.41316534175,30.5467229644
off_to_on,-3.0148888743,-4.09584820306,-5.49715858537,-0.714623715704,-2.54873283956,-8.92571585826,-8.4518084873,-8.24399996443,-1.01524703776,-7.40867901762,-2.3519955473,-6.68180323364,-2.56931540105,68.9257959162
off_to_on,-1.48968748681,-3.12657611754,-3.90375517183,-1.33233165508,-2.21628383007,-8.08271944966,-8.3733947245,-7.9971740132,-1.55324547854,-6.4774072542,-2.63704301113,-5.5697067559,-2.37181965575,100.306134478
off_to_on,0.287388252742,-1.75496853339,-1.81259901993,-1.93672048167,-1.71995746848,-6.43871985235,-7.49995827288,-7.04088551383,-2.01723889374,-4.87894198617,-2.67008819786,-3.86297227016,-1.8636934677,121.576669984
off_to_on,2.11538528578,-0.178794640613,0.520547529831,-2.48653216786,-1.13592754135,-4.15516751071,-5.90711837694,-5.46821844197,-2.39288168264,-2.77787477122,-2.49131086585,-1.74269773918,-1.12438802389,130.786386418
off_to_on,3.78501540674,1.3807053769,2.80954144886,-2.93966500582,-0.547072702243,-1.47211380347,-3.75299492036,-3.43586454308,-2.67070531921,-0.394624293917,-2.16285520107,0.563769091082,-0.259637348329,127.358432669
off_to_on,5.10312673866,2.70703143164,4.77324750525,-3.25778186065,-0.0324582459372,1.31910645294,-1.26095305552,-1.1469119125,-2.84573510095,2.0199603754,-1.7588311181,2.80999498906,0.611548837274,112.134273649
off_to_on,5.91506126796,3.6156938286,6.17012259135,-3.41075961791,0.34260365113,3.9103938752,1.30592307178,1.17152937906,-2.91683207276,4.21330706611,-1.35413541692,4.75946178598,1.37118984253,87.2440870647
off_to_on,6.12223986301,3.97714767242,6.82764201941,-3.38039292884,0.534657968208,6.01424724994,3.67548052203,3.29321668259,-2.88591446125,5.95965055218,-1.01365861891,6.21278663455,1.91626250794,55.8220415202
off_to_on,5.69295192327,3.73259171084,6.66292011498,-3.16285528869,0.527351260106,7.39915868217,5.5984455452,5.0172546335,-2.75721254413,7.08497681675,-0.78335805633,7.02984668516,2.17065903934,21.6048708153
off_to_on,4.66520126502,2.90077216513,5.6920464934,-2.76957863014,0.333158569259,7.91841951386,6.87766514587,6.18932571558,-2.53668576041,7.4854772315,-0.684389987563,7.1442135325,2.09384190802,-11.5333307124
off_to_on,3.14145609308,1.57509098279,4.02713152641,-2.22641741228,-0.00861393558411,7.52852943969,7.3909841175,6.71726271178,-2.23168574006,7.13746527403,-0.711045534232,6.56834032285,1.68527335372,-40.0498122037
off_to_on,1.27613896661,-0.0884567128053,1.86163207068,-1.57118664513,-0.437279941651,6.29473393416,7.10492194104,6.57927219692,-1.8508915355,6.09780131083,-0.832691326114,5.38915632603,0.984202791505,-61.1457896125
off_to_on,-0.742452982229,-1.89085728875,-0.553996800186,-0.849874876399,-0.878965514952,4.3828889371,6.07750131274,5.82402854397,-1.40448321967,4.49505494202,-0.999352791058,3.75494732753,0.0649355579388,-73.0719596031
off_to_on,-2.71349127932,-3.6146069959,-2.94309743474,-0.11200403715,-1.25648306967,2.0386417662,4.44997261282,4.56284326641,-0.904467050662,2.5127560461,-1.15007467246,1.85547463265,-0.971782891073,-75.2910124984
off_to_on,-4.44560917181,-5.05007951253,-5.03608699715,0.594284970775,-1.4996170134,-0.443418010519,2.42859070238,2.95505058084,-0.365028254404,0.367003578169,-1.22281889537,-0.101926394269,-2.01021035603,-68.4808327779
off_to_on,-5.77696019029,-6.02046765122,-6.6020401702,1.22681326187,-1.554506441,-2.75666914712,0.258845918542,1.18852175502,0.197227731791,-1.71869562544,-1.16446465308,-1.91712115601,-2.93253291028,-54.3833832273
off_to_on,-6.59110676092,-6.40229780658,-7.47473220389,1.75305671084,-1.39093483668,-4.62067411537,-1.80453134084,-0.542263105593,0.763275341628,-3.53826396466,-0.939484031899,-3.41969480668,-3.6317993118,-35.5243983579
off_to_on,-6.82711379301,-6.13914772367,-7.57011291942,2.15252239221,-1.0066130813,-5.81578650772,-3.52799863573,-2.05795287372,1.31200736515,-4.92464635899,-0.536074158576,-4.4865122846,-4.0234375102,-14.8452711281
off_to_on,-6.48300404704,-5.24710679392,-6.89336098719,2.41756338692,-0.427932694828,-6.2097321541,-4.72629111508,-3.21336227168,1.82095779027,-5.76577283778,0.0310986532633,-5.05238032087,-4.05413040447,4.70120790756
off_to_on,-5.61257689294,-3.81157866992,-5.53504391265,2.55259980874,0.292880849895,-5.77282147196,-5.28290874806,-3.91171945252,2.26739326345,-6.01331190393,0.721901299268,-5.1128606052,-3.70716212059,20.5365577949
off_to_on,-4.31638796777,-1.97609842612,-3.65729582146,2.57192797047,1.0838292212,-4.57995995746,-5.16165115409,-4.1126940574,2.62969473877,-5.68360380042,1.47531397531,-4.71935526038,-3.00376624345,30.773480365
off_to_on,-2.72833439233,0.0752158344919,-1.47214024586,2.49648508076,1.86163169749,-2.79936144431,-4.40804171425,-3.83357832975,2.88889699727,-4.85115753072,2.21692498472,-3.9675941323,-2.00046210913,34.4247012644
off_to_on,-0.999713738548,2.13924938005,0.785024118779,2.35006842831,2.54156722704,-0.669600551385,-3.14078910866,-3.14383569619,3.0302171921,-3.63598716796,2.8682849882,-2.98146439277,-0.782801441649,31.4806234707
off_to_on,0.717216034806,4.01679963662,2.88329402565,2.15556802885,3.04743995806,1.53186439535,-1.53468205179,-2.15400616589,3.04439039821,-2.18674114726,3.35682782692,-1.89463439689,0.543682836611,22.8512974507
off_to_on,2.28425696048,5.53405802418,4.62201566357,1.93175261442,3.32044848184,3.52450505779,0.202658873739,-1.0005735128,2.92864282182,-0.66196607574,3.62501208447,-0.832578156989,1.86426878307,10.186842734
off_to_on,3.58929579741,6.56022347027,5.85140441258,1.6910541408,3.32590126747,5.06018741084,1.85706624275,0.17121220359,2.68717048834,0.788090089941,3.63747241888,0.102602039581,3.06638513669,-4.39351330823
off_to_on,4.55427125456,7.01939957637,6.48583392462,1.43863970604,3.05701208271,5.95373291349,3.23378187915,1.22443711477,2.33104783934,2.03698081402,3.38526895867,0.842685210684,4.05030472346,-18.6223198437
off_to_on,5.13862517657,6.89571574344,6.5086574665,1.17286445335,2.53538863482,6.1047518705,4.17989861803,2.04556811616,1.87755877424,2.99322608269,2.88674057894,1.35806385979,4.73812573237,-30.4081091726
off_to_on,5.33838323796,6.23148509099,5.96856839616,0.886992538093,1.80824399439,5.5081422077,4.60068175409,2.55582352734,1.34901259444,3.60618339576,2.18494192129,1.65646552501,5.0802096075,-38.1178485074
off_to_on,5.18153353409,5.11905335884,4.96857776867,0.57188484724,0.942759182646,4.25218164365,4.46805038851,2.71779119171,0.77116909761,3.86642786768,1.34210647018,1.7762954586,5.05855338947,-40.7803108524
off_to_on,4.72074899254,3.68769882072,3.64954632834,0.219208463202,0.0183563576246,2.50478189966,3.82056303458,2.53684602143,0.171441993855,3.80116970457,0.431964255705,1.77596471877,4.68691993455,-38.1857155935
off_to_on,4.0246936595,2.08743351768,2.17075326711,-0.175355927844,-0.882134245692,0.489999508875,2.75534741898,2.05755936993,-0.422928347983,3.46583229543,-0.46899906694,1.72107033722,4.00789235728,-30.8726360045
off_to_on,3.16915530662,0.471784269276,0.69016208289,-0.609435335953,-1.68133811971,-1.5418911615,1.4133977293,1.35586397921,-0.986545863988,2.9333078766,-1.29015696588,1.67150521355,3.08732335647,-20.0094732902
off_to_on,2.22907798353,-1.01841112209,-0.653144283878,-1.0722676965,-2.3152004901,-3.34671379823,-0.039588026827,0.528176481959,-1.49721541957,2.28256185491,-1.97411607807,1.67047750838,2.00688677892,-7.19242253493
off_to_on,1.27227228256,-2.26844425629,-1.75238908368,-1.54430088398,-2.73899004921,-4.71685671984,-1.43422667271,-0.321057855789,-1.93687616327,1.58816926099,-2.48195740712,1.73703973204,0.8555882358,5.80721259616
off_to_on,0.355217455988,-3.19913944046,-2.54114181367,-1.99821564753,-2.93084924887,-5.50602587943,-2.6176452055,-1.09186332112,-2.2920644423,0.912069481141,-2.79578957482,1.86313273268,-0.278855207982,17.3076860272
off_to_on,-0.47899788675,-3.77153160212,-2.9955536755,-2.40129459013,-2.8926234459,-5.6452907347,-3.4704422117,-1.69985417372,-2.55392421717,0.298377740868,-2.91845810793,2.01543379639,-1.31789784819,25.9547342865
off_to_on,-1.20086279635,-3.98674247538,-3.13117639207,-2.71886189671,-2.64804030901,-5.14866561643,-3.91856116881,-2.08482484502,-2.71784172647,-0.228429945192,-2.87065622851,2.1415690412,-2.19856791448,30.899544449
off_to_on,-1.79324023575,-3.88153769149,-2.99542696552,-2.91835741391,-2.23861998395,-4.10789465588,-3.93897479902,-2.21603378654,-2.78282516624,-0.662156554554,-2.68602881787,2.17961368393,-2.87783895839,31.8936169865
off_to_on,-2.24934891815,-3.52048886973,-2.65721901027,-2.97350658945,-1.71793850999,-2.67752710611,-3.55891917497,-2.09383489286,-2.75077324795,-1.01098140631,-2.40510477756,2.06934749501,-3.3346543102,29.2903863708
off_to_on,-2.57048198211,-2.98594688293,-2.19547699988,-2.86801923448,-1.14501599687,-1.0525936815,-2.84922766695,-1.74773939273,-2.62577586313,-1.29194662701,-2.06900346873,1.76351522585,-3.56954255118,23.9574287828
off_to_on,-2.76389049353,-2.36713938808,-1.68818006311,-2.59829947322,-0.577645147273,0.557932133576,-1.91299589483,-1.23137067953,-2.41356656861,-1.52489610823,-1.71382861974,1.23738466291,-3.60200944877,17.115952694
off_to_on,-2.84107610377,-1.74964710298,-1.20328400709,-2.17477025585,-0.0664174583805,1.95828368974,-0.871282556062,-0.615068200612,-2.12120458262,-1.72689175545,-1.36649983425,0.495181577732,-3.46611066495,10.1342111079
off_to_on,-2.81653902324,-1.20631979781,-0.792412841487,-1.62159225809,0.349940370208,2.99012850133,0.152226079407,0.0229175900071,-1.75701061442,-1.90794514694,-1.04250825413,-0.427539724854,-3.20478108577,4.3071604933
off_to_on,-2.70685983225,-0.790408994911,-0.487681691382,-0.974765105246,0.647512893095,3.55087263514,1.04569472931,0.605625714941,-1.33072498188,-2.06861057135,-0.745763217414,-1.46593562709,-2.86360695345,0.655455080961
off_to_on,-2.52989221692,-0.531369680504,-0.3015025379,-0.278810547478,0.818253272217,3.60394538696,1.7211315235,1.06600306424,-0.85380724056,-2.19964253788,-0.47037144844,-2.53204462711,-2.48476764229,-0.227217842201
off_to_on,-2.30382821294,-0.433464612209,-0.228812205367,0.417576089158,0.869211592652,3.18010651481,2.12270336031,1.35408940579,-0.339761978852,-2.28358456532,-0.203908451074,-3.52425257702,-2.10184212635,1.74239481188
off_to_on,-2.04596825442,-0.477028849841,-0.250904288759,1.06638329341,0.820194687029,2.37003074969,2.23072298974,1.44211083221,0.195638796007,-2.29787700847,0.0684565200639,-4.33879032859,-1.73607388283,6.13282898254
off_to_on,-1.77116629662,-0.622041554973,-0.339967881522,1.62505862888,0.700265583326,1.30954599111,2.0612195636,1.32705792157,0.734357688342,-2.21888638442,0.359709758491,-4.88176930143,-1.39452565954,12.0708944588
off_to_on,-1.49009113267,-0.813514126667,-0.46352732127,2.0606203277,0.543573480921,0.159788297247,1.66151813962,1.03057649994,1.2564091284,-2.02618489005,0.677317082714,-5.08023942317,-1.07034591104,18.3788825426
off_to_on,-1.20760575513,-0.988132013789,-0.588200433288,2.35260925678,0.385021396735,-0.914917145719,1.10266092803,0.59624700594,1.74053516413,-1.70644442314,1.02068950837,-4.8909354278,-0.745130078637,23.7541338138
off_to_on,-0.921674175776,-1.08156635867,-0.682488668891,2.49453542452,0.256235661509,-1.76848908654,0.469767925593,0.0845569020384,2.16522596007,-1.25643465739,1.38014484453,-4.30572396111,-0.393114214767,26.9638450995
off_to_on,-0.623225223132,-1.03588153374,-0.718612805541,2.49366772479,0.182213519279,-2.29112063802,-0.148455546535,-0.433932620334,2.51001282181,-0.684797245065,1.73746480513,-3.35321671493,0.0132900040108,27.0268823249
off_to_on,-0.297317418869,-0.806488231293,-0.673648214369,2.3692285925,0.178910244656,-2.42177406443,-0.669892663312,-0.886568117668,2.75691129059,-0.0124700151034,2.06789289799,-2.09650438995,0.49729633531,23.3573828314
off_to_on,0.0742390559437,-0.368118432002,-0.530345782744,2.14925844465,0.251904015798,-2.15383470778,-1.02785345947,-1.20696746799,2.89185755678,0.728180252283,2.34320423236,-0.627423378467,1.07168016015,15.8514441248
off_to_on,0.508913286877,0.280672848962,-0.278024785997,1.8665814987,0.396161389318,-1.53356764368,-1.17779801052,-1.34294522992,2.90596870599,1.49531844746,2.53533585819,0.941867056077,1.73368694748,4.90708269156
off_to_on,1.01854769849,1.11493526477,0.0862025174162,1.55441316751,0.596830124116,-0.651958794399,-1.10144384748,-1.2631860234,2.79646851227,2.24041845007,2.62001354052,2.48898475615,2.46169303693,-8.6225174151
off_to_on,1.60420435643,2.08307194322,0.555835429032,1.2421859978,0.830915127006,0.368672194159,-0.808041604064,-0.961925149379,2.5671544317,2.91156356984,2.57985068952,3.8920031444,3.21424407432,-23.533157769
off_to_on,2.25165160232,3.10919306242,1.11324046608,0.952131960669,1.06964773489,1.391323191,-0.332864652571,-0.461038399955,2.22833353198,3.4570091398,2.40651496229,5.03966470615,3.93185257341,-38.4144700172
off_to_on,2.92844794231,4.09819226669,1.72821744642,0.697049795181,1.28133434573,2.28197201377,0.266820084288,0.190845742988,1.79621802023,3.82880647682,2.10173277236,5.84025549305,4.54162295002,-51.8142106063
off_to_on,3.58348630521,4.94343591235,2.35748661903,0.479522175949,1.43446107354,2.92601326678,0.917858767568,0.92232670896,1.29183589063,3.98634928912,1.67709875028,6.22850940385,4.96442049159,-62.3996020293
off_to_on,4.14959850343,5.53667340462,2.94572492888,0.292650870823,1.50082992256,3.24152929292,1.53882507569,1.64610529386,0.739569817794,3.89974351989,1.15284134233,6.17018025473,5.12394889532,-69.0954753773
off_to_on,4.54940939999,5.77946601129,3.42864005201,0.122174928966,1.4585040392,3.18797234679,2.04848468092,2.268217525,0.165479676185,3.55290391362,0.555836551119,5.66417168466,4.95679255542,-71.1838936023
off_to_on,4.70412359927,5.59513043553,3.73828204094,-0.0503460522983,1.29434318644,2.76948987971,2.37439800758,2.69878101749,-0.404414833534,2.94624158313,-0.0827621274842,4.74231646206,4.42225760599,-68.356673452
off_to_on,4.54439744142,4.93995090464,3.81039313109,-0.243740739028,1.0059176402,2.03282277562,2.46092676552,2.86314708907,-0.945717688227,2.09873625516,-0.729907032302,3.46702993271,3.51074672086,-60.7195979322
off_to_on,4.02198083461,3.81228091655,3.59315146452,-0.473361924396,0.602604304524,1.06035621777,2.27592058398,2.71218990893,-1.43695810388,1.04910632979,-1.35274848417,1.92712656223,2.24945218682,-48.7539151943
off_to_on,3.12049124873,2.25817785014,3.05625514875,-0.747691486499,0.10569972025,-0.0405717232887,1.81541188098,2.23043352706,-1.860506552,-0.144271216758,-1.92024848884,0.232098704508,0.704358932898,-33.2459185165
off_to_on,1.86357543786,0.372419242995,2.19900246352,-1.06589275393,-0.452562875438,-1.1506503354,1.10575022151,1.44084177614,-2.20305799177,-1.40504983289,-2.40427047941,-1.49486137418,-1.02209614187,-15.1982912854
off_to_on,0.318865120393,-1.7058562944,1.05592282812,-1.41666316309,-1.03112754151,-2.1522649951,0.202771316631,0.405380436256,-2.4556948273,-2.64250519211,-2.78023538238,-3.12483175863,-2.79789029255,4.26279138342
off_to_on,-1.40345375168,-3.80308149743,-0.301354278923,-1.77856984094,-1.58329375333,-2.94230468928,-0.812175462909,-0.77910976116,-2.61359639064,-3.75717014791,-3.02753536455,-4.53184766435,-4.47244760138,23.9729002136
off_to_on,-3.15799772678,-5.72629323311,-1.76693086477,-2.12185800777,-2.06077216693,-3.44277862186,-1.83922930831,-1.98965443032,-2.67550274747,-4.64841497322,-3.12994133661,-5.60197361687,-5.89093212369,42.7989140689
off_to_on,-4.77721402038,-7.28208806882,-3.20852745112,-2.41153166802,-2.41830705126,-3.6082559045,-2.76960939973,-3.08984057155,-2.64306265821,-5.22357513365,-3.07621833187,-6.24232928834,-6.91041082041,59.6897038552
off_to_on,-6.08898231485,-8.29767925625,-4.4800597422,-2.61134198667,-2.61844222992,-3.42955528594,-3.49701672119,-3.94524171651,-2.52019593972,-5.40790779268,-2.86107738105,-6.38950659363,-7.41614098248,73.7094646892
off_to_on,-6.93692117085,-8.64174911895,-5.43778230097,-2.68820128644,-2.63592702032,-2.93353939164,-3.929761921,-4.43988684716,-2.31257996406,-5.15436887441,-2.48645980223,-6.01668482555,-7.33606893554,84.0589284503
do_nothing,-7.2009514915,-8.24255285339,-5.95820114745,-2.61648373318,-2.46122872482,-2.17926246133,-4.00231017928,-4.49179740077,-2.02733252156,-4.45200201334,-1.9629967847,-5.13865889484,-6.6516830353,90.0916568393
do_nothing,-6.81538565446,-7.10080070863,-5.95547820862,-2.38168363719,-2.10265283488,-1.25104673929,-3.68483672933,-4.06555766665,-1.67291525881,-3.33167088241,-1.31134649377,-3.81398416003,-5.40365587372,91.3324893803
do_nothing,-5.78188850573,-5.29525033821,-5.39586237466,-1.98297660994,-1.58667765306,-0.24929965305,-2.98945334718,-3.18008632226,-1.25923142241,-1.86798363795,-0.563015349729,-2.14354382233,-3.69122014904,87.5030654841
do_nothing,-4.17511430214,-2.97965984609,-4.30684151814,-1.43435742751,-0.956282844126,0.71997505342,-1.9720152813,-1.91023872,-0.797847027102,-0.176565228783,0.239753862339,-0.265079878431,-1.66490209484,78.5556278865
do_nothing,-2.13962690906,-0.370718273878,-2.77922507343,-0.764194830801,-0.267276836166,1.55596934818,-0.728843855523,-0.38155261314,-0.302233155548,1.5936862626,1.04538183098,1.65640720538,0.486987663327,64.7118444947
do_nothing,0.122228276816,2.27232355539,-0.961191659842,-0.0132269636102,0.417118817683,2.17319279446,0.611731010148,1.24171813305,0.212085918329,3.27311558995,1.79584625397,3.44201978611,2.55692476286,46.4991363897
do_nothing,2.37064355707,4.674489702,0.95562575665,0.768800435948,1.03292140502,2.51004480018,1.90245157513,2.77425618115,0.727586440545,4.68769287654,2.43105560025,4.91520058496,4.33993430555,24.7739537901
do_nothing,4.35484340176,6.57558800641,2.75682925186,1.52749850399,1.52256038974,2.53510141722,2.99362396769,4.03117856612,1.22508107209,5.67773034818,2.8944310209,5.91946773716,5.65617626729,0.720400783934
do_nothing,5.84277256103,7.76092004825,4.23049608059,2.20873841429,1.84172328308,2.25056296682,3.75124126726,4.85090408658,1.68437446851,6.11690528521,3.13916741198,6.33587314823,6.37174329465,-24.1859627784
do_nothing,6.65036975576,8.08844499706,5.19394531478,2.76357449631,1.96499255789,1.69252134536,4.07456966761,5.1165606011,2.08522425004,5.92928339914,3.13443446247,6.09818783538,6.41512988881,-48.255394998
do_nothing,6.66663889449,7.50884028548,5.51857334269,3.15267312757,1.88947553325,0.927943316159,3.91089335426,4.77309768571,2.40854038066,5.10204080475,2.87065680861,5.20382792941,5.78721868281,-69.7026120284
do_nothing,5.87104734807,6.075565512,5.14932066835,3.34979480402,1.63582809562,0.048522733524,3.26527633626,3.83763991292,2.63771066885,3.69189783547,2.36301024553,3.71880855189,4.56330337817,-86.799947955
do_nothing,4.34058080905,3.94311624922,4.11583199173,3.34398662776,1.24637024483,-0.838178154962,2.20366828496,2.40133654449,2.75990940574,1.82389128607,1.65240279783,1.7755458692,2.88655958497,-98.0510363821
do_nothing,2.24498408239,1.35303485619,2.53330907275,3.14028662967,0.780353714363,-1.61961443818,0.848420615461,0.621961035191,2.76723513841,-0.31803355219,0.803469529736,-0.436922409232,0.953383283328,-102.365122131
do_nothing,-0.169824896286,-1.39123823593,0.592324975302,2.75890266283,0.306824105684,-2.19024771531,-0.633789501543,-1.29232795372,2.65753437264,-2.50812960359,-0.100528411078,-2.68983985156,-1.00797931273,-99.2086473043
do_nothing,-2.60864821342,-3.95812889708,-1.46169022729,2.2329886996,-0.104129633611,-2.46352596421,-2.05061854103,-3.10647898349,2.43479947835,-4.50215121087,-0.965591813861,-4.7373800727,-2.76321366387,-88.7105860112
do_nothing,-4.76128425871,-6.02655587397,-3.35715989548,1.60528284744,-0.390678168761,-2.38263240767,-3.20733423983,-4.58667678848,2.10907699933,-6.06444739445,-1.69693246135,-6.34283541363,-4.0992075284,-71.701518133
do_nothing,-6.34018000929,-7.32487862965,-4.82992991268,0.923979741617,-0.507905750209,-1.9287812901,-3.93198150628,-5.52974679863,1.69588024227,-6.99578246821,-2.20990276065,-7.30552125854,-4.84959721595,-49.6734552994
do_nothing,-7.11684825831,-7.66538339909,-5.65754754952,0.238274961991,-0.434627100403,-1.12596801398,-4.09925497561,-5.79013351397,1.21515927419,-7.15851916751,-2.44059129964,-7.48526477079,-4.91547278116,-24.6572010162
do_nothing,-6.95241303427,-6.96988393824,-5.68981276438,-0.405964270985,-0.177355370584,-0.0413492148235,-3.64984403479,-5.30088034582,0.689933885477,-6.49591589014,-2.35469944122,-6.82141698506,-4.27861110809,0.974718233175
do_nothing,-5.81822373747,-5.28295328851,-4.87146069327,-0.969979243417,0.22926554999,1.21917363483,-2.60239903563,-4.08564450628,0.144733290188,-5.04283576169,-1.95343040068,-5.34379332593,-3.00543389516,24.7603648671
do_nothing,-3.80360328827,-2.77072380522,-3.25369770737,-1.42500176658,0.725813003527,2.5200941793,-1.05606323556,-2.25980539507,-0.395994939311,-2.92609399011,-1.27542205336,-3.1737757623,-1.24096568852,44.4274106269
do_nothing,-1.10933713845,0.29507211946,-0.99264848037,-1.75399589865,1.23497335218,3.70953905134,0.817358247303,-0.0200515322642,-0.909347354872,-0.353879535967,-0.394208132592,-0.514914465586,0.806732197403,58.1643248222
do_nothing,1.97272204731,3.56631321789,1.66558635088,-1.95214435354,1.67122638396,4.63543520554,2.7911972145,2.37670388748,-1.3751633686,2.40496793429,0.588754222968,2.36638021593,2.89000019867,64.8476659106
do_nothing,5.09179080408,6.65774505584,4.41182497769,-2.02609809,1.95217083764,5.16297695539,4.60994212966,4.64281441737,-1.77686638853,5.04973564375,1.55487045406,5.1682190862,4.75023762706,64.1929122541
do_nothing,7.87835204837,9.19173256793,6.90961339348,-1.99213350944,2.01005502293,5.19145351502,6.02053669571,6.49436091922,-2.10190556492,7.28148066197,2.3818558866,7.58577723036,6.1484270674,56.8046188336
do_nothing,9.9876334735,10.8431644587,8.83566420197,-1.87346758046,1.80197729053,4.66839870158,6.80514859665,7.68637619074,-2.34181132839,8.83761414545,2.95828597635,9.34533118996,6.89387749222,44.1139864136
do_nothing,11.141079041,11.3790274394,9.9199265145,-1.69705717726,1.31732571147,3.59917195829,6.81119859318,8.04438446251,-2.49192764215,9.52324348655,3.19747265697,10.2357977951,6.8676874773,28.2066440749
do_nothing,11.1606849786,10.6877244032,9.98021381202,-1.49024851232,0.581330003023,2.05048031853,5.97458382944,7.48813631778,-2.55092121152,9.23535733011,3.04889756667,10.133949307,6.03801776832,11.558604303
do_nothing,9.99188953895,8.79440255708,8.94690609257,-1.27764315711,-0.345931123085,0.146976331649,4.33272582439,6.04429857248,-2.52018762268,7.97671764132,2.50567512525,9.02013525856,4.46522271768,-3.28818637958
do_nothing,7.71208481818,5.86024299852,6.87443019943,-1.07851008078,-1.37514453562,-1.93914455939,2.02525541258,3.84618763469,-2.40327412504,5.8575274439,1.60697158972,6.98241774584,2.2961081699,-14.0695088771
do_nothing,4.52358650378,2.16563248552,3.93786011874,-0.905003307823,-2.39746237232,-4.00476231085,-0.718323940892,1.12025109972,-2.2054192444,3.08442724321,0.434916739855,4.20839766987,-0.252090642268,-19.1160412776
do_nothing,0.731827437661,-1.92085937387,0.41485623927,-0.761350120176,-3.29718367939,-5.83705519075,-3.60296829402,-1.83930024824,-1.93327429732,-0.0620494283851,-0.893764298894,0.965505323273,-2.91615006722,-17.5999606209
do_nothing,-3.28861632511,-5.9839971888,-3.34496714459,-0.644065303828,-3.96587537544,-7.23703758301,-6.30177582686,-4.70475194321,-1.5948272217,-3.25896489278,-2.24049083207,-2.42804091294,-5.41680909444,-9.67470990777
do_nothing,-7.13604274093,-9.60887131345,-6.95954163528,-0.543134053587,-4.31614188288,-8.04269261954,-8.49504341747,-7.15387387518,-1.19950240785,-6.17765425057,-3.46045066359,-5.63822604522,-7.49062951545,3.51517927772
do_nothing,-10.4265698289,-12.4276567123,-10.0578635871,-0.444001232201,-4.29323667556,-8.14887188173,-9.90986765216,-8.90878759697,-0.758369124785,-8.52113836407,-4.41922387916,-8.35203066455,-8.91991890703,19.96043861
do_nothing,-12.8365604076,-14.1604696902,-12.3221657665,-0.330118253847,-3.88293484085,-7.52138473367,-10.3552187711,-9.76979787239,-0.28436245719,-10.0576891764,-5.00836342088,-10.3116235843,-9.55710668628,37.0374297361
do_nothing,-14.1374370058,-14.6454135664,-13.523554414,-0.185739583825,-3.11453066902,-6.20329702284,-9.74783929069,-9.63984908278,0.207590820284,-10.6464218232,-5.15799585723,-11.3418607971,-9.34065482897,51.8529710061
do_nothing,-14.2188076768,-13.854290322,-13.5467773901,0.00136529811112,-2.05843463834,-4.31234377349,-8.12537269493,-8.53641946099,0.70064124996,-10.2517836895,-4.84486694349,-11.3678265475,-8.30064490753,61.6401191324
do_nothing,-13.0973446975,-11.892286084,-12.4012028485,0.237608901973,-0.818542086088,-2.02943133728,-5.64468986858,-6.58925191661,1.17635438604,-8.94521862437,-4.09482792062,-10.420402678,-6.55347736564,64.1529436004
do_nothing,-10.9106882134,-8.98197420418,-10.2168730175,0.52197137315,0.479760706408,0.420671410996,-2.56525709306,-4.02413556741,1.61535059104,-6.89392281713,-2.97946602148,-8.62936268221,-4.28648162752,58.0067119624
do_nothing,-7.89754255931,-5.43395349074,-7.22641495955,0.845279045383,1.70449223899,2.79432262376,0.780663651257,-1.13475906952,1.99823174156,-4.33826216462,-1.60733284728,-6.2050602875,-1.73449124,42.9155528992
do_nothing,-4.36684398346,-1.60809215491,-3.73538319003,1.19048171077,2.73299875366,4.85675169884,4.02743306607,1.75378482116,2.30673035004,-1.56086984023,-0.11091679845,-3.41121206115,0.848575438003,19.7920136104
do_nothing,-0.660181457119,2.12953518269,-0.0850393408409,1.53392306662,3.4668574311,6.40918682725,6.82019352287,4.32516435642,2.52497432822,1.14850669967,1.36895280318,-0.53237054878,3.219498882,-9.30953336044
do_nothing,2.8876191224,5.44849259075,3.38754609917,1.84748631366,3.84381035623,7.31197315026,8.85817891805,6.31047436742,2.64073208882,3.5278295141,2.69926534072,2.15969635657,5.17315901693,-41.4032193878
do_nothing,5.98476971332,8.08937848639,6.38696700524,2.10139545582,3.84513969656,7.50071001033,9.93160018951,7.52042304956,2.64649262367,5.3727840253,3.76949849513,4.43644409805,6.56417412253,-72.912675129
do_nothing,8.41126671303,9.88851745447,8.68989100326,2.26737384809,3.49747336107,6.99325892878,9.94728470413,7.86691031592,2.54024558944,6.55819793625,4.50296916673,6.13603762392,7.32020349039,-100.101582104
do_nothing,10.0368775675,10.7892161327,10.1648391771,2.32181421546,2.86873405194,5.88660237137,8.93965282528,7.37126782583,2.32585620793,7.04827886344,4.86350559218,7.17711424198,7.44547082703,-119.539756041
do_nothing,10.8266876233,10.8387072507,10.7792959878,2.24860477759,2.05871796222,4.34382570689,7.06549461079,6.15819611602,2.01297498301,6.89462300366,4.85672780899,7.56140899181,7.01437297046,-128.544802358
do_nothing,10.834256061,10.1718412009,10.5938714345,2.04128629128,1.18550891202,2.57278291484,4.5831192476,4.43632996241,1.61647657862,6.22261613864,4.52596036966,7.36535560272,6.15634759007,-125.541358685
do_nothing,10.1840944669,8.98433566878,9.74498987588,1.70428237138,0.369501622745,0.799118002969,1.81850983897,2.46813500349,1.15547804863,5.2084194956,3.94352572171,6.72226469433,5.03430984705,-110.289687065
do_nothing,9.04655490135,7.49972524037,8.41908125008,1.25304362266,-0.282854595674,-0.762904635027,-0.877150608622,0.533248076427,0.652036083685,4.04999135071,3.19877902751,5.79792740507,3.81978076348,-83.9516995436
do_nothing,7.60911325088,5.93488867611,6.82229784605,0.713064416204,-0.693421762384,-1.93796914521,-3.17304641126,-1.10976991084,0.129659108482,2.93636846958,2.38466122854,4.76332765423,2.66821242398,-48.9832837
do_nothing,6.04834474556,4.46907944014,5.15023696082,0.117856397415,-0.82291027416,-2.61204405305,-4.80141120602,-2.25811264777,-0.388212044484,2.01961396066,1.584710256,3.7684577701,1.6979185424,-8.86429609939
do_nothing,4.50658280857,3.22074852557,3.56196526081,-0.493919375099,-0.676142491059,-2.74649886687,-5.59169716019,-2.7911905743,-0.879603814905,1.39340592086,0.862359373195,2.9209812785,0.975459642955,32.3011920384
do_nothing,3.07638833775,2.23522560606,2.16185412036,-1.08186332805,-0.30129084348,-2.38207080193,-5.49170847624,-2.68536265131,-1.3251613452,1.08125560481,0.253984129209,2.27271267276,0.509389010134,70.2647356381
do_nothing,1.79467049358,1.4846932846,0.991470696928,-1.6074296989,0.216861472693,-1.6320810695,-4.57289225199,-2.01503050025,-1.70896171611,1.03594289592,-0.233411215872,1.8156992544,0.253069402056,101.133155505
do_nothing,0.646786060336,0.88008281273,0.0322168567098,-2.03731664517,0.768788107927,-0.665730282509,-3.01908060084,-0.940048446228,-2.01894795765,1.15013664428,-0.619668689592,1.48826399792,0.11598609293,121.824963013
do_nothing,-0.420574377038,0.292793270026,-0.782204901083,-2.34629299713,1.23567191432,0.316358561111,-1.10018335991,0.318734952053,-2.24699464124,1.27655475529,-0.944627923767,1.18990351143,-0.0182145075417,130.426113121
do_nothing,-1.4802087015,-0.417268689469,-1.54585978999,-2.51916546954,1.50640451806,1.11111529096,0.865655577323,1.51237794147,-2.38866298247,1.25463977235,-1.25810310998,0.802639035331,-0.269675710124,126.400733737
do_nothing,-2.6023317791,-1.37172054149,-2.35660786932,-2.55169020687,1.49386958156,1.54263671164,2.55637526036,2.40062296716,-2.44273901961,0.939773813706,-1.60829943851,0.21547423472,-0.739549135389,110.63137377
do_nothing,-3.83338465157,-2.64645213583,-3.29205310056,-2.45035585086,1.14831992422,1.48842862238,3.69084911615,2.7874679895,-2.41066766898,0.230666453816,-2.03051142627,-0.651845540543,-1.48986474978,85.2854577687
do_nothing,-5.17930254095,-4.25132244912,-4.38932157165,-2.23109693875,0.466023635756,0.898670084455,4.06825016918,2.55062568353,-2.29599596463,-0.909223363711,-2.53790568821,-1.82948737111,-2.52906994113,53.5270616093
do_nothing,-6.59608735738,-6.1200209721,-5.63194250312,-1.91712014175,-0.508037008107,-0.194211623422,3.59663450554,1.66080735836,-2.1039211423,-2.43955502444,-3.11588818096,-3.28568627962,-3.80546833451,19.1128366505
do_nothing,-7.98937613443,-8.11183869528,-6.94599423783,-1.53612620846,-1.68385794884,-1.67709961487,2.30688296048,0.188160871784,-1.84100678317,-4.24229623,-3.72103382341,-4.92441594549,-5.2096897683,-14.0746999158
do_nothing,-9.22329522218,-10.0253771467,-8.20625597875,-1.11727486263,-2.93610795715,-3.36885032024,0.350094240816,-1.70505763172,-1.51508858704,-6.13267991842,-4.28488896201,-6.59321886707,-6.586062204,-42.4960912058
do_nothing,-10.1374499264,-11.6225046832,-9.25158515619,-0.688260204048,-4.11865228077,-5.04254810513,-2.02126913857,-3.78462909291,-1.13534745029,-7.88070802609,-4.72223933632,-8.10036893906,-7.75150725043,-63.36653424
do_nothing,-10.569633049,-12.6593882305,-9.90734251704,-0.272837904033,-5.08210079135,-6.45454477337,-4.48601466949,-5.77465141517,-0.712488610482,-9.24047201053,-4.94277014761,-9.23917433778,-8.51951454519,-74.9593020155
do_nothing,-10.3809287351,-12.9203916002,-10.011614593,0.110923739631,-5.69218023987,-7.37654677702,-6.69633286847,-7.39390782152,-0.258938072667,-9.98341517682,-4.86452541666,-9.81616264824,-8.72601234499,-76.7654198185
do_nothing,-9.47947161947,-12.2501803518,-9.44138915151,0.451499770427,-5.84662093092,-7.62657273717,-8.32383382145,-8.39346681642,0.211044083017,-9.93104216055,-4.42727526328,-9.67927415777,-8.25364314484,-69.493681296
do_nothing,-7.83925451551,-10.579567043,-8.13480585982,0.74382536695,-5.48843799979,-7.09471447549,-9.10344048809,-8.59050447262,0.681427558832,-8.98257403676,-3.60386519504,-8.74211084602,-7.0511160983,-54.9164199951
do_nothing,-5.51103947033,-7.94143851751,-6.10613222184,0.988353719497,-4.61394932011,-5.76028278517,-8.86936976103,-7.89386119191,1.13472337695,-7.13365658192,-2.40785701268,-7.00076019579,-5.14492037167,-35.5865458186
do_nothing,-2.62351902491,-4.4744127609,-3.45112355083,1.18944828564,-3.27454288943,-3.69801898627,-7.57849418879,-6.31796394595,1.55257640699,-4.483372607,-0.896244745206,-4.54067012704,-2.64166238158,-14.4675270795
do_nothing,0.625762620586,-0.413493398929,-0.341766705794,1.35338719778,-1.57199640186,-1.07245869095,-5.318055902,-3.98330443438,1.91662698971,-1.22833216583,0.83332390546,-1.53236224228,0.279497052461,5.47185070935
do_nothing,3.98878271323,3.93129937882,2.98911403527,1.48630223919,0.352043844753,1.87894167463,-2.29677028506,-1.10344863553,2.20958353788,2.3556896253,2.650658822,1.78374545601,3.38354537927,21.6432192966
do_nothing,7.19245871355,8.20577551557,6.2715061871,1.59237379737,2.33110331332,4.87186413099,1.17946906505,2.03967910802,2.41640796587,5.94245784606,4.40559454258,5.12168205533,6.40351680193,32.1546870797
do_nothing,9.96788024093,12.0481401142,9.22709889276,1.67255701801,4.19158442445,7.60715465674,4.74408149174,5.12898138756,2.52548831598,9.19085427502,5.94353515635,8.18048539577,9.06871605251,36.0182555472
do_nothing,12.079594679,15.126816048,11.5996966303,1.72402975266,5.77099557847,9.80485193282,8.01373865659,7.84952742882,2.52966253184,11.7829495924,7.122093475,10.6772053671,11.1338483679,33.2257468295
do_nothing,13.3511874885,17.1749586586,13.1832600817,1.74044191002,6.93455418419,11.2360310386,10.6341040925,9.92526187053,2.42696597226,13.4598690674,7.82678500431,12.3782491458,12.4055346792,24.6890854019
do_nothing,13.6839205996,18.0175903134,13.8440367149,1.71292426961,7.58827662609,11.7485902485,12.3215794704,11.1504678325,2.2210021235,14.0510390019,7.98385035641,13.125190626,12.7630437971,12.0593841071
do_nothing,13.066155652,17.588293331,13.5340818051,1.63169997914,7.68716044496,11.2839181638,12.8958797754,11.4121452517,1.92087750459,13.4932623462,7.56864434677,12.8518979673,12.1708278544,-2.5447563187
do_nothing,11.5725504426,15.933778712,12.2946603415,1.4880501831,7.23771474924,9.88256624344,12.2995401345,10.7007293401,1.54069222913,11.8373837214,6.60859449332,11.5909698838,10.6814976571,-16.8581403403
do_nothing,9.35339324705,13.2061997819,10.2493867293,1.27632962232,6.29481398861,7.67845598808,10.6022186482,9.10814505934,1.09863002022,9.24188662858,5.18041793771,9.46885445178,8.42907745378,-28.7924577419
do_nothing,6.61573383986,9.64459109774,7.58830640197,0.995716586885,4.95354155874,4.88258254051,7.98965745369,6.8138531633,0.615738323987,5.95440551592,3.40200069172,6.69046414794,5.61357307838,-36.7173995676
do_nothing,3.59900061519,5.54808326332,4.54526296187,0.651416000722,3.33726421017,1.75844953611,4.73912720011,4.06106632462,0.114523994663,2.28361540143,1.41999126655,3.51540353773,2.47891731229,-39.6623212961
do_nothing,0.548420405602,1.24441338789,1.37167251206,0.255109822636,1.58356581641,-1.40757838603,1.18484810242,1.12649933132,-0.382491930133,-1.43490936139,-0.605341999728,0.228920149876,-0.712908601052,-37.4141172585
do_nothing,-2.31029711455,-2.9423799342,-1.68985414229,-0.175445365642,-0.170172503056,-4.33730387575,-2.32195984498,-1.7122838991,-0.854117873771,-4.87463761263,-2.51615589145,-2.88875080364,-3.70842526624,-30.5026451271
do_nothing,-4.79189198597,-6.72134451906,-4.42876935893,-0.617652852179,-1.79983918248,-6.78937920094,-5.45323317495,-4.20772996558,-1.28161089818,-7.75151890228,-4.17210451219,-5.59091407436,-6.28678745901,-20.0813171904
do_nothing,-6.76575264747,-9.85798568799,-6.6840679846,-1.04600292727,-3.20489503223,-8.5823668086,-7.93944679573,-6.16759535227,-1.64948351873,-9.85108705099,-5.46276354803,-7.68750770805,-8.2788624493,-7.72502603424
do_nothing,-8.16209670669,-12.1895172558,-8.35428186479,-1.4344537278,-4.3149611323,-9.60975243226,-9.59607049364,-7.47183244198,-1.94595525918,-11.0463506903,-6.31613660699,-9.06029881688,-9.57938782479,4.82161170807
do_nothing,-8.97004991791,-13.6310900233,-9.39942262097,-1.75896095088,-5.09229350591,-9.84560642872,-10.3382913081,-8.07946392931,-2.16305431321,-11.3048712673,-6.70252193145,-9.66884932847,-10.1513115412,15.9070366895
do_nothing,-9.22869183589,-14.1733210465,-9.83545822715,-1.99982879713,-5.53031104451,-9.34082204585,-10.1828470789,-8.02525762364,-2.2964191214,-10.6848555734,-6.63362971721,-9.54717281456,-10.0224470551,24.2079904797
do_nothing,-9.01307197733,-13.8725236506,-9.72290488553,-2.1435781696,-5.64884189655,-8.21103572478,-9.23754685102,-7.4073787497,-2.34488392992,-9.32146743992,-6.15743091385,-8.79220389313,-9.27552587765,28.9042951524
do_nothing,-8.41778664492,-12.8358234,-9.15181522101,-2.1840949137,-5.48712152219,-6.61830089644,-7.68062300306,-6.36833007361,-2.30995177085,-7.4057100336,-5.34970940494,-7.54618668231,-8.03347434016,29.7704062623
do_nothing,-7.5408681047,-11.2037474131,-8.22575670964,-2.12292112138,-5.09577008355,-4.74922511718,-5.73326167181,-5.07224439319,-2.19526044824,-5.1590033891,-4.30361998226,-5.97573241692,-6.44219043627,27.1740341328
do_nothing,-6.47046552293,-9.13286412346,-7.04727234629,-1.96867174937,-4.52898207131,-2.79252332594,-3.62934498845,-3.68188122869,-2.00613235537,-2.80689619655,-3.11868900956,-4.25052571536,-4.6532055773,21.9860838636
do_nothing,-5.27614879327,-6.78066223575,-5.70683519083,-1.73567974604,-3.8379893943,-0.918777768478,-1.58654100184,-2.33848173448,-1.74927020194,-0.555188577869,-1.89062698337,-2.52446292077,-2.80839047501,15.4189614877
do_nothing,-4.00575679196,-4.29418129068,-4.27654312053,-1.44207800437,-3.06654784803,0.735325433297,0.217590358759,-1.14700462323,-1.43262301984,1.42884690607,-0.703075205376,-0.921434489815,-1.02835722222,8.82011615009
do_nothing,-2.68769361615,-1.80307133606,-2.80888456431,-1.10760051139,-2.24880151429,2.0767977615,1.66175038758,-0.168312967143,-1.06540648223,3.02836839053,0.377970242825,0.472881481758,0.594487957427,3.45321694492
do_nothing,-1.33761691761,0.583087437064,-1.33999411046,-0.751417335047,-1.40946508541,3.05962532253,2.68785140698,0.581239408666,-0.658225278999,4.18129704891,1.3067614157,1.61282862312,1.99806058566,0.29995197935
do_nothing,0.0322837100363,2.77409214663,0.103942777332,-0.390303989626,-0.565894438551,3.68188163548,3.29868752595,1.12349112848,-0.223219004688,4.87747528163,2.05757831179,2.48876478333,3.14843190545,-0.088815261493
do_nothing,1.40363472304,4.69641610066,1.49896421026,-0.037387484229,0.268655213323,3.97782922944,3.54755765568,1.50704610698,0.22585892686,5.14999104011,2.62221429054,3.11862692577,4.03450982276,2.3279119303
do_nothing,2.7440881828,6.29003376693,2.81625630405,0.298382256191,1.08142074739,4.00672284537,3.52211687683,1.79300750917,0.673715365487,5.0626774638,3.00595596328,3.53699689582,4.66104527047,7.08150285507
do_nothing,4.00325165945,7.50615836988,4.01748105808,0.612001886302,1.85699795738,3.84029103121,3.32537865841,2.04041381151,1.1038102034,4.69611168758,3.2229577153,3.78379875913,5.04152235336,13.270769635
do_nothing,5.11349027994,8.30685579306,5.05372850594,0.901510454797,2.57536078712,3.55082597707,3.05696678698,2.29378336392,1.49890040115,4.13437485155,3.29186800111,3.89461055532,5.19230482943,19.702304563
do_nothing,5.99583350526,8.66689113556,5.86856223838,1.16660228374,3.21145502932,3.20148561915,2.79742284444,2.57467465223,1.84182692852,3.4544328005,3.23238633428,3.89411658606,5.12900576332,25.0718205608
do_nothing,6.57024125872,8.5774932696,6.40478853672,1.40702330237,3.73647415963,2.839879243,2.59768261033,2.87839876311,2.11649400595,2.71933971642,3.06315604042,3.79354828119,4.86550072516,28.1591199515
do_nothing,6.76861164992,8.05111858066,6.61379943751,1.62105159068,4.12060531929,2.49536666863,2.4748689052,3.17610936205,2.30895297828,1.97567604878,2.80108125772,3.59218128623,4.41541687839,28.0083945673
do_nothing,6.54829487606,7.12587570827,6.46575558364,1.80435049989,4.33676142942,2.17986035555,2.41447023789,3.42159165857,2.40847722663,1.25484364097,2.46185457615,3.28220492162,3.79540364977,24.0687810721
do_nothing,5.90362497475,5.86812387708,5.95859041532,1.949425062,4.36463435842,1.89138085753,2.37795479552,3.56131702833,2.40850399925,0.577184158229,2.06124620236,2.85568027147,3.02911558653,16.2768011217
do_nothing,4.87314591335,4.37191629734,5.12388883698,2.04581775847,4.19434121407,1.6192575372,2.31406185915,3.54583818641,2.30732591005,-0.0425358283499,1.61657523976,2.31194999096,2.15067759757,5.07135900783
do_nothing,3.54077763309,2.75441077573,4.0281182133,2.08106199434,3.82899849725,1.34973268544,2.1715323541,3.34044060052,2.10843851707,-0.589858387762,1.14777771729,1.6638096053,1.20648323579,-8.65809464566
do_nothing,2.0300623137,1.14704335901,2.76840593004,2.0422883267,3.28573378427,1.07082291274,1.91094629201,2.93315467021,1.82048775323,-1.04699687308,0.677601326973,0.941000056778,0.25448331315,-23.6803062846
do_nothing,0.491718187445,-0.316953067044,1.46295469274,1.91826817651,2.59490062974,0.775583101531,1.51362416994,2.33873035265,1.45680689142,-1.39180148825,0.230669131074,0.190088459149,-0.639398068934,-38.570587105
do_nothing,-0.914159956909,-1.51733964699,0.237120521368,1.70159925683,1.79755581741,0.463340305654,0.986158931272,1.59789382658,1.03458076635,-1.59968793726,-0.168577369188,-0.529519292963,-1.40751275178,-51.8771094616
do_nothing,-2.03895471467,-2.36202235302,-0.793004847364,1.39069891166,0.941539994036,0.13893361053,0.35996371331,0.772023651819,0.573718405121,-1.64821204467,-0.498772293703,-1.15295929938,-1.98863403526,-62.282449922
do_nothing,-2.7664866691,-2.80028577692,-1.53710540038,0.991282484016,0.0767268722575,-0.189577245816,-0.313892138628,-0.065832868259,0.0955479781063,-1.52335543909,-0.744846809818,-1.61954740791,-2.33677576406,-68.7400696285
do_nothing,-3.03091135289,-2.8318586739,-1.9446440099,0.517063075908,-0.749863559784,-0.513964178496,-0.973477302045,-0.842060813542,-0.378534410072,-1.22614147602,-0.900932793565,-1.88305827177,-2.42919992964,-70.5705736763
do_nothing,-2.82863963553,-2.50996089212,-2.0139635059,-0.0104911417175,-1.49837641531,-0.828738945578,-1.55674073398,-1.49379365866,-0.828330366733,-0.778009764004,-0.972287734679,-1.9208170422,-2.27211057158,-67.5095407692
do_nothing,-2.22208743855,-1.93721933224,-1.79469480128,-0.563379385069,-2.1392463406,-1.13307111568,-2.0122203551,-1.97849948504,-1.2359044784,-0.223482187712,-0.975691715681,-1.7398696907,-1.9027745984,-59.7062576551
do_nothing,-1.33415142053,-1.25432114933,-1.38260217898,-1.10917243908,-2.65472188604,-1.43110751774,-2.30778074787,-2.28017446226,-1.5863656266,0.370956464243,-0.937992783799,-1.37889227963,-1.38728556523,-47.6796031337
do_nothing,-0.333620847133,-0.622357085634,-0.907105766982,-1.61377573047,-3.03864046966,-1.73045412716,-2.43581590882,-2.41104004821,-1.86832154471,0.922222754638,-0.892781889426,-0.905136926593,-0.813828119858,-32.2425543799
do_nothing,0.586915520651,-0.200834202114,-0.512857007266,-2.04453229257,-3.29459011322,-2.03901051242,-2.41398833639,-2.40838688432,-2.07400797881,1.33995707255,-0.875513455119,-0.406496012159,-0.282013018744,-14.4096250335
do_nothing,1.23792447141,-0.124143282751,-0.337731497012,-2.37329317456,-3.4328545113,-2.36075308448,-2.28136374004,-2.32702165178,-2.1991349033,1.5387657865,-0.917696015684,0.0204258256474,0.110475551607,4.69827665177
do_nothing,1.46096417158,-0.479715090594,-0.490287963307,-2.57908015849,-3.46673059709,-2.69136662324,-2.0906088713,-2.22852189031,-2.2425243637,1.45171504778,-1.04100461545,0.28463904849,0.282156195631,23.9393592322
do_nothing,1.15396421682,-1.29110204121,-1.03000567881,-2.65001450116,-3.40890108847,-3.01476132113,-1.89761381806,-2.1690663236,-2.20563326916,1.04301373925,-1.25226912842,0.315419959471,0.180903100502,42.2187379633
do_nothing,0.290010747793,-2.50875110226,-1.95339772082,-2.58427920004,-3.26852321604,-3.30145085191,-1.75036453153,-2.18789171799,-2.09205755591,0.317742220573,-1.54024523618,0.0750300005871,-0.206058056069,58.5354645978
do_nothing,-1.07336064049,-4.01033249523,-3.18841582096,-2.39000791203,-3.04956227132,-3.50950681957,-1.67904916028,-2.29838226232,-1.9071017454,-0.673252570952,-1.87487555035,-0.432586882725,-0.847021203756,72.0107122094
do_nothing,-2.79616260882,-5.61126534788,-4.59849533541,-2.08413346231,-2.75067621879,-3.58838324322,-1.68920572929,-2.48342579378,-1.65747256564,-1.83458917424,-2.20941981308,-1.15872471896,-1.6666482039,81.902915129
do_nothing,-4.66954289911,-7.08469615192,-5.99627662925,-1.69036317278,-2.36668155354,-3.48538878132,-1.7592357833,-2.69602619427,-1.35112148763,-3.03417104547,-2.48541953083,-2.01328884133,-2.55310461322,87.6177455454
do_nothing,-6.43966114902,-8.18882941435,-7.16566270374,-1.23655814096,-1.89134598345,-3.15406125917,-1.84289555353,-2.86533974407,-0.997224494667,-4.11708962266,-2.64002369361,-2.87453603961,-3.37090254076,88.7207163508
do_nothing,-7.83908384182,-8.69837654132,-7.88962782933,-0.751863801668,-1.32100725334,-2.56326132362,-1.87654729243,-2.90743084164,-0.606254239431,-4.9241544149,-2.61480514231,-3.60414751782,-3.9780164491,84.9579944437
do_nothing,-8.62178806627,-8.43614858902,-7.98026066534,-0.263960071387,-0.658350645503,-1.70553225913,-1.79014234409,-2.73925475793,-0.190075440309,-5.31279799723,-2.36490514591,-4.06576645888,-4.24514738563,76.2871692268
do_nothing,-8.5972304357,-7.30059117915,-7.30705031753,0.203231274856,0.0843808549995,-0.603229320873,-1.5202461985,-2.29379650831,0.238017034638,-5.17759387067,-1.86720713542,-4.14453897158,-4.0745915118,62.9150609098
do_nothing,-7.65890712428,-5.28539733069,-5.81948619977,0.631121525225,0.883408368689,0.688872587501,-1.0230134478,-1.53401986144,0.663394479594,-4.46749124441,-1.12628824827,-3.76494009094,-3.41609151773,45.3351747687
do_nothing,-5.80342280181,-2.48821021862,-3.56064947334,1.00716371134,1.70316167674,2.0853468266,-0.284946388689,-0.463358431343,1.0703842013,-3.19715069122,-0.177131761177,-2.90429285545,-2.27733895139,24.3541204092
do_nothing,-3.13723218784,0.893259131444,-0.669555729766,1.32467645686,2.49797649771,3.47650010469,0.67045705701,0.86909174831,1.44278233951,-1.45043619482,0.916020813398,-1.59989075305,-0.727423990993,1.09504937169
do_nothing,0.130228146613,4.57779011319,2.62857207988,1.5818931833,3.21566657842,4.73891715675,1.7814788551,2.36979828279,1.7645821979,0.62489819125,2.06479265499,0.0515504280198,1.10758034773,-23.0325901726
do_nothing,3.70654295946,8.22832992867,6.04335192511,1.78045564318,3.80258574075,5.7490284884,2.95288691717,3.90864532396,2.02087232156,2.8311238031,3.16533563893,1.90236519198,3.0566768128,-46.4038831441
do_nothing,7.24725675838,11.487742978,9.24935521623,1.92364384236,4.20953772416,6.39801512895,4.06617089168,5.33265024386,2.19882489911,4.94166378875,4.10958818809,3.76950534559,4.92238197092,-67.2908446112
do_nothing,10.3940885335,14.0184566489,11.9217853992,2.01466155362,4.39772579089,6.60603832592,4.99403603954,6.4838932927,2.28867147425,6.72699646515,4.79777685761,5.45537596569,6.50337968598,-84.0101940366
do_nothing,12.8157698514,15.5412200995,13.7734225711,2.05527446769,4.34388781754,6.33374297017,5.61718533761,7.21933817133,2.28455336772,7.98215580435,5.15058059816,6.77134986563,7.61859380582,-95.0930564977
do_nothing,14.2464618177,15.8681963138,14.5882852887,2.0450306017,4.04384602347,5.58925263305,5.84100512817,7.42986936908,2.18514049723,8.5523145895,5.11935638,7.56094680216,8.12961398188,-99.457080155
do_nothing,14.5169733435,14.9262321744,14.2478044004,1.98119064495,3.5139036522,4.4294257748,5.60970688683,7.05589654063,1.99393392587,8.35307100388,4.69302495235,7.71964634889,7.95854622928,-96.5577907489
do_nothing,13.5748952129,12.7673221164,12.7461988163,1.85937531796,2.78981519655,2.95490643563,4.91578274234,6.09728004294,1.71920164729,7.38265842816,3.90061447484,7.20869973534,7.0988944605,-86.4956169343
do_nothing,11.4911635107,9.56484929334,10.1930736506,1.67481610128,1.92339899905,1.2993724137,3.80326511818,4.61606269114,1.37353911716,5.72428967199,2.80900730128,6.0610656042,5.61794498765,-70.0583318823
do_nothing,8.45228528506,5.59595070041,6.80285201074,1.42399332214,0.977200080419,-0.385767116138,2.36415092815,2.73145045737,0.973089969183,3.53810304876,1.5160588189,4.37861583569,3.65021029373,-48.6855102554
do_nothing,4.73926944197,1.21207877879,2.87229263893,1.10637718062,0.0178954083964,-1.94927286786,0.728330879437,0.607535159351,0.53650200889,1.0435316316,0.13987214218,2.32090141506,1.38264696403,-24.3512521732
do_nothing,0.695966193773,-3.19870484354,-1.25117977855,0.725963282722,-0.890680281393,-3.25818409121,-0.951690573097,-1.56475331484,0.0837233815851,-1.50581467435,-1.19446661963,0.0868781767485,-0.966560645866,0.627372091087
do_nothing,-3.3091897041,-7.25315923191,-5.20648953007,0.292318315632,-1.69395190007,-4.21363849969,-2.51923052742,-3.58918044478,-0.365240363858,-3.85165621512,-2.3690344481,-2.10808409229,-3.17301117065,23.8375403634
do_nothing,-6.92328004925,-10.6130500758,-8.65681528545,-0.179079931026,-2.35160836281,-4.76216538921,-3.83248808529,-5.28645524877,-0.791487809357,-5.76123397996,-3.28630630294,-4.05697471763,-5.03174818878,43.045520732
do_nothing,-9.84596804899,-13.0193382103,-11.3238957808,-0.667321232158,-2.84054486187,-4.90080819175,-4.78158964206,-6.51431708206,-1.1781972561,-7.05435728111,-3.87979211589,-5.58454746793,-6.38034156963,56.4649688878
do_nothing,-11.8591522199,-14.3164356859,-13.0147835014,-1.14735182546,-3.15539847957,-4.67528572548,-5.30125347514,-7.18287638109,-1.51134093656,-7.62387100057,-4.12072358196,-6.56641617662,-7.11649625742,62.9828323748
do_nothing,-12.8458957134,-14.463903593,-13.6381248456,-1.5919431556,-3.30668895444,-4.17139425623,-5.37732976761,-7.263271896,-1.78010019588,-7.44695262274,-4.01995757891,-6.94149896228,-7.20801981033,62.3103449971
do_nothing,-12.7967807071,-13.5345880519,-13.2084235755,-1.97410607531,-3.31693115973,-3.50084180574,-5.04635088195,-6.78861862731,-1.97698473445,-6.58584466701,-3.62489704058,-6.71637681053,-6.69398924003,55.0347830224
do_nothing,-11.8034982649,-11.6999083988,-11.838281171,-2.26964570514,-3.21538512769,-2.78354487985,-4.38823385715,-5.84726810478,-2.09769668621,-5.17801067106,-3.01189254766,-5.96121983897,-5.67711625968,42.5598153791
do_nothing,-10.0411152112,-9.20459731982,-9.7200967531,-2.45952596422,-3.03230738345,-2.12897717042,-3.51326461977,-4.56943831474,-2.14080946764,-3.41708611349,-2.27518788246,-4.79805139215,-4.30846103908,26.9368917255
do_nothing,-7.74184325905,-6.33444045477,-7.09995568789,-2.53173480104,-2.79363308657,-1.61934910656,-2.54531555777,-3.10914937775,-2.10734790497,-1.52719275437,-1.51392767498,-3.38311295887,-2.76663246991,10.6052120525
do_nothing,-5.16409326119,-3.38131566464,-4.24728283607,-2.48240813314,-2.5169410325,-1.29717835015,-1.60378327256,-1.62400101466,-2.00035806063,0.265965637377,-0.818992288597,-1.88582761868,-1.23430510247,-3.92872673749
do_nothing,-2.56101354355,-0.610002164638,-1.42418515643,-2.31607247466,-2.20934368728,-1.15920614115,-0.786902090047,-0.255567363074,-1.82454265733,1.76342006849,-0.261430263457,-0.467239858244,0.124812215105,-14.4312110526
do_nothing,-0.1525480554,1.76919022251,1.14176895005,-2.04498799376,-1.86763318151,-1.15770254728,-0.158865966951,0.8869659214,-1.58601349558,2.81698317483,0.115978434112,0.739210531109,1.18554134165,-19.2556424329
do_nothing,1.89564913387,3.61885882259,3.27824508627,-1.68769717896,-1.48064843843,-1.20911257726,0.257390581465,1.73781219646,-1.29218007684,3.34595944806,0.302941096855,1.6421323407,1.87484385691,-17.5872798717
do_nothing,3.48422535229,4.8822140215,4.8802564796,-1.26699109292,-1.033464064,-1.2088821258,0.48075713542,2.27893357155,-0.951759238187,3.34447310187,0.321158176961,2.20013053784,2.17783814666,-9.58225330446
do_nothing,4.58221676347,5.57975678113,5.91288818073,-0.807579615742,-0.512694480951,-1.05033250395,0.565864256502,2.53739251531,-0.574859748759,2.87865226167,0.219278109447,2.42249288712,2.13565057015,3.62224455782
do_nothing,5.21977765026,5.79611284365,6.4051107592,-0.333783331185,0.0879947909674,-0.64477264533,0.591359824082,2.576368353,-0.173073694685,2.07427923937,0.0640917451838,2.36287848173,1.83564905011,20.0329047784
do_nothing,5.47338172322,5.65946937655,6.43630878125,0.132451443115,0.763140062302,0.0602424296474,0.644402846721,2.48138864048,0.240503120427,1.09678717206,-0.0707285767809,2.10723140202,1.39563553411,37.0484025775
do_nothing,5.44626623891,5.31693530001,6.11800482329,0.572973572824,1.49238067347,1.06742720206,0.803807450026,2.34397423857,0.651394804944,0.126481509588,-0.116711402631,1.75790295664,0.944367830775,51.8013396967
do_nothing,5.24738677289,4.90953053504,5.57372076122,0.974138403767,2.23966509715,2.3233656229,1.1244825091,2.24521846354,1.04406749775,-0.667541978468,-0.0217572259692,1.41642433342,0.601235501637,61.5508113285
do_nothing,4.97215169822,4.55036672707,4.91994108072,1.32677901973,2.95508271497,3.7205345063,1.62563073087,2.24177372555,1.40247467091,-1.15119855815,0.241191106642,1.167471175,0.457971296405,64.0739436474
do_nothing,4.68773152189,4.30895153825,4.25074844093,1.62552409828,3.57924629356,5.10788930896,2.28462046587,2.35631561727,1.71081386148,-1.2437282637,0.669204039413,1.06629791935,0.564937319146,58.0031254333
do_nothing,4.42487783946,4.20353585606,3.62796868536,1.86764983544,4.04975283605,6.30889160759,3.03760406633,2.57385739068,1.95444556703,-0.928123210477,1.22884029039,1.13133977361,0.923837276587,43.061281395
do_nothing,4.17708137011,4.20218365401,3.07771474594,2.05172244159,4.30891098673,7.14472040116,3.78695077786,2.84440131162,2.12089236941,-0.252391922161,1.86010973087,1.342874933,1.48777349703,20.1598402188
