label,COUNTER,INTERPOLATED,AF3,F7,F3,FC5,T7,P7,O1,O2,P8,T8,FC6,F4,F8,AF4,RAW_CQ,GYROX,GYROY,MARKER,SYNC,TIME_STAMP_s,TIME_STAMP_ms,CQ_AF3,CQ_F7,CQ_F3,CQ_FC5,CQ_T7,CQ_P7,CQ_O1,CQ_O2,CQ_P8,CQ_T8,CQ_FC6,CQ_F4,CQ_F8,CQ_AF4,CQ_CMS,CQ_DRL
off_to_on,4239.21662695,4217.29457571,4252.10110297,4139.94316058,4199.12848791,4215.00520424,4213.74167517,4228.6218191,4137.54668003,4198.09915436,4146.73984284,4235.95578725,4210.69391156,139.356208983
off_to_on,4236.3730455,4216.12259169,4250.36301445,4139.90372816,4198.6692588,4215.16599213,4214.44094851,4227.9212152,4137.60018882,4196.53114584,4146.51402093,4233.27129163,4208.42324991,151.880528455
off_to_on,4233.53694385,4214.90781387,4248.53479858,4139.87352985,4198.24744548,4215.26080162,4214.98606277,4227.27854035,4137.65676945,4194.74489254,4146.20183036,4230.26395043,4205.95640907,167.820185492
off_to_on,4230.7435927,4213.66319655,4246.64456286,4139.85278267,4197.87230098,4215.28699786,4215.36891584,4226.69504062,4137.71564411,4192.76630062,4145.81961886,4226.9862795,4203.33399975,187.489527308
off_to_on,4228.02528787,4212.40166333,4244.72113902,4139.84142154,4197.55153534,4215.2445158,4215.58623121,4226.1689198,4137.7758971,4190.6256387,4145.38502949,4223.49641955,4200.59925118,211.078214021
off_to_on,4225.41049926,4211.13566463,4242.79302024,4139.83911111,4197.29076535,4215.13553375,4215.63925607,4225.69518899,4137.83650496,4188.35667746,4144.91635194,4219.85641107,4197.79674029,238.639963177
off_to_on,4222.923182,4209.87679608,4240.88736765,4139.84526689,4197.09309552,4214.96412113,4215.5333733,4225.26570289,4137.89637099,4185.99575217,4144.4318796,4216.13040144,4194.97112524,270.086285572
off_to_on,4220.58225884,4208.63548009,4239.02911162,4139.85908482,4196.95884047,4214.73586491,4215.27763297,4224.86936968,4137.95436276,4183.58077058,4143.94929354,4212.38283209,4192.16591653,305.185478326
off_to_on,4218.40127787,4207.42071046,4237.24016957,4139.87957778,4196.88539214,4214.45747966,4214.88421178,4224.49251467,4138.00935135,4181.15019013,4143.4850932,4208.67665387,4189.4223181,343.566943119
off_to_on,4216.38824532,4206.2398585,4235.53879803,4139.90561745,4196.86722988,4214.13640692,4214.36781031,4224.11937134,4138.06025076,4178.74198964,4143.05409109,4205.07161813,4186.77816795,384.730697386
off_to_on,4214.5456286,4205.09853737,4233.93909237,4139.93597937,4196.89606534,4213.78040993,4213.74499954,4223.73266863,4138.10605607,4176.39266088,4142.66898576,4201.62268777,4184.26700495,428.061750074
off_to_on,4212.87052064,4204.00052066,4232.45064285,4139.96938887,4196.96110924,4213.39717015,4213.03352939,4223.31427888,4138.1458788,4174.13624506,4142.34002389,4198.3786093,4181.91728425,472.848829322
off_to_on,4211.35495237,4202.94771027,4231.07835094,4140.00456562,4197.04944254,4212.99389224,4212.25161335,4222.84588993,4138.17897809,4172.00343898,4142.07475858,4195.38068171,4179.75175902,518.306786228
off_to_on,4209.98633679,4201.94014837,4229.82240504,4140.0402646,4197.1464712,4212.57692483,4211.41720536,4222.30966501,4138.20478617,4170.02079448,4141.87790727,4192.66175234,4177.78704179,563.601862243
off_to_on,4208.7480247,4200.97606798,4228.67840987,4140.07531176,4197.23644117,4212.15140493,4210.54728647,4221.68885719,4138.22292709,4168.21003327,4141.75130923,4190.24546344,4176.03335278,607.878900892
off_to_on,4207.61995043,4200.05197682,4227.63765952,4140.10863287,4197.30298914,4211.72093441,4209.65718037,4220.96834928,4138.23322768,4166.58749657,4141.69397868,4188.14576598,4174.49445758,650.289512225
off_to_on,4206.57934391,4199.16276903,4226.68753986,4140.13927483,4197.32970421,4211.28729764,4208.75991746,4220.13509573,4138.23572015,4165.16374551,4141.70224698,4186.36670957,4173.16778994,690.020165006
off_to_on,4205.60148543,4198.3018604,4225.81204269,4140.16641906,4197.3006768,4210.85022921,4207.8656672,4219.17844919,4138.23063602,4163.94332411,4141.769984,4184.90251023,4172.04475073,726.31918765
off_to_on,4204.66047929,4197.46134315,4224.9923713,4140.18938708,4197.20101292,4210.40724082,4206.98125819,4218.09036174,4138.21839161,4162.92469219,4141.88888718,4183.73788992,4171.11116833,758.521702006
off_to_on,4203.73002348,4196.63215767,4224.20761494,4140.20763899,4197.01729458,4209.95351512,4206.10980407,4216.86545735,4138.19956547,4162.10033074,4142.04882491,4182.8486748,4170.34790222,786.071593009
off_to_on,4202.78415384,4195.80427919,4223.43546876,4140.2207657,4196.73797064,4209.48187345,4205.25045122,4215.50097935,4138.17486883,4161.45701745,4142.23822005,4182.2026324,4169.73156712,808.539730592
off_to_on,4201.79794224,4194.96691788,4222.65297505,4140.2284763,4196.35366593,4208.98282252,4204.39826098,4213.99662286,4138.14511034,4160.97626514,4142.44445915,4181.76052078,4169.23535253,825.637802991
off_to_on,4200.74813021,4194.10873001,4221.83726164,4140.23058208,4195.85740054,4208.44468309,4203.54423497,4212.35426736,4138.11115671,4160.63491039,4142.65431261,4181.47731716,4168.82990911,837.227284958
off_to_on,4199.61368141,4193.21803736,4220.96625351,4140.22697873,4195.24471494,4207.85380109,4202.67548723,4210.57762926,4138.07389151,4160.40583417,4142.85435143,4181.30358691,4168.48427125,843.32324488
off_to_on,4198.3762387,4192.28305044,4220.01933508,4140.21762839,4194.51370086,4207.1948388,4201.77556163,4208.671857,4138.03417414,4160.25879117,4143.03134641,4181.18694956,4168.16678357,844.092886156
off_to_on,4197.02047465,4191.29209023,4218.97794172,4140.20254296,4193.66494099,4206.45114062,4200.82488751,4206.64309293,4137.9928012,4160.16132006,4143.17263701,4181.07359477,4167.84599918,839.848912413
off_to_on,4195.53432731,4190.23380272,4217.82606191,4140.18176996,4192.70136454,4205.60516482,4199.80136069,4204.49802651,4137.95047248,4160.07970355,4143.26645818,4180.90979965,4167.49151911,831.037994084
off_to_on,4193.90911662,4189.09735987,4216.55063348,4140.15538192,4191.62802767,4204.63896966,4198.68103156,4202.24346182,4137.9077632,4159.97994556,4143.30221597,4180.64339931,4167.07474576,818.22478905
off_to_on,4192.13954042,4187.8726415,4215.1418214,4140.12347008,4190.45183067,4203.53473854,4197.43887706,4199.88592037,4137.8651042,4159.82873253,4143.27070502,4180.22516472,4166.56952746,802.072127931
off_to_on,4190.22355274,4186.55039276,4213.59316759,4140.08614262,4189.18118467,4202.27532633,4196.04962936,4197.43129717,4137.82277077,4159.59434676,4143.16426394,4179.61004604,4165.9526773,783.318108684
off_to_on,4188.16213094,4185.12235278,4211.90160798,4140.04352742,4187.82564206,4200.84480669,4194.48863085,4194.88458398,4137.78088083,4159.24750207,4142.97686748,4178.75824493,4165.20435462,762.750948887
off_to_on,4185.9589425,4183.58135091,4210.06735689,4139.99577893,4186.39550536,4199.22899946,4192.73268338,4192.2496699,4137.73940231,4158.76207514,4142.7041571,4177.63608611,4164.30830398,741.182514475
off_to_on,4183.61992654,4181.92136855,4208.09366455,4139.94308825,4184.9014293,4197.41595767,4190.76085948,4189.52922514,4137.69816915,4158.11570998,4142.34341404,4176.21666629,4163.25195228,719.421480403
off_to_on,4181.15280972,4180.13756645,4205.98645908,4139.88569538,4183.35403116,4195.3963954,4188.55524476,4186.72466952,4137.65690509,4157.29027854,4141.89348148,4174.48026804,4162.0263706,698.247080133
off_to_on,4178.56657981,4178.22627972,4203.75389048,4139.82390234,4181.76352338,4193.16403991,4186.10158358,4183.83622404,4137.61525371,4156.27218675,4141.35464389,4172.41453546,4160.62611336,678.384365498
off_to_on,4175.87094266,4176.18498559,4201.40579847,4139.75808562,4180.13938164,4190.71589441,4183.3898049,4180.86304007,4137.57281317,4155.05252213,4140.72847366,4170.01441922,4159.04895289,660.481829111
off_to_on,4173.07578892,4174.01225076,4198.95313033,4139.68870671,4178.49005976,4188.05240174,4180.41441018,4177.80339793,4137.52917375,4153.62704601,4140.01765547,4167.2819069,4157.29553173,645.09214382
off_to_on,4170.19069596,4171.70766683,4196.40733671,4139.61631927,4176.82276084,4185.17750305,4177.17471173,4174.65496379,4137.48395614,4151.99603981,4139.2257996,4164.22556289,4155.36895831,632.656651805
off_to_on,4167.22448801,4169.27178261,4193.77977441,4139.54157188,4175.14327129,4182.09859016,4173.67491631,4171.41509182,4137.43684856,4150.16402019,4138.35725521,4160.85990811,4153.27437292,623.494091526
off_to_on,4164.18487435,4166.70604199,4191.08114437,4139.46520552,4173.45586229,4178.82635505,4169.92405552,4168.08115707,4137.38764056,4148.13934278,4137.41693344,4157.20467411,4151.01851042,617.793887049
off_to_on,4161.07818239,4164.01273525,4188.32099175,4139.38804526,4171.76326055,4175.37454448,4165.93577115,4164.6509044,4137.33625197,4145.93371758,4136.41014908,4153.28396903,4148.60928451,615.614147371
off_to_on,4157.90919805,4161.19497061,4185.50729183,4139.31098591,4170.06668823,4171.75963257,4161.72796968,4161.12279888,4137.28275519,4143.5616613,4135.34248759,4149.12539385,4146.0554153,616.884340197
off_to_on,4154.68112207,4158.25667169,4182.64614247,4139.23497199,4168.36596984,4168.00042789,4157.32236508,4157.49636435,4137.22738975,4141.03991369,4134.21970195,4144.75914719,4143.36611825,621.412422554
off_to_on,4151.3956462,4155.20260461,4179.74157909,4139.16097226,4166.65970167,4164.11763395,4152.74393313,4153.77249763,4137.1705683,4138.38684495,4133.04764181,4140.2171553,4140.55086843,628.896040381
off_to_on,4148.05314789,4152.03843693,4176.79552327,4139.08994999,4164.94547736,4160.13338373,4148.0203029,4149.95374827,4137.11287341,4135.62188103,4131.83221504,4135.53226097,4137.61924963,638.937263502
off_to_on,4144.65299701,4148.77082801,4173.80786997,4139.0228302,4163.2201611,4156.07076823,4143.18111298,4146.04455501,4137.05504539,4132.76497176,4130.57938031,4130.73750069,4134.58089307,651.060208871
off_to_on,4141.19396222,4145.40754748,4170.77671183,4138.96046543,4161.48019809,4151.95337865,4138.25735969,4142.05143279,4136.99796139,4129.83612405,4129.29516707,4125.86549323,4131.4455054,664.730822292
off_to_on,4137.67469957,4141.95761537,4167.69869232,4138.90360204,4159.72195078,4147.8048798,4133.28076392,4137.98310613,4136.9426066,4126.85501756,4127.98571826,4120.94795579,4128.22298009,679.378033625
off_to_on,4134.09430167,4138.431455,4164.56947315,4138.85284867,4157.94204836,4143.64863084,4128.28318118,4133.85058687,4136.89003884,4123.84071527,4126.65734919,4116.0153559,4124.92358145,694.415474547
off_to_on,4130.4528824,4134.84104759,4161.38429576,4138.80864892,4156.1377368,4139.50736645,4123.29607612,4129.66719659,4136.84134795,4120.81147501,4125.31661551,4111.09669966,4121.5581857,709.26295515
off_to_on,4126.75217014,4131.20007664,4158.13861203,4138.77125956,4154.30721623,4135.40294795,4118.35007873,4125.44853489,4136.79761175,4117.78466168,4123.97038201,4106.21944914,4118.13855986,723.366934851
off_to_on,4122.99608156,4127.52404967,4154.82875579,4138.74073571,4152.44995275,4131.35618996,4113.47463353,4121.2123957,4136.75985059,4114.77675389,4122.62588398,4101.40955533,4114.67765678,736.219288461
off_to_on,4119.19124749,4123.83038536,4151.45262422,4138.71692371,4150.56695207,4127.38676286,4108.69774766,4116.97863385,4136.7289823,4111.80343354,4121.2907733,4096.69158754,4111.18990335,747.37375421
off_to_on,4115.34746389,4120.13845485,4148.01033733,4138.69946236,4148.6609834,4123.51316694,4104.04583734,4112.76898434,4136.70577972,4108.87974242,4119.97314197,4092.08893561,4107.69145909,756.459551515
off_to_on,4111.478042,4116.46956661,4144.50484316,4138.68779233,4146.73674282,4119.75276884,4099.54366651,4108.60683676,4136.69083272,4106.0202868,4118.68151751,4087.62405873,4104.2004231,763.191764654
off_to_on,4107.60003521,4112.84688559,4140.94243804,4138.6811737,4144.80094775,4116.12188795,4095.21436625,4104.51696783,4136.68451625,4103.23946827,4117.42482602,4083.31875215,4100.73696906,767.378198891
off_to_on,4103.73432333,4109.29527873,4137.33317312,4138.6787105,4142.86235588,4112.63591726,4091.07951904,4100.52523519,4136.6869662,4100.55171755,4116.2123204,4079.19440282,4097.32339025,768.922528313
off_to_on,4099.90554018,4105.84108074,4133.69112239,4138.67938157,4140.93170488,4109.30946199,4087.1592887,4096.65823586,4136.69806398,4097.97170716,4115.05347308,4075.27220495,4093.98403923,767.823673853
off_to_on,4096.14183569,4102.51177667,4130.03449157,4138.68207613,4139.02157195,4106.15647826,4083.47257399,4092.94293284,4136.7174308,4095.51451917,4113.95783404,4071.57330865,4090.74515076,764.171477121
off_to_on,4092.47446935,4099.33560048,4126.38555322,4138.68563269,4137.14615474,4103.19039377,4080.03716213,4089.4062525,4136.74443201,4093.19574603,4112.93485646,4068.11887764,4087.634541,758.13886737
off_to_on,4088.93723838,4096.3410522,4122.77039965,4138.68887981,4135.32097781,4100.42419257,4076.86985805,4086.07465527,4136.77819144,4091.03150531,4111.99369402,4064.93003731,4084.68118126,749.970849264
off_to_on,4085.56575039,4093.55633969,4119.21851247,4138.69067713,4133.56253084,4097.87044726,4073.98656585,4082.9736818,4136.81761541,4089.03835417,4111.142975,4062.0277003,4081.91465035,739.970761689
off_to_on,4082.39655675,4091.00875498,4115.76215508,4138.68995514,4131.88784748,4095.54128515,4071.40230237,4080.12747807,4136.86142551,4087.23309474,4110.39056052,4059.43226412,4079.3644759,728.484366486
off_to_on,4079.46616998,4088.72399934,4112.43560263,4138.68575241,4130.31403585,4093.4482791,4069.13112756,4077.55830474,4136.90819904,4085.6324687,4109.74329514,4057.16318366,4077.05938147,715.882415371
off_to_on,4076.80999508,4086.72547503,4109.27423102,4138.6772489,4128.85777445,4091.60225954,4067.18598307,4075.28603864,4136.95641549,4084.25274621,4109.20676003,4055.23842965,4075.02646205,702.542408608
off_to_on,4074.46121017,4085.03356585,4106.313494,4138.66379418,4127.53478895,4090.01305013,4065.57843758,4073.32767702,4137.0045074,4083.10922184,4108.78503935,4053.67385292,4073.29031659,688.830296866
off_to_on,4072.44963658,4083.66493123,4103.58782289,4138.64492966,4126.35932725,4088.68913512,4064.31834426,4071.69685709,4137.05091365,4082.21563636,4108.48051078,4052.48248148,4071.87216992,675.082885585
off_to_on,4070.80064047,4082.6318404,4101.12948811,4138.62040384,4125.3436506,4087.63727147,4063.41342229,4070.4034051,4137.09413305,4081.58354918,4108.29367085,4051.67378396,4070.78901951,661.591678219
off_to_on,4069.53410898,4081.94157409,4098.96746453,4138.59018001,4124.49755925,4086.86206302,4062.86877992,4069.4529295,4137.13277629,4081.22169028,4108.22300439,4051.25293708,4070.05284384,648.588841302
off_to_on,4068.66354224,4081.59592029,4097.12634394,4138.55443628,4123.82797004,4086.3655176,4062.68640201,4068.84647403,4137.16561411,4081.13532365,4108.26490628,4051.22013706,4069.66990846,636.235892063
off_to_on,4068.19529972,4081.59078937,4095.62533752,4138.51355758,4123.33856252,4086.14661055,4062.8646299,4068.58024598,4137.19161991,4081.32565608,4108.41366205,4051.56999576,4069.64020447,624.615601485
off_to_on,4068.12803522,4081.91597084,4094.47740917,4138.46812017,4123.02950851,4086.20088034,4063.39766494,4068.64543583,4137.21000521,4081.78932531,4108.66149167,4052.29106064,4069.9570506,613.727476396
off_to_on,4068.45234915,4082.55505026,4093.68857657,4138.41886886,4122.89729754,4086.52008286,4064.27512918,4069.02814274,4137.22024648,4082.51800035,4108.99865917,4053.36549441,4070.60688517,603.487038602
off_to_on,4069.15068034,4083.48549993,4093.25741217,4138.36668801,4122.93466817,4087.09193068,4065.48171649,4069.7094191,4137.2221023,4083.49812335,4109.41364778,4054.76894498,4071.56926791,593.728963181
off_to_on,4070.19745168,4084.6789512,4093.17476914,4138.31256707,4123.13065208,4087.89994206,4066.996965,4070.66544379,4137.21562044,4084.71081712,4109.89339791,4056.47062897,4072.81710347,584.2139783
off_to_on,4071.55947523,4086.10164985,4093.42375002,4138.25756219,4123.47073405,4088.92342038,4068.795177,4071.8678296,4137.2011343,4086.13197606,4110.42360209,4058.43364367,4074.31709009,574.639271865
off_to_on,4073.19661284,4087.71508958,4093.97992723,4138.20275509,4123.93712697,4090.13757917,4070.84550643,4073.28406519,4137.17924901,4087.73255029,4110.98904888,4060.61551287,4076.03038786,564.652002569
off_to_on,4075.06267871,4089.4768118,4094.81181538,4138.14921104,4124.50915662,4091.51382084,4073.11222655,4074.87808659,4137.15081784,4089.47902515,4111.57400523,4062.96896188,4077.91349215,553.865380669
off_to_on,4077.10656007,4091.34135328,4095.88158588,4138.09793747,4125.16374683,4093.02016975,4075.55518334,4076.61096813,4137.11690959,4091.33408965,4112.16262558,4065.44290697,4079.91928945,541.876672633
off_to_on,4079.27352334,4093.26131706,4097.14600496,4138.0498452,4125.87599158,4094.62185373,4078.1304322,4078.44171805,4137.07876853,4093.25747872,4112.73937479,4067.98363409,4081.99826456,528.286398337
off_to_on,4081.50666512,4095.18853632,4098.55756716,4138.00571365,4126.61979742,4096.28202139,4080.79104831,4080.32815929,4137.03776815,4095.2069658,4113.28945138,4070.53613199,4084.09982135,512.717933513
off_to_on,4083.74846086,4097.07529634,4100.0657888,4137.9661618,4127.36857693,4097.96257695,4083.48809262,4082.22787242,4136.99536071,4097.13947393,4113.79919704,4073.04553596,4086.17367304,494.836705877
off_to_on,4085.94236002,4098.87557651,4101.61861892,4137.93162588,4128.09597198,4099.62510887,4086.17170746,4084.09917348,4136.95302434,4099.01226668,4114.25647852,4075.4586315,4088.17125417,474.368182169
off_to_on,4088.03437374,4100.5462729,4103.1639208,4137.90234471,4128.7765843,4101.23188337,4088.79230808,4085.90209733,4136.91220985,4100.78417543,4114.6510283,4077.72536331,4090.04710449,451.113884706
off_to_on,4089.97460097,4102.04836146,4104.65097367,4137.87835322,4129.38668989,4102.74686998,4091.3018302,4087.59935533,4136.87428902,4102.41681693,4114.97473169,4079.8002928,4091.76017566,424.96474862
off_to_on,4091.71864007,4103.3479636,4106.03194327,4137.85948411,4129.90491412,4104.13676257,4093.65498949,4089.15723571,4136.84050654,4103.87575449,4115.22184952,4081.64394888,4093.27501432,395.911231672
off_to_on,4093.22883704,4104.41727838,4107.26327026,4137.84537733,4130.31284448,4105.37195748,4095.81050673,4090.54641686,4136.81193712,4105.13155832,4115.38916806,4083.22401995,4094.5627798,364.049713545
off_to_on,4094.47532655,4105.2353495,4108.30692857,4137.83549677,4130.5955599,4106.42744983,4097.73225241,4091.74266573,4136.78944948,4106.16072351,4115.47607035,4084.51634019,4095.6020607,329.584865653
off_to_on,4095.43682991,4105.78864021,4109.13150963,4137.82915326,4130.74205741,4107.28361049,4099.39026663,4092.72739799,4136.77367839,4106.94640975,4115.48452583,4085.5056308,4096.37946166,292.827830107
off_to_on,4096.10118265,4106.07139543,4109.71309539,4137.82553282,4130.74556003,4107.92680948,4100.76161389,4093.48808053,4136.76500568,4107.47897258,4115.41899818,4086.18596487,4096.88993951,254.190211194
off_to_on,4096.46557458,4106.08577705,4110.03588993,4137.82372884,4130.60369372,4108.3498568,4101.83103762,4094.01846203,4136.76355091,4107.75626344,4115.28627382,4086.56093525,4097.13687625,214.174047887
off_to_on,4096.53649578,4105.84176608,4110.092589,4137.82277679,4130.31852522,4108.55223778,4102.59138526,4094.31862232,4136.76917175,4107.78368396,4115.09521635,4086.64351487,4097.13188533,173.358095034
off_to_on,4096.32939247,4105.35683263,4109.88447581,4137.82169005,4129.89645787,4108.54012825,4103.0437833,4094.39483693,4136.78147403,4107.5739893,4114.85645419,4086.45561124,4096.89435689,132.380887539
off_to_on,4095.86804653,4104.65538294,4109.42124114,4137.81949536,4129.34798722,4108.32618257,4103.19754984,4094.25925939,4136.7998308,4107.14684486,4114.58201163,4086.02732766,4096.45075686,91.9211902537
off_to_on,4095.18370135,4103.76799941,4108.72053545,4137.81526657,4128.68732351,4107.92909692,4103.06984265,4093.92942979,4136.82340964,4106.52815059,4114.28489493,4085.39595513,4095.83370326,52.6765413684
off_to_on,4094.31396461,4102.73049672,4107.80726924,4137.80815551,4127.93189302,4107.37295916,4102.68505076,4093.42762447,4136.85120706,4105.74915558,4113.97864699,4084.60472785,4095.08085073,15.3406747331
off_to_on,4093.30152549,4101.58282264,4106.71268658,4137.79741878,4127.10173496,4106.68640604,4102.07394752,4092.78006738,4136.88208869,4104.84539349,4113.67688503,4083.70138384,4094.23361961,-19.4193463525
off_to_on,4092.19272943,4100.3678368,4105.47324393,4137.78243976,4126.21881488,4105.90161705,4101.27263311,4092.01602887,4136.91483379,4103.85547526,4113.39283594,4082.73657781,4093.33581044,-50.9854364608
off_to_on,4091.03605773,4099.1300048,4104.12933286,4137.76274507,4125.30627865,4105.05318187,4100.32130296,4091.16684209,4136.94818241,4102.81978019,4113.13888418,4081.76219886,4092.43214755,-78.809407047
off_to_on,4089.88056219,4097.91404761,4102.72389017,4137.73801536,4124.38767396,4104.17688401,4099.26288608,4090.26487018,4136.98088359,4101.77909018,4112.92614627,4080.82964855,4091.56679746,-102.431717458
off_to_on,4088.77430544,4096.76358796,4101.30094248,4137.70809027,4123.48616705,4103.30844694,4098.14160257,4089.34245971,4137.0117427,4100.77321391,4112.76408562,4079.98813688,4090.78190892,-121.497356086
off_to_on,4087.76285693,4095.71983601,4099.9041343,4137.67296798,4122.62378308,4102.48229112,4097.00149326,4088.43091649,4137.03966616,4099.839649,4112.66018012,4079.28305392,4090.11622176,-135.768249282
off_to_on,4086.88789175,4094.82035573,4098.57528877,4137.63279985,4121.82069717,4101.73034997,4095.88497647,4087.55953976,4137.06370206,4099.0123298,4112.61965393,4078.75447341,4089.60379013,-145.131710007
off_to_on,4086.18593576,4094.09795089,4097.35304924,4137.58788092,4121.09460136,4101.08099095,4094.83148644,4086.75474859,4137.08307495,4098.32050599,4112.64528327,4078.43584016,4089.27286283,-149.604564068
off_to_on,4085.68729468,4093.57970571,4096.27164621,4137.53863689,4120.46016936,4100.55808304,4093.87624472,4086.03933137,4137.09721359,4097.78779268,4112.73728377,4078.35288731,4089.1449583,-149.332731144
off_to_on,4085.41519914,4093.28621015,4095.35983023,4137.48560854,4119.9286372,4100.1802459,4093.04921036,4085.43184348,4137.10577072,4097.43142641,4112.89328457,4078.52282078,4089.23416559,-144.586194145
off_to_on,4085.38519035,4093.23099395,4094.64000506,4137.42943407,4119.50751317,4099.96030825,4092.37424608,4084.94617254,4137.1086339,4097.26175342,4113.10839181,4078.95379942,4089.54669531,-135.749463018
off_to_on,4085.60476406,4093.42018739,4094.12758883,4137.37083006,4119.20042559,4099.90499442,4091.86852877,4084.59128327,4137.1059272,4097.2819685,4113.37534086,4079.64472914,4090.08069695,-123.307818328
off_to_on,4086.07328186,4093.85241945,4093.83062307,4137.31057146,4119.00711132,4100.01484895,4091.54222201,4084.37114695,4137.09800368,4097.48811365,4113.6847339,4080.58537896,4090.8263504,-107.829790961
off_to_on,4086.78215012,4094.51895669,4093.74964068,4137.24947121,4118.92354271,4100.28439892,4091.39841798,4084.28485328,4137.08542893,4097.86933615,4114.0253562,4081.75681575,4091.76623036,-89.9464857957
off_to_on,4087.71525715,4095.40407764,4093.87779477,4137.18835989,4118.94218517,4100.70254354,4091.43334498,4084.32689532,4137.06895632,4098.40839623,4114.38456102,4083.13214263,4092.87593282,-70.3284866136
off_to_on,4088.84965008,4096.48566918,4094.2012406,4137.12806607,4119.05237252,4101.25315145,4091.63682654,4084.48761195,4137.04949509,4099.08240454,4114.74871042,4084.67751426,4094.12494273,-49.6611855899
off_to_on,4090.15642434,4097.7360232,4094.69975383,4137.0693976,4119.24078353,4101.91583784,4091.99296827,4084.75376641,4137.02807241,4099.86376038,4115.10365657,4086.35339128,4095.477713,-28.6194574767
off_to_on,4091.6017915,4099.1228045,4095.34755935,4137.01312443,4119.49199922,4102.66688699,4092.48104053,4085.10923509,4137.00579098,4100.72125394,4115.43524607,4088.11598665,4096.8949165,-7.8426379336
off_to_on,4093.14828546,4100.61015488,4096.1143379,4136.95996315,4119.78911865,4103.480281,4093.07651796,4085.53577672,4136.98378388,4101.62128923,4115.72982887,4089.91884913,4098.33482611,12.0892350468
off_to_on,4094.75606291,4102.15989334,4096.96637135,4136.91056344,4120.11440898,4104.32879172,4093.75223145,4086.01384972,4136.96316836,4102.52917984,4115.97475238,4091.71452455,4099.75477284,30.6769958122
off_to_on,4096.3842517,4103.73277013,4097.86778355,4136.86549651,4120.44996528,4105.18509122,4094.47958476,4086.52344404,4136.94500052,4103.4104676,4116.15882227,4093.45623285,4101.11262931,47.5208951832
off_to_on,4097.99229973,4105.28973015,4098.78183054,4136.82524538,4120.77835542,4106.02283555,4095.22978542,4087.04489409,4136.93023255,4104.23221328,4116.27271209,4095.09949909,4102.36826484,62.3353764648
off_to_on,4099.5412776,4106.7931421,4099.67219322,4136.79019715,4121.08322634,4106.81767811,4095.97504022,4087.5596403,4136.91967422,4104.9642104,4116.30930615,4096.60367847,4103.48491966,74.9594851507
off_to_on,4100.99509006,4108.20795065,4100.50422557,4136.76063683,4121.34984975,4107.5481724,4096.68966692,4088.05090987,4136.91396015,4105.58007618,4116.26396253,4097.93331978,4104.43044887,85.3624769139
off_to_on,4102.3215555,4109.50271265,4101.24611392,4136.73674284,4121.56558772,4108.19652888,4097.35107797,4088.50429072,4136.91352413,4106.05817904,4116.13468626,4099.05931814,4105.17839151,93.6443692033
off_to_on,4103.49331789,4110.6504829,4101.86990676,4136.71858396,4121.72026183,4108.74919738,4097.94059781,4088.90817778,4136.91858139,4106.38236872,4115.92220653,4099.95981624,4105.70882674,100.031375357
off_to_on,4104.48856282,4111.62952105,4102.35237945,4136.70611767,4121.80641391,4109.197254,4098.44408235,4089.25407608,4136.92911957,4106.54248271,4115.62995502,4100.62082316,4106.0089871,104.866358381
off_to_on,4105.29151711,4112.42379858,4102.67570593,4136.69918991,4121.8194504,4109.53657968,4098.85231804,4089.53675155,4136.94489866,4106.5346116,4115.26394665,4101.036531,4106.07360744,108.594634735
off_to_on,4105.89271997,4113.02329289,4102.82791639,4136.69753627,4121.75766761,4109.76782638,4099.16118745,4089.75422653,4136.96545987,4106.36111526,4114.83256685,4101.20932103,4105.90499857,111.745639631
off_to_on,4106.28906212,4113.42406332,4102.80312913,4136.70078482,4121.62215953,4109.89617535,4099.37159808,4089.90762375,4136.9901431,4106.03039192,4114.34627356,4101.14946344,4105.51284464,114.911129101
off_to_on,4106.48359737,4113.62811279,4102.60155298,4136.70846071,4121.41661475,4109.93090048,4099.48918233,4090.00086883,4137.01811217,4105.55641193,4113.81722495,4100.87452632,4104.91373471,118.72073318
off_to_on,4106.48513923,4113.64304609,4102.22926577,4136.71999292,4121.14701329,4109.88475843,4099.52378606,4090.04026777,4137.04838694,4104.95803818,4113.25884682,4100.40852118,4104.13044881,123.815781513
off_to_on,4106.30766212,4113.48154328,4101.69778216,4136.73472333,4120.82123834,4109.77323445,4099.48877297,4090.0339812,4137.07988095,4104.25816313,4112.68535606,4099.78082168,4103.19102823,130.822393799
off_to_on,4105.96953368,4113.16067244,4101.02343223,4136.75191828,4120.4486211,4109.61367949,4099.40017905,4089.99142194,4137.11144306,4103.48269903,4112.11125782,4099.02490039,4102.12766756,140.3248617
off_to_on,4105.49261026,4112.70107161,4100.22657854,4136.77078282,4120.03943983,4109.42437871,4099.27575747,4089.92260492,4137.14190154,4102.65946276,4111.55083507,4098.17693423,4100.97547151,152.840344046
off_to_on,4104.90123267,4112.12603338,4099.3307053,4136.7904773,4119.60439549,4109.22359385,4099.13395789,4089.83748027,4137.17010888,4101.81699943,4111.01764916,4097.27433298,4099.7711242,168.795851514
off_to_on,4104.22116273,4111.4605286,4098.36141738,4136.81013602,4119.15408726,4109.02862233,4098.99288605,4089.74528026,4137.19498553,4100.9833907,4110.52406939,4096.35424758,4098.55152096,188.508412874
off_to_on,4103.47850288,4110.73020702,4097.34538987,4136.82888749,4118.69851053,4108.8549139,4098.86929034,4089.65390966,4137.21556087,4100.18509383,4110.08084814,4095.45211492,4097.35241369,212.169197451
off_to_on,4102.69864115,4109.96041287,4096.30930999,4136.84587555,4118.2465985,4108.71528212,4098.77762029,4089.56940745,4137.23101005,4099.44585665,4109.69675661,4094.60029442,4096.20712027,239.832221557
off_to_on,4101.9052624,4109.17525147,4095.27885265,4136.86028073,4117.80582634,4108.61924352,4098.72919869,4089.49550418,4137.240685,4098.78575063,4109.37829375,4093.82684756,4095.14534553,271.408094093
off_to_on,4101.11946347,4108.39674093,4094.27772892,4136.87134126,4117.38189371,4108.57251184,4098.73154416,4089.43329587,4137.24413876,4098.22035968,4109.1294788,4093.15450566,4094.19215755,306.66306572
off_to_on,4100.35900561,4107.64407811,4093.32684288,4136.87837287,4116.97849826,4108.57666842,4098.78787393,4089.38104971,4137.24114207,4097.76015635,4108.95173467,4092.59986356,4093.36715605,345.223446252
off_to_on,4099.637732,4106.93304347,4092.44358737,4136.8807868,4116.59720845,4108.629023,4098.89680855,4089.33415136,4137.23169165,4097.41008916,4108.84386631,4092.17282762,4092.68386239,386.585253247
off_to_on,4098.96517101,4106.27556295,4091.64130282,4136.87810539,4116.23744021,4108.72267117,4099.05229136,4089.28519694,4137.21601007,4097.16939655,4108.80213447,4091.87633632,4092.14935142,430.128757189
off_to_on,4098.34633845,4105.67943887,4090.92891665,4136.86997479,4115.89653735,4108.84674648,4099.2437261,4089.22422662,4137.19453703,4097.03165355,4108.82042155,4091.7063612,4091.76413566,475.137403346
off_to_on,4097.78174346,4105.14825479,4090.31077266,4136.85617441,4115.56995119,4108.98685678,4099.45632664,4089.13909024,4137.16791275,4096.98504822,4108.89048257,4091.65218513,4091.52230271,520.820426432
off_to_on,4097.26759377,4104.68145246,4089.78665241,4136.83662287,4115.25151096,4109.12568602,4099.67166394,4089.01592989,4137.13695392,4097.01287609,4109.00227106,4091.69694446,4091.41189704,566.338337095
off_to_on,4096.79618763,4104.27457271,4089.35198247,4136.81138043,4114.9337723,4109.24373528,4099.86838723,4088.8397593,4137.10262332,4097.09423218,4109.14432713,4091.81841166,4091.41552824,610.830352325
off_to_on,4096.35647166,4103.91964551,4088.99821395,4136.78064768,4114.60842813,4109.32017116,4100.02308981,4088.59511626,4137.06599423,4097.20487302,4109.30421258,4091.98998621,4091.51117952,653.442769784
off_to_on,4095.93473727,4103.60570958,4088.71335406,4136.74476062,4114.2667637,4109.33374488,4100.11128459,4088.26676122,4137.02821123,4097.31821411,4109.46897659,4092.18185339,4091.67318289,693.357253193
off_to_on,4095.51542299,4103.31943709,4088.48262371,4136.70418213,4113.90013565,4109.26374344,4100.10845022,4087.84039368,4136.99044854,4097.40642305,4109.62563426,4092.36226427,4091.87332125,729.818002792
off_to_on,4095.08198672,4103.045836,4088.28921103,4136.65948985,4113.50045436,4109.09093291,4099.99110594,4087.30335677,4136.95386789,4097.44156494,4109.76163988,4092.49888602,4092.08201319,762.156828996
off_to_on,4094.61781008,4102.76900078,4088.11508771,4136.61136071,4113.06064867,4108.79845436,4099.7378719,4086.64530112,4136.91957718,4097.39675479,4109.86533723,4092.56016941,4092.26953406,789.81522761
off_to_on,4094.10709655,4102.47288145,4087.94185392,4136.56055238,4112.57509261,4108.37263482,4099.33047147,4085.85877979,4136.88859172,4097.24727194,4109.92637035,4092.51668067,4092.40722601,812.362669782
off_to_on,4093.53572598,4102.14204096,4087.75157714,4136.50788206,4112.03997525,4107.80367848,4098.75463407,4084.93974897,4136.86179927,4096.97159362,4109.93604004,4092.34234698,4092.46865171,829.510464101
off_to_on,4092.89203012,4101.76237232,4087.52759124,4136.45420354,4111.45359684,4107.0862082,4098.00086039,4083.88795208,4136.83993029,4096.55230785,4109.8875941,4092.01556866,4092.43064857,841.120714227
off_to_on,4092.16745669,4101.3217484,4087.2552242,4136.40038321,4110.81657711,4106.2196335,4097.0650171,4082.70716948,4136.82353427,4095.97687101,4109.77644202,4091.5201564,4092.27424536,847.210077412
off_to_on,4091.35709484,4100.81058014,4086.92242616,4136.34727625,4110.13196534,4105.20832887,4095.94873512,4081.4053211,4136.81296316,4095.23818102,4109.60028797,4090.84605849,4091.98540759,847.948222071
off_to_on,4090.46004038,4100.2222626,4086.52027377,4136.29570366,4109.40524614,4104.06161436,4094.65959295,4079.99441529,4136.80836223,4094.33494431,4109.35917905,4089.98985106,4091.5555849,843.651078087
off_to_on,4089.47958691,4099.55349302,4086.04333272,4136.24643107,4108.6442393,4102.79353946,4093.21107592,4078.4903436,4136.80966859,4093.27182289,4109.05546921,4088.95497406,4090.98204143,834.769162572
off_to_on,4088.42323673,4098.80445063,4085.4898664,4136.20014984,4107.85889699,4101.4224794,4091.62231104,4076.91252772,4136.81661746,4092.0593568,4108.69370197,4087.75170572,4090.26795862,821.871439856
off_to_on,4087.30253335,4097.97883437,4084.86188561,4136.15746079,4107.06100568,4099.97056042,4089.91758675,4075.28343078,4136.82875567,4090.71366681,4108.28041822,4086.39687979,4089.42230979,805.625332964
off_to_on,4086.13272529,4097.08376089,4084.16504106,4136.1188609,4106.26380455,4098.46293724,4088.12567575,4073.62795088,4136.84546179,4089.25595101,4107.82389828,4084.91335995,4088.45951519,786.773638286
off_to_on,4084.93227713,4096.12953086,4083.4083667,4136.08473311,4105.48153514,4096.92695155,4086.27898654,4071.97271891,4136.86597213,4087.71179754,4107.33384942,4083.32929545,4087.39889491,766.109198899
off_to_on,4083.72224971,4095.12927634,4082.60388763,4136.0553393,4104.72894039,4095.39120518,4084.41257632,4070.34532643,4136.88941137,4086.11034222,4106.82105226,4081.67718982,4086.26394519,744.448262179
off_to_on,4082.52557599,4094.09850613,4081.76611126,4136.0308164,4104.02073313,4093.88458529,4082.56306297,4068.77351202,4136.91482672,4084.48330547,4106.29698046,4079.99282052,4085.08146917,722.603483571
off_to_on,4081.36626258,4093.05456907,4080.91142474,4136.01117568,4103.37105561,4092.43528114,4080.76747756,4067.28433652,4136.94122425,4082.86394661,4105.77340876,4078.31405205,4083.88059857,701.357539101
off_to_on,4080.26855002,4092.01605809,4080.05742501,4135.99630485,4102.79295262,4091.06983281,4079.06210119,4065.90337786,4136.96760586,4081.28597565,4105.26202401,4076.67958779,4082.69174546,681.438272937
off_to_on,4079.25606596,4091.00217976,4079.22221014,4135.98597305,4102.29787973,4089.81225072,4077.48132967,4064.65397575,4136.99300572,4079.78246378,4104.77405337,4075.12770769,4081.54552548,663.496235858
off_to_on,4078.35100566,4090.0321151,4078.42366206,4135.97983835,4101.8952674,4088.68324155,4076.05660811,4063.55655386,4137.01652461,4078.38479279,4104.31992219,4073.69503856,4080.47169395,648.085371601
off_to_on,4077.57337266,4089.12439744,4077.67875067,4135.97745778,4101.59215858,4087.69957103,4074.8154739,4062.62804354,4137.03736106,4077.12168183,4103.9089526,4072.415402,4079.49813527,635.647484919
off_to_on,4076.94030909,4088.2963312,4077.00288793,4135.97829962,4101.39293471,4086.87358781,4073.78074124,4061.8814288,4137.05483811,4076.01832602,4103.54911164,4071.31878091,4078.64994298,626.500979489
off_to_on,4076.46554081,4087.56347303,4076.40935766,4135.98175792,4101.29914094,4086.21292474,4072.96985436,4061.32542686,4137.06842482,4075.09567608,4103.24681524,4070.43043966,4077.94862323,620.834188855
off_to_on,4076.15895681,4086.93919223,4075.90884314,4135.98716908,4101.3094172,4085.72038626,4072.39442963,4060.96431323,4137.07775181,4074.36988137,4103.00679197,4069.77022524,4077.41144816,618.703445527
off_to_on,4076.02633616,4086.43432337,4075.5090695,4135.99383015,4101.41953744,4085.3940221,4072.05999901,4060.79789472,4137.08262043,4073.85191092,4102.83200775,4069.35206832,4077.05097852,620.035849091
off_to_on,4076.06922957,4086.05691922,4075.21457289,4136.00101839,4101.62255477,4085.22737996,4071.96596029,4060.8216276,4137.08300528,4073.54735918,4102.7236502,4069.18369435,4076.87476734,624.636511214
off_to_on,4076.28499633,4085.81210807,4075.02660292,4136.00801178,4101.90904608,4085.2099222,4072.10573146,4061.026873,4137.07905017,4073.4564359,4102.68116944,4069.26654697,4076.88524945,632.199884268
off_to_on,4076.66699134,4085.70205577,4074.94315906,4136.01410985,4102.26744597,4085.32758539,4072.46709976,4061.40127598,4137.07105789,4073.57413295,4102.70237022,4069.59591853,4077.07981473,642.324633892
off_to_on,4077.20489088,4085.72602892,4074.95915658,4136.01865427,4102.68445646,4085.56345578,4073.03274802,4061.92925047,4137.05947415,4073.890555,4102.78354889,4070.16127569,4077.45105664,654.531401737
off_to_on,4077.88514046,4085.88055219,4075.066712,4136.02104891,4103.14551618,4085.89853005,4073.78093512,4062.59254834,4137.04486672,4074.39139602,4102.91966799,4070.94676236,4077.98718151,668.282721851
off_to_on,4078.69150329,4086.15964938,4075.25553377,4136.02077853,4103.63531065,4086.31252744,4074.68630216,4063.37088901,4137.0279003,4075.05853943,4103.10456022,4071.93185604,4078.67255849,683.004299352
off_to_on,4079.60568462,4086.55515518,4075.51339933,4136.01742587,4104.13830409,4086.78471899,4075.72077294,4064.24262494,4137.00930854,4075.87075645,4103.33115384,4073.09215001,4079.48838565,698.106835085
off_to_on,4080.60800475,4087.05708225,4075.82669718,4136.01068617,4104.63927243,4087.29473953,4076.85451515,4065.18541858,4136.98986415,4076.80447468,4103.59171089,4074.40023008,4080.41344373,713.007588474
off_to_on,4081.6780931,4087.65402717,4076.1810097,4136.0003787,4105.12381786,4087.82335052,4078.05692739,4066.17690739,4136.97034822,4077.83458784,4103.87807028,4075.82661246,4081.42490658,727.150911477
off_to_on,4082.79557572,4088.33359735,4076.56171182,4135.98645442,4105.57884592,4088.35312449,4079.29761693,4067.19533495,4136.95152022,4078.93527629,4104.18188753,4077.34070868,4082.49917525,740.027053396
off_to_on,4083.94072969,4089.08284109,4076.95456005,4135.96899933,4105.99298779,4088.86902564,4080.54733422,4068.22012806,4136.93408945,4080.08080904,4104.49486367,4078.91178328,4083.61270289,751.188623684
off_to_on,4085.09508018,4089.88866324,4077.34624732,4135.94823295,4106.3569528,4089.35886577,4081.77883241,4069.23240276,4136.91868932,4081.24629918,4104.80895601,4080.50987159,4084.74277835,760.264202107
off_to_on,4086.24191856,4090.73820999,4077.72490117,4135.92450185,4106.66379871,4089.81361964,4082.96762424,4070.21538499,4136.90585513,4082.40838773,4105.11656504,4082.10662724,4085.86823938,766.968695077
off_to_on,4087.36672393,4091.61920842,4078.08050551,4135.89826812,4106.90911054,4090.22759007,4084.09261288,4071.15473596,4136.89600629,4083.54583468,4105.41069256,4083.67607257,4086.9700899,771.11014809
off_to_on,4088.45747516,4092.52024836,4078.40522981,4135.87009319,4107.0910826,4090.59841995,4085.13657933,4072.03877635,4136.88943343,4084.63999998,4105.68506806,4085.19522918,4088.03200061,772.592837387
off_to_on,4089.5048452,4093.43099738,4078.69365415,4135.84061753,4107.210502,4090.9269555,4086.08651468,4072.85860732,4136.88629084,4085.6752023,4105.93424155,4086.64461033,4089.04067745,771.416583449
off_to_on,4090.5022752,4094.34234263,4078.94288273,4135.81053702,4107.27063622,4091.21697228,4086.93379164,4073.6081307,4136.88659439,4086.63894818,4106.15364288,4088.00856253,4089.98608838,767.672356037
off_to_on,4091.44593123,4095.2464578,4079.1525441,4135.78057697,4107.27703116,4091.47478164,4087.67417612,4074.28397368,4136.89022483,4087.52202954,4106.33960909,4089.27544974,4090.86154512,761.534372086
off_to_on,4092.33455121,4096.13679751,4079.32468087,4135.75146477,4107.23722919,4091.70874023,4088.30768508,4074.88532682,4136.89693623,4088.31849319,4106.48938263,4090.43768027,4091.66364314,753.249017701
off_to_on,4093.16919465,4097.00802584,4079.46353706,4135.72390234,4107.16042011,4091.92868851,4088.83830279,4075.4137066,4136.90636916,4089.02549149,4106.60108477,4091.49158327,4092.3920694,743.121047602
off_to_on,4093.95291054,4097.85588911,4079.57525514,4135.69853927,4107.05703939,4092.14534606,4089.27357267,4075.87265627,4136.91806787,4089.64302836,4106.67366929,4092.43714815,4093.0492933,731.497623401
off_to_on,4094.69034189,4098.67704587,4079.66749864,4135.67594794,4106.9383303,4092.36969326,4089.62408673,4076.26740052,4136.93150073,4090.1736191,4106.70686226,4093.27764578,4093.64016082,718.750840755
off_to_on,4095.38728695,4099.46886871,4079.74901876,4135.65660124,4106.81588742,4092.61236879,4089.90289797,4076.60447113,4136.94608318,4090.62188577,4106.70109429,4094.01915467,4094.1714159,705.259460053
off_to_on,4096.05023851,4100.22923347,4079.82918565,4135.64085415,4106.70119929,4092.88311139,4090.1248829,4076.89132095,4136.96120205,4090.99411128,4106.65743089,4094.67001857,4094.65117482,691.39059235
off_to_on,4096.68592345,4100.9563115,4079.91750607,4135.62892955,4106.60520832,4093.19027195,4090.3060819,4077.13594331,4136.97624037,4091.29777617,4106.57750641,4095.24026319,4095.08838034,677.482099503
off_to_on,4097.30086384,4101.6483797,4080.02314911,4135.62090917,4106.53790433,4093.54041741,4090.46304313,4077.3465123,4136.99060164,4091.54110071,4106.46346548,4095.74100069,4095.4922618,663.826443825
off_to_on,4097.90097995,4102.30366172,4080.15450114,4135.61672974,4106.5079671,4093.93804269,4090.61219395,4077.53105726,4137.00373277,4091.73261352,4106.31791431,4096.18384894,4095.87182568,650.656668588
off_to_on,4098.49125252,4102.92021104,4080.31876939,4135.6161848,4106.52247036,4094.38540055,4090.76926035,4077.69718228,4137.01514459,4091.88076487,4106.14388293,4096.58039086,4096.23539848,638.135108063
off_to_on,4099.07545835,4103.49584404,4080.5216508,4135.61893187,4106.58665724,4094.88245266,4090.94875271,4077.85183891,4137.02442936,4091.99359993,4105.94479769,4096.94169576,4096.59024068,626.345317616
off_to_on,4099.65598911,4104.02812746,4080.76707968,4135.62450512,4106.70379359,4095.42693935,4091.16353255,4078.00115768,4137.0312747,4092.07850284,4105.72446229,4097.27792066,4096.94224602,615.287584915
off_to_on,4100.23375842,4104.51442086,4081.05706371,4135.63233289,4106.87510275,4096.01456008,4091.42447151,4078.15034075,4137.03547328,4092.14201849,4105.48704443,4097.59800392,4097.29573535,604.878237678
off_to_on,4100.8081976,4104.95197056,4081.39161329,4135.6417598,4107.09978148,4096.63925188,4091.74020954,4078.30361484,4137.03692828,4092.1897534,4105.2370641,4097.90945817,4097.65334911,594.952807649
off_to_on,4101.377336,4105.33804845,4081.76876496,4135.65207256,4107.37509402,4097.29354953,4092.11701455,4078.46424089,4137.03565422,4092.22635283,4104.97937913,4098.21826307,4098.01603667,585.272950924
off_to_on,4101.93795819,4105.67012561,4082.18469526,4135.66252875,4107.69653815,4097.96900788,4092.55874154,4078.63457387,4137.03177354,4092.25554645,4104.71916321,4098.52885379,4098.38313649,575.536868088
off_to_on,4102.48582712,4105.94606957,4082.63391778,4135.67238735,4108.0580746,4098.65666462,4093.06688501,4078.81616453,4137.02550889,4092.28025205,4104.46187176,4098.84419642,4098.75253704,565.392820329
off_to_on,4103.01596038,4106.16435227,4083.10955302,4135.68094009,4108.45240927,4099.34751999,4093.64071501,4079.00989329,4137.01717172,4092.30272424,4104.21319185,4099.16593867,4099.12090565,554.455205962
off_to_on,4103.52294457,4106.32425628,4083.60365783,4135.6875423,4108.87131561,4100.03300924,4094.27748388,4079.21612554,4137.00714772,4092.32473395,4103.97897365,4099.49462168,4099.48397068,542.322551159
off_to_on,4104.00127208,4106.4260666,4084.10759929,4135.69164209,4109.30598338,4100.70544399,4094.97268951,4079.43487746,4136.99587959,4092.34776441,4103.76514199,4099.82993722,4099.83684149,528.596683835
off_to_on,4104.44568409,4106.4712363,4084.61245638,4135.6928066,4109.74737928,4101.35840085,4095.72037939,4079.66598182,4136.98384806,4092.37320947,4103.57758852,4100.17101364,4100.17434995,512.902304156
off_to_on,4104.85150369,4106.46251574,4085.10943183,4135.6907442,4110.18660468,4101.98703887,4096.51348025,4079.90924381,4136.97155193,4092.40256149,4103.42204642,4100.5167132,4100.4913975,494.906141427
off_to_on,4105.21494436,4106.40403641,4085.5902568,4135.6853216,4110.6152363,4102.5883316,4097.34413808,4080.16457853,4136.95948782,4092.43757674,4103.30395077,4100.86592406,4100.78329176,474.334896334
off_to_on,4105.53338061,4106.30134322,4086.04757144,4135.67657498,4111.02563684,4103.16120405,4098.20405417,4080.4321225,4136.94813052,4092.48040865,4103.22828924,4101.21783091,4101.04605781,450.991209258
off_to_on,4105.80556952,4106.16137139,4086.47526586,4135.66471431,4111.41122408,4103.70656969,4099.08480361,4080.71231369,4136.93791479,4092.53370065,4103.19944834,4101.57215014,4101.27671069,424.76696819
off_to_on,4106.03181436,4105.99236671,4086.86876806,4135.65012058,4111.76668921,4104.22726723,4099.97812411,4081.0059355,4136.92921907,4092.60063308,4103.22106155,4101.92931737,4101.47347746,395.65337064
off_to_on,4106.21406341,4105.80375045,4087.22526741,4135.6333357,4112.08815709,4104.72790118,4100.87616534,4081.31412264,4136.92235189,4092.68492116,4103.29586608,4102.29061774,4101.63596004,363.747278945
off_to_on,4106.35593941,4105.60593219,4087.54386503,4135.6150452,4112.37328398,4105.21459469,4101.77169193,4081.6383289,4136.91754143,4092.79076399,4103.42557513,4102.65825224,4101.76523224,329.253552417
off_to_on,4106.46269704,4105.41007552,4087.82564485,4135.59605439,4112.62129062,4105.69466676,4102.65823632,4081.98025947,4136.9149284,4092.92274687,4103.61077254,4103.03533605,4101.86386749,292.483197151
off_to_on,4106.54110843,4105.22782316,4088.0736623,4135.57725858,4112.83293111,4106.17624947,4103.53020127,4082.34177273,4136.91456266,4093.08570185,4103.85083636,4103.42582795,4101.93589614,253.84733868
off_to_on,4106.5992792,4105.07098951,4088.29285021,4135.55960848,4113.01040077,4106.66786359,4104.38291377,4082.72475803,4136.91640347,4093.28453312,4104.14389678,4103.83439287,4101.98669365,213.847187413
off_to_on,4106.64640044,4104.95122985,4088.48984492,4135.54407205,4113.15718838,4107.17797254,4105.21263402,4083.13099723,4136.9203234,4093.5240153,4104.48683261,4104.26620303,4102.02280381,173.06032544
off_to_on,4106.69244522,4104.87969701,4088.67273905,4135.53159422,4113.2778803,4107.71453537,4106.01652357,4083.56201784,4136.92611546,4093.80857384,4104.87530867,4104.72668607,4102.05170355,132.123789373
off_to_on,4106.74782103,4104.86669699,4088.8507701,4135.5230559,4113.37792614,4108.28457914,4106.79257793,4084.01894569,4136.9335033,4094.14205766,4105.30385493,4105.22123168,4102.08151855,91.7145517667
off_to_on,4106.82299162,4104.92135597,4089.03395748,4135.51923412,4113.46337635,4108.89380962,4107.53952968,4084.50236528,4136.94215393,4094.52751493,4105.76598602,4105.75487105,4102.12070161,52.5281081514
off_to_on,4106.92808296,4105.05131098,4089.2327021,4135.52076471,4113.54060353,4109.54627728,4108.25672996,4085.01219546,4136.9516923,4094.96698335,4106.25435866,4106.33194495,4102.17768738,15.2559537916
off_to_on,4107.07248864,4105.26243572,4089.45736423,4135.52810935,4113.6160188,4110.2441122,4108.94401658,4085.54758823,4136.96171725,4095.46130587,4106.76096265,4106.95577762,4102.26053851,-19.4372190618
off_to_on,4107.26448952,4105.55861174,4089.71783608,4135.5415284,4113.69579477,4110.98733865,4109.60157762,4086.10685765,4136.97181812,4096.00998222,4107.2773398,4107.62837354,4102.37659824,-50.9357582312
off_to_on,4107.51090196,4105.9415534,4090.02312503,4135.5610609,4113.78560572,4111.77377648,4110.22981893,4086.68744457,4136.9815913,4096.61106469,4107.79482371,4108.35015349,4102.53216442,-78.6938960965
off_to_on,4107.8167683,4106.4106932,4090.38096359,4135.58651298,4113.89039495,4112.59903327,4110.82924289,4087.28592119,4136.99065612,4097.26110481,4108.30479219,4109.1197449,4102.73219831,-102.254424582
off_to_on,4108.18510202,4106.96313224,4090.79746095,4135.61745543,4114.01417788,4113.45658734,4111.40034443,4087.89803754,4136.99866948,4097.95515498,4108.79892289,4109.93383885,4102.98008021,-121.264501683
off_to_on,4108.61669856,4107.59365857,4091.27680982,4135.65323098,4114.15988801,4114.33795807,4111.94352827,4088.51880931,4137.00533857,4098.68682695,4109.26944295,4110.78712379,4103.27742231,-135.487990099
off_to_on,4109.11002074,4108.2948342,4091.8210607,4135.69297154,4114.32927123,4115.23295664,4112.45905012,4089.14264483,4137.01043132,4099.44840633,4109.70936272,4111.6723024,4103.623947,-144.813842868
off_to_on,4109.66116494,4109.05714952,4092.4299729,4135.73562509,4114.52283163,4116.13000699,4112.94698306,4089.76350679,4137.01378425,4100.23102043,4110.11268499,4112.58019439,4104.01743696,-149.260176725
off_to_on,4110.26391111,4109.86924139,4093.10094938,4135.77999161,4114.73983023,4117.01652465,4113.40720994,4090.37510305,4137.01530725,4101.02485437,4110.47458119,4113.499924,4104.45376002,-148.973813077
off_to_on,4110.90985623,4110.7181688,4093.82905836,4135.82476682,4114.97833541,4117.87933929,4113.83944189,4090.97109902,4137.01498549,4101.81940797,4110.79152763,4114.41918626,4104.926969,-144.225222445
off_to_on,4111.58862782,4111.5897378,4094.6071418,4135.86859218,4115.23532205,4118.70514563,4114.24326194,4091.54534334,4137.01287821,4102.60378374,4111.06139567,4115.324582,4105.42947258,-135.398980185
off_to_on,4112.28817075,4112.46886578,4095.42600734,4135.91010906,4115.50681427,4119.4809661,4114.61819157,4092.09209694,4137.00911454,4103.36699467,4111.28349176,4116.20200772,4105.95227031,-122.980019647
off_to_on,4112.99509809,4113.33997354,4096.2746967,4135.9480146,4115.78806506,4120.19460795,4114.96377544,4092.60625482,4137.00388677,4104.09827898,4111.45854465,4117.03708444,4106.48524215,-107.536138872
off_to_on,4113.69509435,4114.18739364,4097.14082147,4135.9811169,4116.07376445,4120.83509763,4115.27967793,4093.0835493,4136.99744112,4104.78740944,4111.58863957,4117.81560777,4107.01748072,-89.6973674338
off_to_on,4114.37335733,4114.9957827,4098.01095422,4136.00838669,4116.35826703,4121.39307524,4115.56578349,4093.52072385,4136.99006667,4105.424985,4111.67710111,4118.52400176,4107.53765397,-70.1329285204
off_to_on,4115.0150633,4115.75052607,4098.8710612,4136.02900319,4116.63582888,4121.86113363,4115.82229237,4093.9156679,4136.98208282,4106.00269451,4111.7283291,4119.14975905,4108.03438468,-49.526636801
off_to_on,4115.60583881,4116.43812293,4099.70696131,4136.04239177,4116.90084347,4122.23408859,4116.04980367,4094.26750458,4136.97382576,4106.51354301,4111.74759344,4119.68185065,4108.49663337,-28.5516489005
off_to_on,4116.13222201,4117.04654044,4100.50479467,4136.04825158,4117.14806674,4122.50916903,4116.24937839,4094.57662586,4136.96563472,4106.95203328,4111.74079629,4120.11108984,4108.91407085,-7.84552244474
off_to_on,4116.58209706,4117.56552648,4101.25148403,4136.04657163,4117.37282174,4122.68611934,4116.42257595,4094.84467189,4136.95783829,4107.3142965,4111.71421058,4120.43043602,4109.27742668,12.0134608267
off_to_on,4116.94508643,4117.98687159,4101.93517239,4136.03763446,4117.57117479,4122.76720932,4116.57145924,4095.07445392,4136.95074155,4107.5981674,4111.6742055,4120.63522678,4109.57880074,30.5277901695
off_to_on,4117.21288771,4118.30461271,4102.5456208,4136.02200702,4117.74007586,4122.75715051,4116.69856443,4095.26982258,4136.94461442,4107.8032015,4111.62696965,4120.72332915,4109.81192599,47.2991951247
off_to_on,4117.37954401,4118.51517368,4103.07455227,4136.00051928,4117.87745782,4122.66292079,4116.80683342,4095.43548574,4136.93968164,4107.93063375,4111.57824312,4120.69520449,4109.97237303,62.0433535885
off_to_on,4117.44163884,4118.61743944,4103.51592901,4135.97423123,4117.98229047,4122.4935024,4116.89950912,4095.57678245,4136.93611484,4107.98328057,4111.53306947,4120.55388486,4110.05768892,74.6002423313
off_to_on,4117.39840935,4118.61276352,4103.86615321,4135.94438988,4118.05458743,4122.25954212,4116.97999645,4095.69942201,4136.93402689,4107.96538979,4111.49557796,4120.30486289,4110.06746617,84.9396960814
off_to_on,4117.25177422,4118.50491005,4104.124184,4135.91237793,4118.09536614,4121.97294564,4117.05169492,4095.80919946,4136.9334687,4107.8824455,4111.46880553,4119.95590027,4110.0033406,93.1619216439
off_to_on,4117.00627615,4118.29993375,4104.29156699,4135.87965638,4118.10656344,4121.64642181,4117.11781157,4095.91170114,4136.93442859,4107.74093685,4111.45456644,4119.51676364,4109.86891982,99.4929068254
off_to_on,4116.66894151,4118.00600229,4104.37237535,4135.84770349,4118.09091126,4121.29299494,4117.18116507,4096.01201469,4136.93683417,4107.54810129,4111.45337563,4118.99889916,4109.66964644,104.274861966
off_to_on,4116.24906329,4117.63316683,4104.37306498,4135.81795253,4118.05177879,4120.92550514,4117.24399197,4096.11445805,4136.94055659,4107.31165339,4111.46442945,4118.41505946,4109.41260248,107.952024823
off_to_on,4115.75791597,4117.19308758,4104.30224949,4135.79173093,4117.99298906,4120.55611741,4117.30776655,4096.22234093,4136.94541698,4107.03951035,4111.48564523,4117.7788982,4109.10626307,111.052340398
off_to_on,4115.20841341,4116.69872223,4104.17040349,4135.77020313,4117.91861869,4120.19586018,4117.37304491,4096.33777039,4136.95119469,4106.73952524,4111.51375835,4117.10454862,4108.76020934,114.165690772
off_to_on,4114.61472231,4116.1639862,4103.9895056,4135.75431942,4117.83279055,4119.85421212,4117.43934297,4096.46151041,4136.95763708,4106.41923869,4111.54447316,4116.40620263,4108.38481119,117.919488924
off_to_on,4113.99184498,4115.60339376,4103.77263486,4135.7447726,4117.73946886,4119.53875476,4117.50505746,4096.59290252,4136.96447033,4106.08565843,4111.57266198,4115.69770675,4107.99089177,122.952557142
off_to_on,4113.35518509,4115.03168966,4103.53353541,4135.74196418,4117.64226656,4119.25490534,4117.56743715,4096.72985283,4136.97141087,4105.74507546,4111.59260398,4114.99218935,4107.58938533,129.888281448
off_to_on,4112.72010988,4114.4634804,4103.28616539,4135.74598137,4117.54427401,4119.0057424,4117.62261115,4096.86888798,4136.97817691,4105.40292337,4111.5982548,4114.30173213,4107.19099977,139.308067315
off_to_on,4112.10152177,4113.912874,4103.04424592,4135.7565859,4117.44791745,4118.79193309,4117.66567869,4097.00528011,4136.98449976,4105.06368549,4111.58353566,4113.63709613,4106.80589471,151.726116956
off_to_on,4111.51345156,4113.39313699,4102.82082601,4135.77321541,4117.35485446,4118.61176805,4117.69086294,4097.13323819,4136.99013421,4104.7308521,4111.54263074,4113.00751007,4106.44338489,167.5665025
off_to_on,4110.96868508,4112.91637699,4102.62787853,4135.79499742,4117.26591197,4118.46130452,4117.69172787,4097.24615972,4136.99486791,4104.40692774,4111.47028014,4112.42052627,4106.11167739,187.143424968
off_to_on,4110.47843373,4112.49325916,4102.47594098,4135.82077605,4117.18107064,4118.33461362,4117.66145347,4097.33693424,4136.99852912,4104.09348611,4111.36205639,4111.88194688,4105.81765061,210.645431287
off_to_on,4110.05205845,4112.13276416,4102.3738136,4135.84915058,4117.0994969,4118.22412233,4117.5931609,4097.39828714,4137.00099272,4103.79126888,4111.21461258,4111.39582038,4105.56668111,238.124214523
off_to_on,4109.69685465,4111.84199469,4102.32832449,4135.87852485,4117.01962181,4118.12103597,4117.4802757,4097.42315026,4137.00218423,4103.50032212,4111.02589104,4110.96450568,4105.36252353,269.48844986
off_to_on,4109.41790364,4111.62603604,4102.34416935,4135.90716604,4116.93926318,4118.01582306,4117.31691462,4097.40504421,4137.00208171,4103.22016333,4110.79528316,4110.588798,4105.20724652,304.502927938
off_to_on,4109.21799367,4111.48787461,4102.42383004,4135.93327058,4116.85578539,4117.89874156,4117.09827963,4097.33845651,4137.00071551,4102.94996982,4110.52373231,4110.26810806,4105.10122591,342.793047381
off_to_on,4109.09761182,4111.42837614,4102.56757337,4135.95503509,4116.76628916,4117.76038384,4116.82104093,4097.21919957,4136.99816595,4102.68877893,4110.21377452,4110.00068365,4105.04319386,383.854526912
off_to_on,4109.05500632,4111.44632424,4102.77352857,4135.97072934,4116.6678224,4117.59221696,4116.48369074,4097.04473269,4136.9945591,4102.43568962,4109.86951355,4109.78386127,4105.03034141,427.068000014
off_to_on,4109.08631684,4111.53851789,4103.03783909,4135.97876867,4116.55760217,4117.38709565,4116.08684916,4096.8144336,4136.99006072,4102.19005527,4109.49652996,4109.6143347,4105.05846977,471.717970057
off_to_on,4109.18576861,4111.69992501,4103.35488181,4135.97778276,4116.43323721,4117.13972571,4115.63350503,4096.52980583,4136.98486884,4101.95165784,4109.1017264,4109.48842736,4105.12218513,517.015440222
off_to_on,4109.34592383,4111.92388789,4103.71754416,4135.96667794,4116.29293994,4116.84705706,4115.12917591,4096.1946102,4136.97920517,4101.72085481,4108.69311382,4109.40235573,4105.21512998,562.123395962
off_to_on,4109.55798127,4112.20237383,4104.11754742,4135.94469053,4116.1357169,4116.50858715,4114.581974,4095.81491085,4136.97330575,4101.49869092,4108.27954585,4109.3524719,4105.33024328,606.184211389
off_to_on,4109.81211275,4112.52626276,4104.54580273,4135.91142896,4115.96152677,4116.12655828,4114.0025685,4095.39902935,4136.96741123,4101.28696865,4107.8704111,4109.33547421,4105.46004023,648.347979368
off_to_on,4110.09782341,4112.88566136,4104.99278486,4135.866903,4115.77139632,4115.70603617,4113.40403918,4094.95740408,4136.96175715,4101.08827269,4107.47529492,4109.34857634,4105.59690161,687.800732896
off_to_on,4110.40432197,4113.27023194,4105.4489084,4135.81153866,4115.5674866,4115.25486232,4112.80162104,4094.50235622,4136.95656467,4100.90594522,4107.10362398,4109.38962656,4105.73336146,723.791532904
off_to_on,4110.72088721,4113.66952356,4105.90489102,4135.74617819,4115.35310396,4114.78347832,4112.21234518,4094.04776783,4136.95203205,4100.74401096,4106.76430804,4109.45717129,4105.86238203,755.657442381
off_to_on,4111.03721763,4114.0732925,4106.35208976,4135.67206472,4115.13265335,4114.30462643,4111.65458529,4093.60868132,4136.94832718,4100.60705298,4106.46539328,4109.55046001,4105.97760484,782.845487495
off_to_on,4111.34375313,4114.47180063,4106.7827976,4135.59081193,4114.91153465,4113.83293715,4111.147524,4093.20083313,4136.94558154,4100.50004265,4106.21374161,4109.66939186,4106.07356812,804.930821763
off_to_on,4111.63195868,4114.85608155,4107.19049018,4135.50435961,4114.69598505,4113.38441941,4110.71055699,4092.84013766,4136.94388568,4100.42813027,4106.01474916,4109.81440806,4106.1458829,821.630454059
off_to_on,4111.89456182,4115.218166,4107.57001451,4135.41491649,4114.49287374,4112.97587357,4110.36265622,4092.54213984,4136.9432865,4100.39640476,4105.87211572,4109.98633768,4106.19136158,832.812067646
off_to_on,4112.12573758,4115.55126042,4107.91771466,4135.32489221,4114.3094568,4112.62425045,4110.12171646,4092.32145742,4136.94378622,4100.40963347,4105.78767491,4110.18620668,4106.20809545,838.497639562
off_to_on,4112.32123599,4115.84987399,4108.23149142,4135.23682064,4114.15310233,4112.34598204,4110.00391065,4092.19123508,4136.94534324,4100.4719943,4105.76129251,4110.41502216,4106.19547955,838.861762632
off_to_on,4112.47844964,4116.10989162,4108.51079602,4135.15327716,4114.03099741,4112.1563114,4110.02308052,4092.16263363,4136.94787469,4100.5868133,4105.79083776,4110.67354491,4106.15418555,834.224767978
off_to_on,4112.59642106,4116.32859276,4108.75656033,4135.07679267,4113.94984979,4112.06865077,4110.19018757,4092.2443763,4136.95126057,4100.75632105,4105.87222958,4110.96206369,4106.08608529,825.040934771
off_to_on,4112.67579221,4116.50461797,4108.97106871,4135.00976729,4113.91559785,4112.09399638,4110.51284785,4092.44237245,4136.95534929,4100.98144052,4105.99955671,4111.28018505,4105.99413,811.882249696
off_to_on,4112.71870078,4116.63788851,4109.15777916,4134.95438695,4113.93314237,4112.24042712,4110.9949698,4092.75943528,4136.95996433,4101.26161801,4106.16526786,4111.62665228,4105.88219226,795.418336673
off_to_on,4112.7286301,4116.7294858,4109.32110347,4134.91254561,4114.00611296,4112.51270989,4111.63651014,4093.19510621,4136.96491179,4101.59470736,4106.36042507,4111.99920591,4105.75487962,776.393311341
off_to_on,4112.71022083,4116.78150021,4109.46615773,4134.88577614,4114.13668022,4112.91202994,4112.43335808,4093.74559394,4136.96998847,4101.97691547,4106.57501111,4112.39449693,4105.61733038,755.600417922
off_to_on,4112.66905365,4116.79685919,4109.59849545,4134.87519219,4114.32542275,4113.43585792,4113.37735335,4094.40383181,4136.97499011,4102.40281518,4106.79827988,4112.80806144,4105.47500252,733.855375495
off_to_on,4112.61141268,4116.7791453,4109.72383603,4134.88144338,4114.57125546,4114.07795996,4114.45643919,4095.159653,4136.97971952,4102.86542886,4107.019137,4113.2343626,4105.33346717,711.969396134
off_to_on,4112.54403948,4116.73241427,4109.84780073,4134.90468539,4114.87142295,4114.82855105,4115.65494727,4096.00007847,4136.98399433,4103.35638317,4107.22653697,4113.66690243,4105.19821664,690.722837345
off_to_on,4112.47388757,4116.66102197,4109.9756677,4134.94456633,4115.22155919,4115.67458624,4116.95400608,4096.90970847,4136.9876539,4103.86613164,4107.40988217,4114.09840191,4105.07449563,670.840414105
off_to_on,4112.40788655,4116.5694681,4110.11215597,4135.00023,4115.61581144,4116.60017858,4118.33205947,4097.87120367,4136.99056524,4104.38423842,4107.55940865,4114.52104416,4104.96716167,652.968824541
off_to_on,4112.35272412,4116.46226188,4110.26124671,4135.07033626,4116.04702409,4117.5871272,4119.76547674,4098.8658382,4136.99262777,4104.89971256,4107.66654397,4114.926771,4104.88057811,637.65754372
off_to_on,4112.31465217,4116.34381335,4110.42604755,4135.15309787,4116.50697504,4118.61553387,4121.22923122,4099.87410283,4136.99377661,4105.40137917,4107.72422287,4115.30762004,4104.81854056,625.343416463
off_to_on,4112.29932172,4116.21835115,4110.60870363,4135.24633281,4116.98665509,4119.66448243,4122.69762167,4100.87633443,4136.99398447,4105.87827153,4107.727148,4115.65608616,4104.78423495,616.339534284
off_to_on,4112.31164916,4116.08986587,4110.81035665,4135.34753032,4117.47657878,4120.71275289,4124.14500959,4101.85334674,4136.99326194,4106.32002696,4107.67198529,4115.96548939,4104.78022423,610.82871632
off_to_on,4112.35571472,4115.96207625,4111.03115091,4135.4539283,4117.96711359,4121.73954077,4125.54654636,4102.78703783,4136.99165631,4106.71726918,4107.5574858,4116.23033037,4104.80845905,608.861735822
off_to_on,4112.4346929,4115.83841399,4111.27028355,4135.56259959,4118.4488141,4122.72515324,4126.87886523,4103.66095141,4136.98924891,4107.06196034,4107.38452941,4116.44661414,4104.87030713,610.360249152
off_to_on,4112.55081324,4115.72202208,4111.52609433,4135.67054402,4118.9127473,4123.65165453,4128.12071567,4104.46077158,4136.98615124,4107.34770705,4107.15608837,4116.61212399,4104.96659524,615.124200983
off_to_on,4112.70534942,4115.61576114,4111.79618904,4135.77478296,4119.35079622,4124.50343665,4129.25352013,4105.17473375,4136.9824999,4107.57000634,4106.87711239,4116.72662866,4105.0976573,622.843308081
off_to_on,4112.89863417,4115.52221826,4112.07758954,4135.87245316,4119.75593001,4125.26769424,4130.26183598,4105.79393748,4136.97845065,4107.72641995,4106.55433978,4116.79200855,4105.2633823,633.112077713
off_to_on,4113.13009689,4115.44371355,4112.36690255,4135.9608965,4120.12243039,4125.9347874,4131.13370883,4106.31255087,4136.97417187,4107.81666808,4106.19604237,4116.81229073,4105.46325677,645.447702828
off_to_on,4113.39832047,4115.38230077,4112.66049905,4136.03774244,4120.44606629,4126.49848088,4131.86090724,4106.72790013,4136.96983761,4107.842638,4105.81171448,4116.79358639,4105.69639749,659.310093688
off_to_on,4113.70111383,4115.3397598,4112.95469593,4136.10098053,4120.72421074,4126.95605349,4132.43903325,4107.04044232,4136.96562056,4107.80830644,4105.41171841,4116.74392971,4105.96157245,674.123251033
off_to_on,4114.03559622,4115.31758002,4113.24593187,4136.14902023,4120.95589662,4127.3082769,4132.86750815,4107.25362458,4136.96168527,4107.71957958,4105.00690097,4116.67302179,4106.25720917,689.297161131
off_to_on,4114.3982898,4115.31693533,4113.53092987,4136.18073642,4121.14180996,4127.55926842,4133.14943768,4107.37363783,4136.95818174,4107.58405746,4104.60819634,4116.591888,4106.58139153,704.249401836
off_to_on,4114.7852176,4115.33865202,4113.80683987,4136.19549879,4121.28422243,4127.71622708,4133.29136558,4107.40907745,4136.95523984,4107.41073338,4104.22623113,4116.51246129,4106.931847,718.425689871
off_to_on,4115.19200406,4115.38317203,4114.07135574,4136.19318461,4121.38686622,4127.78906633,4133.30292794,4107.37052711,4136.95296447,4107.20964077,4103.87094709,4116.44710718,4107.30592689,731.318666976
off_to_on,4115.61397625,4115.45051432,4114.32280258,4136.1741745,4121.45475721,4127.78995967,4133.19642385,4107.27008438,4136.95143196,4106.99146211,4103.551256,4116.40810954,4107.70058281,742.48431069
off_to_on,4116.04626432,4115.54023807,4114.56019129,4136.13933165,4121.4939737,4127.73281814,4132.98632018,4107.12084854,4136.95068751,4106.76711623,4103.27473975,4116.4071387,4108.11234355,751.555458714
off_to_on,4116.48390012,4115.65141188,4114.78323964,4136.08996564,4121.51139946,4127.63272013,4132.68870977,4106.93639178,4136.95074405,4106.54734134,4103.04740703,4116.45472579,4108.53729738,758.252046472
off_to_on,4116.92191307,4115.78259335,4114.99236,4136.02778233,4121.51444089,4127.50531511,4132.32074312,4106.73023508,4136.9515824,4106.34229177,4102.87351549,4116.55976789,4108.97108561,762.387769939
off_to_on,4117.35542154,4115.93182283,4115.18861529,4135.95482176,4121.51072803,4127.36622284,4131.90005336,4106.51534881,4136.95315279,4106.16116581,4102.75546587,4116.72908818,4109.40891319,763.873000409
off_to_on,4117.77971756,4116.09663359,4115.37364535,4135.87338677,4121.5078081,4127.23044873,4131.44419291,4106.30369618,4136.95537764,4106.01187968,4102.6937709,4116.96707187,4109.84558044,762.713898643
off_to_on,4118.19034135,4116.27407858,4115.54956597,4135.7859647,4121.51283961,4127.1118344,4130.97009778,4106.10583437,4136.95815539,4105.9007991,4102.68709837,4117.27539447,4110.27553775,759.007804146
off_to_on,4118.58314203,4116.46077187,4115.71884346,4135.69514532,4121.53229317,4127.02256034,4130.49359301,4105.93058451,4136.96136499,4105.83253597,4102.73238384,4117.65285293,4110.69296205,752.935107803
off_to_on,4118.95432028,4116.652941,4115.88414737,4135.60353769,4121.57166481,4126.97271481,4130.02894947,4105.78477757,4136.96487095,4105.80981318,4102.82500514,4118.09530491,4111.09185137,744.747946785
off_to_on,4119.30044975,4116.84648583,4116.04818509,4135.5136889,4121.63520675,4126.96993947,4129.5884996,4105.6730793,4136.96852824,4105.83339733,4102.95900795,4118.59571599,4111.46613226,734.756183077
off_to_on,4119.61847439,4117.03703936,4116.2135225,4135.42800715,4121.72568085,4127.01915917,4129.1823172,4105.59789416,4136.97218698,4105.90209586,4103.1273699,4119.14431028,4111.80977394,723.31123513
off_to_on,4119.90568041,4117.22002609,4116.38239577,4135.34869153,4121.84413971,4127.12240009,4128.81796479,4105.55934566,4136.97569635,4106.01281307,4103.32228937,4119.72881548,4112.11690259,710.788420521
off_to_on,4120.15964294,4117.39071437,4116.55652066,4135.27767037,4121.98974129,4127.27869763,4128.50031038,4105.55532811,4136.97890763,4106.16065779,4103.53548501,4120.33479003,4112.38190936,697.568531545
off_to_on,4120.37814906,4117.54425955,4116.73690611,4135.21655004,4122.15960289,4127.48409389,4128.23141464,4105.58162357,4136.98167607,4106.33909408,4103.75849246,4120.94601678,4112.59954576,684.019401878
off_to_on,4120.55910087,4117.6757358,4116.92367977,4135.16657528,4122.34870145,4127.73172251,4128.01048846,4105.63207626,4136.98386152,4106.54012563,4103.98294587,4121.54494528,4112.76500124,670.478228466
off_to_on,4120.70040436,4117.78015554,4117.11593324,4135.1286022,4122.54982704,4128.01197755,4127.83391993,4105.69881561,4136.98532794,4106.75450433,4104.20083352,4122.11316417,4112.87395885,657.23538785
off_to_on,4120.79985137,4117.8524775,4117.31159548,4135.10308429,4122.75359671,4128.31276088,4127.69536863,4105.77251845,4136.98594185,4106.97195401,4104.40471884,4122.6318854,4112.92262728,644.52043051
off_to_on,4120.85500411,4117.88760635,4117.5073423,4135.09007176,4122.94853534,4128.61980154,4127.58592434,4105.84270055,4136.98557009,4107.1814023,4104.5879206,4123.08242398,4112.90774957,632.490852534
off_to_on,4120.86309197,4117.88038889,4117.69855012,4135.08922362,4123.12122911,4128.91703894,4127.49432685,4105.89802784,4136.98407735,4107.37121528,4104.74464852,4123.44665962,4112.82659172,621.22413398
off_to_on,4120.82093098,4117.82561355,4117.87930063,4135.09983191,4123.25655511,4129.1870607,4127.40724367,4105.9266387,4136.98132409,4107.52943209,4104.87009297,4123.70746894,4112.67691622,610.713402111
off_to_on,4120.72487511,4117.71802018,4118.04244175,4135.12085684,4123.33798844,4129.41158488,4127.30960249,4105.91646939,4136.97716514,4107.64399849,4104.96046999,4123.84911941,4112.45694719,600.866930421
off_to_on,4120.57080717,4117.55232673,4118.17970782,4135.15097159,4123.34798477,4129.57197505,4127.18497492,4105.85557616,4136.97144989,4107.7029993,4105.0130247,4123.85761771,4112.16533429,591.511527112
off_to_on,4120.354175,4117.3232784,4118.28189909,4135.18861489,4123.26843338,4129.64977564,4127.01600688,4105.73244843,4136.9640241,4107.69488979,4105.02599777,4123.72100673,4111.80112239,582.399705843
off_to_on,4120.07007622,4117.02572286,4118.33911823,4135.23204988,4123.08117204,4129.62725417,4126.78488969,4105.53630821,4136.95473398,4107.60872568,4104.99856059,4123.42960693,4111.36373305,573.220373886
off_to_on,4119.7133926,4116.6547139,4118.34105842,4135.27942695,4122.76855243,4129.48793681,4126.47386414,4105.25739201,4136.9434322,4107.43439058,4104.93072603,4122.97619947,4110.85296299,563.612624769
off_to_on,4119.27897264,4116.20564413,4118.2773357,4135.32884875,4122.31404114,4129.21712347,4126.06574803,4104.88721158,4136.92998618,4107.16281896,4104.82324137,4122.3561503,4110.26900309,553.182090397
off_to_on,4118.7618583,4115.67440571,4118.13785566,4135.37843508,4121.7028393,4128.80236892,4125.54447574,4104.41879023,4136.91428779,4106.78621158,4104.67747097,4121.56747635,4109.61248024,541.519196946
off_to_on,4118.15754919,4115.0575763,4117.91320289,4135.42638555,4120.92250104,4128.23391667,4124.89563649,4103.8468716,4136.8962645,4106.29824039,4104.49527542,4120.61085657,4108.88452257,528.218584271
off_to_on,4117.46229463,4114.3526256,4117.59503995,4135.4710381,4119.96352954,4127.50507315,4124.10699705,4103.16809767,4136.87589096,4105.69423916,4104.27889404,4119.48959212,4108.08684723,512.898893744
off_to_on,4116.67340178,4113.55813548,4117.17650119,4135.51092151,4118.81992813,4126.61251095,4123.16899379,4102.38115343,4136.85320069,4104.9713763,4104.03083656,4118.20952123,4107.22186768,495.222106729
off_to_on,4115.78954601,4112.67402457,4116.65256614,4135.54480042,4117.4896837,4125.55649153,4122.07517911,4101.48687599,4136.82829696,4104.12880623,4103.75378896,4116.77889495,4106.29281565,474.911626308
off_to_on,4114.81106878,4111.70176632,4116.02039683,4135.57171154,4115.97516066,4124.3409998,4120.82260759,4100.48832638,4136.80136227,4103.16779526,4103.45053704,4115.2082202,4105.30387054,451.768338158
off_to_on,4113.74024804,4110.64458858,4115.27962404,4135.59099025,4114.28338517,4122.97378533,4119.41214734,4099.39082272,4136.77266585,4102.09181785,4103.12391007,4113.5100769,4104.26028764,425.683960923
off_to_on,4112.58152696,4109.50764221,4114.43256925,4135.60228662,4112.42620243,4121.46630712,4117.84870293,4098.20193356,4136.74256842,4100.9066192,4102.77674514,4111.69891538,4103.16851531,396.651099093
off_to_on,4111.34168765,4108.29812707,4113.48439052,4135.6055709,4110.42029347,4119.83358148,4116.14133708,4096.93142991,4136.71152399,4099.62024014,4102.41187164,4109.79084061,4102.03629117,364.769538232
off_to_on,4110.02995834,4107.02536471,4112.44314373,4135.60112806,4108.28704193,4118.09393506,4114.3032809,4095.59119499,4136.68007815,4098.24300129,4102.03211427,4107.80338871,4100.87270752,330.248468246
off_to_on,4108.65804361,4105.70080869,4111.31975287,4135.58954202,4106.05224658,4116.26866752,4112.35182484,4094.19509045,4136.64886264,4096.78744334,4101.64031159,4105.75530024,4099.68823726,293.404479498
off_to_on,4107.24006954,4104.33798522,4110.12788598,4135.57167008,4103.74568014,4114.38163119,4110.30808694,4092.75877907,4136.61858599,4095.26822106,4101.23934669,4103.66629286,4098.4947122,254.655342497
off_to_on,4105.7924382,4102.95235919,4108.88373686,4135.54860879,4101.40050114,4112.4587379,4108.19665927,4091.29950462,4136.59002012,4093.70194865,4100.832186,4101.55683412,4097.30524727,214.509748014
off_to_on,4104.33358963,4101.56112339,4107.60571558,4135.52165263,4099.0525309,4110.52740575,4106.04513826,4089.8358312,4136.56398313,4092.10699521,4100.42192184,4099.44791408,4096.13410645,173.553344226
off_to_on,4102.88367321,4100.18291195,4106.31405486,4135.49224695,4096.73941337,4108.61596057,4103.88354917,4088.38734493,4136.54131847,4090.50323002,4100.01181478,4097.36081635,4094.99650815,132.431554359
off_to_on,4101.46413487,4098.83744237,4105.03034238,4135.46193685,4094.49968071,4106.75300797,4101.7436783,4086.97432214,4136.52287114,4088.91171931,4099.60533157,4095.31688654,4093.90837161,91.8297866796
off_to_on,4100.09722959,4097.54509353,4103.77699198,4135.43231355,4092.37175164,4104.96679234,4099.65832897,4085.61736808,4136.50946164,4087.35437722,4099.20617501,4093.33729657,4092.88600802,52.4517532761
off_to_on,4098.80547216,4096.32643013,4102.57666924,4135.4049597,4090.39289265,4103.28455878,4097.66051974,4084.3370304,4136.50185861,4085.85357515,4098.81830183,4091.44280341,4091.94576326,14.9966909612
off_to_on,4097.61104115,4095.20168574,4101.45168826,4135.38139535,4088.59817457,4101.73193353,4095.78264434,4083.15339236,4136.50075119,4084.43171493,4098.44592511,4089.65350056,4091.10362129,-19.8636762815
off_to_on,4096.53515315,4094.19021871,4100.42339776,4135.363026,4087.01945786,4100.33233742,4094.05561537,4082.08565134,4136.50672236,4083.11077205,4098.09349802,4087.98856047,4090.374779,-51.5075803029
off_to_on,4095.597426,4093.30995638,4099.51157497,4135.35109447,4085.68444027,4099.10644608,4092.5080149,4081.15169001,4136.52022418,4081.91181668,4097.76567629,4086.46596666,4089.77320513,-79.3842236871
off_to_on,4094.8152511,4092.57684409,4098.73384595,4135.34663783,4084.61579929,4098.07171011,4091.16527731,4080.36764907,4136.54155638,4080.85452135,4097.46725756,4085.10223513,4089.31119651,-103.03258431
off_to_on,4094.20319576,4092.004316,4098.10515034,4135.35045103,4083.83045972,4097.24194681,4090.04892979,4079.74751156,4136.57084903,4079.95666551,4097.20309671,4083.91212593,4088.9989462,-122.097306814
off_to_on,4093.77245699,4091.60280552,4097.63726795,4135.36305807,4083.33901333,4096.62701419,4089.17591574,4079.30271019,4136.60805033,4079.23364827,4096.97799739,4082.90834807,4088.84413826,-136.341079441
off_to_on,4093.53038741,4091.37931291,4097.3384228,4135.3846917,4083.145313,4096.23257568,4088.55802481,4079.04176902,4136.65292018,4078.69802242,4096.79658133,4082.10126289,4088.85158448,-145.653010624
off_to_on,4093.48011293,4091.3370472,4097.21297858,4135.4152823,4083.24625855,4096.0599619,4088.20145052,4078.96999154,4136.70503002,4078.35906354,4096.66313878,4081.49859391,4089.02291868,-150.052647262
off_to_on,4093.62025974,4091.47515901,4097.26123731,4135.45445625,4083.63178507,4096.10613366,4088.10649382,4079.0892071,4136.76376912,4078.22239022,4096.58146481,4081.10515364,4089.35636367,-149.689417256
off_to_on,4093.9448055,4091.7885787,4097.47934998,4135.50154356,4084.28505819,4096.36374772,4088.26742721,4079.39758775,4136.82835731,4078.28965184,4096.55468814,4080.92260026,4089.84658522,-144.83743631
off_to_on,4094.44306644,4092.26797181,4097.85934525,4135.55559479,4085.18287378,4096.82132481,4088.67252989,4079.88954704,4136.89786388,4078.55830159,4096.58510034,4080.94923866,4090.48464548,-135.88579226
off_to_on,4095.0998281,4092.89982068,4098.38927851,4135.6154064,4086.29625297,4097.46351764,4089.30429989,4080.55573101,4136.97123197,4079.021471,4096.67399409,4081.17988097,4091.25806542,-123.324599738
off_to_on,4095.89562354,4093.66663689,4099.05350067,4135.67955405,4087.59121669,4098.2714747,4090.13984339,4081.38310954,4137.04730786,4079.66796061,4096.82151965,4081.60578119,4092.15100259,-107.727288912
off_to_on,4096.80715779,4094.54730507,4099.83304174,4135.74643264,4089.0297182,4099.22329393,4091.15143546,4082.3551732,4137.1248739,4080.48235772,4097.02656788,4082.21465697,4093.14454603,-89.7297432654
off_to_on,4097.80787237,4095.51755413,4100.70610106,4135.81430222,4090.57070628,4100.2945576,4092.30723966,4083.45223673,4137.20268419,4081.44528809,4097.28668775,4082.99080915,4094.21712582,-70.0070301988
off_to_on,4098.86863776,4096.55054677,4101.64863209,4135.88133826,4092.17128714,4101.45893688,4093.57216858,4084.65184636,4137.27950155,4082.5338032,4097.59804467,4083.91534635,4095.3450299,-49.2485737006
off_to_on,4099.95855634,4097.61757375,4102.63500605,4135.94568505,4093.78794905,4102.68885141,4094.90886167,4085.92928426,4137.35413443,4083.72189935,4097.95542454,4084.96651722,4096.50301608,-28.1326942777
off_to_on,4101.04585235,4098.68883439,4103.63873544,4136.00551072,4095.37781107,4103.95616659,4096.27875199,4087.25815928,4137.42547258,4084.98115869,4098.35228705,4086.12014854,4097.66500283,-7.3014797443
off_to_on,4102.09882121,4099.73428025,4104.63323545,4136.05906238,4096.89985575,4105.23290939,4097.64318982,4088.61106962,4137.49251998,4086.2814964,4098.7808693,4087.35018155,4098.8048182,12.6630511665
off_to_on,4103.08680674,4100.72449575,4105.5925996,4136.10472001,4098.31610592,4106.49198268,4098.96458696,4089.96031918,4137.55442386,4087.59199299,4099.2323395,4088.62929417,4099.89698295,31.2605697527
off_to_on,4103.9811733,4101.63158658,4106.49236424,4136.14104759,4099.59270707,4107.70785746,4100.2075438,4091.27866636,4137.61049881,4088.88178549,4099.69699768,4089.92959247,4100.91750156,48.0909956336
off_to_on,4104.75623908,4102.43004599,4107.31023708,4136.16683993,4100.7008799,4108.85722297,4101.33992001,4092.54008136,4137.66024507,4090.12098829,4100.16451881,4091.22335085,4101.84463318,62.8692554155
off_to_on,4105.39013724,4103.09756901,4108.026765,4136.18116416,4101.61771177,4109.91957478,4102.33381046,4093.72048627,4137.70336025,4091.28161134,4100.62423128,4092.48377753,4102.65961424,75.4356453217
off_to_on,4105.86557318,4103.61578565,4108.62591853,4136.18339441,4102.32676117,4110.87772221,4103.1663902,4094.79845188,4137.73974419,4092.33844246,4101.06542204,4093.68577948,4103.34730519,85.7613652264
off_to_on,4106.17044828,4103.97088652,4109.09557228,4136.1732388,4102.81845501,4111.71819788,4103.82059668,4095.75582514,4137.76949676,4093.26986043,4101.47765814,4094.80669975,4103.89673584,93.9489731644
off_to_on,4106.29832432,4104.15411705,4109.42786409,4136.15075789,4103.09026582,4112.43155472,4104.2856234,4096.57826354,4137.79290869,4094.05854725,4101.8511132,4095.82699958,4104.30152656,100.227703711
off_to_on,4106.24870757,4104.16212023,4109.61941919,4136.11637373,4103.14666288,4113.0125392,4104.55720589,4097.25565507,4137.81044593,4094.69207052,4102.17688672,4096.73085877,4104.56016686,104.943792424
off_to_on,4106.02713744,4103.99711296,4109.67143025,4136.07086901,4102.9988395,4113.46013336,4104.63768891,4097.78240677,4137.82272798,4095.16331087,4102.44730395,4097.50666928,4104.67613692,108.546142085
off_to_on,4105.64507225,4103.666886,4109.58958938,4136.0153758,4102.66422629,4113.77746381,4104.53587142,4098.15758903,4137.83050129,4095.47071416,4102.65618426,4098.14740047,4104.6578632,111.567847781
off_to_on,4105.11957227,4103.18462447,4109.38387348,4135.95135359,4102.16580808,4113.97158022,4104.26663383,4098.38492824,4137.83460853,4095.61835463,4102.79906704,4098.65081834,4104.51850472,114.60426148
do_nothing,4104.47278876,4102.56855215,4109.06819017,4135.88055655,4101.53126928,4114.05311117,4103.85035933,4098.47264536,4137.8359551,4095.61580232,4102.87338552,4099.01954703,4104.2755735,118.28841562
do_nothing,4103.73127541,4101.84140977,4108.65989676,4135.80499044,4100.79199829,4114.03580915,4103.31216882,4098.43314391,4137.83547403,4095.47779665,4102.87858079,4099.26096761,4103.95039918,123.264731655
do_nothing,4102.92514559,4101.02978395,4108.1792095,4135.7268596,4099.98198634,4113.93600062,4102.68099585,4098.2825567,4137.83409073,4095.22373643,4102.81615103,4099.38695619,4103.56745498,130.162010024
do_nothing,4102.0871042,4100.16330875,4107.64852428,4135.64850544,4099.13665944,4113.77196055,4101.98853457,4098.04016641,4137.83268873,4094.87700476,4102.6896332,4099.41347035,4103.1535678,139.5667314
do_nothing,4101.25138757,4099.27376634,4107.09167239,4135.57233779,4098.29168395,4113.56323357,4101.26809901,4097.72772041,4137.83207789,4094.46415416,4102.50451745,4099.35999848,4102.73704019,151.997693415
do_nothing,4100.45264741,4098.39411617,4106.53313699,4135.50076134,4097.48178674,4113.3299256,4100.553435,4097.36866445,4137.83296607,4094.01398237,4102.26809668,4099.24889155,4102.34671491,167.882960468
do_nothing,4099.72481692,4097.55748402,4105.99725667,4135.43609956,4096.73962957,4113.09199032,4099.87752773,4096.98732285,4137.83593533,4093.55653281,4101.98925589,4099.10460014,4102.01101462,187.540019204
do_nothing,4099.09999707,4096.79614296,4105.50744172,4135.38051869,4096.09477494,4112.8685342,4099.27144672,4096.60805396,4137.84142352,4093.12205522,4101.67820769,4098.95284159,4101.75698929,211.159913797
do_nothing,4098.60739964,4096.14051769,4105.08542797,4135.33595463,4095.57277613,4112.67716195,4098.76326753,4096.25440969,4137.84971178,4092.73996216,4101.34618174,4098.81972355,4101.60940274,238.7959874
do_nothing,4098.27238087,4095.61824239,4104.75059074,4135.30404539,4095.19441932,4112.53338187,4098.37710523,4095.94832669,4137.86091846,4092.43781568,4101.00507725,4098.73085018,4101.58988767,270.357682775
do_nothing,4098.11559546,4095.25330024,4104.51933896,4135.28607172,4094.97513911,4112.45008779,4098.13228983,4095.70937513,4137.87499938,4092.24037647,4100.66708858,4098.71043729,4101.71619558,305.609663588
do_nothing,4098.15229621,4095.06526975,4104.40460658,4135.28290824,4094.92462257,4112.4371316,4098.04270862,4095.55408876,4137.89175451,4092.16874553,4100.34431523,4098.78046219,4102.00156475,344.17631751
do_nothing,4098.39179931,4095.0686997,4104.41545513,4135.29498729,4095.04661018,4112.50099738,4098.11633451,4095.49539756,4137.91084054,4092.23962533,4100.04836848,4098.95987377,4102.45422577,385.551500223
do_nothing,4098.83713047,4095.27263056,4104.55679763,4135.32227685,4095.33889504,4112.64458545,4098.35495377,4095.54218096,4137.93178885,4092.46472401,4099.78998747,4099.26388699,4103.07705987,429.11318156
do_nothing,4099.48486125,4095.68027551,4104.82925036,4135.36427369,4095.79351588,4112.86711199,4098.7540999,4095.69895591,4137.95402806,4092.85032145,4099.57867761,4099.7033844,4103.86742044,474.142469652
do_nothing,4100.32513978,4096.28886946,4105.22911505,4135.42001199,4096.39713281,4113.16412682,4099.30319418,4095.96570924,4137.97691009,4093.39701125,4099.42238392,4100.28444429,4104.81712316,519.846325056
do_nothing,4101.34191458,4097.08969029,4105.74849065,4135.4880869,4097.1315698,4113.52764893,4099.98588648,4096.33787907,4137.99973895,4094.09962639,4099.32721064,4101.00801237,4105.91260503,565.383140003
do_nothing,4102.513345,4098.06825184,4106.37551006,4135.56669232,4097.97450223,4113.94641597,4100.78058424,4096.80648486,4138.02180065,4094.9473512,4099.29719771,4101.86973012,4107.13524796,609.89025137
do_nothing,4103.8123866,4099.20466411,4107.09469429,4135.65367108,4098.90026431,4114.4062405,4101.66115203,4097.35840131,4138.04239356,4095.92401583,4099.33416256,4102.85992855,4108.46185827,652.512384426
do_nothing,4105.20753462,4100.47415185,4107.88741291,4135.74657599,4099.880747,4114.89046248,4102.59775874,4097.97676706,4138.06085752,4097.00856418,4099.43761405,4103.96379174,4109.86528883,692.429992131
do_nothing,4106.66370426,4101.84771805,4108.73243696,4135.84273948,4100.88635545,4115.38048469,4103.55784519,4098.64151502,4138.076601,4098.17567989,4099.60474287,4105.16168818,4111.3151865,728.886462361
do_nothing,4108.14322286,4103.29293512,4109.60656797,4135.93934974,4101.88699384,4115.85637532,4104.50718092,4099.33000778,4138.08912502,4099.39654996,4099.83049024,4106.42966272,4112.77884371,761.213210284
do_nothing,4109.60690611,4104.7748426,4110.48532484,4136.03353092,4102.85304559,4116.29752123,4105.41097628,4100.01775863,4138.09804308,4100.6397412,4100.10769412,4107.74007623,4114.22212969,788.851754126
do_nothing,4111.01518909,4106.25692741,4111.34366933,4136.12242522,4103.75631841,4116.68331367,4106.23501454,4100.67921585,4138.10309631,4101.87216133,4100.42730938,4109.06237547,4115.61047497,811.371988068
do_nothing,4112.32928129,4107.70216044,4112.15674982,4136.20327421,4104.57092553,4116.99384774,4106.9467683,4101.28858657,4138.10416343,4103.06007465,4100.77869573,4110.36397203,4116.90988105,828.486010985
do_nothing,4113.51231407,4109.07406095,4112.90064294,4136.27349735,4105.27407701,4117.2106157,4107.51646522,4101.82067475,4138.10126507,4104.17014171,4101.14996461,4111.61120631,4118.08792687,840.057036318
do_nothing,4114.53044832,4110.33775905,4113.55307243,4136.33076531,4105.84675839,4117.31717348,4107.91806997,4102.25170785,4138.09456248,4105.1704523,4101.52837398,4112.77036997,4119.11474373,846.103090882
do_nothing,4115.3539099,4111.46102544,4114.09408454,4136.37306617,4106.27427781,4117.2997596,4108.13015244,4102.56012731,4138.08435079,4106.03152202,4101.90075802,4113.80875823,4119.96393067,846.795403594
do_nothing,4115.95792144,4112.41523735,4114.5066608,4136.39876291,4106.54666665,4117.1478463,4108.13661669,4102.72731944,4138.07104706,4106.72722392,4102.25397743,4114.69572157,4120.61338372,842.451580955
do_nothing,4116.32350101,4113.17625055,4114.77724959,4136.40664054,4106.65892433,4116.85460452,4107.92726992,4102.73826566,4138.05517371,4107.2356283,4102.57537494,4115.40368478,4121.04601365,833.523855267
do_nothing,4116.43810166,4113.72514879,4114.89620066,4136.39594181,4106.61110248,4116.41726653,4107.49821621,4102.58209359,4138.03733818,4107.53972574,4102.85322029,4115.9091009,4121.25032889,820.582867684
do_nothing,4116.29607047,4114.04884543,4114.85808889,4136.36639044,4106.40822969,4115.83737312,4106.85206474,4102.25251271,4138.0182094,4107.62801038,4103.07712869,4116.19330725,4121.22086345,804.297606508
do_nothing,4115.89891058,4114.14051577,4114.66191672,4136.31820122,4106.06008297,4115.12089551,4105.99794723,4101.7481211,4137.99849229,4107.49490376,4103.23843766,4116.24325228,4120.95843289,785.412255385
do_nothing,4115.25533571,4113.99984387,4114.31118822,4136.25207662,4105.58081693,4114.27822545,4104.95134422,4101.07257255,4137.9789012,4107.14100313,4103.33052795,4116.0520647,4120.47020631,764.720809413
do_nothing,4114.38111213,4113.63307291,4113.81385096,4136.16918985,4104.98846579,4113.32403018,4103.73372518,4100.23459671,4137.9601333,4106.57314361,4103.34907646,4115.6194409,4119.76958784,743.040386965
do_nothing,4113.29868914,4113.052855,4113.18210618,4136.07115488,4104.3043367,4112.27697317,4102.37201229,4099.24786911,4137.94284299,4105.80426951,4103.29223147,4114.9518321,4118.87590693,721.184200669
do_nothing,4112.03662547,4112.27790218,4112.4320911,4135.95998432,4103.55231545,4111.15930512,4100.89788285,4098.13073209,4137.92761839,4104.85311681,4103.16070325,4114.06242,4117.81392355,699.935151145
do_nothing,4110.62882516,4111.33244771,4111.58344167,4135.8380362,4102.75810799,4109.99633471,4099.34693047,4096.90577254,4137.91496054,4103.74371549,4102.95776656,4112.97087678,4116.61316059,680.020970261
do_nothing,4109.11360374,4110.24553324,4110.65874797,4135.7079512,4101.94844253,4108.81579307,4097.75770938,4095.59926735,4137.90526638,4102.50472627,4102.68917471,4111.70291359,4115.30708234,662.091769569
do_nothing,4107.53261158,4109.05014396,4109.68291834,4135.57258203,4101.1502578,4107.64711029,4096.17069015,4094.24051184,4137.89881582,4101.16863225,4102.36298788,4110.2896291,4113.93214316,646.700750114
do_nothing,4105.92964741,4107.78221952,4108.68247172,4135.43491678,4100.38990323,4106.52062559,4094.62715753,4092.86105032,4137.89576354,4099.77081037,4101.98932175,4108.76667755,4112.52673573,634.288706092
do_nothing,4104.34939884,4106.47957325,4107.68478048,4135.29799833,4099.69237583,4105.46675534,4093.16808258,4091.49383081,4137.89613557,4098.3485117,4101.58002483,4107.17328182,4111.13007173,625.172808595
do_nothing,4102.83615004,4105.18075563,4106.71728764,4135.16484182,4099.08061706,4104.51514459,4091.8330017,4090.17230859,4137.89983089,4096.93978279,4101.14829579,4105.55112328,4109.78103078,619.539990305
do_nothing,4101.43249745,4103.9238999,4105.80672327,4135.03835269,4098.57489033,4103.69382839,4090.65893492,4088.92952464,4137.90662769,4095.58236236,4100.70825403,4103.94314484,4108.51701514,617.445073509
do_nothing,4100.17811435,4102.74558846,4104.97834476,4134.92124729,4098.19225692,4103.02842879,4089.67937525,4087.79718698,4137.91619419,4094.31258921,4100.2744787,4102.39230701,4107.37284821,618.813599442
do_nothing,4099.10860327,4101.6797773,4104.25522433,4134.81597857,4097.94616419,4102.54141213,4088.92337883,4086.80478313,4137.92810329,4093.16435715,4099.86153252,4100.94033917,4106.37975399,623.449133997
do_nothing,4098.25447231,4100.75681344,4103.65760557,4134.724669,4097.84615568,4102.2514298,4088.41478312,4085.97875216,4137.94185066,4092.16815133,4099.48348755,4099.62652841,4105.56445234,631.044653979
do_nothing,4097.64026781,4100.00257677,4103.20234805,4134.64905271,4097.89770885,4102.17276287,4088.17157584,4085.34174268,4137.95687523,4091.35019754,4099.15346974,4098.48658695,4104.94840082,641.197472079
do_nothing,4097.28389063,4099.43777278,4102.90247621,4134.59042872,4098.10220174,4102.31488858,4088.20543235,4084.91198114,4137.9725816,4090.73175144,4098.88323837,4097.55163607,4104.54720902,653.427045151
do_nothing,4097.196118,4099.07739799,4102.76684536,4134.54962677,4098.45700541,4102.68218222,4088.52143318,4084.70276981,4137.98836306,4090.32855003,4098.68281491,4096.84734018,4104.37024484,667.194928047
do_nothing,4097.38034591,4098.93039324,4102.79993392,4134.52698678,4098.95569526,4103.27376369,4089.11796704,4084.72213012,4138.00362479,4090.15044117,4098.56017352,4096.39321893,4104.42044555,681.926080776
do_nothing,4097.83255954,4098.99949395,4103.00176701,4134.52235274,4099.58836996,4104.08349248,4089.98681912,4084.97260119,4138.01780587,4090.20120119,4098.52100319,4096.20215873,4104.69433898,697.030711944
do_nothing,4098.54153132,4099.28127898,4103.36797214,4134.53508132,4100.34206372,4105.10011055,4091.11343856,4085.45119917,4138.03039972,4090.47854327,4098.56854836,4096.28013759,4105.18227192,711.925850129
do_nothing,4099.48923871,4099.76641252,4103.88996373,4134.56406499,4101.20123467,4106.30752765,4092.47737482,4086.14953759,4138.04097191,4090.97431298,4098.70353188,4096.62616881,4105.86883542,726.055875666
do_nothing,4100.65148601,4100.44006674,4104.55524873,4134.60776895,4102.14831022,4107.68524012,4094.05286788,4087.05410444,4138.04917484,4091.67486018,4098.92416138,4097.23246092,4106.73346848,738.911312464
do_nothing,4101.99870858,4101.2825063,4105.34784234,4134.66428079,4103.16426913,4109.20886999,4095.80957326,4088.14668637,4138.05475883,4092.56157044,4099.22621689,4098.08478309,4107.7512154,750.045267226
do_nothing,4103.49693131,4102.26981073,4106.24877883,4134.73137131,4104.22923976,4110.85080795,4097.71339946,4089.40492607,4138.05757915,4093.61153416,4099.60321503,4099.16301841,4108.89360646,759.087006015
do_nothing,4105.10884938,4103.37470715,4107.23670055,4134.80656448,4105.32309402,4112.58094073,4099.72743261,4090.80299424,4138.05759898,4094.79832754,4100.04664241,4100.44188197,4110.1296285,765.752268162
do_nothing,4106.79499511,4104.56748303,4108.28850565,4134.88721454,4106.42601797,4114.36744111,4101.81292163,4092.31235429,4138.05488807,4096.09287781,4100.54624912,4101.89177631,4111.42675032,769.850029184
do_nothing,4108.51495286,4105.81694801,4109.38003452,4134.97058752,4107.5190414,4116.17759704,4103.93029626,4093.90259535,4138.04961743,4097.46438342,4101.09039164,4103.47975416,4112.75196773,771.285538255
do_nothing,4110.22858268,4107.09141352,4110.48677405,4135.05394483,4108.58451092,4117.97865525,4106.0401905,4095.54230732,4138.04205027,4098.88126037,4101.66641346,4105.17055588,4114.07283414,770.05957574
do_nothing,4111.89721343,4108.3596594,4111.58455865,4135.13462619,4109.60649373,4119.73865493,4108.10444463,4097.19997095,4138.0325296,4100.31208542,4102.26105143,4106.92768769,4115.35844429,766.264003768
do_nothing,4113.4847679,4109.5918582,4112.65024799,4135.21012919,4110.57110264,4121.42722725,4110.0870596,4098.84483588,4138.02146308,4101.72650827,4102.86085539,4108.71450615,4116.58034092,760.073814445
do_nothing,4114.95878533,4110.76042981,4113.66236189,4135.27818293,4111.46673591,4123.0163387,4111.95507897,4100.44776013,4138.00930577,4103.09610549,4103.45260906,4110.49527465,4117.71331767,751.736010124
do_nothing,4116.29131134,4111.84080273,4114.60165496,4135.33681329,4112.28422949,4124.48095822,4113.67937476,4101.98198539,4137.99654144,4104.39515155,4104.02374006,4112.23615952,4118.73609504,741.555771873
do_nothing,4117.45963031,4112.81206141,4115.45161539,4135.38439738,4113.01692224,4125.79963099,4115.23531621,4103.42382459,4137.98366332,4105.60128456,4104.56270755,4113.90613614,4119.63185127,729.880479744
do_nothing,4118.44682155,4113.65746443,4116.19887531,4135.4197054,4113.66063808,4126.95494474,4116.60330364,4104.75324069,4137.97115484,4106.69604878,4105.05935659,4115.47777994,4120.38859562,717.082236402
do_nothing,4119.2421263,4114.36482197,4116.83352261,4135.44192842,4114.21359152,4127.9338775,4117.76915432,4105.95429971,4137.95947139,4107.66530047,4105.50522954,4116.92792207,4120.99937694,703.539609485
do_nothing,4119.84111949,4114.92672638,4117.34930776,4135.45069122,4114.67622523,4128.72801939,4118.72433234,4107.01548578,4137.94902343,4108.49946886,4105.89382581,4118.2381552,4121.4623268,689.619344225
do_nothing,4120.24568562,4115.34063322,4117.74374189,4135.44604997,4115.05099025,4129.33366461,4119.46602019,4107.92987112,4137.94016196,4109.19366954,4106.22080297,4119.39518036,4121.78054145,675.65880424
do_nothing,4120.46380451,4115.60879467,4118.01808541,4135.42847523,4115.34208065,4129.75177367,4119.99703498,4108.69513956,4137.93316647,4109.74767217,4106.48411379,4120.39099072,4121.96181188,661.949873908
do_nothing,4120.50915807,4115.7380512,4118.1772297,4135.39882128,4115.5551357,4129.98780959,4120.32559693,4109.31346749,4137.92823612,4110.16572888,4106.68407497,4121.22289328,4122.0182153,648.725001023
do_nothing,4120.40057524,4115.73949122,4118.22947704,4135.3582834,4115.6969231,4130.05145562,4120.46496095,4109.79127028,4137.9254842,4110.45627353,4106.82336531,4121.89337388,4121.96558506,636.145975144
do_nothing,4120.16133664,4115.62799269,4118.18622729,4135.30834499,4115.77501693,4129.95622553,4120.43292462,4110.13882621,4137.924936,4110.63150499,4106.90695257,4122.40981574,4121.82287943,624.295928451
do_nothing,4119.8183647,4115.4216641,4118.06158215,4135.25071684,4115.79748342,4129.71898057,4120.25122845,4110.36979292,4137.92653032,4110.70687093,4106.94195038,4122.78408555,4121.61147186,613.174916146
do_nothing,4119.40132765,4115.14120523,4117.87188031,4135.18727112,4115.77258646,4129.35936987,4119.94486602,4110.50063394,4137.93012411,4110.70047094,4106.93740822,4123.03200499,4121.35438811,602.699287818
do_nothing,4118.94168701,4114.80921014,4117.63517828,4135.11997264,4115.70852272,4128.89921273,4119.54132413,4110.54997569,4137.93550037,4110.63239996,4106.90404003,4123.17272822,4121.07551646,592.704905517
do_nothing,4118.4717186,4114.44943582,4117.37069304,4135.05081018,4115.61319449,4128.36184296,4119.06977468,4110.53791725,4137.9423786,4110.52405449,4106.85389846,4123.22804786,4120.79881757,582.954105135
do_nothing,4118.02353718,4114.08606043,4117.09822351,4134.98173056,4115.49402551,4127.77143572,4118.56024144,4110.48531707,4137.95042753,4110.3974244,4106.80000408,4123.22165328,4120.54756008,573.146141523
do_nothing,4117.62815401,4113.74295441,4116.83756805,4134.91457768,4115.35782354,4127.1523377,4118.04276582,4110.41308206,4137.95927947,4110.27439384,4106.7559403,4123.17836533,4120.34360615,562.930711215
do_nothing,4117.31459546,4113.44298732,4116.60795568,4134.85103876,4115.21069071,4126.52842088,4117.54659515,4110.34148394,4137.96854576,4110.17607345,4106.73542632,4123.12337218,4120.2067693,551.9240157
do_nothing,4117.10910887,4113.20739162,4116.42750802,4134.7925995,4115.05798103,4125.92247853,4117.09941553,4110.28952682,4137.97783266,4110.12218537,4106.75188134,4123.0814897,4120.15426358,539.726718521
do_nothing,4117.03447848,4113.0552025,4116.31274803,4134.74050916,4114.90430228,4125.35568038,4116.72664926,4110.2743866,4137.98675691,4110.13051982,4106.81799382,4123.07646872,4120.20025977,525.943065543
do_nothing,4117.1094701,4113.00278956,4116.27816966,4134.69575663,4114.75355761,4124.84710053,4116.45083329,4110.31093916,4137.99496068,4110.21647962,4106.94530947,4123.13036893,4120.35555979,510.200383282
do_nothing,4117.34841798,4113.06349255,4116.33588035,4134.65905749,4114.60902016,4124.41332857,4116.29109218,4110.41138964,4138.00212496,4110.3927248,4107.14385092,4123.26301594,4120.6273961,492.168147403
do_nothing,4117.76096149,4113.24736849,4116.49532514,4134.63085213,4114.47343318,4124.06817121,4116.26271589,4110.58501058,4138.00798119,4110.66892609,4107.42178133,4123.49155423,4121.01935787,471.575823531
do_nothing,4118.35193407,4113.5610535,4116.76309838,4134.61131429,4114.34912677,4123.82244843,4116.3768502,4110.83799258,4138.01232055,4111.05163102,4107.78512273,4123.83010443,4121.53144117,448.228725009
do_nothing,4119.12140118,4114.00773749,4117.14284558,4134.60036911,4114.23814281,4123.68388609,4116.64030473,4111.17340734,4138.01500071,4111.54424234,4108.23753826,4124.28952902,4122.16021561,422.02120561
do_nothing,4120.0648395,4114.58724595,4117.63525492,4134.59771938,4114.14235957,4123.65710381,4117.05548152,4111.59127908,4138.01594973,4112.14710331,4108.78018551,4124.87730638,4122.89909565,392.946606419
do_nothing,4121.17344564,4115.29621939,4118.23813504,4134.60287823,4114.06360833,4123.74369469,4117.620424,4112.08875708,4138.01516713,4112.85768081,4109.4116458,4125.59750911,4123.73870164,361.103501291
do_nothing,4122.43455937,4116.12837872,4118.94657355,4134.61520654,4114.00377512,4123.94239025,4118.32898378,4112.66037893,4138.01272209,4113.6708337,4110.12793187,4126.45087991,4124.66729316,326.697929269
do_nothing,4123.83218362,4117.07486276,4119.75316862,4134.63395288,4113.96488163,4124.24930135,4119.17109944,4113.29841111,4138.00874891,4114.57915154,4110.92257397,4127.43499533,4125.67125632,290.041459435
do_nothing,4125.34758131,4118.12462287,4120.64832416,4134.6582942,4113.94914019,4124.65822326,4120.1331781,4113.99325135,4138.00344005,4115.57334695,4111.7867821,4128.54450569,4126.73562573,251.545097567
do_nothing,4126.95992639,4119.26485834,4121.6205975,4134.68737549,4113.95897898,4125.160991,4121.19856748,4114.73387517,4137.99703704,4116.64268356,4112.70967941,4129.77143713,4127.844622,211.70920803
do_nothing,4128.64698577,4120.48147543,4122.65708717,4134.72034668,4113.99703466,4125.74786944,4122.34810342,4115.50830848,4137.98981957,4117.77542128,4113.67859985,4131.10554015,4128.98218528,171.109782161
do_nothing,4130.38580794,4121.75955268,4123.74384727,4134.75639555,4114.06611148,4126.40796243,4123.56071534,4116.30410764,4137.98209349,4118.95926052,4114.67944047,4132.53466815,4130.13248643,130.381529509
do_nothing,4132.15339519,4123.08379553,4124.86631456,4134.79477544,4114.16910735,4127.12962498,4124.81407053,4117.10882905,4137.97417793,4120.18176834,4115.69705704,4134.04516969,4131.28039847,90.1983951269
do_nothing,4133.92733791,4124.4389649,4126.00973458,4134.83482692,4114.30890959,4127.9008641,4126.08523691,4117.91047106,4137.96639228,4121.43077061,4116.71568993,4135.62227926,4132.41191314,51.2522094766
do_nothing,4135.68639185,4125.81026609,4127.15957354,4134.87599296,4114.48826432,4128.70971494,4127.35134365,4118.6978729,4137.95904341,4122.6946971,4117.71940598,4137.25049337,4133.51449013,14.2302535311
do_nothing,4137.41098262,4127.18368748,4128.301904,4134.91782705,4114.70962574,4129.54458091,4128.59021972,4119.46105718,4137.95241377,4123.96286857,4118.69254173,4138.91392127,4134.57733011,-20.2074327808
do_nothing,4139.08362461,4128.546281,4129.42375366,4134.95999446,4114.97499235,4130.39452795,4129.78099222,4120.1915061,4137.94675067,4125.22571862,4119.6201334,4140.59660267,4135.59156596,-51.4501571474
do_nothing,4140.68924519,4129.88637923,4130.51340826,4135.00226687,4115.28573874,4131.24952576,4130.90462824,4120.88236437,4137.94225726,4126.4749452,4120.48831964,4142.28278667,4136.55036971,-78.9572739746
do_nothing,4142.21540818,4131.1937461,4131.56066109,4135.04451102,4115.64245199,4132.10063088,4131.94440645,4121.52856524,4137.93908546,4127.70358966,4121.28470398,4143.95716832,4137.44897548,-102.276704146
do_nothing,4143.65243376,4132.45966012,4132.55700324,4135.08667241,4116.04478219,4132.94010951,4132.88630686,4122.12687913,4137.93733108,4128.90604335,4121.99866535,4145.60508022,4138.28462097,-121.06058201
do_nothing,4144.99341537,4133.67693128,4133.49575034,4135.1287554,4116.49131599,4133.76150085,4133.7193097,4122.67588711,4137.9370313,4130.07798371,4122.62160683,4147.21263811,4139.05641229,-135.077435943
do_nothing,4146.23413824,4134.83985507,4134.37210387,4135.17080121,4116.9794819,4134.55962392,4134.43559689,4123.17588385,4137.93816456,4131.21624488,4123.14713496,4148.76684142,4139.76511912,-144.220423191
do_nothing,4147.37290763,4135.9441096,4135.18314732,4135.21286546,4117.50549456,4135.3305337,4135.0306523,4123.62871758,4137.94065273,4132.31863031,4123.57116459,4150.25563182,4140.41291038,-148.511265314
do_nothing,4148.41029826,4136.98660452,4135.92777981,4135.25499655,4118.06434403,4136.07143355,4135.50326054,4124.03757672,4137.94436556,4133.38367829,4123.89194732,4151.66791581,4141.00304275,-148.099669229
do_nothing,4149.34883923,4137.96529231,4136.60659238,4135.29721644,4118.64983391,4136.7805526,4135.85540722,4124.406735,4137.94912701,4134.41039422,4124.11002461,4152.99355982,4141.53951743,-143.258174225
do_nothing,4150.19265072,4138.87895446,4137.2216938,4135.33950489,4119.25467028,4137.45699712,4136.09208765,4124.74126911,4137.95472334,4135.39796643,4124.22810994,4154.22336796,4142.02672218,-134.372536452
do_nothing,4150.94705015,4139.72697575,4137.77649477,4135.38178808,4119.87060106,4138.10058559,4136.22103405,4125.04676401,4137.96091247,4136.34548381,4124.25090751,4155.34905421,4142.46907701,-121.927939934
do_nothing,4151.61814629,4140.50912005,4138.27546053,4135.4239325,4120.48860304,4138.71167727,4136.25237491,4125.32902141,4137.96743424,4137.25167418,4124.18487689,4156.36322007,4142.87070174,-106.491492182
do_nothing,4152.2124399,4141.22532095,4138.72384276,4135.46574437,4121.09911228,4139.29100401,4136.19824164,4125.59378668,4137.9740212,4138.11468133,4124.03795551,4157.25934801,4143.23512278,-88.6916119738
do_nothing,4152.73644898,4141.87549928,4139.12740235,4135.50697462,4121.69229131,4139.83951517,4136.07233917,4125.84650748,4137.98040939,4138.9318966,4123.81925119,4158.03181892,4143.56503448,-69.1950442664
do_nothing,4153.19637563,4142.45941913,4139.49213479,4135.54732935,4122.25832535,4140.35824388,4135.88949697,4126.09213542,4137.98634883,4139.69985754,4123.53871789,4158.67595944,4143.86212763,-48.6823413991
do_nothing,4153.59782984,4142.97659151,4139.82400986,4135.5864847,4122.78773792,4140.84820178,4135.66521623,4126.33497899,4137.99161306,4140.41422302,4123.20682757,4159.18812211,4144.1269949,-27.8227247528
do_nothing,4153.94562225,4143.42623289,4140.12873609,4135.62410529,4123.27171516,4141.31030655,4135.41522774,4126.57861252,4137.99600772,4141.06982931,4122.83425022,4159.56579827,4144.35911858,-7.24927881921
do_nothing,4154.24363405,4143.80728176,4140.4115592,4135.65986498,4123.70242696,4141.74534446,4135.15507326,4126.8258427,4137.99937747,4141.66082753,4122.43155323,4159.80775972,4144.55694192,12.4645721353
do_nothing,4154.49476759,4144.11847294,4140.67710122,4135.69346831,4124.07333233,4142.15396767,4134.89972124,4127.07873031,4138.00161138,4142.18089795,4122.00892996,4159.91422162,4144.71802054,30.8263936324
do_nothing,4154.7009761,4144.35846503,4140.92924484,4135.72467154,4124.37945641,4142.53672376,4134.66322593,4127.33866243,4138.00264629,4142.6235322,4121.57596559,4159.88701611,4144.83924565,47.4430401452
do_nothing,4154.86336721,4144.52601271,4141.17106472,4135.75330162,4124.61762699,4142.89411326,4134.45843688,4127.6064672,4138.00246824,4142.98237068,4121.14144657,4159.72976348,4144.91712645,62.0351962239
do_nothing,4154.98237065,4144.62017249,4141.4048056,4135.77927219,4124.78665952,4143.22666903,4134.29676287,4127.88256126,4138.00111199,4143.25157872,4120.71321785,4159.44802656,4144.94811573,74.4475708375
do_nothing,4155.05795829,4144.64052838,4141.63190445,4135.80259516,4124.88748103,4143.53504979,4134.18799192,4128.1671175,4137.99865848,4143.42624259,4120.2980896,4159.04943343,4144.92895968,84.6543180668
do_nothing,4155.08990159,4144.58742238,4141.85305263,4135.82338729,4124.92318573,4143.82013909,4134.14016609,4128.46023969,4137.99523057,4143.50276432,4119.90179305,4158.54375388,4144.85705164,92.7594367158
do_nothing,4155.07805016,4144.46217432,4142.06829189,4135.84187102,4124.89901701,4144.08314044,4134.15950835,4128.76213,4137.99098727,4143.4792338,4119.52898287,4157.94291638,4144.73076898,98.9920934095
do_nothing,4155.02261369,4144.26727581,4142.27713748,4135.85836928,4124.82227329,4144.32565941,4134.25039728,4129.07323616,4137.98611654,4143.35575695,4119.18328147,4157.26095425,4144.54977318,103.697010181
do_nothing,4154.92442941,4144.00654408,4142.47872004,4135.87329446,4124.70213825,4144.54976436,4134.41538484,4129.39436675,4137.98082717,4143.13472029,4118.86735925,4156.51387254,4144.31525516,107.32024881
do_nothing,4154.78519774,4143.68522301,4142.67193784,4135.88713203,4124.54943852,4144.75801909,4134.65525202,4129.72676563,4137.97534003,4142.82097445,4118.58304348,4155.71943023,4144.03010999,110.39090332
do_nothing,4154.60767092,4143.31002094,4142.85561052,4135.90041952,4124.37633536,4144.95348206,4134.96909642,4130.07213888,4137.96987895,4142.42192229,4118.33144758,4154.8968361,4143.69902921,113.499373804
do_nothing,4154.39578147,4142.88907782,4143.02862563,4135.91372176,4124.19595938,4145.13966899,4135.3544453,4130.43263023,4137.9646618,4141.94750132,4118.113112,4154.06636069,4143.32850202,117.273032001
do_nothing,4154.15470102,4142.43185789,4143.19007026,4135.92760342,4124.02199985,4145.32047739,4135.80738703,4130.81074387,4137.95989187,4141.4100543,4117.92814795,4153.24887161,4142.92672198,122.350194348
do_nothing,4153.89082394,4141.94896864,4143.33934107,4135.94259988,4123.86826247,4145.50007387,4136.32271412,4131.20921624,4137.95575015,4140.82408776,4117.77637569,4152.46530416,4142.50340058,129.353387919
do_nothing,4153.61167422,4141.45191113,4143.47622772,4135.95918768,4123.74821068,4145.6827474,4136.89407204,4131.63084179,4137.95238856,4140.2059238,4117.65745002,4151.73608435,4142.06949498,138.862927826
do_nothing,4153.32573869,4140.95277137,4143.60096672,4135.97775582,4123.67450694,4145.87273337,4137.51410901,4132.07826087,4137.94992457,4139.5732563,4117.57096704,4151.08052564,4141.63686193,151.391819094
do_nothing,4153.04223326,4140.46386562,4143.71426408,4135.99857919,4123.65857022,4146.07401595,4138.17462426,4132.5537212,4137.94843726,4138.94462841,4117.51654774,4150.51622368,4141.21785465,167.362950094
do_nothing,4152.77081252,4139.99735528,4143.81728707,4136.02179565,4123.71016623,4146.29011791,4138.86671353,4133.05882679,4137.94796498,4138.33885199,4117.49389567,4150.05847519,4140.82488178,187.08946055
do_nothing,4152.52123541,4139.56484811,4143.91162653,4136.04738824,4123.83704571,4146.52388896,4139.5809122,4133.59429009,4137.94850476,4137.77439292,4117.5028274,4149.71974655,4140.46994929,210.759050141
do_nothing,4152.30300242,4139.17700325,4143.99923276,4136.07517364,4124.04464474,4146.77730439,4140.307337,4134.15970333,4137.9500133,4137.26874717,4117.54327591,4149.50921665,4140.16420625,238.422847632
do_nothing,4152.12498119,4138.84315705,4144.08232849,4136.10479812,4124.33585921,4147.05128654,4141.03582817,4134.75334467,4137.95240956,4136.83783336,4117.61526837,4149.43241555,4139.91751482,269.989289036
do_nothing,4151.99503897,4138.5709866,4144.16330436,4136.13574152,4124.71090299,4147.34556079,4141.75609357,4135.37203339,4137.95557883,4136.49542696,4117.71888096,4149.490978,4139.7380639,305.223263903
do_nothing,4151.91970091,4138.36622674,4144.24460277,4136.16732974,4125.16725656,4147.65855683,4142.45785698,4136.01104627,4137.95937803,4136.25266042,4117.85417467,4149.6825272,4139.63204474,343.750590655
do_nothing,4151.9038529,4138.2324547,4144.32859718,4136.19875546,4125.69970944,4147.98736397,4143.1310127,4136.66410532,4137.96364199,4136.11761202,4118.02111708,4150.00070023,4139.60340478,385.067681965
do_nothing,4151.95050564,4138.17095444,4144.41747385,4136.22910668,4126.3004965,4148.32774632,4143.76578783,4137.32344364,4137.96819056,4136.09500319,4118.21949583,4150.4353211,4139.65369348,428.556065368
do_nothing,4152.06063383,4138.18066868,4144.51312307,4136.25740206,4126.95952423,4148.67422085,4144.3529129,4137.97995263,4137.97283607,4136.1860197,4118.44882983,4150.97272088,4139.78200886,473.501240773
do_nothing,4152.2331001,4138.25824275,4144.61704558,4136.28263181,4127.66467992,4149.02019787,4144.88379961,4138.6234097,4137.97739099,4136.38826655,4118.70828386,4151.59619683,4139.98504881,519.11519424
do_nothing,4152.46466906,4138.39815974,4144.73027913,4136.30380229,4128.40221323,4149.35818012,4145.35072268,4139.24278076,4137.98167539,4136.69585986,4118.99659201,4152.28659529,4140.25726475,564.561751819
do_nothing,4152.75011174,4138.59296193,4144.8533484,4136.3199825,4129.15717707,4149.68001416,4145.74700072,4139.82658749,4137.98552396,4137.09965213,4119.31199419,4153.02299599,4140.5911097,608.983851643
do_nothing,4153.08239622,4138.83354963,4144.98623998,4136.33034988,4129.91391238,4149.97718453,4146.0671694,4140.3633247,4137.98879227,4137.58758114,4119.6521893,4153.78346973,4140.97736752,651.531741348
do_nothing,4153.45295579,4139.10954496,4145.12840316,4136.3342334,4130.6565597,4150.24113942,4146.3071393,4140.84190999,4137.99136207,4138.14512711,4120.01430729,4154.54587797,4141.40554649,691.391075821
do_nothing,4153.85202224,4139.40970596,4145.27877536,4136.33115154,4131.36957967,4150.46363451,4146.46433106,4141.25214516,4137.99314548,4138.7558586,4120.39490191,4155.2886803,4141.86431746,727.809897442
do_nothing,4154.26900884,4139.7223738,4145.43583045,4136.32084332,4132.03826378,4150.63708077,4146.53778113,4141.58516779,4137.99408783,4139.4020448,4120.78996486,4155.99171575,4142.34197584,760.123525228
do_nothing,4154.69292506,4140.03593465,4145.59764669,4136.30329071,4132.64921762,4150.75488135,4146.528213,4141.83387187,4137.9941691,4140.06530897,4121.19496141,4156.63692444,4142.82690581,787.776459146
do_nothing,4155.11280357,4140.33927642,4145.76199018,4136.2787315,4133.19079939,4150.81174324,4146.43806934,4141.993277,4137.99340403,4140.7272966,4121.60488687,4157.20897805,4143.30802531,810.34052006
do_nothing,4155.51811976,4140.62222061,4145.92640876,4136.24766179,4133.65349858,4150.80395013,4146.27150173,4142.06082788,4137.99184081,4141.37033102,4122.01434253,4157.69579065,4143.77519126,827.528589077
do_nothing,4155.89918446,4140.87591019,4146.0883312,4136.21082814,4134.03024152,4150.72958438,4146.03431491,4142.03660817,4137.98955838,4141.97802931,4122.41762874,4158.08888631,4144.21954632,839.203474826
do_nothing,4156.2474923,4141.09313673,4146.24516614,4136.16920935,4134.31661329,4150.5886878,4145.73386321,4141.9234557,4137.98666274,4142.5358533,4122.80885255,4158.38360601,4144.63379148,845.381617837
do_nothing,4156.55600985,4141.26859251,4146.39439579,4136.12398877,4134.51098868,4150.38335318,4145.37889849,4141.72696976,4137.98328207,4143.03157296,4123.18204637,4158.57914331,4145.01237265,846.231532386
do_nothing,4156.81939085,4141.39903685,4146.53365944,4136.07651773,4134.61456757,4150.11774149,4144.97937067,4141.45540539,4137.97956125,4143.45562329,4123.53129391,4158.67840606,4145.35157407,842.067080125
do_nothing,4157.03410868,4141.48336987,4146.66082292,4136.02827173,4134.63131393,4149.79802263,4144.54618481,4141.11945489,4137.97565566,4143.80134123,4123.85085959,4158.6877095,4145.6495162,833.335857253
do_nothing,4157.19850033,4141.52261068,4146.77403084,4135.98080082,4134.56780066,4149.43224088,4144.09092125,4140.73192199,4137.97172484,4144.06507402,4124.13531749,4158.61631348,4145.90606081,820.603151434
do_nothing,4157.31272001,4141.51978112,4146.87173935,4135.93567605,4134.43296619,4149.03010907,4143.62552761,4140.3072997,4137.96792604,4144.246157,4124.379676,4158.47582424,4146.12263009,804.532081741
do_nothing,4157.37860518,4141.47969976,4146.95272839,4135.89443414,4134.23779166,4148.60273851,4143.16199253,4139.86126766,4137.96440799,4144.34676365,4124.57949425,4158.27948669,4146.30195057,785.860668059
do_nothing,4157.39946185,4141.40869466,4147.0160934,4135.85852216,4133.99491064,4148.16231385,4142.71201193,4139.41012872,4137.96130519,4144.37163691,4124.73098648,4158.04139862,4146.44773539,765.376679124
do_nothing,4157.37978052,4141.31424701,4147.06121774,4135.82924445,4133.71816593,4147.72172427,4142.28665865,4138.97020769,4137.95873283,4144.32771546,4124.83111062,4157.77568251,4146.56432146,743.891177777
do_nothing,4157.32489774,4141.20458105,4147.08772838,4135.80771346,4133.42212966,4147.29416365,4141.89606663,4138.55723665,4137.95678263,4144.223674,4124.87763813,4157.49565301,4146.65627976,722.211717733
do_nothing,4157.24062118,4141.08821875,4147.09543865,4135.79480634,4133.12160427,4146.89271316,4141.54914033,4138.18575241,4137.9555197,4144.06940029,4124.86920249,4157.21301991,4146.72801881,701.116146738
do_nothing,4157.13283764,4140.97351945,4147.08428243,4135.79112885,4132.83112202,4146.52992044,4141.25329957,4137.86853099,4137.95498045,4143.87543506,4124.80532459,4156.93716523,4146.78340138,681.327934869
do_nothing,4157.00712443,4140.8682259,4147.05424519,4135.79698816,4132.56446058,4146.21738915,4141.01426873,4137.61608307,4137.9551718,4143.65240209,4124.68641453,4156.67453074,4146.82539439,663.493876697
do_nothing,4156.86838411,4140.77903832,4147.00529734,4135.81237576,4132.33419127,4145.96539289,4140.83591769,4137.43623217,4137.95607145,4143.41045661,4124.51374985,4156.42814774,4146.85577045,648.164917814
do_nothing,4156.7205225,4140.7112372,4146.93733553,4135.83696124,4132.15127519,4145.78252699,4140.72016043,4137.33379405,4137.95762944,4143.15877848,4124.28943186,4156.19733479,4146.87487741,635.780733846
do_nothing,4156.56618717,4140.66837353,4146.8501371,4135.87009756,4132.02472069,4145.67541023,4140.66691449,4137.31037186,4137.95977065,4142.90513427,4124.01632171,4155.97758204,4146.88148898,626.658545268
do_nothing,4156.4065811,4140.6520422,4146.74333181,4135.91083789,4131.96131321,4145.64844668,4140.67412198,4137.36427568,4137.96239834,4142.65552814,4123.6979589,4155.76063164,4146.87274529,620.986487408
do_nothing,4156.24136182,4140.66175021,4146.61639355,4135.95796341,4131.96542563,4145.70365525,4140.73782931,4137.49056949,4137.96539843,4142.41395631,4123.33846472,4155.53475501,4146.84418848,618.821678348
do_nothing,4156.06863175,4140.69488738,4146.46865336,4136.01002161,4132.03891427,4145.84057122,4140.85232081,4137.6812426,4137.96864439,4142.18227465,4122.94243368,4155.28521814,4146.78989334,620.09294493
do_nothing,4155.88502072,4140.74680191,4146.29933372,4136.06537379,4132.18110233,4146.05622171,4141.01029934,4137.92549741,4137.97200248,4141.96018327,4122.51481625,4154.9949174,4146.70268938,624.607986097
do_nothing,4155.68585664,4140.81097864,4146.10760243,4136.12225032,4132.38884924,4146.34517406,4141.20310639,4138.21014108,4137.9753373,4141.74532628,4122.06079689,4154.64515989,4146.57446583,632.0645836
do_nothing,4155.46541622,4140.87931231,4145.89264348,4136.17881192,4132.65670184,4146.69965458,4141.42097351,4138.52006517,4137.97851709,4141.53349968,4121.58567119,4154.216555,4146.39654709,642.065325343
do_nothing,4155.21724314,4140.94246322,4145.65374066,4136.23321496,4132.97711998,4147.10973339,4141.65329656,4138.8387944,4137.98141897,4141.31895475,4121.09472633,4153.68997789,4146.16012163,654.135193588
do_nothing,4154.93451802,4140.99027873,4145.39036894,4136.28367819,4133.34076752,4147.5635701,4141.88892383,4139.14908327,4137.98393357,4141.09477991,4120.59312815,4153.04756107,4145.85670418,667.741287866
do_nothing,4154.61046191,4141.01226037,4145.10228795,4136.32854869,4133.73685685,4148.04771357,4142.11644852,4139.43353747,4137.98596913,4140.85333947,4120.0858179,4152.2736682,4145.47860824,682.313897547
do_nothing,4154.23875344,4140.99805466,4144.78963142,4136.36636404,4134.15353406,4148.54744775,4142.32449628,4139.67523611,4137.98745477,4140.58674534,4119.57742058,4151.35580413,4145.0194049,697.268114091
do_nothing,4153.81393903,4140.93794396,4144.45298654,4136.3959083,4134.57829013,4149.04717389,4142.50199905,4139.85833056,4137.98834284,4140.287336,4119.07216605,4150.28541729,4144.47434372,712.025181837
do_nothing,4153.33181528,4140.82331419,4144.09345751,4136.41625923,4134.99838301,4149.53081819,4142.63844841,4139.96859715,4137.98861037,4139.94813722,4118.57382361,4149.05855521,4143.84071358,726.032827548
do_nothing,4152.78976421,4140.64707671,4143.71270819,4136.4268249,4135.40125544,4149.98225365,4142.72412348,4139.99392357,4137.98825943,4139.56328132,4118.08565018,4147.67634,4143.11812358,738.783876339
do_nothing,4152.18702375,4140.40402391,4143.31297957,4136.4273681,4135.77493415,4150.38572452,4142.75029147,4139.92471219,4137.98731658,4139.12836405,4117.61035231,4146.14523895,4142.30868874,749.832549163
do_nothing,4151.52487896,4140.09110152,4142.89707937,4136.41801752,4136.10839718,4150.72626204,4142.70938086,4139.75418823,4137.98583125,4138.64072297,4117.15006225,4144.47711444,4141.41710935,758.807938942
do_nothing,4150.80676356,4139.7075843,4142.46834221,4136.39926542,4136.39189817,4150.99008064,4142.59512843,4139.47860466,4137.98387337,4138.0996249,4116.70632836,4142.68904713,4140.4506385,765.424271411
do_nothing,4150.0382657,4139.25514724,4142.03056101,4136.37195169,4136.61723828,4151.16494407,4142.40270142,4139.09734026,4137.98153012,4137.50635555,4116.28011999,4140.80293669,4139.41893749,769.487667259
do_nothing,4149.22703657,4138.7378299,4141.58789187,4136.33723503,4136.7779792,4151.24049223,4142.12879619,4138.61289095,4137.97890215,4136.86420916,4115.87184702,4138.84489436,4138.33382446,770.899234471
do_nothing,4148.38260528,4138.16189717,4141.14473647,4136.2965522,4136.86959289,4151.20852041,4141.77171411,4138.03075858,4137.97609932,4136.17838172,4115.48139393,4136.84445108,4137.20892748,769.654437975
do_nothing,4147.51610808,4137.53560565,4140.70560782,4136.25156716,4136.88954638,4151.06320439,4141.33141614,4137.35924492,4137.97323612,4135.45577647,4115.1081687,4134.83361377,4136.05925841,765.838818918
do_nothing,4146.63994376,4136.8688895,4140.27498618,4136.20411197,4136.83732223,4150.80126677,4140.80955748,4136.60916223,4137.97042709,4134.70473526,4114.7511662,4132.84580934,4134.90072828,759.620265151
do_nothing,4145.76737072,4136.17298343,4139.85717293,4136.15612177,4136.7143773,4150.42208105,4140.20950341,4135.79347449,4137.96778223,4133.93471258,4114.40904599,4130.91476084,4133.74962783,751.238161807
do_nothing,4144.91206333,4135.46000255,4139.4561498,4136.10956643,4136.52404446,4149.92771202,4139.53632663,4134.92688565,4137.96540277,4133.15591109,4114.08022348,4129.0733425,4132.62209797,740.989870073
do_nothing,4144.08764693,4134.74249975,4139.07545072,4136.06638134,4136.27138358,4149.32289226,4138.79678555,4134.02539232,4137.96337736,4132.37889811,4113.76297277,4127.35246075,4131.53361437,729.215087499
do_nothing,4143.30723171,4134.03302154,4138.71805268,4136.02839979,4135.96298952,4148.61493653,4137.99928239,4133.10581872,4137.96177875,4131.61422213,4113.45553854,4125.78000654,4130.49850877,716.278729145
do_nothing,4142.58296566,4133.34368205,4138.38629096,4135.99728937,4135.60676607,4147.81359726,4137.15379903,4132.18535125,4137.96066135,4130.87204719,4113.15625349,4124.37992122,4129.52954727,702.553031138
