label,COUNTER,INTERPOLATED,AF3,F7,F3,FC5,T7,P7,O1,O2,P8,T8,FC6,F4,F8,AF4,RAW_CQ,GYROX,GYROY,MARKER,SYNC,TIME_STAMP_s,TIME_STAMP_ms,CQ_AF3,CQ_F7,CQ_F3,CQ_FC5,CQ_T7,CQ_P7,CQ_O1,CQ_O2,CQ_P8,CQ_T8,CQ_FC6,CQ_F4,CQ_F8,CQ_AF4,CQ_CMS,CQ_DRL
off_to_on,0.857240454296,1.60363393643,0.647070579011,2.07863329741,0.281239869142,-2.00640164712,-1.14225878244,-0.0767235746578,1.70558980467,1.01203740274,0.640945301824,0.523483929012,1.44254523962,73.5163130947
off_to_on,0.262756433035,-0.454556470694,-0.430904144352,1.62793128568,0.0729559187377,-8.11063467798,-4.19695585629,-2.54293392235,1.92640760146,-0.935620607664,0.635419281206,-0.867709268024,0.856316265631,95.2452822521
off_to_on,-0.274938656992,-2.22794604326,-1.186006564,0.971035830468,-0.0249078532919,-12.6453605164,-6.21037139888,-4.14201499284,1.8666260039,-2.36316515228,0.790327754818,-1.7750339232,0.190701596271,95.6849607223
off_to_on,-0.614363180476,-3.3156925166,-1.43432041794,0.367312278713,0.0348604421633,-14.4030166946,-6.74508924322,-4.56145241838,1.58508444392,-2.96894290049,1.01431230544,-2.03683860807,-0.454031080709,71.6079852389
off_to_on,-0.697351869285,-3.52772053887,-1.17960784823,-0.00134405919393,0.233586519593,-12.795351208,-5.72647825029,-3.83108864672,1.14952487392,-2.71093044297,1.13627880278,-1.70436410365,-0.979251496199,26.4393305389
off_to_on,-0.546824758163,-2.90521477619,-0.583812801349,-0.0899816259752,0.496085669585,-8.05403743293,-3.43546758958,-2.2614322335,0.617008660709,-1.7737031688,0.982179104698,-0.980806783956,-1.29183461716,-29.8867790409
off_to_on,-0.241906206112,-1.68020612863,0.110605506493,0.00673746769955,0.717369462012,-1.22101709574,-0.420793049333,-0.316264537792,0.02935645581,-0.48136415173,0.459433124745,-0.126319769059,-1.32052513429,-83.1540605195
off_to_on,0.114412049118,-0.196245443879,0.671775331813,0.107664513847,0.796879098317,6.08303651219,2.63836545503,1.52855203864,-0.577442368181,0.805679372638,-0.385467991969,0.629433155658,-1.04286450884,-118.673250574
off_to_on,0.422045981928,1.18247763353,0.948649223537,0.0320603404091,0.669418422332,12.0594284472,5.08247558609,2.89496053656,-1.15757211566,1.77723436937,-1.36145358819,1.13738545263,-0.510993316835,-125.596062001
off_to_on,0.599473183085,2.15057860089,0.899596370846,-0.314386944743,0.324452334482,15.1968523295,6.40240063175,3.55810917003,-1.64419996018,2.22604385463,-2.1854326146,1.33435963904,0.140119008942,-100.400555198
off_to_on,0.590783254524,2.51632527152,0.578244052517,-0.888606111562,-0.18998904057,14.6742483199,6.32988471078,3.44995566951,-1.95154897333,2.06722431907,-2.57654254182,1.21783675038,0.714881528896,-48.386508877
off_to_on,0.370915581189,2.22862492379,0.0925130811473,-1.51506382711,-0.777820931375,10.5879071452,4.8789256986,2.6322071191,-1.99300421529,1.33613944313,-2.35873969315,0.815902825175,1.0111062039,17.4115761662
off_to_on,-0.0457059106145,1.37887263067,-0.439621230042,-1.94608612681,-1.31553804439,3.93708845457,2.33816077954,1.26392727984,-1.71039291367,0.177300025654,-1.5334314432,0.174700136614,0.892183012428,79.6898291764
off_to_on,-0.59411756059,0.181498150947,-0.918173609581,-1.9558317577,-1.67749161465,-3.63040680908,-0.780891061784,-0.420557370856,-1.10355522644,-1.1708176272,-0.293222824273,-0.629700759745,0.351726518244,121.746625673
off_to_on,-1.15322982287,-1.06465749587,-1.26613190912,-1.43287160071,-1.76093904243,-10.2441743501,-3.83282697987,-2.12458622407,-0.247508206689,-2.40020337228,1.03148103803,-1.46711337294,-0.45787367429,132.305644007
off_to_on,-1.55668480843,-2.03299009862,-1.41889564063,-0.436019348892,-1.50740625381,-14.2927890322,-6.1554087111,-3.50800964804,0.712144674531,-3.17728110249,2.07668875607,-2.1413081567,-1.25249837908,108.808382299
off_to_on,-1.62749661883,-2.44008651397,-1.31460823439,0.809058321871,-0.918047815853,-14.8311652652,-7.20080894256,-4.22996785946,1.58749744499,-3.21227883854,2.56411473954,-2.41369054504,-1.6994223121,58.1448629689
off_to_on,-1.2338702089,-2.120812892,-0.900843668308,1.97353681813,-0.0610177979021,-11.8065819823,-6.66036083668,-4.02294972932,2.19354303537,-2.34656536974,2.39302746835,-2.07029811423,-1.53453203546,-5.41758409267
off_to_on,-0.351219681821,-1.08973292117,-0.162617404382,2.72847576825,0.931386443548,-6.04828943196,-4.55597391072,-2.78561291086,2.39683262151,-0.634305956114,1.6709350747,-1.01618855091,-0.674489468623,-64.4700257129
off_to_on,0.893543646807,0.433122452765,0.838233084717,2.85165713683,1.87800730531,0.968845897681,-1.27034593853,-0.662439851786,2.15210473026,1.61557028686,0.670999672399,0.639429454841,0.719542472503,-103.547448733
off_to_on,2.21962971933,2.0505240178,1.93406670638,2.30089477427,2.57743295036,7.51618192666,2.50408425595,1.92999228513,1.51490527163,3.86812881717,-0.269174455408,2.55099204831,2.25797771859,-113.495147523
off_to_on,3.24546409525,3.27583593583,2.85670931472,1.22819490118,2.84780137837,12.050163662,5.90002783913,4.36082245007,0.626056300753,5.4743131599,-0.870674838369,4.18860468548,3.42449824133,-93.7983764787
off_to_on,3.59176487587,3.66621905278,3.290609923,-0.0699530642163,2.57144600121,13.5830976017,8.07292018027,5.93088186891,-0.326851738846,5.84872168561,-1.01267256451,4.97625980191,3.738307865,-52.2288394639
off_to_on,3.00810242067,2.9673227767,2.96794400773,-1.24840498983,1.73404540054,11.8952830259,8.41708443707,6.07591437461,-1.15836777519,4.66601283689,-0.770324733575,4.48216946251,2.92678031252,-2.02725768686
off_to_on,1.48186264956,1.22365393368,1.77843055363,-2.02166490873,0.446130591176,7.54483923343,6.7428318266,4.56642262376,-1.72907493309,2.01090310819,-0.375822454081,2.59884949799,1.0488423313,42.3865323799
off_to_on,-0.712665996082,-1.18860000011,-0.147016788313,-2.24737491001,-1.06327272797,1.68644008674,3.35945240306,1.63252360852,-1.97169566692,-1.57921487179,-0.116149058623,-0.356979726278,-1.47951621869,69.7582380437
off_to_on,-3.05267322725,-3.63053588504,-2.41845968121,-1.95745876643,-2.48503541002,-4.24229001509,-0.97017383335,-2.04269323613,-1.89358577413,-5.21204768368,-0.205934792196,-3.67554938817,-3.97685446671,75.03221136
off_to_on,-4.89312614555,-5.36441660411,-4.45668921738,-1.32877848054,-3.49553717576,-8.87962547804,-5.2029723627,-5.47885000259,-1.55833424687,-7.86694020241,-0.684990797938,-6.42563272262,-5.68563141485,60.2037046532
off_to_on,-5.65049795717,-5.77197889732,-5.64266734766,-0.606971245468,-3.8354024014,-11.253112815,-8.27804775853,-7.66972219846,-1.0560681034,-8.69187689935,-1.38289072261,-7.72555724864,-6.00497090874,32.8818870564
off_to_on,-4.98971501056,-4.56250620251,-5.50756107556,-0.013370213592,-3.38091610515,-10.9761839188,-9.39878811799,-7.89234554853,-0.474799403832,-7.28106899172,-1.96924957579,-7.03166527079,-4.69371430743,3.21401284859
off_to_on,-2.95299695,-1.90125610891,-3.90348417564,0.330230686733,-2.18697219994,-8.29175124868,-8.25448001456,-5.95424135869,0.11705146835,-3.83999404627,-2.07627814389,-4.34706535696,-1.97543995558,-19.6788510449
off_to_on,0.0171423145259,1.59249081395,-1.09378585492,0.432250777042,-0.486399233907,-3.96659347901,-5.11465570559,-2.29119422569,0.672809519339,0.826242118255,-1.45138808265,-0.272043769975,1.49483624631,-30.5218164459
off_to_on,3.1772676522,4.99045278308,2.27751508371,0.408403329544,1.35798695738,0.924975970285,-0.76451759987,2.12811685095,1.15739572322,5.51164573942,-0.083019015368,4.13433440484,4.79970500397,-29.0734057285
off_to_on,5.6821428653,7.31011387005,5.34028024099,0.416718827258,2.93848358758,5.26800666328,3.70361750106,6.0719638188,1.53325309975,8.94427721741,1.75136358144,7.64941741832,7.01768576435,-19.4225872834
off_to_on,6.82690731391,7.80711790728,7.23817085669,0.577791961836,3.90293089276,8.15898280439,7.18440324393,8.411337891,1.7521074128,10.1585011424,3.54102749564,9.25160272102,7.49401815964,-7.821348231
off_to_on,6.25861876563,6.21544898265,7.38360381783,0.912668595807,4.04298762487,9.08788369513,8.85431772738,8.4669789649,1.75922739237,8.78840721528,4.6911197839,8.43893143465,6.04072699963,0.029900798473
off_to_on,4.09009792298,2.85638956322,5.64750775883,1.32355767136,3.34534374864,8.01637333557,8.38223615083,6.22450341286,1.51063832073,5.18719925817,4.71997984035,5.39641756347,3.00294514412,1.192876737
off_to_on,0.877901381153,-1.42527303539,2.420221621,1.62582101983,1.99131724025,5.3446013027,5.99678106634,2.34460888579,0.997064684516,0.330807284737,3.43867430519,0.953481637653,-0.830937015298,-3.59795101198
off_to_on,-2.53163296996,-5.4863194182,-1.48148327508,1.61982050355,0.305337726888,1.78421796539,2.39568173301,-2.03850115731,0.26409710647,-4.46723675689,1.04836601856,-3.65924661074,-4.44967521953,-10.5858508614
off_to_on,-5.2427277075,-8.20837064047,-5.03785004248,1.17563811446,-1.33216428787,-1.82598306292,-1.46970805627,-5.66732973471,-0.581885850911,-7.94149653717,-1.88448810068,-7.17825656235,-6.90440026738,-14.8579119072
off_to_on,-6.56404897512,-8.82317659496,-7.31445474925,0.298205544413,-2.58179019552,-4.71606986855,-4.66538458605,-7.54703689765,-1.38797201084,-9.24009545625,-4.57544866345,-8.68339650926,-7.57354591208,-12.6291724823
off_to_on,-6.19932132749,-7.14058137904,-7.72810366659,-0.853022629782,-3.22441798121,-6.34810496541,-6.51869536227,-7.24216378191,-1.9876762128,-8.15626210037,-6.25052279457,-7.86220620076,-6.32959320524,-3.01279994564
off_to_on,-4.31845833603,-3.60835693164,-6.20931875628,-1.99951462214,-3.20157988704,-6.51256750276,-6.76632562588,-4.98928293074,-2.24371280433,-5.15684651463,-6.38493069649,-5.08010948188,-3.56088956192,11.4314539539
off_to_on,-1.49114036482,0.815451079018,-3.21281411604,-2.82404220412,-2.60884696142,-5.34161601437,-5.571715499,-1.59282130123,-2.08716534394,-1.2055338148,-4.87494720397,-1.23906105279,-0.0464923705921,25.5883408279
off_to_on,1.49228038391,4.93910131702,0.424846135896,-3.06954462663,-1.64893986534,-3.24286263483,-3.42056878593,1.85604265087,-1.53988953581,2.55519916232,-2.08489992199,2.52309135337,3.27414891072,33.7697103971
off_to_on,3.85399117832,7.67839059437,3.733832841,-2.62316153295,-0.563060896882,-0.77567996369,-0.940305414119,4.33938007609,-0.712069485058,5.1559266467,1.24933284993,5.18966837094,5.56543862821,32.0136103239
off_to_on,5.0436807114,8.3594448532,5.88778310625,-1.55701117138,0.436119682998,1.49552973143,1.29153093573,5.2296774024,0.225018751233,6.07213929285,4.23266465525,6.16120465468,6.31608474702,19.7966496168
off_to_on,4.87257681051,6.89376637144,6.42479659078,-0.112025005506,1.20957481631,3.13312532282,2.88897142603,4.46082335239,1.08275398623,5.33425753245,6.07343326725,5.39856889051,5.4553132812,0.47331945973
off_to_on,3.53277065163,3.77767686473,5.34981754739,1.36964480003,1.70460591202,3.91127551914,3.71266340308,2.50288994603,1.70182160051,3.4519402137,6.31410525937,3.37686389451,3.33878850126,-19.7647500556
off_to_on,1.50566863971,-0.0765273580629,3.09543041249,2.54126806332,1.93703705603,3.8367567553,3.83579294827,0.159597791998,1.98764899591,1.19215880091,4.95808759701,0.879220779519,0.6180178084,-34.0551819569
off_to_on,-0.602968492444,-3.61950960754,0.363065280972,3.1461098721,1.95544533693,3.10653938089,3.44991562678,-1.7325811676,1.92488719344,-0.702878447485,2.45445869889,-1.28830573905,-1.96024884435,-37.3690633771
off_to_on,-2.24494381081,-5.96519576871,-2.09823777715,3.08089417966,1.80497325225,2.02079180023,2.75729129676,-2.5943313655,1.56875208488,-1.75737537622,-0.451601579556,-2.55836053509,-3.76190566885,-28.422118637
off_to_on,-3.07265892765,-6.62240282028,-3.70383843994,2.41080693069,1.50621767698,0.881450247719,1.89464076873,-2.28213326114,1.01889033868,-1.88378545124,-2.95213321005,-2.75376003136,-4.42176099597,-10.2642926513
off_to_on,-3.00569572758,-5.59457574417,-4.17402151861,1.335458784,1.05675812502,-0.0914912791798,0.914443833017,-1.09942610892,0.386697400718,-1.35316302395,-4.41750566249,-2.08729640152,-3.91009762947,10.7054868375
off_to_on,-2.2115860049,-3.3292170571,-3.56918972851,0.121003607634,0.452424160137,-0.801889143614,-0.177578543051,0.353693103705,-0.232119851522,-0.638383863985,-4.56941346555,-1.02526161763,-2.50121813076,26.9770572289
off_to_on,-1.01920111408,-0.545889491649,-2.22234300253,-0.976983807562,-0.283401261358,-1.26897956358,-1.35499810116,1.42871415396,-0.771537315836,-0.198551644485,-3.53477012612,-0.0775929527685,-0.664467859335,32.6312262024
off_to_on,0.198615628799,1.99388956256,-0.603195664664,-1.77501405039,-1.07785893185,-1.57774318847,-2.51185674531,1.67908429881,-1.19396007084,-0.289623543742,-1.77028532693,0.401072225559,1.08250415273,25.5332555565
off_to_on,1.13286091001,3.70006987081,0.834805222609,-2.19096182331,-1.80672555455,-1.81137224385,-3.44655860273,1.02057460494,-1.47842440247,-0.871077802174,0.109993071968,0.326242303385,2.31331007527,8.20969451513
off_to_on,1.6064298917,4.28930788259,1.77528504663,-2.23760011925,-2.31712735789,-1.99456098263,-3.9032587015,-0.253420471661,-1.60695315873,-1.63841299824,1.54198110478,-0.121255027743,2.78880028079,-12.9401266414
off_to_on,1.59067576134,3.81203664898,2.09632518978,-1.9896915532,-2.46921276879,-2.07123043964,-3.65954961724,-1.60093189657,-1.55771284088,-2.16226128465,2.18376375901,-0.606785311958,2.49068796052,-29.8555551123
off_to_on,1.17776868093,2.5790236759,1.85907556656,-1.54185381421,-2.18282428305,-1.92637025124,-2.62718942297,-2.45065420596,-1.3096854078,-2.0753801523,1.99884741023,-0.806595697045,1.59412744847,-35.6935499748
off_to_on,0.528870347447,1.02576883418,1.24592978015,-0.974973909423,-1.47206167733,-1.44390154993,-0.923521485496,-2.42566724163,-0.857500699306,-1.23296985527,1.22997174328,-0.554768627482,0.396682423258,-27.3672893062
off_to_on,-0.179054125175,-0.432678717525,0.479926853947,-0.342634774017,-0.453949197126,-0.577355304588,1.12090887393,-1.48720208883,-0.229501395602,0.215461103724,0.281406206618,0.0871322130304,-0.770710293854,-6.83619568556
off_to_on,-0.791337466721,-1.50910410008,-0.243364405697,0.321107563504,0.673954289326,0.596522573362,3.03083548811,0.0534062549407,0.500543505182,1.86897097057,-0.442350510377,0.862898884829,-1.6257446234,19.3417576742
off_to_on,-1.19345428987,-2.08688453987,-0.792191435397,0.980899572531,1.68140129752,1.86652907466,4.31479111321,1.65556385165,1.21615950001,3.21496279099,-0.681921960697,1.43913658589,-1.99187603464,42.0897947221
off_to_on,-1.31393499107,-2.19816301531,-1.10106607142,1.57985729965,2.36422939193,2.92875027226,4.61377937467,2.75430748033,1.77820364373,3.81202560724,-0.402726588369,1.55513314364,-1.82284725382,52.8527541512
off_to_on,-1.12279640479,-1.96031303198,-1.15184659775,2.03269225653,2.59571219633,3.47220321799,3.82005231451,2.97034965196,2.05818675335,3.44724908831,0.214097135624,1.14071224915,-1.19618886057,46.5845870906
off_to_on,-0.634037787127,-1.50456449478,-0.952320373011,2.2385409826,2.35477655668,3.28162851418,2.12362444109,2.24653358628,1.97496382779,2.21067689438,0.859407673747,0.351935146348,-0.283368387309,23.6680263164
off_to_on,0.0863612230111,-0.927174145206,-0.527417810261,2.11070320628,1.72343088842,2.32179211443,-0.0326958484824,0.861505402434,1.52242688741,0.461732067814,1.2247773758,-0.490874215815,0.693463916664,-9.90785997691
off_to_on,0.913596270012,-0.278599269352,0.0728497095714,1.61244677981,0.85620580424,0.771292117894,-2.07839267677,-0.681430313404,0.7779432039,-1.29716051107,1.12221741549,-1.03755071391,1.50879675106,-44.2181537039
off_to_on,1.66944613309,0.413124681627,0.757130613748,0.784346455479,-0.0665665424695,-1.01061046209,-3.48183579163,-1.84560218994,-0.112678944138,-2.59120351575,0.551385203963,-1.05929839005,1.97768718245,-68.4198025506
off_to_on,2.14895512402,1.10404672414,1.38423611289,-0.249248266519,-0.885411558767,-2.57822654881,-3.90545501729,-2.25892732258,-0.970098155625,-3.12539608618,-0.30731535318,-0.553191903411,1.99060773506,-74.1707041288
off_to_on,2.1690657834,1.70588958207,1.77740269356,-1.29991614256,-1.4937050088,-3.52729723353,-3.30017090942,-1.84443884105,-1.62588961337,-2.86504696494,-1.16673708253,0.245533649129,1.53467712349,-58.3651662138
off_to_on,1.6286165624,2.08662456822,1.76653744164,-2.15700576025,-1.84712758011,-3.6160877549,-1.90992135888,-0.836420368937,-1.96303159991,-2.02015379394,-1.74267436337,0.952096487609,0.69769038864,-24.309792794
off_to_on,0.560028642161,2.10482823956,1.24931524724,-2.63956437362,-1.95177373484,-2.8398957347,-0.186753364056,0.320783050924,-1.94045690363,-0.945624097767,-1.85636319243,1.18927131356,-0.347030744462,19.0499140725
off_to_on,-0.849273427957,1.6662056937,0.249493392864,-2.64255420289,-1.83994548653,-1.43348658002,1.35418918372,1.15014437686,-1.59532383306,0.000398753369269,-1.49206619735,0.751503301566,-1.37405855777,59.6366175706
off_to_on,-2.28100135946,0.779024109552,-1.05379476875,-2.16335613956,-1.54632114527,0.20056294616,2.29206305167,1.32678235337,-1.02425821097,0.584763844568,-0.791015117391,-0.290706709541,-2.1526246367,85.7337451793
off_to_on,-3.35687073773,-0.41685859183,-2.34564833683,-1.30109488992,-1.09544286298,1.61501172759,2.4202958116,0.800278613973,-0.351575362084,0.7670422726,0.0119281995383,-1.5917792623,-2.4977111403,89.4194739462
off_to_on,-3.74049849544,-1.66425830089,-3.24784611807,-0.230081447204,-0.505248052367,2.45275799688,1.79357492494,-0.190464146832,0.304007282144,0.685324262044,0.681108670872,-2.64325839669,-2.31386548282,68.9235361797
off_to_on,-3.24130206241,-2.64743356384,-3.42802653016,0.843522199275,0.196636542493,2.54967715556,0.691431888722,-1.21349024106,0.853525691851,0.571203638858,1.06486226861,-2.95973996892,-1.62046607444,29.2188612008
off_to_on,-1.88700300027,-3.07965376433,-2.71297026107,1.72849087319,0.953558383118,1.97290710754,-0.484882718147,-1.81309421609,1.2468123463,0.631947219967,1.13985772112,-2.27076947119,-0.550932016837,-19.3129092518
off_to_on,0.0616588193671,-2.79213073069,-1.16718124193,2.28596811713,1.66935837337,0.984027954263,-1.34548659999,-1.68741996162,1.46689469751,0.949059058908,1.00015349171,-0.645717204071,0.675171330406,-63.7424503811
off_to_on,2.16369542451,-1.79473687795,0.894536098094,2.449328088,2.2155894199,-0.0580819295781,-1.63131850034,-0.807650668975,1.51584196237,1.43429813822,0.798844777827,1.49903254291,1.80088240892,-92.1520736722
off_to_on,3.90673317298,-0.287186314437,2.97226324587,2.22484552193,2.45812694281,-0.820118907248,-1.28401093049,0.565055621229,1.40077575714,1.86045492449,0.669043156355,3.51922981307,2.58940138939,-96.8869080718
off_to_on,4.84220047471,1.38497381653,4.51031664992,1.67754671687,2.29641995044,-1.10087354916,-0.448757301019,1.97013502156,1.12747926066,1.95437651727,0.658631267623,4.75059969925,2.87604560844,-76.6038327204
off_to_on,4.70776383566,2.81766422054,5.05466298737,0.90993810087,1.70227603291,-0.886513285206,0.58482159432,2.91129868254,0.704561452896,1.51537131543,0.706927208598,4.73430930355,2.60205747861,-36.581798088
off_to_on,3.50099987099,3.65354203675,4.39072796921,0.0411633505236,0.743449641289,-0.338755918379,1.48010909417,3.0329065946,0.155455584613,0.512316685885,0.673739943369,3.38094719652,1.82314052535,12.7510803979
off_to_on,1.48280386501,3.67492308611,2.61775622522,-0.808804619227,-0.418723661449,0.276126806602,1.95622720808,2.24539776923,-0.468881059696,-0.879126364194,0.409363861696,1.01439135747,0.692694870988,58.6343090165
off_to_on,-0.889823660717,2.85870049583,0.134345051277,-1.52934740149,-1.56010218875,0.689476784832,1.8651574335,0.756207700536,-1.08491899973,-2.31528926182,-0.163451242735,-1.72137178646,-0.573868909799,89.3509384768
off_to_on,-3.0811809521,1.37979778691,-2.46297765839,-2.02628941192,-2.44569141834,0.726254988231,1.22375603292,-1.00217646094,-1.58493437279,-3.38718101615,-0.99063943365,-4.06162597617,-1.74358781023,97.2562344232
off_to_on,-4.61025627234,-0.43500969203,-4.53917336639,-2.22928215903,-2.88799609976,0.361842211526,0.197068975083,-2.51843099755,-1.85917562252,-3.75169437013,-1.87832281529,-5.35899643503,-2.60872470662,80.6752872859
off_to_on,-5.16321574745,-2.1877129391,-5.5911667663,-2.10128719134,-2.79435865612,-0.277616971756,-0.955991825377,-3.36917898619,-1.82609645873,-3.24589728269,-2.54298948822,-5.28021451664,-3.02007220646,44.2080022954
off_to_on,-4.65667728895,-3.50137068865,-5.37940538065,-1.64890914736,-2.18914789311,-0.967519052584,-1.954610657,-3.3480048323,-1.46066798528,-1.94539374501,-2.70573578499,-3.89733164023,-2.90707784196,-2.59135128124
off_to_on,-3.23975581918,-4.10106449857,-3.98327436783,-0.929498559832,-1.20469186963,-1.4675284788,-2.56431107243,-2.51492343468,-0.810174099672,-0.147705070364,-2.19782173363,-1.64694578599,-2.28479698643,-47.7723923012
off_to_on,-1.2410524502,-3.86643460891,-1.7671816382,-0.0499279370057,-0.0447666548447,-1.60332084943,-2.64533810531,-1.15515027117,0.00962607719896,1.71254616008,-1.03846056396,0.823158861645,-1.2497084392,-80.0913155702
off_to_on,0.919079196704,-2.84803500586,0.728600247651,0.846475479639,1.0672394213,-1.3188579936,-2.17376668662,0.331275729457,0.838679790343,3.18756415044,0.546089878666,2.86323790854,0.0334898936463,-91.8463518406
off_to_on,2.82447874378,-1.24902616321,2.93662797388,1.60458579647,1.93950053911,-0.683907537294,-1.23651365377,1.56480047713,1.51087354219,3.93914189358,2.17317295572,4.01411327345,1.35305170909,-80.7266857282
off_to_on,4.14343467893,0.619630231191,4.40548972445,2.08895126209,2.44799525896,0.140651306575,-0.0070999821526,2.29747204356,1.89502432604,3.82302899417,3.41063493589,4.12080629935,2.47909083098,-50.2288636826
off_to_on,4.67844932723,2.39933504672,4.89774687575,2.21393512667,2.54990557893,0.961880049128,1.28926046353,2.46422264468,1.92621726091,2.91282072581,3.90622831247,3.33671610898,3.19937471909,-8.57537879068
off_to_on,4.38210799821,3.74837351774,4.42002805344,1.96367436563,2.27468618632,1.61334504747,2.41408379832,2.16419613474,1.61827238126,1.46226714216,3.49709756626,2.0281915217,3.35873331988,33.5409798831
off_to_on,3.34501613491,4.40153968464,3.18536335658,1.39549666513,1.70058426711,1.99189737316,3.15304431645,1.58905262664,1.05445554608,-0.17602606036,2.26302581042,0.623404447312,2.89542033333,65.7663341456
off_to_on,1.76631944142,4.21744560211,1.52820478883,0.625368294521,0.927897269892,2.06331084767,3.34986184003,0.9333017887,0.36068877618,-1.64666120822,0.505807727195,-0.534918873932,1.86510225237,80.698732402
off_to_on,-0.0833273780888,3.20730016874,-0.1958284876,-0.200430543007,0.0589843754219,1.84221405488,2.93433574472,0.324544388769,-0.329124908336,-2.67343204773,-1.33826845683,-1.28074583388,0.443078005612,75.6269055248
off_to_on,-1.90047834458,1.5398490806,-1.69359208554,-0.938958452332,-0.810096556869,1.36283886253,1.9410017591,-0.200968004508,-0.904332592704,-3.10769886021,-2.82397704056,-1.63401844251,-1.10105595132,52.9689019391
off_to_on,-3.38778952431,-0.48115126608,-2.78017972095,-1.47984481368,-1.58805892888,0.659662356648,0.513562659827,-0.673779654136,-1.29636857958,-2.93754433202,-3.62030943435,-1.73596404268,-2.45512953812,19.3482263461
off_to_on,-4.29361625674,-2.46705516682,-3.38186803199,-1.76243434906,-2.18384545947,-0.229997470103,-1.10957760569,-1.13560599915,-1.48161790394,-2.26490296627,-3.59319945734,-1.74663214957,-3.33296024122,-16.3810415662
off_to_on,-4.4514565008,-4.01664785,-3.50699815773,-1.77779075682,-2.50741833249,-1.24272306394,-2.63065450353,-1.58314265636,-1.47089637422,-1.26516740343,-2.82486470293,-1.75271747709,-3.54328258242,-45.5697635513
off_to_on,-3.8144817623,-4.79876845739,-3.20506830447,-1.55783923362,-2.48136071055,-2.25984715406,-3.74572999828,-1.94056088037,-1.29270297833,-0.144094051388,-1.56879077967,-1.72550259817,-3.03997530274,-61.9750475351
off_to_on,-2.47643664574,-4.62800251538,-2.53481869236,-1.15794031979,-2.0627907991,-3.0942247099,-4.20683185123,-2.07589234176,-0.978686589345,0.89825138829,-0.160323978353,-1.54471520295,-1.93785631184,-63.1317636544
off_to_on,-0.668977219418,-3.51448295652,-1.55428914352,-0.640419547678,-1.2685881902,-3.51127806867,-3.879597729,-1.85594828336,-0.55746338527,1.6936733656,1.08447250627,-1.07460154801,-0.487208031787,-50.570163544
off_to_on,1.27115682721,-1.67241357839,-0.333468364484,-0.0647214222323,-0.192833580645,-3.28907716556,-2.78174441272,-1.21619832984,-0.0581629192393,2.12432139815,1.94850121403,-0.255744306015,0.98783940225,-28.9145379232
off_to_on,2.96408021702,0.519160768367,1.02153933691,0.514141083162,0.994265387796,-2.3034916955,-1.09076040469,-0.213891474729,0.480029503808,2.1365970906,2.34959287903,0.830762585718,2.17073384448,-4.23178354007
off_to_on,4.06706091849,2.59752704129,2.35023682344,1.04151523567,2.07151919095,-0.608422517427,0.883885636046,0.961874764114,0.999328234868,1.7508670264,2.32814827454,1.9586723369,2.8308214608,17.7977281311
off_to_on,4.35431199105,4.1214593037,3.44128566809,1.45888857527,2.81318513212,1.52463603508,2.75988314525,2.03257720527,1.42280081161,1.06328450466,1.99933830467,2.81836630472,2.87616951164,33.3046981192
off_to_on,3.77436135319,4.77433112233,4.06519062105,1.70503913197,3.04539994923,3.63483793451,4.16022802582,2.7131849866,1.66552443632,0.233832271674,1.49366331892,3.12373902578,2.36623153909,40.8512850375
off_to_on,2.4670316451,4.43817255503,4.03099415986,1.72534435328,2.69600282883,5.17362775258,4.79291611008,2.80630976796,1.65588612824,-0.5433606772,0.910524724878,2.72296965353,1.48222297495,41.1565807543
off_to_on,0.732444470703,3.2186220715,3.2504480123,1.48770710539,1.82127842314,5.6578639663,4.51409894211,2.27234308881,1.36041224466,-1.08525005422,0.300757623404,1.66851134502,0.466243079285,36.1609734169
off_to_on,-1.0417342837,1.41392242925,1.78719337718,0.999520379395,0.599162576476,4.82920020297,3.36054750015,1.2482419503,0.802814408328,-1.27053663098,-0.320059155971,0.216177394651,-0.450464399487,27.8869493164
off_to_on,-2.47585003092,-0.563317197623,-0.129479294732,0.318177051861,-0.711431726733,2.76509091982,1.54447307501,0.00646805660702,0.0688464787407,-1.07971586167,-0.939283247113,-1.24987771589,-1.1073278862,17.5958616993
off_to_on,-3.29033564686,-2.28970565084,-2.13704473937,-0.45116574725,-1.83465461083,-0.103421845749,-0.587813577966,-1.13195867862,-0.70708215691,-0.608127039138,-1.51525637436,-2.34074953559,-1.44484034213,5.58543035897
off_to_on,-3.36876403883,-3.43146897364,-3.81481857623,-1.17280726656,-2.54678714268,-3.08452948438,-2.62437065975,-1.89905406331,-1.3713339588,-0.0423381898938,-1.96394457253,-2.79017966824,-1.49898134352,-8.32003372547
off_to_on,-2.77505376256,-3.81505194727,-4.78401589284,-1.70951502866,-2.73002458676,-5.40974953451,-4.16906944593,-2.15953547397,-1.78847014646,0.397531904155,-2.17332125377,-2.53887604155,-1.36576828518,-23.8522801946
off_to_on,-1.72190802509,-3.45106846966,-4.80579450784,-1.95541676153,-2.39536413438,-6.45659098668,-4.91988664114,-1.94065496533,-1.87543877895,0.533429873432,-2.04165112965,-1.74482440428,-1.15186062578,-39.4355961775
off_to_on,-0.502097323146,-2.50910253427,-3.84902477356,-1.86276230385,-1.66885174506,-5.93953289711,-4.72899954021,-1.40354426561,-1.62198465958,0.297493596223,-1.52441216421,-0.716557142139,-0.930752372765,-51.8781024979
off_to_on,0.595360487038,-1.25516314996,-2.10696680253,-1.4540055694,-0.74713372695,-4.00487949267,-3.63320041133,-0.769688935728,-1.09113757518,-0.233376930195,-0.669496129693,0.204574024583,-0.720433562862,-56.9223058619
off_to_on,1.35894701306,0.0266347127639,0.043950716928,-0.815256710937,0.162220966974,-1.19382000627,-1.84844967841,-0.232755767955,-0.400145991307,-0.85311879079,0.376304028661,0.768046894234,-0.489111767958,-50.6093242599
off_to_on,1.69802502824,1.10417652735,2.1336591651,-0.0732525018735,0.896047952522,1.71909388717,0.271281767695,0.109464078035,0.311512242706,-1.29188017786,1.39596318342,0.897019513487,-0.184315352672,-31.0365849957
off_to_on,1.64644256949,1.84047811632,3.71284130877,0.636654436237,1.36960240183,3.96230975062,2.30408809681,0.277379042513,0.916633065407,-1.31203090438,2.15891947353,0.699989055826,0.228269895704,0.160924906131
off_to_on,1.32992842866,2.20169541026,4.46156715609,1.20135740992,1.58059781103,5.00169823204,3.84624914069,0.379626796116,1.32687896814,-0.802285518445,2.48742894987,0.408793149639,0.733258803776,37.2866107181
off_to_on,0.911584439955,2.23400175091,4.26316871706,1.55061413841,1.58553861882,4.69503728128,4.59714960735,0.545573448441,1.50462971498,0.164970767259,2.30975565483,0.269174155221,1.25504187398,71.4363678304
off_to_on,0.534981819167,2.02283117233,3.22422340275,1.66256636587,1.4602517738,3.314617758,4.42438148026,0.850165471973,1.45896561981,1.33758882178,1.68149374133,0.428459780796,1.67346652572,92.6907869456
off_to_on,0.282849938104,1.65191600586,1.63670701181,1.55505940061,1.26144577338,1.43107668106,3.39311203541,1.26396154611,1.23024757694,2.35282070963,0.767481990888,0.865811984162,1.86054702973,93.0962147562
off_to_on,0.162260079529,1.17704711908,-0.105571873601,1.26868035867,1.00466766453,-0.299900687419,1.75083142962,1.65081482091,0.87114022187,2.85233311083,-0.209262035247,1.39363693015,1.72481940001,69.5139210539
off_to_on,0.117447700603,0.621976356712,-1.61186604378,0.849791514915,0.666848793206,-1.37167652476,-0.131038809876,1.81615708873,0.431951113958,2.60570113903,-1.03367274361,1.73067586961,1.246972673,25.3352309685
off_to_on,0.0624621147612,-0.00558065500948,-2.59127324323,0.340684600795,0.211463967362,-1.59729443576,-1.84584511511,1.58790927325,-0.0449572997501,1.59949863716,-1.55718335467,1.61888250087,0.493614524992,-29.6710451721
off_to_on,-0.0795062048544,-0.687771478943,-2.91544860904,-0.220106572748,-0.375013026063,-1.15485925659,-3.04878872172,0.898019096303,-0.521733927571,0.0587456187962,-1.72970240653,0.938439033852,-0.395930422434,-81.5563328575
off_to_on,-0.343732483029,-1.37377159415,-2.63209133011,-0.789564464035,-1.05168866164,-0.491388759041,-3.53681178956,-0.168886500256,-0.9570534604,-1.61046938582,-1.59650881424,-0.224931072584,-1.24521392536,-115.939414384
off_to_on,-0.708222240528,-1.97202056516,-1.92887024511,-1.31044410974,-1.71195414234,-0.121411262972,-3.28933996312,-1.38153660018,-1.30021698163,-2.94133365632,-1.26470207879,-1.58867925989,-1.88644068221,-122.24287121
off_to_on,-1.09800680479,-2.36305259461,-1.06184973839,-1.7077516447,-2.20026022479,-0.397018052279,-2.45858273579,-2.42405670834,-1.49299813351,-3.55127933498,-0.854607615705,-2.75791371112,-2.20138693146,-97.1074087239
off_to_on,-1.40642662232,-2.43023560993,-0.272203348144,-1.89689949157,-2.35436934017,-1.33905430419,-1.31296061456,-2.99393702708,-1.48119339009,-3.26351869089,-0.455910139973,-3.35659322891,-2.14518930105,-45.8428702284
off_to_on,-1.52587245313,-2.09855136167,0.28274868875,-1.80395055561,-2.06034725024,-2.59887528043,-0.151738885467,-2.90176657793,-1.23297806407,-2.16396534675,-0.104839045595,-3.15832557824,-1.74772091872,18.6641197988
off_to_on,-1.37887489709,-1.36792538312,0.563903026672,-1.39252559308,-1.30152391618,-3.57288784149,0.781836225373,-2.13719286652,-0.757227891368,-0.573770013147,0.210901077755,-2.16918371914,-1.09554290928,79.3808904502
off_to_on,-0.941587639726,-0.328742586931,0.641729918715,-0.687716312605,-0.183062131307,-3.63442086568,1.36120106154,-0.877409573027,-0.11367604962,1.05369150103,0.524568426258,-0.632209602994,-0.303703475285,119.935864371
off_to_on,-0.25460171756,0.847418581782,0.650412241974,0.213392159362,1.07927375622,-2.40033082145,1.59230325352,0.56498161209,0.591169339604,2.27675556589,0.854530847053,1.04826811441,0.511336123668,129.364958899
off_to_on,0.580591115182,1.94103304561,0.722582397464,1.15162795105,2.20624108349,0.0688545388936,1.58176165412,1.83640955827,1.22366782993,2.80187548571,1.17748361894,2.43542065761,1.24907382127,105.335011969
off_to_on,1.41825721122,2.73352561587,0.928494058291,1.93661749612,2.92628551172,3.21826251754,1.47167698973,2.64632845434,1.65386741403,2.56706789983,1.42383086035,3.1960562781,1.82995881793,54.8291769464
off_to_on,2.09492697265,3.05860593184,1.24153547875,2.39180193162,3.05035891616,6.13039173801,1.36768594867,2.84583983507,1.78865247236,1.74578689256,1.49860714476,3.19675603725,2.19164032285,-7.93711190764
off_to_on,2.46118593949,2.84205284047,1.54270905993,2.40111771314,2.52779169224,7.80693500749,1.28944911389,2.45650117042,1.59689602418,0.672489066294,1.32015969406,2.52842053522,2.28401556036,-65.7323365514
off_to_on,2.41337188867,2.11936731241,1.66308031129,1.94317930485,1.46562287415,7.51114543037,1.16425092869,1.6436947935,1.11847176197,-0.281823101669,0.86077242181,1.45454155845,2.07043006039,-103.350350941
off_to_on,1.91933094106,1.0270893963,1.44974227144,1.10183345884,0.10449417148,5.05300108622,0.867475885415,0.64873239731,0.454089306417,-0.839161727004,0.171782984514,0.306269482332,1.53825793572,-111.920370828
off_to_on,1.03249750789,-0.229128736881,0.83210090323,0.0488416252169,-1.24275156526,0.91192107079,0.294505551579,-0.29277144649,-0.260873564522,-0.903797255573,-0.618754737319,-0.634424646049,0.715955055216,-91.1808687235
off_to_on,-0.110266856502,-1.42057440392,-0.135653337615,-0.997067307056,-2.27238597671,-3.8575887128,-0.565575521781,-1.01647204027,-0.89029516579,-0.581295462071,-1.33730768884,-1.22005213081,-0.311598346061,-49.0815489523
off_to_on,-1.30902528987,-2.34343184354,-1.27263394996,-1.82329305178,-2.76772785192,-7.91950826449,-1.58728671838,-1.458081222,-1.32861122513,-0.123205739807,-1.81507900256,-1.46220547173,-1.39948617142,1.06085251988
off_to_on,-2.33729745772,-2.85692988175,-2.3132305135,-2.27355856604,-2.65161199196,-10.0615880004,-2.52013217016,-1.6408129424,-1.52060913987,0.180135902799,-1.93955995507,-1.49106426015,-2.35812300608,44.8593242574
off_to_on,-2.98826043788,-2.90364381562,-2.98126784879,-2.28139733354,-1.99919170466,-9.5825452512,-3.05726841516,-1.63348380248,-1.46528526173,0.118243483019,-1.68879953359,-1.47095107585,-2.98824661236,71.1895118916
off_to_on,-3.12045452257,-2.50945803067,-3.07316679887,-1.87866417194,-1.00886130437,-6.53215319492,-2.94174661722,-1.50162380448,-1.20500185702,-0.353051332222,-1.13599518353,-1.50954391783,-3.12823944781,75.1961245931
off_to_on,-2.69152299938,-1.7663524268,-2.52303610986,-1.17866035911,0.0585913812466,-1.72013678025,-2.07332741581,-1.27433922183,-0.805923975162,-1.08848849342,-0.423053935561,-1.59961293556,-2.70038973048,59.1084061726
off_to_on,-1.77051902094,-0.805298928685,-1.42790168487,-0.340958765757,0.953612533206,3.515422712,-0.574385037261,-0.940498146025,-0.337838389751,-1.80161244293,0.28664657728,-1.6180301587,-1.74108188732,30.7618718858
off_to_on,-0.524515871573,0.231934903656,-0.0241268566561,0.470295441537,1.50245940921,7.70983891779,1.21548561021,-0.473377671243,0.139665411954,-2.16685083137,0.858475244016,-1.38303825545,-0.403708393471,0.482793476852
off_to_on,0.817691429475,1.21461373587,1.37779487827,1.122294641,1.64473696861,9.71607562345,2.82285910037,0.130469072336,0.581376950272,-1.93921569216,1.22129408635,-0.746714573883,1.06883025246,-22.5078419946
off_to_on,2.01534525321,2.0345753707,2.47904499916,1.53482153364,1.4349830656,9.04872539347,3.78028212771,0.819014452771,0.952373883024,-1.04978377917,1.37487434838,0.315425254644,2.39566404459,-32.9323160779
off_to_on,2.86557830179,2.60802105276,3.07117375506,1.68387127268,1.01070919335,6.01754189276,3.77829855849,1.47730097884,1.22064485118,0.355903317242,1.3693259879,1.65590143233,3.31965193131,-30.6434096953
off_to_on,3.24034813806,2.87190231481,3.08290500601,1.59073707937,0.539295281313,1.60986477793,2.77740733384,1.9518360812,1.35254369038,1.94946764155,1.26725126823,2.97130900778,3.66253898331,-19.9022749442
off_to_on,3.10209425187,2.78107625112,2.58185531396,1.30375229672,0.161796504815,-2.83589648778,1.03803743899,2.09956608344,1.31542669346,3.3107702497,1.10629451254,3.88237341023,3.35961239478,-7.17560273165
off_to_on,2.49709073812,2.31153808641,1.7340815708,0.880773303275,-0.048493849291,-6.05557600987,-0.94718112776,1.84254287425,1.0879689997,4.04887482093,0.879437713058,4.05317266056,2.46696247706,1.62354577736
off_to_on,1.53274582762,1.47168795468,0.739153951141,0.37823122365,-0.100632204787,-7.24306377131,-2.60119528503,1.20556498603,0.674393925463,3.91502833372,0.542768287404,3.30915569243,1.1430221087,3.39007223454
off_to_on,0.349514257527,0.318851838981,-0.233577644609,-0.151581866558,-0.0709255727194,-6.26979071998,-3.44386540734,0.319803092956,0.116048263069,2.87418092053,0.0484349475395,1.71253123726,-0.387105916936,-1.22994353518
off_to_on,-0.902095517234,-1.02611759685,-1.08374051849,-0.657525553103,-0.0650355881011,-3.67545055322,-3.24669245237,-0.611507779511,-0.506293823009,1.11622071619,-0.611120720414,-0.432692574902,-1.87323601491,-8.47621750698
off_to_on,-2.07359185591,-2.37555344139,-1.78105354029,-1.08596058803,-0.171314272595,-0.444079983581,-2.10779872974,-1.37411706613,-1.08313935979,-0.992693661265,-1.36801986144,-2.65033510278,-3.07804262397,-13.3487830436
off_to_on,-3.02089040313,-3.49112628763,-2.33228865278,-1.38136160365,-0.421800583345,2.34905327802,-0.420011655508,-1.80842401442,-1.49896144403,-3.00122992949,-2.0715892807,-4.41596556551,-3.80658207369,-11.9193247221
off_to_on,-3.60451835637,-4.12256501346,-2.73246147914,-1.49359956802,-0.774360461472,3.8945796819,1.25883687769,-1.85544059797,-1.66098297838,-4.47915080438,-2.51786198423,-5.2973667568,-3.92772391311,-3.13893273536
off_to_on,-3.69746636773,-4.06444039064,-2.92619147014,-1.39057462974,-1.1222274862,3.88971125509,2.39039497589,-1.56628528726,-1.52520550461,-5.11106572681,-2.51070575643,-5.06937743517,-3.39057750095,10.5764796893
off_to_on,-3.20737069525,-3.21849649282,-2.80193203052,-1.07161802714,-1.32806440345,2.58814679503,2.63266643911,-1.07275376023,-1.11097628792,-4.7574767187,-1.93568985878,-3.77038089439,-2.23804158211,24.2109311714
off_to_on,-2.11185534632,-1.64347781394,-2.22837781766,-0.575728368898,-1.27152826481,0.65490477449,1.94914380627,-0.531800955197,-0.498737204678,-3.47447866084,-0.820154960257,-1.68700398159,-0.615586471699,32.1210752933
off_to_on,-0.496390174622,0.426152485782,-1.12357169958,0.0201007121666,-0.894735181875,-1.1097562996,0.613450715534,-0.0668055214707,0.188995105937,-1.49455212089,0.645276987943,0.724323175345,1.23124535615,30.3417134252
off_to_on,1.42277305396,2.60554727619,0.469650071993,0.613885029863,-0.230404470983,-2.07051866413,-0.890889483368,0.270839776328,0.817855141978,0.821837944567,2.13727396268,2.9528624598,2.97919516394,18.3152141648
off_to_on,3.30833450377,4.43065142411,2.33606966951,1.10025330163,0.597313313604,-1.97192381169,-2.03950872815,0.505248387827,1.27388500046,3.05170032603,3.27872138735,4.55239386924,4.27521675322,-0.650188107232
off_to_on,4.754328532,5.46310482744,4.09713735261,1.39456190515,1.40087808829,-0.995668730059,-2.44553636346,0.705053357905,1.48823530253,4.78111172511,3.74489896947,5.23305041867,4.80768561127,-20.4084264161
off_to_on,5.37689518269,5.40426873436,5.28741032045,1.45221369355,1.97877999804,0.350373928025,-1.98551578791,0.933026357109,1.44761873272,5.67443330841,3.364510105,4.90762541633,4.38781114598,-34.1398736889
off_to_on,4.9230857303,4.18705099167,5.48411886939,1.27729150586,2.17200060957,1.45909521676,-0.830942477393,1.19978126635,1.18889662109,5.53401888719,2.18232542484,3.68885593575,3.01894115442,-36.8627367756
off_to_on,3.3655429257,2.01633696752,4.45250267663,0.91815445307,1.91067257336,1.87376605821,0.622195664026,1.44346956996,0.781515088066,4.34287313136,0.46066378597,1.84708337535,0.928413088241,-27.3544160672
off_to_on,0.948815012383,-0.659614915815,2.25744810872,0.451976453323,1.23674298139,1.46263365376,1.89722150418,1.54638028566,0.305146016075,2.28156854074,-1.38436756751,-0.255187454768,-1.45727250427,-8.74576134356
off_to_on,-1.8368298162,-3.2459632432,-0.703353109149,-0.0362776506815,0.295482877475,0.453561235991,2.60027711503,1.38339320177,-0.169429028831,-0.288905470015,-2.89504824237,-2.23475482556,-3.59821640761,12.4718040349
off_to_on,-4.35776579447,-5.14506716807,-3.76790052064,-0.473511788662,-0.702015251092,-0.679586086524,2.54511250723,0.882913939849,-0.590514968194,-2.88268847379,-3.69967677976,-3.75230303669,-4.97227555261,28.7055430203
off_to_on,-5.99439542624,-5.91016866381,-6.17081121395,-0.810970265367,-1.53449709694,-1.42862128104,1.79743354841,0.0743147583932,-0.925418540197,-4.97909082848,-3.61687150466,-4.56287308916,-5.21805216846,33.9937522618
off_to_on,-6.31153388022,-5.3659312823,-7.25484537211,-1.02681267075,-2.02807926774,-1.47266841743,0.628529459096,-0.89998071471,-1.15317817209,-6.1324813976,-2.70439263849,-4.54929457861,-4.24697442562,26.2271704755
off_to_on,-5.19070334909,-3.65961035893,-6.6699562585,-1.119947188,-2.09893095418,-0.818620490763,-0.59810721373,-1.81617383994,-1.25598992187,-6.07778540722,-1.23746180069,-3.73730497517,-2.28606587119,8.0388305044
off_to_on,-2.88042167284,-1.22510820755,-4.49532071382,-1.09939070029,-1.76909114074,0.19787542183,-1.55986007715,-2.43542120209,-1.21523896692,-4.80326525839,0.376350231995,-2.29080351327,0.168855154341,-13.995798932
off_to_on,0.0569435233887,1.33269456533,-1.24013628312,-0.974637540865,-1.15181059649,1.05329391752,-2.07601370279,-2.58124963747,-1.01537525635,-2.56674858673,1.71873450925,-0.485510601943,2.48264189922,-31.6077728288
off_to_on,2.89178429701,3.40170377446,2.28440907459,-0.751462453398,-0.412255031054,1.26398476719,-2.14088359314,-2.19911067253,-0.654674854624,0.155227935447,2.48067545464,1.33875441367,4.0584743208,-37.7693289537
off_to_on,4.92706350443,4.52730062191,5.18822662795,-0.434781714566,0.283114325592,0.609268327508,-1.88272185774,-1.37528720447,-0.158013315398,2.77700633958,2.5439945681,2.84222188472,4.51087156835,-29.2903134163
off_to_on,5.69222136772,4.52936995859,6.75445272394,-0.0368326716069,0.812065920271,-0.742899052808,-1.47310550966,-0.307822140727,0.415143376297,4.74521751011,2.00050526652,3.75452606259,3.77929736188,-8.14862368624
off_to_on,5.07169396166,3.53691089559,6.64284000984,0.413633663529,1.12290501096,-2.26521876241,-1.03145461765,0.759220913395,0.973329639232,5.6734637085,1.10535397048,3.93308503581,2.14402362969,18.9506167068
off_to_on,3.3276845318,1.93069079296,4.98024170676,0.866215192698,1.23437620396,-3.25385587516,-0.570015466188,1.61259929431,1.40839506613,5.43177064371,0.182288986633,3.3937584735,0.136275808806,42.6880158272
off_to_on,1.00982516274,0.213214862227,2.3092627795,1.25152996391,1.21124871104,-3.10261265804,-0.00570145049824,2.12832915942,1.62071574823,4.16497747489,-0.486463783859,2.3025885065,-1.63069630031,54.2370616767
off_to_on,-1.21940224716,-1.15163253424,-0.588234056171,1.49258931598,1.1261459046,-1.5670306092,0.765708107914,2.29037911924,1.54712395114,2.23593428598,-0.749104065317,0.928324906452,-2.65585702556,48.3331060441
off_to_on,-2.78728666521,-1.87733210899,-2.93529358738,1.52246297314,1.02292516381,1.08532052199,1.76754037444,2.16534026489,1.18240798932,0.112997742532,-0.623476319277,-0.431709818163,-2.70630927847,25.2636206914
off_to_on,-3.37637337635,-1.92734520996,-4.19221375219,1.30330888712,0.896207617724,4.105306801,2.8631721827,1.84772185509,0.586544271244,-1.76132720691,-0.275474680254,-1.52991230798,-1.88284712779,-8.91885195724
off_to_on,-3.00038818,-1.49942536808,-4.202123853,0.840996943546,0.695620071646,6.47685827169,3.745514668,1.40328268922,-0.125917188128,-3.07891227929,0.0538545976825,-2.22569509956,-0.572858616346,-44.0813987712
off_to_on,-1.968601849,-0.929471852706,-3.20471876997,0.190622918286,0.353931428027,7.25145846183,4.01465768889,0.838692409049,-0.812140874351,-3.71958184063,0.145913571325,-2.50321341453,0.693474734338,-69.0910500154
off_to_on,-0.754492106914,-0.550412578723,-1.7182445415,-0.549265063427,-0.171214024745,5.89090188152,3.32600128878,0.113943302696,-1.33559649104,-3.7382573317,-0.10769245199,-2.44507606619,1.43418303332,-75.3271563662
off_to_on,0.18314431597,-0.557328176548,-0.334811206058,-1.25283685298,-0.858421974291,2.497596648,1.55723388857,-0.806151903268,-1.59880654937,-3.29836841094,-0.658101716754,-2.174296128,1.3872457266,-59.5114907752
off_to_on,0.562962287975,-0.928135092108,0.49672573076,-1.79004352387,-1.60340983645,-2.15492450468,-1.07376876843,-1.88499403384,-1.56474773372,-2.58299221861,-1.30971591406,-1.7894750463,0.602595766622,-24.9482851319
off_to_on,0.370793330334,-1.42986950007,0.622988789405,-2.0516197495,-2.23065903718,-6.81346730623,-3.99833803821,-2.96635747365,-1.26121312341,-1.72147396265,-1.78558467655,-1.32147744199,-0.578665641273,19.2391862616
off_to_on,-0.153901086975,-1.71024382246,0.220281732467,-1.9709903308,-2.53651371242,-10.1060196712,-6.41759693526,-3.7766108413,-0.768028562592,-0.760704760088,-1.82624340834,-0.73155417411,-1.65131426475,60.666784783
off_to_on,-0.627759139823,-1.44303418142,-0.299279717521,-1.53905482919,-2.35279481276,-10.9607447421,-7.53038448397,-3.98975325106,-0.192375342697,0.309913373621,-1.28889522136,0.0464736211722,-2.13481528942,87.2810416678
off_to_on,-0.68759762271,-0.474937571355,-0.473010762785,-0.809376642157,-1.61123783673,-8.9497031572,-6.8007465326,-3.34158732234,0.359260634656,1.49462395398,-0.212949217148,1.03724966135,-1.75661333238,90.9095937192
off_to_on,-0.147213387205,1.08146172644,0.00617602180587,0.107120542856,-0.386411645578,-4.44591344482,-4.17421468017,-1.75496194804,0.803854110472,2.72140836863,1.17182415968,2.15971284829,-0.563411616129,69.7137394979
off_to_on,0.912395322821,2.84734406357,1.14162758132,1.05750850387,1.10038809821,1.45878852243,-0.160433999827,0.573889125606,1.09350384364,3.80349209719,2.50014142942,3.20141728935,1.08147145632,28.8213312277
off_to_on,2.15490228396,4.27748560666,2.6016175404,1.87067709973,2.52256194707,7.25179153961,4.26118239772,3.17095984677,1.21476544206,4.45857808016,3.37444076726,3.85280700105,2.61654948506,-21.038780341
off_to_on,3.10120537516,4.83248411117,3.8215896146,2.3868681284,3.5269871076,11.4227932407,7.89817436301,5.37992830749,1.17893685255,4.38883538594,3.48593525415,3.79985987917,3.47682637114,-66.4961132313
off_to_on,3.30426389335,4.16824819818,4.20759288797,2.48883160848,3.8294696068,12.8837343009,9.69239245427,6.53985144982,1.0093250377,3.39797971401,2.71630463404,2.84795385394,3.2969418524,-95.2358678299
off_to_on,2.5240521941,2.27810302786,3.36979035054,2.12918540859,3.29927024913,11.2615519281,9.05029192979,6.19429067418,0.731582411726,1.50223264858,1.18770724591,1.03190843477,2.05056619788,-99.3853676591
off_to_on,0.838569562744,-0.464812135064,1.30076355306,1.34775975537,2.00658194976,6.98251882043,6.04753499595,4.26302144223,0.370754864058,-1.01208813716,-0.756284780782,-1.33495219609,0.074915031878,-77.6513737525
off_to_on,-1.35217361507,-3.38638827038,-1.57056281537,0.273159803278,0.216629413505,1.1329240081,1.43542205707,1.11278465197,-0.0451050421337,-3.6172619349,-2.63574285733,-3.70350666221,-2.03112043535,-35.6402512503
off_to_on,-3.43554246055,-5.69370581242,-4.47714150516,-0.894956469681,-1.6706099193,-4.85219888829,-3.56104862585,-2.50773354327,-0.478377179859,-5.66339777766,-3.96249443229,-5.42358828248,-3.60240042328,15.6919521433
off_to_on,-4.77566640764,-6.70748988374,-6.53921813348,-1.9222938866,-3.21986555395,-9.57388352072,-7.5957602667,-5.65992770428,-0.877660239952,-6.55924060859,-4.37511466421,-5.93660101895,-4.13031031886,63.0013607242
off_to_on,-4.92067528191,-6.07303326877,-7.04623809535,-2.58927108189,-4.07201056413,-12.0158497437,-9.59641789279,-7.48167627506,-1.18037958279,-5.95988279251,-3.74198211023,-4.96610605981,-3.43617309702,94.1041180073
off_to_on,-3.75796060419,-3.88195222858,-5.70192287054,-2.7427663135,-4.03628502198,-11.7625384762,-9.07798584392,-7.44688509275,-1.32371183002,-3.89854839739,-2.20235218784,-2.64000100261,-1.73490592368,101.152311559
off_to_on,-1.56394028828,-0.66349874031,-2.74809712712,-2.33706821115,-3.13747811488,-9.04411912126,-6.27598070364,-5.53448360048,-1.26142261557,-0.813138402192,-0.133000347522,0.505176690696,0.433894428892,82.6080551602
off_to_on,1.07041360692,2.75555160508,1.07914095867,-1.45173088413,-1.60533515835,-4.6175839324,-2.05892588348,-2.24901979261,-0.98102833323,2.55006095449,1.95075544932,3.65115357854,2.38450700834,43.5279999333
off_to_on,3.41565555351,5.48213185319,4.75268462353,-0.278893222938,0.189765967959,0.463314047401,2.34939318255,1.51863262753,-0.51459090736,5.33336463191,3.53213676245,5.92550958698,3.51246861357,-5.87209292367
off_to_on,4.82510713019,6.81004379822,7.25597795372,0.919448449242,1.83553520466,5.11486995431,5.74647343574,4.75023738638,0.0620069702547,6.80888905831,4.22983645732,6.66293409042,3.49322105988,-52.9540289523
off_to_on,4.92999736311,6.41874132708,7.88841095129,1.87486708259,2.9823854526,8.45608589695,7.30514040328,6.59904406637,0.642766154453,6.59055398284,3.89682254055,5.61733035968,2.38467036834,-85.9509735643
off_to_on,3.74628664364,4.45836347445,6.47769555036,2.38028781528,3.42501324706,9.95933799721,6.79439438649,6.63495623051,1.11521452072,4.75026499307,2.65414654269,3.05353875065,0.599783743285,-96.9512895466
off_to_on,1.6605082543,1.49705795484,3.43178324614,2.34317575393,3.14014743415,9.50264297052,4.60317553535,4.95944269684,1.38732756845,1.80046975476,0.851513539246,-0.31624086227,-1.23973674313,-83.8097021586
off_to_on,-0.698241145396,-1.65095769835,-0.385699019335,1.80827893424,2.27351198247,7.33508220815,1.56967969818,2.15585210892,1.40969606703,-1.45311965257,-1.03293891129,-3.53666661708,-2.51707134831,-50.5214953791
off_to_on,-2.65650033354,-4.16232696492,-3.91621544677,0.942400909002,1.08409366581,3.98337349944,-1.31783794323,-0.905896486056,1.18632952938,-4.14411146615,-2.52441688681,-5.69308184506,-2.8273549975,-6.00662264137
off_to_on,-3.69997789902,-5.43414809263,-6.22038655404,-0.015086141246,-0.134615914264,0.13054473673,-3.24397624346,-3.34480494657,0.771179884208,-5.5923231439,-3.2774238426,-6.186610469,-2.10799870346,38.333775539
off_to_on,-3.6182665366,-5.23880004447,-6.74724961856,-0.821618116757,-1.13194338965,-3.50907298577,-3.80588850308,-4.53485805928,0.252089364885,-5.49032652487,-3.16118674802,-4.91356899016,-0.649800752999,71.6139937539
off_to_on,-2.54814698594,-3.76209937615,-5.47723825107,-1.29980273447,-1.75443830576,-6.30402306816,-3.09672865988,-4.27786205735,-0.272262418958,-3.97508006619,-2.28233503725,-2.29229563549,1.01186580524,86.2112649482
off_to_on,-0.907345473587,-1.52020027082,-2.89964210063,-1.3838348914,-1.96507907602,-7.8011809546,-1.61665975137,-2.83244375678,-0.715070104604,-1.56691666297,-0.941090775632,0.870612942472,2.28555273795,79.5502428448
off_to_on,0.753997676349,0.812506787263,0.16133347457,-1.12979607348,-1.82701978536,-7.79559765338,-0.0545905668781,-0.797293595589,-1.017299782,1.00055482929,0.463779043522,3.63121502331,2.72569288898,54.4894529149
off_to_on,1.9322528339,2.60741059416,2.81099380853,-0.687238390449,-1.46241018416,-6.36505210173,0.974864952746,1.10581826911,-1.15333432318,3.00371344139,1.55199419873,5.19594996173,2.17930364996,18.2665552542
off_to_on,2.32133931597,3.4548184696,4.35281396775,-0.242097136864,-1.0030730568,-3.85785852967,1.14478949859,2.27334213815,-1.12687063947,3.93595298048,2.06642899973,5.15557555112,0.829862950851,-19.6453998252
off_to_on,1.89045424607,3.25746273521,4.47843886015,0.0495421399304,-0.549982044085,-0.826502068515,0.508650973316,2.40578943275,-0.960877934017,3.63783882462,1.93610057088,3.5940216711,-0.872604158476,-50.1311787543
off_to_on,0.869691512908,2.22365958632,3.3257074776,0.114271115049,-0.153130270892,2.08867486242,-0.552040028071,1.58107059261,-0.686879736792,2.31677186214,1.28153699787,1.04269079615,-2.36733032806,-66.7385003385
off_to_on,-0.344547422477,0.771630907889,1.39621477966,-0.0171652695946,0.185139770581,4.30496876791,-1.49683285887,0.198681297864,-0.337998542519,0.458135568159,0.36411072689,-1.69933939201,-3.16897830204,-67.0754616439
off_to_on,-1.32800685259,-0.617548347293,-0.63136089677,-0.226885815453,0.48878854888,5.43636670414,-1.8442756674,-1.17833746388,0.0523955367953,-1.3376757719,-0.502701060884,-3.81740324196,-3.021241396,-52.9764855152
off_to_on,-1.76382650961,-1.5488831365,-2.12578929635,-0.359134956518,0.779802339358,5.38501076102,-1.35731429016,-2.02477139814,0.447757890999,-2.53857494452,-1.05174886753,-4.72421011136,-1.96923495368,-29.4944339879
off_to_on,-1.53280355188,-1.8192296325,-2.69250785554,-0.284160640115,1.05523552417,4.35283139446,-0.13085086336,-2.02868097934,0.804829213347,-2.82924492736,-1.1403886838,-4.21974893859,-0.331928277564,-3.1241077192
off_to_on,-0.734959879529,-1.45285393104,-2.27146727599,0.0463001535555,1.27856175201,2.76396650459,1.44553098648,-1.1849755886,1.07364041144,-2.18483127254,-0.785903814313,-2.52481431352,1.40987588781,20.1327435036
off_to_on,0.357553177111,-0.664240189196,-1.12122309799,0.572337017858,1.38820540936,1.11869196177,2.83091018777,0.217952954644,1.20364556665,-0.855571644502,-0.149581828765,-0.187162855306,2.76792062892,36.251167753
off_to_on,1.39503878399,0.231780964425,0.295079491821,1.13858484016,1.31953003601,-0.174022835335,3.52707620232,1.70675038321,1.15558109919,0.724872456328,0.523178964408,2.10122206468,3.39077595576,43.806173367
off_to_on,2.05908805734,0.928750933078,1.47650829514,1.5432371699,1.03179611426,-0.926625285369,3.2528830923,2.78490884435,0.915528374646,2.07439823814,0.986244114617,3.71324567474,3.1536753346,43.6535553402
off_to_on,2.15214950746,1.220738173,2.04620365997,1.60735279928,0.530121827123,-1.21671939881,2.03907690359,3.09212774067,0.505767316333,2.79946378163,1.07272700965,4.25753679911,2.17173327966,37.9248299912
off_to_on,1.64432843049,1.05215452312,1.85786657848,1.24088561912,-0.12551485573,-1.3249437521,0.214629903027,2.5109781866,-0.0127489532575,2.69712033593,0.746779028117,3.66469369075,0.741611172225,28.8210167849
off_to_on,0.669539786659,0.515837537234,1.0191976486,0.482336245724,-0.82769199283,-1.58732212031,-1.70537133726,1.19182969385,-0.549037454103,1.79882466119,0.111991681674,2.17342280263,-0.760949926692,17.726780097
off_to_on,-0.521384209742,-0.192943350014,-0.166141165451,-0.502621871443,-1.44353669076,-2.2177831441,-3.18730165712,-0.504623233806,-1.00079783706,0.350572907586,-0.624819421946,0.232937950453,-1.99007351028,4.99946690737
off_to_on,-1.63244799775,-0.84664263625,-1.31091624706,-1.46457237923,-1.84511564213,-3.17299928987,-3.84326736513,-2.12237124388,-1.27840961397,-1.25972588163,-1.22178190998,-1.63942779032,-2.71147811475,-9.51947148607
off_to_on,-2.39749773753,-1.25552947796,-2.06997871266,-2.14272458123,-1.93989404505,-4.12093972896,-3.53884330259,-3.24301631955,-1.32718920724,-2.60560661571,-1.47985772513,-2.99913208089,-2.83814060139,-25.5518192012
off_to_on,-2.64005990571,-1.31723600022,-2.23893024049,-2.34326110619,-1.6933496659,-4.5382935931,-2.4142370409,-3.59635639376,-1.14104825541,-3.32974231658,-1.30581969403,-3.57557477789,-2.41979751968,-41.4891969036
off_to_on,-2.30684423051,-1.03461317182,-1.79908466801,-1.9985322046,-1.13834991755,-3.91216051529,-0.820074624723,-3.12008805768,-0.763285111341,-3.23136375263,-0.740951756531,-3.31336713894,-1.60133421587,-54.0754311686
off_to_on,-1.47184238615,-0.501804699266,-0.902243911583,-1.18818569743,-0.369525929246,-1.97647269039,0.803281376798,-1.95859628372,-0.274359502073,-2.31495998885,0.0527641196894,-2.35421125582,-0.571519030067,-58.9745398071
off_to_on,-0.314409760455,0.132454943297,0.191739840629,-0.115784526401,0.475511827357,1.10843609663,2.05896553028,-0.409227673826,0.2293306156,-0.790472208124,0.84382186518,-0.975832031948,0.479722105326,-52.1721338081
off_to_on,0.921504877718,0.710541155932,1.19916385689,0.951097866759,1.24354979753,4.71317794993,2.69691877753,1.16281845667,0.65892871505,0.975102148,1.40310182834,0.488359666499,1.38704719351,-31.7741740333
off_to_on,1.97834556041,1.10693129531,1.89046699358,1.75778371853,1.79577357561,7.86996313833,2.66016669503,2.41544568268,0.951791312028,2.54503415719,1.57382377954,1.72671574839,2.02073547686,0.485610559524
off_to_on,2.63727486984,1.25460291399,2.14070688837,2.13206173786,2.03436262899,9.55100858764,2.06909892326,3.10424026507,1.08041276122,3.52070239169,1.31792015937,2.50888592088,2.29176638011,38.7246237678
off_to_on,2.76307976278,1.15257779313,1.94333518044,2.02541772107,1.92065004031,9.01091153224,1.15905667009,3.12655819234,1.05037834956,3.64526503582,0.724930864039,2.72079262681,2.15928066374,73.8014456049
off_to_on,2.33330011337,0.855834161152,1.39074565024,1.51501843601,1.48156279279,6.07686791436,0.198220396836,2.53031875149,0.889990778132,2.87667806188,-0.0186182054714,2.37460130565,1.64251744715,95.5685160405
off_to_on,1.44463529784,0.452830167795,0.634064012751,0.768754991653,0.803241743326,1.278280459,-0.586671883905,1.49049832227,0.636793756777,1.40804757729,-0.689116893316,1.59612229645,0.831240565634,95.9199384675
off_to_on,0.293035665418,0.0379388770553,-0.1621862644,-0.0126127287134,0.0131138776127,-4.24491919906,-1.05787176301,0.261465258646,0.32659552498,-0.375333188868,-1.09590664759,0.592794305703,-0.11628537641,71.691752105
off_to_on,-0.870535342367,-0.313687457937,-0.857306207572,-0.655818629788,-0.746028323644,-9.04275247754,-1.18126535654,-0.883909631638,-0.011254998395,-1.99624923765,-1.13943948178,-0.393789335992,-0.997084074934,26.394600425
off_to_on,-1.79983318203,-0.562547146314,-1.35614850446,-1.05848687475,-1.34457929135,-11.7784184386,-1.01317763845,-1.71613453089,-0.351822873013,-3.01921460265,-0.839526718198,-1.14425641482,-1.60997510117,-29.9624948558
off_to_on,-2.31378005609,-0.708586341933,-1.61447092783,-1.20355236514,-1.69108722811,-11.6406806347,-0.67034417918,-2.09946009039,-0.668507642652,-3.18016368091,-0.325167409256,-1.51597739443,-1.8140684024,-83.1291732791
off_to_on,-2.34045867267,-0.781630494652,-1.63187997767,-1.14372468976,-1.74793804409,-8.60870951249,-0.294070126589,-2.01933614703,-0.927581789148,-2.47142497497,0.210455265297,-1.48137559464,-1.57909344483,-118.438791708
off_to_on,-1.93054709948,-0.821397624365,-1.4384247406,-0.965523129695,-1.53411379591,-3.4770339584,-0.0158661339453,-1.57904328873,-1.08778764502,-1.15090953032,0.575278618654,-1.1358218411,-1.0055070463,-125.118383287
off_to_on,-1.23465656977,-0.853539381862,-1.0804782143,-0.748700550278,-1.11466908793,2.3737903851,0.072153572071,-0.964051096878,-1.10716861476,0.333910052556,0.643012003269,-0.667074038721,-0.300310641259,-99.750547352
off_to_on,-0.450823741095,-0.870427668088,-0.609666713161,-0.536947247994,-0.580271760419,7.39007915874,-0.0596196470124,-0.381520904794,-0.955908657481,1.48886799824,0.396266269474,-0.290075313315,0.28955768025,-47.7329285494
off_to_on,0.240648157208,-0.825287798607,-0.0764683468661,-0.329969341963,-0.0231223558383,10.3082861104,-0.36481588356,0.00865081900335,-0.630810672862,1.93960744456,-0.0660975248814,-0.164962758408,0.566377445231,17.8455743839
off_to_on,0.73212818561,-0.645025151516,0.471555101183,-0.0978408316132,0.483312670534,10.5180105705,-0.722882794014,0.149229993806,-0.16548543431,1.56597613679,-0.560490103814,-0.32664267546,0.460990856156,79.6955344786
off_to_on,1.01302986551,-0.26094831598,0.987982927269,0.190458422286,0.894666825289,8.20849486626,-0.962201528206,0.106493405138,0.368921956737,0.554520574143,-0.879726969474,-0.655617186186,0.0692482937395,121.203367751
off_to_on,1.15397794384,0.350889631145,1.42404055016,0.537807493887,1.19365074478,4.25687320106,-0.906446065995,0.0446479578221,0.874734009386,-0.656216102757,-0.864775006635,-0.909062331254,-0.374587001251,131.235494691
off_to_on,1.25664593481,1.13420199263,1.72586973128,0.902405442534,1.37788831821,-0.095102762599,-0.437378683901,0.157469389581,1.24868608168,-1.52665478632,-0.464066446265,-0.81034321446,-0.584605542764,107.392623225
off_to_on,1.38969429308,1.93832632718,1.83550750196,1.201944767,1.44401802695,-3.65810770282,0.443085090436,0.577947088551,1.40731457146,-1.61650721416,0.239605857772,-0.170915450337,-0.342506836187,56.693461196
off_to_on,1.5387711575,2.53783927923,1.69824120868,1.3380461928,1.37633585478,-5.65993543996,1.57563328834,1.29889592168,1.30930289209,-0.76516419378,1.04513732939,0.999610420702,0.395010552678,-6.53842344744
off_to_on,1.59517232792,2.68822584717,1.27740209686,1.23224424002,1.14681924522,-5.93582778476,2.65379490253,2.13883471534,0.96782838312,0.816375496145,1.68946008169,2.44291693487,1.44589798533,-64.9341723321
off_to_on,1.39366098864,2.20633925787,0.574594763338,0.859907286504,0.728813081084,-4.88971200916,3.29232873027,2.77539307851,0.448868585612,2.58455203059,1.92859635661,3.69333483049,2.43747286416,-103.162752211
off_to_on,0.789724927953,1.05196171734,-0.35043808976,0.268751282806,0.120459502965,-3.25700134774,3.14415108285,2.84555151131,-0.144262983768,3.83170089874,1.61911965542,4.21253520785,2.92398399513,-112.267826564
off_to_on,-0.252146698597,-0.619368653038,-1.36908277111,-0.426076679225,-0.631532665009,-1.77142029073,2.03426766588,2.08543624844,-0.695661652373,3.93471547592,0.774172884348,3.58225562181,2.55201083077,-91.9478201414
off_to_on,-1.59683943898,-2.45822832975,-2.29129565125,-1.07002082039,-1.41956304396,-0.870016351836,0.0645657980495,0.462103324311,-1.10367808541,2.60069609878,-0.425371057653,1.69098112472,1.21589606219,-50.1458518578
off_to_on,-2.93614631694,-3.98940121574,-2.89657940349,-1.51163922213,-2.08384442006,-0.550633107165,-2.3562246602,-1.75529887404,-1.30239808739,0.0196409734409,-1.67117776389,-1.15779701326,-0.857539972506,-0.184341567186
off_to_on,-3.85866042661,-4.73615299259,-2.98640744932,-1.64582240974,-2.44510533686,-0.432596474392,-4.58459116573,-4.02315157475,-1.27239669275,-3.14039860972,-2.61011507104,-4.26978447948,-3.1358436085,43.5506232043
off_to_on,-3.97781694016,-4.368742926,-2.4468035094,-1.44362170089,-2.35517368304,0.0112829870558,-5.91081549635,-5.65675899533,-1.03907376104,-5.90938454892,-2.94660458593,-6.72905203755,-4.92287779017,69.9496619331
off_to_on,-3.07830309969,-2.83105689766,-1.3022344168,-0.959241963966,-1.75097287061,1.15313283835,-5.78192207381,-6.03819877781,-0.660755738988,-7.31625273805,-2.53455942339,-7.67277487967,-5.57728670456,74.1792819267
off_to_on,-1.2276779833,-0.399265048479,0.2602731414,-0.312548500936,-0.693207439444,2.97034393933,-4.00973004783,-4.83543876688,-0.211498603144,-6.72025995028,-1.43032383843,-6.5882278255,-4.73724566103,58.4791550419
off_to_on,1.19443287845,2.35721866425,1.91250823695,0.346459454658,0.626901793786,4.97669938215,-0.888948545554,-2.15681490205,0.235693058977,-4.06002029362,0.111542971768,-3.53015296913,-2.47267309165,30.6635835754
off_to_on,3.57271444635,4.71302530195,3.2549740405,0.879199149704,1.92092808258,6.36612213849,2.82891650024,1.42161837456,0.620773092908,0.072092229345,1.70124378633,0.826906265468,0.694614024157,0.993963812603
off_to_on,5.22505762079,5.98966124501,3.92170381507,1.19288338097,2.87197156072,6.32446754523,6.11672615055,4.98084687814,0.901836973207,4.56831153199,2.91925154126,5.33760926038,3.92024659907,-21.4135498056
off_to_on,5.61548146187,5.76513163082,3.69143668208,1.25789663362,3.22140898868,4.39244246514,7.96601229507,7.51031950015,1.05455655165,8.12389399351,3.434495146,8.70549130892,6.2825478815,-31.4051212215
off_to_on,4.54130176916,4.02282915866,2.56935287551,1.10479119734,2.84799967222,0.733356213992,7.70829956818,8.21421893321,1.06876763913,9.63937047477,3.1003909706,9.88044601184,7.06788972764,-28.9437189702
off_to_on,2.22691674497,1.18562663705,0.808109741226,0.804587646467,1.81338596534,-3.81368376372,5.25862762528,6.77544056726,0.945469774241,8.57698419409,1.99947220572,8.40655241574,6.00260701766,-18.3528374687
off_to_on,-0.716501680502,-1.98560240744,-1.14656461048,0.441185026669,0.356577301288,-7.93916302741,1.19254023529,3.48661435578,0.696305251152,5.15135943629,0.422176924814,4.6003032838,3.35202843213,-6.08990124599
off_to_on,-3.46221972669,-4.60640712064,-2.77632849439,0.0861942728071,-1.16477495783,-10.2740486805,-3.38375066803,-0.80411973785,0.345500928959,0.285694269501,-1.21493009572,-0.5107278062,-0.150508376634,2.0173790015
off_to_on,-5.22066246496,-5.9341554022,-3.64344513073,-0.215826863414,-2.37134777289,-9.87023853596,-7.14377252211,-4.92591903447,-0.0677157567037,-4.65872959225,-2.48765346507,-5.48125913735,-3.52520635119,3.00776478317
off_to_on,-5.4923697894,-5.60112260353,-3.52861054159,-0.448728954839,-2.96907365779,-6.57817405952,-8.94273475111,-7.72981453112,-0.489155134478,-8.29592079112,-3.08399800637,-8.88697097971,-5.8471055295,-2.30546358746
off_to_on,-4.23489260965,-3.73748341826,-2.50591106046,-0.61520780145,-2.83306910511,-1.17513881625,-8.185114368,-8.43781183967,-0.854536156119,-9.63846855242,-2.88928707615,-9.76861910077,-6.52834879114,-10.0140118455
off_to_on,-1.88270693259,-0.938730228288,-0.925095042905,-0.722699744906,-2.04169444873,4.82059800207,-5.03560681415,-6.88357333529,-1.09971568539,-8.39304505995,-2.01117126615,-7.9346881869,-5.48838700724,-15.0263880192
off_to_on,0.792342418787,1.91820386044,0.698695799365,-0.772019988592,-0.849179949585,9.60487141361,-0.39649805157,-3.56421491985,-1.17440173293,-5.03248710967,-0.737887343223,-4.01914953953,-3.15705950975,-13.4004738362
off_to_on,2.93722016524,3.95475985243,1.85506416993,-0.753860403347,0.39504461641,11.668140899,4.3516988131,0.516456364474,-1.05553633497,-0.623686153963,0.55593010847,0.728486491583,-0.312678750953,-4.15084793161
off_to_on,3.90497418072,4.5763420109,2.21222257045,-0.654146789631,1.35464259139,10.3060498853,7.77113092185,4.16398685306,-0.755906576613,3.52755477381,1.52521316323,4.85295079131,2.18635202897,10.1867189655
off_to_on,3.47353990889,3.6679303713,1.73337289436,-0.465029653566,1.80730569276,5.8807416408,8.81745038477,6.36584295655,-0.324575435141,6.29299133439,1.95511160919,7.16582500948,3.68219471783,24.4541814116
off_to_on,1.91748942975,1.63103892819,0.691083311878,-0.195724585395,1.70568670036,-0.266037804207,7.17481259127,6.5985135172,0.161884640529,7.0599320078,1.81493736516,7.1212827122,3.91405168089,32.8806466816
off_to_on,-0.0959032343293,-0.754738741609,-0.430769234821,0.122471532833,1.17911020681,-6.22923425831,3.36343164023,4.96933789748,0.615463353766,5.88140484225,1.24997286453,4.96799581634,3.06588883479,31.4166378823
off_to_on,-1.75280253645,-2.60250544439,-1.11760015427,0.44003675704,0.476921975134,-10.1529600339,-1.41939982024,2.14954650033,0.955824570969,3.39700659109,0.516627510691,1.62779586847,1.65529867191,19.4771420592
off_to_on,-2.39539854196,-3.23080102184,-1.02514276305,0.701062100858,-0.125795941631,-10.8354661197,-5.67672198663,-0.873954661277,1.12721988876,0.563775289018,-0.114757746204,-1.65281015024,0.310687140044,0.396533565481
off_to_on,-1.77205462557,-2.41031377343,-0.127090528428,0.858651400718,-0.426689174272,-8.12208836867,-8.08697943612,-3.13945772346,1.10873151361,-1.69871549362,-0.454836011325,-3.75251690617,-0.476715240311,-19.6164402513
off_to_on,-0.141679316726,-0.455960797122,1.24979344224,0.887858318471,-0.364254510461,-2.95181398642,-7.92268427031,-4.02561990251,0.91557693427,-2.81893105749,-0.454994254937,-4.06560536867,-0.532435096511,-33.6665090462
off_to_on,1.81094502953,1.87313419864,2.52471712073,0.791132160957,-0.0321669468746,2.95944061937,-5.27644151443,-3.43435880547,0.592029974084,-2.73120051213,-0.212123402872,-2.69435832943,-0.0439535684533,-36.7054518531
off_to_on,3.22442984592,3.63703352018,3.06940789003,0.594404463501,0.36429024847,7.69170419447,-1.02150551416,-1.78377054101,0.198935754941,-1.83288653459,0.0813980736739,-0.377348430233,0.542481137753,-27.4678703654
off_to_on,3.38878590631,4.05437767468,2.45349659281,0.335909795255,0.59298287979,9.75548409628,3.478206593,0.178418161134,-0.200001728079,-0.769385385746,0.222555632522,1.81617981153,0.730440428258,-9.06911602922
off_to_on,2.03378191774,2.80020418847,0.640137785122,0.0528823462258,0.489326951275,8.57334655505,6.81122771394,1.66730096272,-0.549326144353,-0.139122501269,0.0848986942747,2.91008652968,0.203630202786,11.9938005099
off_to_on,-0.531413140685,0.154539681335,-1.94567234787,-0.227939190795,0.0252933199934,4.64798288441,7.96799897928,2.15017634701,-0.808113487056,-0.238062432685,-0.325160652979,2.40419747357,-1.01474533043,28.1137006059
off_to_on,-3.4869442863,-3.05780812809,-4.51338363859,-0.491928893808,-0.672851630663,-0.634733901982,6.65012129483,1.52843846401,-0.951368606744,-0.944435760331,-0.864811248068,0.472280945895,-2.53990100976,33.3185856119
off_to_on,-5.76576309085,-5.72500569426,-6.14823016208,-0.730019572152,-1.36532287816,-5.49353678324,3.34207767317,0.149749853326,-0.96825751095,-1.78700861543,-1.30637872159,-2.10034501683,-3.75480009673,25.50199681
off_to_on,-6.42684437407,-6.82259891152,-6.12399169231,-0.927774199097,-1.78398275452,-8.35797286403,-0.871026775897,-1.34782907191,-0.85964629671,-2.16649531178,-1.42554092933,-4.2179808896,-4.04629128236,7.31477896445
off_to_on,-5.0091814514,-5.77954760138,-4.18192378043,-1.05647159898,-1.73135348561,-8.38370983984,-4.67163245342,-2.29618876358,-0.636911869788,-1.63810063781,-1.0935368748,-4.90286170819,-3.06023989277,-14.6404140194
off_to_on,-1.73815583399,-2.70851125364,-0.674248629367,-1.07241849544,-1.15748773027,-5.70404815031,-6.93632830789,-2.26124750308,-0.32256191127,-0.137610496856,-0.338182884238,-3.68950825312,-0.876797582409,-32.0694052599
off_to_on,2.49764670355,1.58535735145,3.48949147141,-0.927588018515,-0.186295223169,-1.3404615969,-7.07874655471,-1.21086673862,0.0484324854532,1.94581141042,0.650996705268,-0.834008103842,1.96697515138,-37.9346433865
off_to_on,6.40356355467,5.83020957611,7.09061306486,-0.589708239926,0.919116996977,3.18475912969,-5.20040636865,0.475247785875,0.428737766659,3.8873877457,1.57825197702,2.74621380452,4.62552044142,-29.0630582409
off_to_on,8.6921440772,8.68142834335,8.97388583326,-0.0650276157278,1.84065684072,6.38871456163,-2.01034255758,2.15494164518,0.762274658651,4.89647923527,2.14007450233,5.78714264143,6.21938850053,-7.48196153777
off_to_on,8.51690960973,9.15788029673,8.42715992037,0.585750176001,2.30970984931,7.32773507298,1.44607663828,3.17336286562,0.992212745799,4.43690821242,2.13242221497,7.13666365101,6.14234664046,20.025017058
off_to_on,5.77841286242,6.97640532431,5.44116421045,1.2470512228,2.19520009259,5.8849176052,4.14661614257,3.11678747468,1.07229720245,2.47145793587,1.527904591,6.18954008203,4.29124922844,44.0436653189
off_to_on,1.19309731261,2.67045744292,0.756092429645,1.76775820174,1.54446763111,2.75476710884,5.41354409525,1.973572296,0.978658734299,-0.472109671224,0.493635888121,3.13613007671,1.1324529468,55.657166922
off_to_on,-3.90681365493,-2.55206585959,-4.3315100538,1.99771226254,0.563155468429,-0.854900537459,5.09160167225,0.141238226658,0.718352103678,-3.4513308218,-0.658995575603,-1.072948413,-2.42588393966,49.5400527869
off_to_on,-7.9834306522,-7.17120572897,-8.34924377475,1.832050577,-0.457807079796,-3.68390781367,3.53385251818,-1.72254775885,0.331327152537,-5.43109186089,-1.57698370234,-5.04147863303,-5.31807104755,25.9716316368
off_to_on,-9.78172373239,-9.82355771832,-10.1001461415,1.24981182578,-1.2412225634,-4.87038539208,1.41713145275,-2.94804013516,-0.115701259618,-5.66414417222,-1.985638491,-7.41397441193,-6.66764875597,-8.93656412486
off_to_on,-8.735737577,-9.72679572057,-9.04078141273,0.333343671907,-1.61288152556,-4.22907213062,-0.532623964003,-3.10605381062,-0.542530734186,-3.9883542996,-1.78333673811,-7.36058220666,-6.07826350182,-44.9258198436
off_to_on,-5.15682672411,-6.92299877396,-5.46200899535,-0.740178427694,-1.54959567511,-2.26456774117,-1.79861649877,-2.16916967298,-0.87261421776,-0.923284141387,-1.07652271441,-4.88423059036,-3.76745753608,-70.6891416463
off_to_on,-0.139566253976,-2.26232758819,-0.410007926877,-1.7356623975,-1.17036116098,0.0723172230414,-2.22243365396,-0.520331443602,-1.04946774584,2.48143738861,-0.141070815055,-0.834921480234,-0.495356776025,-77.4193501651
off_to_on,4.78534668565,2.86679996681,4.63115728525,-2.41701357185,-0.676409765524,1.78247185577,-1.99887664465,1.19440993693,-1.04792452409,5.00267313187,0.677561534639,3.37963955573,2.6890104742,-61.6855388723
off_to_on,8.137666324,6.97256842572,8.19610755415,-2.60879738339,-0.264898332283,2.21434075708,-1.53236377279,2.31314776386,-0.877440924957,5.68348158008,1.09041498263,6.28792982341,4.79759202454,-26.7189568935
off_to_on,8.95398089828,8.91855936286,9.28837336602,-2.24506126758,-0.0504554374367,1.30727317071,-1.22306004343,2.41156620602,-0.577141317208,4.19771993283,0.971897310092,6.87827425613,5.2295543501,18.3184403214
off_to_on,7.08180380885,8.25969840193,7.68025892002,-1.39080095704,-0.025191652934,-0.406302798351,-1.27456725642,1.46629993198,-0.204741045412,1.0019302007,0.407761915798,4.96426051628,3.96219297667,60.8858994362
off_to_on,3.20773439301,5.35119132042,3.96725614277,-0.229190471861,-0.0724376286467,-2.03501313354,-1.60225298698,-0.134178251753,0.176939092685,-2.79101325617,-0.335090863089,1.25846965102,1.54199741529,88.6810200564
off_to_on,-1.38476544651,1.20232712444,-0.63787995338,0.982460043588,-0.0281942764666,-2.70425346924,-1.87808799177,-1.73604035006,0.511951954439,-5.78321441243,-0.90822374047,-2.87547971246,-1.11898983134,93.245224466
off_to_on,-5.24300841076,-2.8693916349,-4.70154241046,1.97606550713,0.234844632276,-1.92600697119,-1.69155245782,-2.66943177235,0.7589159915,-6.78449307874,-1.01614717025,-5.90723949747,-3.06877242296,72.488927242
off_to_on,-7.21370883714,-5.66516320347,-7.02526927284,2.53812724192,0.735433204436,0.18126382322,-0.758725211404,-2.50710997249,0.89357528137,-5.2544059082,-0.537062650347,-6.68935510477,-3.64838833841,31.3956866905
off_to_on,-6.79824167906,-6.4719889123,-7.01320388651,2.55960144211,1.35502081229,2.90905548752,0.90868800025,-1.23490604945,0.9073156644,-1.53322826201,0.41567121482,-4.87618959251,-2.7162398267,-19.2944981087
off_to_on,-4.28208778371,-5.25410032533,-4.8347455067,2.05769091516,1.86702802235,5.20829930811,2.94821676494,0.730905108915,0.803903894867,3.22880083899,1.51719326883,-1.06123010328,-0.686841621976,-66.0348949335
off_to_on,-0.604385587754,-2.61529047249,-1.33572941762,1.16527921803,2.01664953,6.08050941435,4.73563217722,2.68736495079,0.596740837817,7.43074235947,2.335980646,3.41883410281,1.6272542327,-96.2055742997
off_to_on,2.97913259904,0.443496852596,2.26499711825,0.0927665015706,1.62324442939,4.96548244493,5.59225779541,3.89785458525,0.307885819701,9.55353018014,2.48640489625,6.94672812407,3.31263194009,-101.575324383
off_to_on,5.32000019437,2.88046695871,4.78742378109,-0.92587715424,0.66676934754,1.98061719377,5.03746460929,3.86189605444,-0.0314441380227,8.68681644626,1.7767743147,8.19254352734,3.68551015164,-80.5345097006
off_to_on,5.74396683851,3.95900033436,5.47217142334,-1.68786730206,-0.676703454179,-2.07942173557,2.99274183098,2.50292879638,-0.380523029402,4.86850901041,0.29966195445,6.58792398782,2.53924720642,-38.5040429895
off_to_on,4.24267736299,3.46901497024,4.20829917532,-2.06349939573,-2.06839666069,-5.98697955357,-0.142008202695,0.205393098782,-0.690997257194,-0.884063612581,-1.57095094959,2.5399970177,0.222717532507,13.5590738434
off_to_on,1.43579409296,1.75703057152,1.53840117417,-2.01642702019,-3.10270711137,-8.48567582551,-3.57527631936,-2.31236937102,-0.912421870343,-6.86925733371,-3.2803874027,-2.69032224641,-2.47676389904,62.1194998874
off_to_on,-1.67128298493,-0.433782765243,-1.55157426822,-1.60024554691,-3.43586307542,-8.71334287711,-6.35135259198,-4.24325263444,-1.00131859039,-11.2300256251,-4.26298073626,-7.40398352462,-4.60413885824,94.6618935935
off_to_on,-4.04185690603,-2.24817347229,-3.97943102988,-0.935586029833,-2.90422812464,-6.49620070914,-7.64520543525,-4.96632028345,-0.931809893337,-12.5446637812,-4.12715345399,-10.0302049085,-5.36644020073,102.958593699
off_to_on,-4.94985868788,-3.02392319885,-4.93028606848,-0.176081716116,-1.59065163919,-2.41335992719,-7.02657800746,-4.25394161919,-0.704596324411,-10.2859989734,-2.79496409273,-9.64984016809,-4.40810776013,85.150295258
off_to_on,-4.19616267552,-2.51217322643,-4.11581105522,0.527215683163,0.186361466455,2.38776662382,-4.60436564345,-2.33977384385,-0.350893239457,-4.9993553666,-0.5482527947,-6.29919834985,-1.93840172557,46.1203344581
off_to_on,-2.13553055262,-0.942364998358,-1.84830209305,1.05490066107,1.96015764616,6.55804086351,-1.00259658346,0.172292724254,0.0708905249232,1.85701716774,2.03717805178,-0.955622080254,1.33062906404,-3.89481465839
off_to_on,0.481511604149,1.08178641097,1.08624225586,1.33691293626,3.25344768865,8.96748664945,2.82396034676,2.52086687427,0.485803499843,8.35464277454,4.25193753771,4.78395758101,4.41236042061,-52.0538791158
off_to_on,2.7852765763,2.8102889575,3.70465344846,1.35764887578,3.72174762858,9.03891606111,5.873447584,4.04223000987,0.818018233047,12.6757564426,5.45981991015,9.2172626363,6.36151132413,-86.2697161994
off_to_on,4.08007338819,3.61391439712,5.1546083276,1.15017842587,3.25619342788,6.88876853879,7.38754179304,4.37708787737,1.00744219336,13.6471224441,5.28746925926,11.0688081911,6.57221343498,-98.2909799855
off_to_on,4.05413400016,3.19679332291,4.98431267824,0.782894374422,2.0125662593,3.24076544531,7.05757438002,3.55988300323,1.02273193783,11.0628299019,3.73846068145,9.86613494848,4.96195393179,-85.7130038387
off_to_on,2.84291899604,1.6850599516,3.26940753985,0.342307237154,0.357983393734,-0.842723035775,5.0860122017,1.96762950725,0.867188198261,5.70600257816,1.19695801715,6.04624691244,1.98616919886,-52.422752687
off_to_on,0.937977204685,-0.431576738904,0.564440779643,-0.0847102590693,-1.24600090772,-4.30794059678,2.0929595097,0.157305747787,0.576174264911,-0.921280417258,-1.67953604345,0.773697645215,-1.51416908382,-7.40383584724
off_to_on,-1.01261970281,-2.47701388604,-2.29448835295,-0.426584505384,-2.38459940799,-6.41364112889,-1.09232431625,-1.3406692994,0.20725376809,-7.05990731846,-4.14496930939,-4.45221873822,-4.57576385937,37.7402047828
off_to_on,-2.43300819924,-3.81790821062,-4.46284419668,-0.638527659244,-2.80917028011,-6.8958420283,-3.68119072007,-2.19425338275,-0.173700795987,-11.1950463958,-5.57111248587,-8.26018580052,-6.39851018479,71.8564875928
off_to_on,-2.99576529851,-4.06496500405,-5.34440673213,-0.708226006563,-2.49754244076,-5.95598128786,-5.13622246491,-2.34743426182,-0.506306495716,-12.4447514644,-5.61498875103,-9.78729331395,-6.56365767256,87.0788489923
off_to_on,-2.69081848584,-3.18163607869,-4.75217785337,-0.654702230372,-1.63922990124,-4.10180993829,-5.28277958715,-1.98486140335,-0.745799407217,-10.7327681677,-4.3009571468,-8.86618429982,-5.12317485977,80.6856850124
off_to_on,-1.77622087497,-1.47154260487,-2.93152581529,-0.520334143924,-0.555237551824,-1.92015561196,-4.29996878837,-1.40988624577,-0.867588718571,-6.71964718735,-1.99850072599,-5.98302301826,-2.54483543899,55.5213678674
off_to_on,-0.643697416651,0.541117131954,-0.451474905989,-0.357489113877,0.416544794849,0.124020815096,-2.6110144747,-0.894489646055,-0.866429604919,-1.54326814443,0.691768868372,-2.0500615704,0.455623699464,18.9291675428
off_to_on,0.340775858353,2.28947078735,1.98876211652,-0.212865547025,1.02972975865,1.79039870481,-0.722860991167,-0.566319044331,-0.75212833904,3.52905241413,3.10591372437,1.90782962674,3.13204877567,-19.4442307077
off_to_on,0.958898385919,3.33675427016,3.76943025345,-0.113808777216,1.1958344744,3.04486103284,0.926120667612,-0.37788109589,-0.544417309279,7.42370265142,4.68819129481,5.03929838202,4.90425475502,-50.3117887931
off_to_on,1.18367216481,3.48888646875,4.51076856443,-0.0609275422537,0.9899023844,3.9506730471,2.06398065096,-0.165052268067,-0.26918214885,9.47360350105,5.11995322407,6.84010999062,5.4789407941,-67.1127059062
off_to_on,1.13917116833,2.81807137331,4.14324448491,-0.0299046603187,0.599050451084,4.53675573375,2.60915884891,0.237386901759,0.043110772491,9.48625834369,4.37641478062,7.18401667345,4.8730314581,-67.4409558595
off_to_on,1.00497424617,1.60192974754,2.8805012576,0.0173527604344,0.237420975427,4.7156230665,2.63066399313,0.880072812612,0.357502113097,7.68536294997,2.70508346595,6.23837801124,3.35198721359,-53.2025476404
off_to_on,0.913384722969,0.21039315549,1.11942106057,0.1153641691,0.0611640727954,4.29613094745,2.27526405856,1.63972285043,0.63493092799,4.57924881937,0.541490831165,4.32937782166,1.32012220061,-29.5653076058
off_to_on,0.885904452865,-1.01447076229,-0.690020759321,0.277326387729,0.114490682837,3.08878921603,1.69767413813,2.24755922231,0.834805915008,0.816471159273,-1.60810354241,1.82602627858,-0.793042178481,-3.1253859057
off_to_on,0.834571568391,-1.84530938927,-2.16152328197,0.483665320064,0.32417000956,1.05471805569,1.01959031968,2.39770594551,0.920674005317,-2.92949267319,-3.28409671907,-0.914517186763,-2.61670204591,20.0751901375
off_to_on,0.623354029537,-2.201182482,-3.04609423454,0.682117639861,0.540703715838,-1.57627702447,0.324360599468,1.89094594581,0.868295148684,-6.03541694016,-4.16450656949,-3.54035328688,-3.88007098565,36.0503350042
off_to_on,0.157879498645,-2.12596301999,-3.2537402815,0.800947904174,0.607120222241,-4.28594911664,-0.324461764082,0.750522954027,0.673868837818,-7.97919579326,-4.11508159413,-5.67445806088,-4.41913395099,43.4741312477
off_to_on,-0.540501823789,-1.73445733623,-2.83337862864,0.772219314523,0.427173653136,-6.375726904,-0.862215486409,-0.74539513045,0.359349267087,-8.39192605111,-3.1967383925,-6.91238125512,-4.1690025998,43.313467631
off_to_on,-1.31321193834,-1.15506375185,-1.93134085516,0.55791958033,0.00665513733792,-7.17841217249,-1.2188025129,-2.13776106456,-0.0278379625918,-7.12559402373,-1.63758679297,-6.88443168358,-3.16091832234,37.7658063576
off_to_on,-1.90921437225,-0.49265553295,-0.748166700171,0.169802996684,-0.546791976494,-6.30130286839,-1.33717855122,-2.94637693131,-0.421838729895,-4.3258452041,0.219331696189,-5.38050467244,-1.53078646346,29.0117137072
off_to_on,-2.08045200626,0.178873131886,0.495340639292,-0.324998671152,-1.06342458667,-3.80701646629,-1.2051045767,-2.85652456122,-0.751159724934,-0.474991368277,1.98188898005,-2.49274008027,0.469873297987,18.3231939534
off_to_on,-1.68922849764,0.80110700846,1.58268718607,-0.816344982775,-1.37389145253,-0.253424805239,-0.87993565514,-1.857833109,-0.954153113346,3.6383713061,3.27973492642,1.29524547523,2.48057407839,5.88826300738
off_to_on,-0.781644276199,1.31006186935,2.32375723556,-1.17923274041,-1.36992373756,3.43800359574,-0.486448451865,-0.274609177935,-0.993012510103,7.05160546622,3.83283953472,5.13865384412,4.07537672894,-8.61170745112
off_to_on,0.406805759331,1.62786088026,2.58101743523,-1.30982258357,-1.04071089907,6.25273512387,-0.179369887983,1.33353366651,-0.862323678265,8.85417638163,3.50944462965,8.0087927206,4.84907414134,-24.9775503082
off_to_on,1.52083258327,1.67672707982,2.29980851553,-1.15808445634,-0.472921598511,7.40498560331,-0.0803238729499,2.37119169965,-0.589763169831,8.45549793638,2.36291790925,8.98572157267,4.53075197962,-41.5505168197
off_to_on,2.20703429091,1.41125920818,1.5338074967,-0.7461327189,0.183221485433,6.59863863138,-0.214856063501,2.43520939102,-0.228887488764,5.80948065902,0.63591595834,7.57846233797,3.09003459999,-54.8923282793
off_to_on,2.2424409109,0.853130977519,0.451289251478,-0.165468842116,0.76676862726,4.13161983697,-0.480820737149,1.48343624943,0.153709516147,1.50644936018,-1.27692152812,3.95638767214,0.793279872062,-60.4035073984
off_to_on,1.62009568152,0.108166075953,-0.690104375297,0.446941554782,1.15671346828,0.801138159644,-0.670610397084,-0.126069933722,0.493073018563,-3.32562466547,-2.90841601216,-1.00999767798,-1.82395955304,-53.8143313764
do_nothing,0.556964314141,-0.64846463053,-1.60228088921,0.94679791435,1.30204415554,-2.36191097905,-0.548656998496,-1.74949844607,0.738384251097,-7.30865953552,-3.82883096194,-5.94342966893,-4.07675271081,-33.082276813
do_nothing,-0.581281809159,-1.21962306945,-2.04702143088,1.22293939858,1.22241453584,-4.43842534949,0.0396457927048,-2.69121278922,0.860359780991,-9.21982539911,-3.76207654038,-9.35193434284,-5.31818652283,0.0293772263042
do_nothing,-1.41195592375,-1.45141855106,-1.91296092417,1.22732422883,0.983212025959,-4.92473428087,1.07012654564,-2.47454383452,0.852569401344,-8.39143686479,-2.67582514055,-10.1036307201,-5.14058658875,39.4166925006
do_nothing,-1.67448439683,-1.29119727085,-1.260316118,0.985065746198,0.658931021938,-3.88605726021,2.2985576677,-1.04749456207,0.727712216489,-4.96852455084,-0.814472722158,-7.82668651459,-3.52393166476,75.5802026894
do_nothing,-1.32421130467,-0.813153723501,-0.311954998451,0.581747333538,0.302417064007,-1.90496349954,3.30507674121,1.15997902322,0.511263212344,0.0780023903171,1.3438105836,-3.08823684016,-0.875028558162,97.9886301289
do_nothing,-0.544790753558,-0.197416438813,0.612907496824,0.132894609835,-0.0665516791396,0.155454423615,3.62239136047,3.35907326806,0.235180625892,5.20951861656,3.20352738588,2.72815166214,2.06705777553,98.2591561847
do_nothing,0.326044981975,0.333359549411,1.20433429445,-0.253562548563,-0.449752816233,1.4857586458,2.91101137068,4.67134732944,-0.0664425890093,8.78426225922,4.21537998192,7.82686931496,4.43987675623,73.1662644088
do_nothing,0.929276956391,0.59778132649,1.27127827241,-0.508874497832,-0.843755424678,1.63729035148,1.11995463327,4.45289650605,-0.359351826188,9.58683150023,4.04171863179,10.5667983995,5.52036128661,26.4184136839
do_nothing,1.02507688835,0.527497291047,0.814654797899,-0.61860480704,-1.21329991077,0.687130243691,-1.43218677951,2.55658426487,-0.609716416684,7.24843684299,2.67263896102,10.0063543969,4.95812917516,-31.559885448
do_nothing,0.586699296164,0.196998075209,0.0335985640506,-0.616998850666,-1.48093076495,-0.801957907157,-4.09939822884,-0.568282336903,-0.785071154793,2.40973698053,0.45174209423,6.24066941111,2.9004651414,-86.0052132248
do_nothing,-0.188948103804,-0.203515824456,-0.742309907051,-0.563945917059,-1.54218362266,-2.01305671131,-6.07621736461,-3.98536274441,-0.857122618337,-3.44277018788,-2.0043815939,0.407138588042,-0.0377742685922,-121.803669282
do_nothing,-0.958884094426,-0.444892886996,-1.17422035119,-0.514254813095,-1.30399643179,-2.21207770117,-6.64747454016,-6.56278206503,-0.806815587791,-8.42835906533,-3.97610464291,-5.65579676546,-2.95618467731,-127.954917213
do_nothing,-1.37050072375,-0.357262820292,-1.04592751511,-0.491675907478,-0.732410566374,-1.06263264214,-5.44054713497,-7.3528629528,-0.630562306258,-10.8736247185,-4.85321301453,-9.99354454198,-4.94848127585,-101.12600507
do_nothing,-1.20441359283,0.0892264055329,-0.356711272958,-0.478143504224,0.110892012059,1.20343800703,-2.59139989859,-5.93051608983,-0.345347273787,-9.86919715402,-4.32589346916,-11.1742937804,-5.39087769242,-47.1056050764
do_nothing,-0.468048300391,0.75586456569,0.663117470079,-0.422768993263,1.06192721916,3.83104949658,1.24235760168,-2.57000324225,0.00988743804823,-5.59448581022,-2.49304640531,-8.7687082132,-4.14467118207,20.4263944324
do_nothing,0.597486046966,1.37511260754,1.62507847552,-0.267356565492,1.88641131091,5.79477656983,5.04031494064,1.80795126157,0.378363601626,0.705022708783,0.15035884969,-3.50628702702,-1.60483962056,83.5679866243
do_nothing,1.60181440668,1.64829897477,2.1217695063,0.0214856213091,2.34455880287,6.17410014673,7.71063585695,5.90900197971,0.695180451394,7.09034791426,2.84849629875,2.94920778802,1.42357450464,125.266472291
do_nothing,2.15050933175,1.36683730875,1.88370778409,0.42666992182,2.26899264518,4.5168449265,8.42609987487,8.47204688531,0.900712476395,11.5371135013,4.80509440026,8.53493464339,3.9825131935,134.271212031
do_nothing,1.99673502596,0.510408086913,0.895219282348,0.872670352299,1.62868670752,1.05581696346,6.89609770816,8.67630445178,0.954253346403,12.5840336141,5.42316148893,11.4589935362,5.26792162681,108.439590687
do_nothing,1.14153056174,-0.71901042489,-0.577221050202,1.24045761676,0.554253151402,-3.30818458914,3.48151533783,6.41242886336,0.844016196255,9.81007399691,4.48988279272,10.7830882082,4.88627506527,55.3550028584
do_nothing,-0.156519306124,-1.94642027077,-2.06051905352,1.40215659305,-0.688181816916,-7.26304527345,-0.892168861119,2.32592265781,0.590457669563,3.98267052094,2.24792392282,6.72452728483,2.976813177,-9.95220854872
do_nothing,-1.46780011699,-2.74464196965,-3.03261532907,1.26464195653,-1.76973232298,-9.5027203074,-5.00262979892,-2.38280434337,0.241807634408,-3.173457824,-0.671000309477,0.578701605765,0.160434856796,-69.4801015515
do_nothing,-2.34376046951,-2.78655907121,-3.10865508885,0.807200622561,-2.39646250225,-9.16716536585,-7.69762334599,-6.33587807188,-0.136988487971,-9.51300580097,-3.43144406838,-5.70930631763,-2.66616024524,-107.536137752
do_nothing,-2.47894671485,-1.97380312828,-2.18868332136,0.0994222525518,-2.40040939775,-6.15459122575,-8.24469965636,-8.40821315222,-0.478775201433,-13.1386305429,-5.24208503514,-10.1785027242,-4.6215754098,-115.190691609
do_nothing,-1.82300606105,-0.492120684702,-0.51080370132,-0.708559958571,-1.79317965413,-1.19567379,-6.55107641212,-8.06973504114,-0.728120162018,-12.9858998611,-5.58996909663,-11.4793171053,-5.11951846585,-92.5542750876
do_nothing,-0.60079600391,1.23202465683,1.41408799965,-1.4224000676,-0.76321434179,4.34223703131,-3.18269286027,-5.53029771093,-0.851099434436,-9.1388872595,-4.38939714519,-9.28870945139,-4.04642850262,-48.2448006018
do_nothing,0.767391288384,2.66387710466,2.9676049255,-1.85642830647,0.383362536483,8.86267798591,0.822791359821,-1.64574509265,-0.838918477455,-2.781048449,-2.00085256918,-4.38244146628,-1.78196778994,3.68235189765
do_nothing,1.81649220139,3.33876226337,3.63372243344,-1.88722364097,1.31916511158,11.030009899,4.2866970893,2.37640609193,-0.705423656747,4.19406591213,0.883636358114,1.6488174679,0.939201320969,48.272215387
do_nothing,2.20295540563,3.02439915322,3.17966496564,-1.49124136263,1.7972879644,10.184316591,6.25491789671,5.36842021971,-0.480381270076,9.77880369401,3.45082022912,6.93440458689,3.27356976242,74.1809048142
do_nothing,1.82565510212,1.8082745776,1.7425409912,-0.754530547725,1.7246524142,6.54815137208,6.2799707388,6.5597857626,-0.201347591661,12.4586838809,5.00572579965,9.92509292444,4.53841827151,76.7404446247
do_nothing,0.857388448314,0.0760979874193,-0.211358310004,0.148855849858,1.18317258991,1.15997718934,4.53119427422,5.78669125418,0.0932363059174,11.6396176172,5.16692542615,9.86200574107,4.4163247655,58.6981220534
do_nothing,-0.323839362733,-1.6144176823,-2.04271276611,1.00349270712,0.393067149701,-4.44245708159,1.70384661894,3.4942724921,0.368227100909,7.77018280923,3.96061643056,6.96690523489,3.03160695662,28.5569561728
do_nothing,-1.27743547567,-2.72230005561,-3.15731062251,1.61037580556,-0.367513735637,-8.68629558545,-1.23477974408,0.544313101405,0.59327583482,2.13822461262,1.79024022459,2.30740637549,0.881365590402,-2.76325471916
do_nothing,-1.66332414327,-2.90880786135,-3.20972640438,1.83884565268,-0.85781780399,-10.4284233355,-3.37157725955,-2.09510291004,0.742934793301,-3.5734025585,-0.702179330663,-2.59893922372,-1.34708256359,-25.712895094
do_nothing,-1.36503602628,-2.15359809156,-2.22039655649,1.65782785184,-0.951826031953,-9.27802342686,-4.13534935765,-3.66721965363,0.797131115083,-7.81542783763,-2.83450689854,-6.29482447175,-3.00489004147,-35.0476444775
do_nothing,-0.527743303919,-0.75922978583,-0.564329128893,1.13829005753,-0.67203705841,-5.68314788715,-3.45327294376,-3.84616192124,0.743259692566,-9.6127406285,-4.07915848226,-7.83229740584,-3.67825365621,-30.9910093902
do_nothing,0.501727878005,0.758736584247,1.1646131162,0.427735603682,-0.17025174386,-0.764510010298,-1.73208210731,-2.79394685489,0.579935677216,-8.78656318225,-4.19620321148,-7.01822910487,-3.29119661375,-18.3789218673
do_nothing,1.30928767061,1.8574879587,2.36535884693,-0.294224859273,0.335228407607,4.04164325339,0.31854794908,-1.05052385409,0.321092401423,-5.90969600257,-3.27077716787,-4.39269524814,-2.08937276993,-4.26354848578
do_nothing,1.5713300967,2.16208252176,2.6414820525,-0.865197337556,0.641752901758,7.41445462318,1.95046276351,0.690492993546,-0.00174662606577,-2.03763193047,-1.65317502592,-0.972070572912,-0.52220421063,5.03321005915
do_nothing,1.17666953293,1.59937613184,1.93761275966,-1.17980927583,0.633951927779,8.5203310911,2.63369343027,1.83326219629,-0.341107440938,1.67261535356,0.169877655398,2.1341781372,0.926143485456,6.29442491638
do_nothing,0.267512122689,0.421762754948,0.552158212721,-1.2095969654,0.32019200781,7.21920559973,2.21841772307,2.0697544849,-0.640114403811,4.3191841158,1.72610456608,4.0906495496,1.89366572837,0.369096372076
do_nothing,-0.815001974323,-0.888529775275,-0.977113702562,-0.999417241909,-0.177032639807,4.0557737277,0.953660452991,1.44943839632,-0.843215976706,5.47482762515,2.68271283985,4.56385568017,2.23278664974,-8.54945382764
do_nothing,-1.6594172774,-1.8002787004,-2.07218638825,-0.64412743033,-0.670686893407,0.0542088021295,-0.632906482984,0.3173763026,-0.908635935211,5.21685735039,2.91187241003,3.74842311928,2.01419820678,-14.9508967518
do_nothing,-1.93808668086,-1.93343120856,-2.32586696232,-0.254727846539,-0.978768197306,-3.608343665,-1.94168655121,-0.84315648228,-0.819076735776,3.98740104661,2.48644154953,2.20711734193,1.45334397478,-14.4853706137
do_nothing,-1.52921441675,-1.20503674746,-1.64834920477,0.074761795008,-0.987938449831,-5.94497930865,-2.51562012227,-1.59739625977,-0.587330604773,2.36085308861,1.61951945568,0.605456638689,0.798245546383,-5.89499404007
do_nothing,-0.561855390186,0.133507554557,-0.296838489527,0.290022225962,-0.68907132851,-6.41910638909,-2.1868754324,-1.70567328973,-0.254765980871,0.81810953629,0.577305297585,-0.548388503985,0.227861580736,8.35704480193
do_nothing,0.63191143896,1.58310179246,1.22130759518,0.383465880484,-0.174163905509,-5.05520090326,-1.11014243027,-1.18251083551,0.117259824127,-0.389528730688,-0.401775274601,-1.06146965305,-0.199326467903,22.9956117053
do_nothing,1.63879008992,2.57744249419,2.33551181377,0.385778454519,0.401257614058,-2.38349730894,0.319126775978,-0.258051383232,0.460866273527,-1.25008651895,-1.15726999402,-1.0637642429,-0.531343742325,32.0161148773
do_nothing,2.1141192267,2.69259718497,2.62030951865,0.346907565904,0.873967495,0.749448381192,1.62202609011,0.731431858632,0.716337026702,-1.89296924382,-1.61770321809,-0.880917944405,-0.857242828386,31.1218311793
do_nothing,1.90425256943,1.8094167725,1.94945329671,0.314038104717,1.12561083451,3.43859913774,2.40601093271,1.47428687598,0.84409769659,-2.44434394316,-1.78017206215,-0.839436317389,-1.22565940644,19.5594954451
do_nothing,1.09715370651,0.168751635009,0.540757131099,0.314022013584,1.11372904198,4.96981606274,2.48562863105,1.78433049864,0.831038429222,-2.91039911266,-1.67676579738,-1.09355633249,-1.58870462212,0.623205120232
do_nothing,-0.0156760746698,-1.7023880729,-1.12307271801,0.345359979889,0.87280212149,4.99533693056,1.91658392413,1.6389475073,0.690106082137,-3.14439415301,-1.34725726295,-1.54779961457,-1.80038301396,-19.3991821568
do_nothing,-1.04969339462,-3.16917608999,-2.4673677667,0.381211042393,0.489093264978,3.59730569946,0.941398759711,1.15060932456,0.454164926586,-2.91206972477,-0.830161256112,-1.90494709414,-1.67399450184,-33.4711071085
do_nothing,-1.66764641653,-3.70941450529,-3.02867632168,0.381319287017,0.0627251489581,1.23468743507,-0.121916625697,0.495061436982,0.166677437356,-2.02404640239,-0.172405816519,-1.81481760237,-1.07593015911,-36.4195638605
do_nothing,-1.69729669091,-3.09812245897,-2.61506898573,0.308272358303,-0.326185660552,-1.40145515506,-0.998798298321,-0.166244613006,-0.127711708693,-0.472502869571,0.552863723573,-1.05686465571,-0.0151357607499,-26.9370082587
do_nothing,-1.18401399301,-1.49072182774,-1.3675162498,0.142707072994,-0.634326600333,-3.58017779535,-1.53830016625,-0.735099935095,-0.390190473422,1.49460335109,1.23566163484,0.324223208478,1.31398837286,-8.20540255599
do_nothing,-0.36127977078,0.624831318616,0.296776654942,-0.107083976565,-0.850914579503,-4.72008941578,-1.72929616236,-1.18035734591,-0.591269930637,3.40387496068,1.73798255792,1.99123682178,2.56122128844,13.127241057
do_nothing,0.446667681729,2.59021307171,1.83533120392,-0.403722519388,-0.978437506583,-4.53150274718,-1.65692527419,-1.50373669956,-0.711185940812,4.69042218618,1.92490022121,3.41243529411,3.32058399061,29.2830112159
do_nothing,0.950852910262,3.79624977515,2.76892293803,-0.687694032881,-1.0112500199,-3.08106729734,-1.42850300885,-1.69320403416,-0.738754542491,4.89054318838,1.70924433609,4.05058575754,3.26963813133,34.1778938631
do_nothing,1.00360087338,3.88325197763,2.83960505562,-0.89076800655,-0.925356458984,-0.767360129021,-1.10852798752,-1.69461759756,-0.670465116539,3.82126764604,1.09271122449,3.57117089725,2.29824142073,25.7120716543
do_nothing,0.645194312157,2.8534567151,2.08393480333,-0.952570919462,-0.686775614469,1.78459903133,-0.694549083192,-1.42202499063,-0.51093791033,1.67585671737,0.184834549748,1.98845357383,0.576665746741,6.67764768461
do_nothing,0.075730131307,1.05895284195,0.800091692777,-0.836441265031,-0.276143257939,3.88464093724,-0.14371029001,-0.80617634016,-0.274664465618,-1.00672615281,-0.812155951036,-0.309612835073,-1.4680995722,-16.0835835516
do_nothing,-0.434037258867,-0.92709525703,-0.573080337903,-0.540938052323,0.281974171742,4.95670458114,0.566141405152,0.140828592866,0.0122306763548,-3.49441361676,-1.65226651029,-2.67144528298,-3.26725349503,-34.0182934069
do_nothing,-0.65593655155,-2.50750131188,-1.61616660921,-0.104244649962,0.900951965017,4.69271332716,1.37513038258,1.27906337135,0.312056044112,-5.08730739765,-2.11492620223,-4.39009905157,-4.28246598575,-39.9011058635
do_nothing,-0.496455281863,-3.25570623997,-2.06814229723,0.399968079487,1.43828433862,3.14125042347,2.11636646002,2.3432304684,0.578976278921,-5.33861888376,-2.0720505417,-4.93630558551,-4.1793201613,-30.5137224701
do_nothing,-0.0318052234047,-3.04100186829,-1.8955852462,0.875040345211,1.72990956459,0.704551889523,2.54864566671,3.00596722636,0.766164887486,-4.19492239514,-1.52982671662,-4.13374800772,-2.94271639764,-8.00509427367
do_nothing,0.526710562266,-2.04484836288,-1.27276674046,1.2202725333,1.64425957502,-1.96094178263,2.44174213033,2.9870841171,0.835500998864,-2.00794061402,-0.629950473616,-2.21549447016,-0.893075713323,20.5856303729
do_nothing,0.922016366728,-0.669499211211,-0.488187000283,1.35281438495,1.13739207487,-4.11938115017,1.68282927389,2.17030240677,0.767293272905,0.584276606862,0.391178798307,0.25609302154,1.40480526583,45.5347541684
do_nothing,0.958845582549,0.621289274266,0.179877027267,1.22786190194,0.286955559101,-5.16128322791,0.358047562683,0.679532563229,0.566983591245,2.86329981063,1.27221345432,2.57492770287,3.31194582488,57.6615438716
do_nothing,0.586302218939,1.46735642706,0.567282881569,0.852268182402,-0.712082529656,-4.78274734115,-1.232173943,-1.12333935862,0.266338047319,4.25106757981,1.80251140521,4.11525852787,4.30911945645,51.5068866357
do_nothing,-0.0776704055089,1.72253782094,0.667687788074,0.287563044409,-1.59429471831,-3.08329766292,-2.6422154134,-2.73015154702,-0.0818530702618,4.47113249111,1.8789835839,4.51682880377,4.15124868016,27.3873838078
do_nothing,-0.789836961479,1.47395305325,0.603378584057,-0.359548050101,-2.10171795326,-0.547681193603,-3.41949265812,-3.64413260627,-0.414570950429,3.60079848747,1.52661083437,3.77161165903,2.9327519893,-8.39413328308
do_nothing,-1.27620081901,0.970490375903,0.541696335744,-0.95819982929,-2.06827481617,2.08970582339,-3.26601866103,-3.55144479048,-0.672121290358,2.00576736385,0.878310197688,2.19083188556,1.04491032066,-45.3013707851
do_nothing,-1.3402826234,0.495773327992,0.597735316331,-1.38178139255,-1.48120703578,4.06200194217,-2.16281578648,-2.44386981382,-0.810815778503,0.190717384386,0.124031016587,0.274406791066,-0.957220030109,-71.7575325662
do_nothing,-0.942345785491,0.24075157904,0.768572192197,-1.53723545553,-0.495777198165,4.80416960951,-0.405056698943,-0.642818729659,-0.811433510607,-1.37389961743,-0.551124611369,-1.46280339222,-2.53130031209,-78.7806566147
do_nothing,-0.218003838448,0.228523523511,0.929559717327,-1.38786949902,0.605504524826,4.13015588518,1.47436496749,1.29199195352,-0.681461439406,-2.38583792009,-1.01783879112,-2.64372224349,-3.30810042806,-62.9106255985
do_nothing,0.571698933746,0.32059431052,0.895453989257,-0.963443040487,1.49860770113,2.29314398135,2.87411554671,2.74391158913,-0.451042807092,-2.76382597646,-1.22673670325,-3.11127031441,-3.18471426432,-27.49285551
do_nothing,1.13978176395,0.299125563682,0.519928801497,-0.354312557776,1.92150265505,-0.0951392164361,3.33094854859,3.2503180315,-0.164393314247,-2.61237477323,-1.20146694638,-2.92242385749,-2.32515275091,18.1049641579
do_nothing,1.28385732008,-0.0122296256245,-0.211373020852,0.309418873965,1.76057274543,-2.26380732625,2.68973173259,2.66814274198,0.130444503158,-2.12675752316,-1.00862659288,-2.27185796821,-1.07597567318,61.1255428536
do_nothing,0.964520042621,-0.642799949791,-1.13872170302,0.888655561958,1.0894496982,-3.5372687636,1.17198968614,1.23162503654,0.390579661149,-1.48703914709,-0.720522840399,-1.38767543094,0.166842866587,89.1185879642
do_nothing,0.32062152572,-1.43291816216,-1.96202768321,1.26800909633,0.145350747977,-3.5596117522,-0.688137422713,-0.523444079195,0.583977984688,-0.789102854364,-0.387678013495,-0.446794507821,1.08961209519,93.595722782
do_nothing,-0.385129423407,-2.07802249154,-2.34406276267,1.38183456136,-0.750526903414,-2.41100694235,-2.22410854492,-1.94680695688,0.691363354805,-0.0395041443451,-0.0317479358912,0.457652271134,1.54578985983,72.5583332141
do_nothing,-0.869600153271,-2.24566293826,-2.04635625009,1.22683844984,-1.30213283471,-0.573305224465,-2.87307348763,-2.50811522615,0.705201968235,0.790626681962,0.340927978858,1.29231563484,1.56948962941,31.1585049371
do_nothing,-0.941620860735,-1.72071848181,-1.04389009564,0.858337458435,-1.33974227202,1.24607611962,-2.38395655799,-1.99460935746,0.627473386295,1.68572263,0.714973689645,2.02609856829,1.32149099427,-19.6890794362
do_nothing,-0.579211661243,-0.519586810895,0.431258272865,0.37194138487,-0.877715863244,2.37198012579,-0.920110620879,-0.598356905258,0.467880021834,2.52586507,1.04591553426,2.57761673867,0.996557659639,-66.3288302984
do_nothing,0.0593455003592,1.07708654202,1.94256932912,-0.123465272381,-0.108034558777,2.40965801544,0.985477413172,1.14290382812,0.243330284432,3.08444980781,1.25767981288,2.80281385937,0.733157833332,-96.143213288
do_nothing,0.696190638378,2.59407226934,2.98683423369,-0.533330141365,0.668825084428,1.39235704989,2.61207313716,2.53487805543,-0.0216284363449,3.09501651408,1.26271516218,2.53740225975,0.562278710919,-101.01679972
do_nothing,1.04392774341,3.5151958338,3.17136919624,-0.797817818517,1.1518831462,-0.228774014823,3.30919104239,2.98114085414,-0.294695714828,2.36590428,0.998720878498,1.68032800218,0.413418671189,-79.5275437459
do_nothing,0.92282901831,3.46834811033,2.3662761441,-0.899861658058,1.14859749905,-1.75340097146,2.73957067115,2.21203367589,-0.537565383506,0.895715719096,0.466825038441,0.280802898959,0.170907845842,-37.2861574269
do_nothing,0.339197891499,2.37374192181,0.772369616833,-0.859946893859,0.645996849167,-2.50132761882,1.01811344372,0.40328793912,-0.71051358718,-1.06432787217,-0.246956780276,-1.41636835533,-0.247449128882,14.630182664
do_nothing,-0.507173398846,0.497159845807,-1.12649543267,-0.720949031135,-0.181798987583,-2.08436614492,-1.30759671492,-1.86322397025,-0.779606488624,-3.03902437818,-0.980296005194,-2.99986929295,-0.826429650488,62.683379409
do_nothing,-1.29185914826,-1.61757042018,-2.71641881275,-0.529296703017,-1.03316710137,-0.577321918949,-3.43404647565,-3.78863611675,-0.724956059287,-4.45291597415,-1.53525908429,-3.99917957582,-1.43463389697,94.4792590732
do_nothing,-1.68698393928,-3.31900213782,-3.46171059809,-0.319421125127,-1.58534902342,1.48233444791,-4.5778858902,-4.63379415826,-0.54753297423,-4.81439201488,-1.73995193982,-4.04000351823,-1.86211120636,101.998280829
do_nothing,-1.48982026885,-4.06478891475,-3.09541610116,-0.1067278546,-1.61040276975,3.27550609941,-4.25592746578,-3.98768426101,-0.271995352874,-3.89710871288,-1.50992192278,-2.9928301551,-1.90140144047,83.6090731866
do_nothing,-0.709587852233,-3.6089088883,-1.72233732434,0.109165470238,-1.05970956642,4.00485118017,-2.46944608943,-1.93169044144,0.0560773191451,-1.84988148435,-0.885837203283,-1.05498724456,-1.43975710741,44.3690689381
do_nothing,0.422423559313,-2.09171078766,0.20607591931,0.333191520974,-0.0866804464407,3.21250945826,0.275407275482,0.962066809969,0.378515904109,0.813184548934,-0.0308492933339,1.27427779394,-0.523838133753,-5.41985372956
do_nothing,1.52633942074,0.0017620093151,2.04043879069,0.560973146811,1.00118536871,0.992123471505,3.12280333441,3.8031802508,0.636642167986,3.34987343625,0.814983941555,3.32901353189,0.632651439547,-52.9778185647
do_nothing,2.20641371333,2.0031436882,3.15623989799,0.768826711854,1.84495144072,-1.99284796514,5.14801260851,5.67125172223,0.783988565848,5.01554101084,1.40982382837,4.48368012924,1.70640017098,-86.3826763956
do_nothing,2.19561158763,3.28660575763,3.17299174899,0.912804240638,2.15634844817,-4.7058106252,5.66863543702,5.92347232069,0.796229664023,5.30374095167,1.58940452444,4.36346844897,2.36940802743,-97.5969853633
do_nothing,1.45883825749,3.4800833528,2.09126753731,0.938635574402,1.81706644934,-6.09133372453,4.4789932276,4.41642694335,0.675688043135,4.11869518431,1.32229394707,2.98268522913,2.40411234757,-84.4127697461
do_nothing,0.215382387378,2.58716089791,0.296932451879,0.800230715627,0.920760604682,-5.46738680174,1.92585415426,1.56504837602,0.449410548797,1.81685664961,0.720281926516,0.757366909205,1.78558814213,-50.8415398951
do_nothing,-1.13014223372,0.976429790812,-1.57139544263,0.480767102402,-0.256849876297,-2.81368101608,-1.20192142564,-1.78336143829,0.161719658068,-0.90128222182,-0.00118699405396,-1.61920743311,0.698346238319,-5.89262595466
do_nothing,-2.12577389217,-0.757426912825,-2.84655327988,0.00862602229104,-1.34948156436,1.15736593701,-3.93289868922,-4.61914295404,-0.136326250373,-3.21579677177,-0.599381902297,-3.40058257132,-0.521229483274,38.8961360611
do_nothing,-2.43082296886,-2.01035219569,-3.0699671601,-0.538715676345,-2.02183013225,5.189158853,-5.43321011893,-6.09431766965,-0.397482332629,-4.45332073195,-0.89033381724,-4.03591908435,-1.49807984059,72.4941719688
do_nothing,-1.93833020635,-2.38484731682,-2.15717407536,-1.04639949382,-2.07945311548,7.88016203626,-5.27804060249,-5.79243396802,-0.586194821889,-4.30356830443,-0.813176523976,-3.35706955065,-1.94720901146,87.1676700345
do_nothing,-0.816577085716,-1.82690383641,-0.431726281713,-1.38818533591,-1.52970631783,8.16630890053,-3.58255216813,-3.8548746042,-0.682351872022,-2.91183087396,-0.448756682662,-1.63680360858,-1.77110716568,80.2973065515
do_nothing,0.546667607646,-0.634623338624,1.48614999997,-1.4604935361,-0.573758230509,5.72132450212,-0.949588336247,-0.923501370607,-0.680997082091,-0.815935866447,0.014934803772,0.504859851432,-1.08973366786,54.7795685933
do_nothing,1.67869822987,0.663765302398,2.89801072259,-1.21488150835,0.466273912923,1.12856702236,1.74486693905,2.07814751536,-0.589362690921,1.24923131323,0.358152289262,2.31575363555,-0.191467001578,17.963741959
do_nothing,2.1881890304,1.51675830999,3.27603917871,-0.678750557987,1.25876080941,-4.25041884477,3.65190983066,4.2490259162,-0.423123400199,2.6099208374,0.417586913368,3.17391377946,0.577245261272,-20.5215158725
do_nothing,1.90428335006,1.56413884613,2.45405693479,0.0433479318639,1.57350270211,-8.68385626324,4.23090375475,4.99701137253,-0.203459049407,2.88291661707,0.153841854627,2.80506892903,0.942653499296,-51.4043854965
do_nothing,0.938555637891,0.778886928114,0.692350544301,0.790256382964,1.35414935156,-10.6300936154,3.415727125,4.21310797858,0.0444352335675,2.09561233821,-0.328317502365,1.3779361126,0.80586925925,-68.119047974
do_nothing,-0.353006830146,-0.517530391609,-1.40774665077,1.38267632553,0.728315059793,-9.26735076319,1.61228823229,2.27947257707,0.291868632031,0.656086287693,-0.81623050383,-0.557356223349,0.277601538702,-68.2352538713
do_nothing,-1.49542791615,-1.77392568941,-3.1105727812,1.6699259371,-0.0461692338692,-4.81138948679,-0.466424262079,-0.084875533208,0.507442183862,-0.813190674915,-1.0701934561,-2.26686193444,-0.368351490661,-53.634995829
do_nothing,-2.06379836787,-2.41987738206,-3.8023047425,1.57213004123,-0.678145606333,1.49652439306,-2.06493413272,-2.08203582479,0.659394064303,-1.71527713239,-0.919598316675,-3.09695639797,-0.806021877826,-29.4908385764
do_nothing,-1.83635078782,-2.09078866915,-3.20711410074,1.10538094525,-0.947908256158,7.74254373844,-2.65350756255,-3.10530152163,0.720093735244,-1.70348335641,-0.338167539597,-2.71134150147,-0.790917213781,-2.45555474949
do_nothing,-0.877141853887,-0.783424106877,-1.48771051014,0.381567094244,-0.782770767489,11.9310907623,-2.10542998691,-2.92925773277,0.672117923392,-0.808411999619,0.531450912382,-1.21627260223,-0.265124810081,21.3162381819
do_nothing,0.481618238806,1.11839662172,0.804999586341,-0.418517604255,-0.277537650914,12.6274421517,-0.723520963356,-1.75899452906,0.51422845302,0.57875719354,1.41569539027,0.871396939934,0.607789096077,37.691438246
do_nothing,1.75244355083,2.96204094733,2.91592425342,-1.09240650844,0.345933555403,9.44254574088,0.88881715223,-0.12851158395,0.26501652052,1.8596777024,1.99987333348,2.80318104266,1.49415910655,45.2058747407
do_nothing,2.46208937588,4.05012684267,4.14007517924,-1.47083826845,0.824210260612,3.19653027425,2.0612850847,1.30913423653,-0.0377126948388,2.46144017794,2.03932989817,3.86258348811,2.01161772227,44.7478862671
do_nothing,2.31910671901,3.89287538233,4.05992692904,-1.46471153749,0.951297729363,-4.30128032097,2.30830312239,2.02168409263,-0.342598487196,2.0615573007,1.4525919807,3.6207830403,1.87711242482,38.5356809919
do_nothing,1.32115462494,2.39892320286,2.6851995856,-1.09020001653,0.655472980033,-10.7940754872,1.50743921955,1.78216798177,-0.594603843475,0.721061317604,0.362133381754,2.0942087316,1.02646818945,28.8809692791
do_nothing,-0.235700768057,-0.0656794194945,0.448642864764,-0.464042297597,0.026699817506,-14.2734622372,-0.0581985956349,0.735590823855,-0.746799429896,-1.12504273093,-0.933975500573,-0.251964721937,-0.341061957859,17.2716380096
do_nothing,-1.84995091267,-2.77573712597,-1.93900507733,0.230351218718,-0.714681253256,-13.6096779159,-1.80638219812,-0.67074749394,-0.770916510897,-2.81842959004,-2.05220641489,-2.65651903585,-1.81374038827,4.13850954855
do_nothing,-2.97919709935,-4.87338974157,-3.72412454472,0.796521231503,-1.29637952203,-8.91496321383,-3.07021617534,-1.86312545877,-0.663718902313,-3.71563969206,-2.64620414467,-4.31871368311,-2.89979908764,-10.6404046281
do_nothing,-3.22124720215,-5.64862109538,-4.3553356608,1.08258419104,-1.49158572985,-1.52301276884,-3.34195276828,-2.3569415821,-0.44740655374,-3.42744076477,-2.52062865637,-4.67021763909,-3.19701023903,-26.7799192808
do_nothing,-2.45110830259,-4.7796815847,-3.65714175203,1.02546932394,-1.20090915806,6.4105294137,-2.458419959,-1.93373035842,-0.164017699149,-1.97150388719,-1.69730802648,-3.56894770652,-2.53983737035,-42.6789419541
do_nothing,-0.868075717964,-2.4515986815,-1.87671265032,0.668066129719,-0.490098724883,12.5613043753,-0.662646634127,-0.717701961669,0.134456662082,0.218981952529,-0.410817750929,-1.34866475058,-1.0706299646,-55.0888069698
do_nothing,1.06284190838,0.688724979022,0.407654548846,0.143690080451,0.429461210408,15.1384738331,1.47861978986,0.87264981595,0.397384989114,2.43654339797,0.965339132239,1.2918510465,0.793232863913,-59.6764749123
do_nothing,2.75597717049,3.72782221829,2.4816296983,-0.367584125699,1.27048925487,13.4177692839,3.27044497149,2.27745355049,0.585192561524,3.94215102694,2.03712888355,3.52122319051,2.48821596979,-52.4333554852
do_nothing,3.68921431857,5.76833074896,3.72589348249,-0.697163277852,1.76551747617,7.9432077189,4.12796898885,2.99618856759,0.675199686939,4.22393168138,2.51318660877,4.64971226465,3.48742184664,-31.4901035675
do_nothing,3.56786270708,6.20730733448,3.80658199869,-0.742265065917,1.75569229175,0.341699116469,3.77352898033,2.76429004855,0.662792752651,3.17965587425,2.29194772481,4.35243004526,3.47540195718,1.36017185255
do_nothing,2.41613436484,4.92060775326,2.76545940624,-0.498760899383,1.24261716708,-7.18360527858,2.32509065847,1.64409843408,0.558644037958,1.15712128197,1.48482060788,2.76756753521,2.4547851857,40.1357111587
do_nothing,0.568273007138,2.29550443113,0.985934660893,-0.0616190889975,0.386262008337,-12.5176635873,0.248083582631,0.000231133448177,0.383758479349,-1.16335744421,0.369822773253,0.439341720551,0.747390074361,75.5690361879
do_nothing,-1.43613675559,-0.896084240966,-0.94720114302,0.407539963283,-0.549429609519,-14.2486057155,-1.80890294098,-1.62944172881,0.16438666696,-3.0040888504,-0.706206241725,-1.87162195138,-1.11135089176,97.3908059362
do_nothing,-3.01802975103,-3.73983901628,-2.44294999753,0.735402295322,-1.28395799184,-12.0493382922,-3.23432388426,-2.72004291941,-0.071706094223,-3.76045988521,-1.44192253626,-3.44370328998,-2.54901216225,97.4191035557
do_nothing,-3.73304533827,-5.45707158769,-3.08823681325,0.796363333569,-1.61074662345,-6.72086888101,-3.65210484004,-2.93742464563,-0.297175561013,-3.21136221492,-1.67323685924,-3.82840424536,-3.14366721843,72.4973215909
do_nothing,-3.40026789627,-5.63016147407,-2.76297564576,0.556459837621,-1.46045978591,0.0990320053104,-3.03097810334,-2.24640588273,-0.485860678081,-1.59497047395,-1.41290725408,-2.98573649055,-2.75846707263,26.2450515165
do_nothing,-2.14769007199,-4.30730516563,-1.65438347261,0.0867238802961,-0.916913667443,6.45621192978,-1.67104645015,-0.914161227768,-0.613595497779,0.477500906665,-0.827752257686,-1.27895410493,-1.57809710361,-31.1301687853
do_nothing,-0.363621088525,-1.95994964055,-0.173589077578,-0.459110121532,-0.181884285713,10.6601660012,-0.0781619329399,0.58956107954,-0.660183196226,2.24029702804,-0.165418504189,0.664742882758,-0.0361163582225,-85.1334833912
do_nothing,1.42753029204,0.685588570345,1.19130991496,-0.895606307063,0.497567228822,11.7467145003,1.22437983969,1.75839254811,-0.612881536584,3.04722282445,0.34037728581,2.17613334578,1.34001242306,-120.87294919
do_nothing,2.7244797422,2.88209492734,2.03400726164,-1.06846453559,0.913439472058,9.69393180569,1.87736289972,2.22289273997,-0.470683342825,2.60460043646,0.551206706277,2.77111473446,2.11126077918,-127.437312703
do_nothing,3.19399079519,4.08366190403,2.14938412517,-0.907929174021,0.963909212989,5.34625466236,1.79634587273,1.87219507242,-0.247798198941,1.08020113236,0.463649150254,2.30652733489,2.07312950285,-101.406320291
do_nothing,2.75893574486,4.0876422386,1.57929172127,-0.45431302964,0.681128763633,0.0937534525651,1.17552002931,0.883616629154,0.0255179227254,-0.951667126969,0.195626713027,1.01469332509,1.31556353538,-48.3215943348
do_nothing,1.60619304064,3.05831886323,0.57682298101,0.153593132447,0.211702018688,-4.5761266377,0.388653487617,-0.347492018255,0.306093558954,-2.7114344976,-0.0723861039721,-0.5908713063,0.177759141904,18.4694735521
do_nothing,0.11630312744,1.43498945211,-0.492414691098,0.723844870897,-0.241759464916,-7.5088487946,-0.171756725049,-1.35130923364,0.545033892889,-3.49283177831,-0.176839549512,-1.90258935666,-0.883795928315,81.3731298155
do_nothing,-1.25995335376,-0.235858582804,-1.27548252949,1.07532727531,-0.496512987538,-8.16889960956,-0.254768299749,-1.74996092858,0.697627984894,-2.92176361566,-0.0401883738493,-2.43278109451,-1.46537297203,123.510931143
do_nothing,-2.1384672343,-1.48329234377,-1.54240498131,1.0986373793,-0.456082757963,-6.71215124455,0.14973140534,-1.38969313654,0.73348555708,-1.10409449357,0.296545782029,-1.98142045818,-1.36269865432,133.599719471
do_nothing,-2.31077487619,-2.04891077613,-1.24875591016,0.792872539313,-0.144152647298,-3.84752037286,0.809387139254,-0.394437253447,0.644043735534,1.39175191196,0.689454911288,-0.70219906681,-0.641994640537,109.24827106
do_nothing,-1.79421263061,-1.93767961722,-0.53545051159,0.265432407583,0.305412280211,-0.555138634913,1.34528663578,0.876395085699,0.445163700522,3.71514102291,0.949081885778,0.953163648468,0.389317448266,57.6361991148
do_nothing,-0.811479624008,-1.37440968109,0.328879447899,-0.305325213228,0.69845245885,2.23553800164,1.38910808448,1.95081465889,0.173909707164,5.01812425522,0.917353208402,2.39140882008,1.30074700073,-6.64984794295
do_nothing,0.290567135453,-0.690120577508,1.04084107876,-0.731766212461,0.85259494702,3.90457867525,0.742409477764,2.40623670125,-0.11968725825,4.74967717381,0.534938143728,3.0811255897,1.70235140659,-65.9561012428
do_nothing,1.15541597732,-0.184403125964,1.36001169443,-0.881557651685,0.666250711846,4.26706759579,-0.522399786737,2.01655889191,-0.383615681854,2.85922316333,-0.126509417666,2.73477243243,1.3942283344,-104.729067637
do_nothing,1.52848263396,-0.0145532975755,1.18209805827,-0.722521435337,0.160327222554,3.5459999353,-2.05949690872,0.83577112479,-0.574633515307,-0.161701223639,-0.8799492316,1.40935544298,0.447298313409,-113.913864528
do_nothing,1.33184982939,-0.149252196659,0.567527367473,-0.331952899442,-0.522286343432,2.2241675204,-3.35077982351,-0.809487588024,-0.666044131772,-3.41767529764,-1.48186500338,-0.506659826427,-0.814732851023,-93.2541119584
do_nothing,0.680503944703,-0.399392498925,-0.2805655696,0.13291875303,-1.16013019483,0.840774426086,-3.87896848931,-2.41656379565,-0.650854478612,-5.88591042002,-1.71447313412,-2.41525006523,-1.927097587,-50.8553828248
do_nothing,-0.163239536044,-0.51051953902,-1.08062071966,0.492853909152,-1.52563860055,-0.193038843482,-3.31457391547,-3.46235936176,-0.540192534865,-6.7430777054,-1.46289251815,-3.69962562943,-2.45066286853,-0.257810275083
do_nothing,-0.881472870662,-0.279942634612,-1.55974635925,0.612237274357,-1.46286612444,-0.70240453428,-1.65198650379,-3.5691000428,-0.358257255324,-5.63674002443,-0.760516284903,-3.92245276406,-2.13479513706,43.9547993717
do_nothing,-1.20893424938,0.346193466954,-1.53864908026,0.448844938875,-0.944556839582,-0.756670363394,0.754703068496,-2.62850186625,-0.135870693457,-2.81245339173,0.213455727044,-2.96837248341,-1.01807160984,70.5580037854
do_nothing,-1.02310729325,1.23263838505,-0.99036266614,0.069680932623,-0.0890214991965,-0.589867246341,3.27330273054,-0.845477753035,0.0953245642549,0.946598406854,1.18436537065,-1.08587729329,0.570523762571,74.7155176627
do_nothing,-0.387096674212,2.08786633157,-0.0556040505481,-0.373120752812,0.869891843004,-0.474129031115,5.17128714115,1.3128097688,0.306728402559,4.55066643666,1.86458643816,1.18447319181,2.11305105923,58.7648731056
do_nothing,0.469244994731,2.56049960408,0.991223095263,-0.697988496959,1.65132698772,-0.59703028618,5.83653233928,3.24804570379,0.474512954008,6.93381411345,2.04206445588,3.17305115718,3.07414191475,30.6725697329
do_nothing,1.22509308616,2.36732606015,1.81823259681,-0.761363295347,2.0134769454,-0.986006894618,4.97267594915,4.40343879117,0.579994996103,7.38044341726,1.64708069576,4.2848833411,3.08516684545,0.843948253766
do_nothing,1.5780574076,1.40907590741,2.13518264049,-0.512590553393,1.83021764485,-1.50186100013,2.70724250108,4.42703264889,0.609867398425,5.74588614341,0.776540871346,4.18140314216,2.07816161259,-21.5246283614
do_nothing,1.35217877872,-0.167277586678,1.78814586764,-0.0161602609268,1.13390081619,-1.89751992708,-0.42338023912,3.27748403792,0.557262663808,2.5023439104,-0.331537061901,2.8846058263,0.322569140191,-31.2913921167
do_nothing,0.568345792256,-1.9847317584,0.820920545033,0.567303260517,0.110175928475,-1.91672125082,-3.61085611139,1.24103508023,0.423838900674,-1.40374075831,-1.36546920918,0.771891670736,-1.65013108953,-28.5159481738
do_nothing,-0.548595016554,-3.53129201457,-0.518968867581,1.03520052238,-0.954452363544,-1.39644062148,-5.99561950355,-1.14567329675,0.222135389863,-4.83807430213,-2.02912398985,-1.536782052,-3.2114670786,-17.66325399
