label,COUNTER,INTERPOLATED,AF3,F7,F3,FC5,T7,P7,O1,O2,P8,T8,FC6,F4,F8,AF4,RAW_CQ,GYROX,GYROY,MARKER,SYNC,TIME_STAMP_s,TIME_STAMP_ms,CQ_AF3,CQ_F7,CQ_F3,CQ_FC5,CQ_T7,CQ_P7,CQ_O1,CQ_O2,CQ_P8,CQ_T8,CQ_FC6,CQ_F4,CQ_F8,CQ_AF4,CQ_CMS,CQ_DRL
off_to_on,-3.96757035314,-7.70447503363,-1.64396859786,0.279601446371,-6.38183116951,-6.41706446488,-1.47887503765,-1.37801887355,-0.363174410343,-7.68926942158,-11.2408435877,-13.8167039366,-12.6274035394,84.7057798203
off_to_on,1.76010558935,-0.283177968151,0.181746613308,1.37081220184,2.65420507078,2.1366674769,-5.93768870833,-2.02776910031,-0.398131409868,-2.05252396041,-3.10405081002,-1.12523740077,-3.41403028983,8.97077364208
off_to_on,13.1325185803,17.0465183299,2.33780359182,1.44451370831,18.7108055105,23.4325460976,20.8712750795,6.07561224653,-0.278042293759,13.88179114,21.8915057638,30.1262737199,22.3658763722,-94.5455082672
off_to_on,12.0340710592,19.1516935565,1.74747361599,0.614088498465,15.7839065415,21.0377914308,34.2882259245,10.5227416591,0.0751422086213,16.9818011106,28.6764356144,34.3174851211,27.038959836,-89.4750340104
off_to_on,-10.8371552006,-9.59123734434,-1.34084111947,-0.329634243907,-17.0170413881,-24.1424485055,-11.3624508762,-2.30666495141,0.503449448642,-7.42914102632,-6.80341925545,-16.0081272955,-13.026540588,-5.49545520483
off_to_on,-35.8205058145,-44.7161705287,-3.39943388761,-0.879987778939,-49.9736801149,-71.6689751817,-81.3122555989,-23.6711877586,0.710085018576,-37.9933961233,-53.1711096747,-77.1434948843,-62.316941353,26.8207758669
off_to_on,-29.7931834206,-40.5138679121,-1.95930262765,-1.03197268369,-38.3405598717,-55.418273246,-83.6419483012,-26.2188634369,0.536300254569,-34.7142891912,-50.4929503377,-70.0537627468,-55.2968859421,-3.29925976761
off_to_on,11.8761874494,11.8986629405,1.50882254318,-0.764892843642,20.2593425678,30.0505634235,11.5909823355,1.60006158976,0.0533383848124,10.2471161998,11.9720002953,19.4366697825,19.3488067781,4.32186465988
off_to_on,50.2257274599,62.1049621996,3.4953117343,0.0387187432137,70.2410722819,103.190405444,114.907375418,34.4370235669,-0.509860640862,53.6219702943,70.5146587157,105.053811895,88.7916960512,60.9225739781
off_to_on,43.3086811265,54.6199041623,2.32102651507,1.02744447971,56.7132815522,82.4286269744,114.222896031,36.2179505715,-0.837757437637,47.5321704821,59.682254426,93.2613332153,75.4242335096,65.740069377
off_to_on,-2.98315754159,-3.05040680596,-0.50396070515,1.31792597407,-8.13540387559,-13.5644946281,9.89248239556,4.19025248817,-0.688466320076,-2.40014932555,-6.56691414552,-3.44114385426,-7.69946885323,-6.66944998963
off_to_on,-40.8658189368,-49.3990753339,-2.32045689861,0.445579109425,-57.948095971,-85.5850822902,-88.3413615273,-27.3908085046,-0.139963602301,-43.6304547754,-54.3808902663,-82.3643549162,-72.4660115587,-53.7534969994
off_to_on,-37.8096559748,-44.666389275,-2.03841593248,-0.874868566956,-50.6895995458,-72.4654961632,-95.3674350466,-29.5763751778,0.429086801204,-40.4621733071,-43.4536825712,-76.2633228074,-63.6019135585,-23.1027978715
off_to_on,-9.66114707802,-11.3260738391,-0.713506792496,-1.38465928631,-10.640730403,-12.820419679,-36.3919973752,-10.0883374461,0.706885948067,-10.4586902505,-6.71160086878,-20.9134548892,-14.304128015,-0.435990968253
off_to_on,10.0484859657,9.39420174125,0.194261033981,-0.63889976664,15.7157076306,23.6497750222,14.2823518088,5.26606100734,0.658780408861,9.91423087332,9.58723749821,15.2693518204,16.268970064,-46.7080172058
off_to_on,14.1772513174,13.1579258363,0.539987336611,0.584486311791,19.5527946629,26.2099002842,32.9413354819,8.50836664575,0.333302737339,13.8156419424,8.34212235988,23.14954472,21.3306971604,-72.7583574785
off_to_on,17.4681311618,20.8721176473,1.0856590248,1.20400385309,22.5587687268,29.8287546864,45.2263117719,10.9716324013,-0.226295843435,18.3257708153,18.1683447055,35.9018631809,30.1917090321,15.9805441852
off_to_on,21.4444625568,30.890429092,1.78186497994,0.84710410753,28.1041332159,39.8871722614,54.9464466974,16.2354698642,-0.714575470116,24.8373841498,34.1713018197,51.4745939537,41.6425249672,137.97620646
off_to_on,10.6755412443,18.5414472157,1.47581456477,-0.0590371253511,14.9428968944,23.1740635638,31.8567839977,12.3116031256,-0.62682631029,14.6730378353,23.12824247,30.3162144674,22.8947092479,127.294551766
off_to_on,-15.3363729843,-17.6077975189,-0.31544016921,-0.825658343624,-19.4933984274,-25.8925709458,-26.4573164326,-5.52834269017,0.0254012811289,-14.5968083171,-17.5056866917,-29.8441809786,-27.0515840951,-28.1484473729
off_to_on,-31.5989674401,-42.4785575867,-2.23840079461,-0.965892840815,-42.6512634293,-60.031211238,-70.092999386,-21.4479628338,0.443023759006,-35.5131380303,-45.8524490848,-71.1746345599,-59.6975837111,-156.259470427
off_to_on,-20.0811502294,-30.0295193573,-2.51856158703,-0.436617487077,-28.9837356368,-41.5975046596,-57.4841357483,-18.935756807,0.0578618401166,-25.8874218553,-32.0335375787,-49.8590216755,-40.1369605832,-114.992029429
off_to_on,4.72282786936,2.19135500972,-1.03336120298,0.300027222569,4.1779998864,4.69864046387,-8.7245191462,-3.05946336677,-0.481976551074,1.05462337346,2.63513281325,5.29049102695,5.76247368756,44.2206063865
off_to_on,16.8288009859,20.793306188,0.827862294555,0.618368178613,22.2174696552,29.7013238778,27.5978795232,8.70665729784,-0.139745617754,17.2519755667,20.866164508,37.0002254553,30.7500924719,146.536575519
off_to_on,12.5715465357,19.7082014966,1.91085955712,0.371961000516,18.455750737,24.9874796847,36.4245340718,10.351809452,0.821689461717,16.608147222,18.802382247,33.0342919998,26.8530663733,81.728986228
off_to_on,6.96049055811,14.8561777189,1.96677318196,0.0605589392587,11.5564237084,17.229464721,34.9644733228,9.16181251638,0.99861913939,12.7743708412,15.9254153161,21.1452718784,18.0644615444,-86.0466573097
off_to_on,5.45578737108,10.3785733007,1.02737121162,0.134450404724,9.00976540142,15.1225366896,28.0344960235,8.25873212554,-0.067511080379,10.0671485582,14.3823994287,12.5549516193,12.1352388996,-174.043140744
off_to_on,-0.400682535688,-2.93011651623,-0.586918836375,0.329698942239,0.249266080552,1.92833115781,3.3880393824,2.30430017428,-1.04306984032,-0.330133834365,0.0948147491111,-5.93013729072,-3.73267865072,-65.2389466469
off_to_on,-11.274713978,-20.4021065996,-1.7232768665,0.0657971470095,-15.4419623655,-22.4384345824,-31.696800468,-8.41790314584,-0.712032710706,-16.5063226704,-22.2373059767,-29.8299354724,-25.6052295445,141.520382539
off_to_on,-14.3371409808,-22.3231509818,-1.28515402289,-0.606158785417,-20.9184302569,-31.3593699033,-46.2611446687,-13.5084282022,0.215706926388,-21.0970742584,-27.6113612039,-31.5207606212,-28.7572729032,212.918396227
off_to_on,-4.37266211496,-4.87256970149,0.0566568805494,-0.946837799559,-8.64204983062,-13.4480028387,-27.4601087963,-7.46446021381,0.281808081348,-7.3605266929,-8.93684311993,-5.95848287221,-7.5679593485,56.1413291694
off_to_on,5.88533622444,10.5773270404,0.428763274662,-0.515546150074,5.27800109403,7.393187502,1.50916798546,1.38251555109,-0.384604308565,8.04087326889,10.1811702224,14.8698319322,11.5561971205,-150.041096758
off_to_on,5.1380937129,8.619022685,-0.480455851609,0.249395023431,6.2094631973,9.65703050611,16.9639332171,3.85000938763,-0.331450295112,8.92707324893,11.0331767643,9.71355857724,9.95893219779,-176.651431775
off_to_on,0.215423082787,1.11227770045,-0.741545359046,0.67735414113,2.69732135108,5.36373900013,23.0251663276,3.06953320542,0.745792961721,2.19509040377,5.04795127404,-0.542943673099,3.13299605029,-35.4766395263
off_to_on,2.61998463201,4.39882214543,0.801683622392,0.68242784484,8.22707753941,12.9463606961,29.2491129707,6.0994745899,1.33192622061,3.47932245405,8.82521132146,8.72254943499,9.86898436019,70.3195776638
off_to_on,8.62230358891,11.6912460818,2.36339094867,0.562122247386,15.4828467475,21.3255595369,24.619183845,9.47612320992,0.377121822465,10.8742426371,14.0658219661,22.517132435,18.0459707816,48.6281741395
off_to_on,6.06329246424,6.04232928645,1.62880503015,0.323796583479,7.84546846778,8.29926825046,-2.17909738772,4.279803025,-1.04235786835,8.92911492994,3.41224815366,11.2044650532,5.80864974216,11.6763970589
off_to_on,-4.90802400462,-9.82212115032,-0.771470825305,-0.229115778614,-11.3352493211,-18.6172282183,-32.9884328259,-7.57598345124,-1.2641967125,-5.89099537669,-16.6194273761,-18.3473933897,-18.3786140352,48.3515971058
off_to_on,-11.7209047176,-16.8022003077,-2.15351152481,-0.859260479178,-21.0521221856,-29.2112542674,-38.0136005404,-13.5897084404,-0.328109516145,-19.0832753602,-22.3647415367,-30.5501796106,-25.2397626259,74.1311930015
off_to_on,-8.1966779375,-8.50566255798,-1.55637199261,-0.956946332816,-12.4847665892,-14.2084258518,-16.0236221158,-7.77206681959,0.401825545205,-17.5354479103,-8.05507246508,-13.8298152419,-8.43865438803,-2.71675678486
off_to_on,-1.00324897488,2.00884487236,-0.49107128254,-0.379471361627,1.52054500457,5.11142209171,7.7265679924,2.19850549172,0.350648521439,-3.32560664756,7.75452907873,6.86205199714,8.39409768311,-101.878058824
off_to_on,3.19856910867,4.89348064328,-0.0306458970554,0.262825085253,8.27991925375,11.6998776313,18.6900247741,7.07088139886,0.20766495561,12.5925534733,10.9881776241,11.5649517652,9.13266831916,-90.4605004988
off_to_on,5.52688272447,5.18811861786,0.526536508091,0.418665412675,9.58917123057,11.4450271597,22.6448588448,6.55608388432,0.4218450152,20.2519313474,7.27080077536,8.84963798932,4.18163370187,4.61794056626
off_to_on,7.26888328881,7.8317196852,1.52679295735,0.302110458377,9.68107745588,11.7033160035,20.4958777343,4.28833368068,0.472545185546,13.8814222365,4.82557477242,10.008212215,5.71370995243,48.2234189207
off_to_on,5.10658645186,7.22165868729,1.72739386458,0.433961563125,5.07688115072,6.10160301829,3.29008165191,0.518528525223,-0.0454671497655,-3.65075857326,1.21586196788,7.8172704519,7.26254623009,13.8667656683
off_to_on,-1.28583731423,-0.369935704739,0.431682264914,0.758991202045,-4.77774972179,-7.3220951475,-21.1156238271,-4.41667449844,-0.604357211818,-17.6694598592,-4.99922331429,-3.91961220303,0.383812441166,0.0170159392847
off_to_on,-5.47684245485,-6.97662935446,-0.936824483144,0.671495459636,-9.88122680118,-13.7805435017,-25.3700098978,-5.78892607726,-0.563881478543,-13.9855687318,-5.86218033269,-12.1900004582,-6.97335296406,41.0506579343
off_to_on,-3.74998169445,-5.41648164708,-0.965432137114,-0.137764335682,-3.94126698216,-3.95069118822,-1.87472830077,-0.857826932203,-0.124096979165,2.2978267001,1.57523233298,-5.44948494772,-4.72759076329,51.4385131874
off_to_on,-1.24729410095,-1.55807528365,-0.50128447087,-1.21106373343,3.37184389719,7.20351924438,18.8191646581,4.47116606147,0.130102003124,11.0048498608,5.4898319485,3.96222482844,0.13268906585,-11.9078092709
off_to_on,-2.73945376777,-3.43139314339,-0.927454684602,-1.72648489516,0.463996199515,2.06401783108,8.91385785914,2.67899331601,0.137766421763,3.8659976961,-3.18590030221,-0.962235445359,-4.02296354246,-65.4180100982
off_to_on,-3.94521431593,-6.26636379745,-1.39833272853,-1.16986845626,-7.25967939314,-10.9317012893,-15.7605122136,-3.97810067817,0.210620914716,-4.98503459545,-13.5942294056,-12.0572870786,-11.0712952473,-38.0958015168
off_to_on,0.694119091384,-0.65129254914,-0.124016169604,0.292594829163,-5.71923115823,-10.1552305749,-19.3775563341,-6.23085924369,0.328451149419,-2.17043062987,-9.5082655068,-7.98324767094,-5.6574531828,13.9262283343
off_to_on,7.16082607288,9.86648032562,2.18008783091,1.80356156678,5.30553634771,5.27212331759,2.5517089237,-0.930647396871,0.210193885023,4.76165405859,6.14580169846,10.549299085,10.52018969,11.309032265
off_to_on,7.39616895203,12.5817754715,2.71414886816,2.24988289602,12.1081372872,15.6195320646,21.9079243192,5.52611066347,-0.100071940209,2.35612396301,16.1853662912,20.7741949451,19.1881040911,-16.882015344
off_to_on,2.0153985458,4.8239052558,0.671783178383,1.15108885256,8.08746053499,11.5798882062,20.9119125796,7.02878275482,-0.280011930449,-4.92348874396,13.7631203059,11.961303316,11.8112456514,0.626331613808
off_to_on,-1.60987922839,-3.393676629,-1.50381924874,-0.729915288339,0.890862186617,3.71131083945,8.63652452443,4.22774573597,-0.257456671241,-2.918830668,6.4386588591,-2.37364941439,-1.13920138127,43.2389654878
off_to_on,-1.87346935732,-5.88864445988,-1.69041001477,-1.95441394897,-2.85243566309,-0.484285473971,-4.21048719719,-0.0337566906675,-0.19712838263,6.35345062258,-1.5324341211,-9.15776904262,-9.04557568874,36.0385578151
off_to_on,-3.83831260521,-6.90703031852,-0.732367184738,-1.74734305235,-6.32517017452,-7.44817994337,-18.5522066791,-4.99860510034,-0.0676904813566,6.49215206455,-13.1951010969,-11.8272911286,-13.1903956993,-14.8263652319
off_to_on,-7.75963558853,-8.89547843506,-0.318399708426,-0.581440428758,-11.4280169077,-18.6388107385,-29.0790483634,-8.8453884764,0.247318424387,-5.5489409527,-23.4365643758,-14.6970160342,-15.2067566325,-32.1070938782
off_to_on,-6.7374156667,-6.08304119405,-0.212762076293,0.571406462542,-11.108230447,-20.0184129568,-19.9310657581,-7.23972574603,0.475482591302,-12.4277766918,-17.8017120463,-10.3623020828,-8.9444156779,-1.41067890284
off_to_on,1.54751659665,3.97207498549,0.580814792076,1.15911346707,-0.679313810124,-2.77698067771,8.63261330349,0.539364358956,0.199689452991,-2.8822076348,5.28649819565,5.3071375204,6.958547489,9.92881572097
off_to_on,9.43838858484,12.5084240849,1.37227307584,1.09234527425,11.8755156104,19.112776144,30.4251356321,8.10581360628,-0.369561139095,10.7080921774,25.4316003074,19.7233278963,19.9334444582,-21.9201019792
off_to_on,9.78098177732,10.8847045933,0.759452302721,0.445285444407,15.4031324862,25.4711410557,25.8452447543,8.98857301359,-0.496875634202,10.7391252262,23.956798124,18.6994547054,17.6937093671,-34.043369303
off_to_on,4.67819933829,2.60047620918,-0.669221978138,-0.392449648976,9.3895991303,14.6359674998,7.1501602122,4.18252434742,0.00818138885916,-1.41417658472,6.4355457764,5.66024909938,4.21050305534,8.67836761365
off_to_on,-0.594268413441,-3.44652010903,-0.896128823822,-0.670535168274,0.800078099301,-0.515968869701,-4.62272100563,-1.04864257594,0.437880978182,-10.3353062635,-8.61852519939,-6.11533774671,-7.65731754462,46.4510185665
off_to_on,-5.40512336785,-5.56253902554,0.334055284522,-0.085550122446,-6.9565975059,-12.3157032119,-10.5401101898,-4.50752650406,0.235118325807,-7.53463019477,-13.8834872514,-11.8973564241,-12.5993115288,24.0821439363
off_to_on,-9.8198436209,-7.13285552115,1.01174627512,0.523456646583,-13.338831163,-20.117417022,-20.6923569873,-6.60793357999,-0.187721626396,2.57749492916,-13.8866247673,-14.0228581905,-12.6334245907,-17.6041406224
off_to_on,-9.3551909342,-7.20416894352,-0.018230691665,0.0683367331582,-13.9691970981,-19.393145402,-25.4003328362,-5.81763849899,-0.179947314031,11.3048510264,-9.87243987213,-10.3501973809,-7.52935356757,-15.144650821
off_to_on,-1.33321088311,-2.49217077577,-1.3229612906,-1.12593437912,-4.96017442015,-5.53812054691,-7.58810506102,-0.671385753465,0.0939323598423,11.1282737119,0.387350071395,1.18821357369,2.83417945367,12.3809207548
off_to_on,7.91698263919,4.32570835585,-1.14114862698,-1.40789060461,8.02979997241,13.2585295534,22.2870181768,5.17549846665,0.0237600538067,-1.06077804224,11.1130475864,11.9733621371,11.1235638299,6.79404810397
off_to_on,10.0997112543,7.38506569124,0.129549875313,0.0249861633819,14.4317455502,21.5811242116,32.7353244562,6.12701895082,-0.321268242371,-16.6801333177,12.2810092514,11.7283788818,9.82131922109,-23.734812021
off_to_on,6.01787137405,6.66976763847,0.869663149985,1.78463200208,11.6145469998,15.5882369866,14.4702890128,2.57674177485,-0.257464348679,-18.1592086982,5.09076038961,4.70269796792,3.2799962871,-24.6689301439
off_to_on,1.81496998784,5.52492526956,0.617656957569,1.8938251995,4.8213107363,4.10373165089,-8.69685847889,-0.206260541308,0.327803472067,-0.201156936169,0.141792786018,1.85334107481,0.684839804723,5.19033637368
off_to_on,-2.27930759714,1.62587660423,0.243675064456,0.293044597542,-3.5778760414,-7.50025527239,-16.8394168574,-0.940469085453,0.655635595117,18.0414600686,-0.54058123601,0.543749091082,-0.193438978422,17.2802397004
off_to_on,-9.2781782078,-8.47049177973,0.31307908913,-1.18014532976,-13.7854903132,-19.3201965251,-15.7385934759,-3.16720232117,0.20162774447,15.6946962436,-5.0210482936,-9.37242896135,-7.71202856011,4.51317537648
off_to_on,-13.5577452883,-16.5793401275,0.438047572258,-1.21251465818,-18.267684823,-22.9966047044,-13.0066927457,-6.1981926348,-0.476799897093,-0.461478102617,-12.325724792,-20.1952210651,-15.8687787198,5.28961966169
off_to_on,-4.85911138991,-8.70587362134,0.103868811082,-0.418875324284,-6.25632423319,-5.775606433,-0.313728410233,-3.47979662467,-0.526908953015,-6.55791924959,-8.70576195106,-10.4479279096,-7.68530461643,18.3477839398
off_to_on,12.9566335109,12.1621503702,-0.651043326853,-0.0356210698028,16.4100037463,23.9969280576,22.5847464717,5.82810895459,0.00340752297486,1.37818269517,8.55931797649,18.506795424,15.401189351,1.70132181561
off_to_on,20.1465917617,22.7291345835,-1.30629053637,-0.137213996532,25.7025290893,34.5193706055,30.2460919528,11.2019110756,0.313721114167,2.79117903667,19.2753666675,32.9827138038,26.2093937686,-32.9754716114
off_to_on,5.91274737908,8.22731007497,-1.18827680219,0.080050391317,8.13474666244,8.77683058501,4.41990124188,3.93272127964,0.0277280414081,-11.1950090048,6.54323014368,10.2091198521,6.92148716883,-19.7785672935
off_to_on,-14.7322170028,-15.6775160728,-0.0600670743805,0.740250477857,-18.4120363416,-27.8069096984,-30.5133827625,-8.94998860753,-0.323423220604,-20.1838159532,-15.9514018675,-26.1619773226,-22.428588159,38.7579402798
off_to_on,-19.0419407385,-21.8664182551,1.25719694013,0.987166866909,-25.0460734222,-35.6128726401,-33.8938271432,-12.4741938732,-0.0981074079972,-6.03167397748,-20.0956798824,-34.5483516259,-27.7537683213,47.5607591864
off_to_on,-4.91513813483,-5.99605746596,1.45459696238,0.306209133338,-7.2601507509,-9.16100013163,-3.63762677599,-3.28155828566,0.535112341101,16.975312627,-1.45489081347,-8.80820016722,-4.98840198769,-29.1506819501
off_to_on,9.88751314279,11.6498727093,0.437370270274,-0.615748670867,13.0612234793,20.5814944978,23.2847308899,7.21454455937,0.740984899979,22.2495755861,16.586254723,19.2109675373,18.1196645458,-88.1923724729
off_to_on,12.6517844013,15.0581534494,-0.327150548574,-0.762722723788,17.7625219811,27.6971986179,23.1203370572,9.08696861338,0.046908536308,8.56610693614,16.075671045,24.9724335644,20.7059792362,-38.5219817122
off_to_on,7.2195664931,8.3515591196,0.0728517926239,-0.127777677602,10.0269251237,15.6477688827,9.47510627741,4.60599450791,-0.943335387679,-3.48275480177,4.23749477699,14.9134631679,9.6664786084,54.3494271841
off_to_on,1.3177390426,1.66234963466,0.468789791169,0.315292343726,1.03698877695,-0.0453193870999,1.42036483755,0.489413569897,-1.07919200416,-5.2165035694,-4.05314650495,3.72149123505,-0.123742927636,76.420554464
off_to_on,-4.34512570028,-4.0024359604,-0.534624660705,-0.0691622729028,-6.07949955391,-12.8212759493,-3.77844509484,-2.24963884246,-0.029742108249,-7.05511416408,-7.10609353552,-7.47007180746,-6.97418369978,40.9090490515
off_to_on,-10.0571180119,-10.8769035933,-1.9918683588,-0.698744108166,-12.3000055651,-20.9935220405,-13.8507835259,-5.54548701121,1.10979412728,-13.2819494728,-10.3877606146,-20.0800122864,-14.5563196835,27.2928654584
off_to_on,-10.8328153443,-14.2810208015,-1.71424587925,-0.481255884699,-13.7671682945,-18.9860436212,-21.0031780399,-7.37275822871,1.00113850442,-12.7269600928,-11.8352260065,-24.307010808,-17.6056941347,8.59214991296
off_to_on,-3.54652784739,-8.24023521543,0.351250844939,0.699342715155,-6.57295063061,-5.16556639535,-15.1702290274,-4.3416397526,-0.203527048389,-0.306371181542,-5.60407492358,-11.7353978926,-8.93361280126,-90.3220749809
off_to_on,5.98022527965,3.98381915526,1.87965955563,1.58454317357,4.90456595975,10.5716028115,-1.37986867827,1.66815010297,-0.947724628675,11.5621651699,5.69605534962,8.78238661431,6.60604940012,-186.718724884
off_to_on,9.89727650506,13.2293968934,1.57207651862,0.941501073507,12.4738866773,17.6590528648,11.5007819544,5.49223261091,-0.339876703863,12.3574724944,13.510103775,21.3578123022,17.0044851658,-97.9198225141
off_to_on,8.09226792916,15.2212398774,0.71787200864,-0.795492527619,13.6603577906,16.9673454933,24.1233613976,5.90516065366,0.593855590954,8.50361009132,14.7806897316,22.1392289769,17.9828911355,150.494020727
off_to_on,5.08419241324,11.4482596081,0.5627814873,-1.81716053543,10.5932255651,13.5774795462,33.0648713197,5.54510499502,0.409889364988,8.23514789053,11.7966330143,16.6163289816,13.2828118574,278.477342292
off_to_on,1.25463698182,2.69041010978,0.209863239195,-1.05609321133,3.25855937474,5.03939399121,21.0589560735,4.4978532761,-0.580817364185,5.42853378487,3.84252592992,5.18568850353,3.94791037447,122.877842
off_to_on,-5.6855771135,-10.338106768,-1.33082907571,0.521169894556,-8.63671237578,-11.9483760931,-16.7501298162,-0.288916415864,-0.760283006066,-7.64905479578,-10.6974842803,-14.2033181497,-11.4112183327,-121.709617226
off_to_on,-12.7299177834,-21.0488092056,-2.70705220182,1.20434689732,-19.1461321269,-28.2214336236,-49.8215864247,-8.25846058406,0.30095322694,-21.897256622,-24.6032317903,-32.2074349752,-26.2327354275,-186.029574599
off_to_on,-12.6214937538,-19.809987225,-1.94111652737,0.656442787078,-19.2054954079,-28.2597923085,-42.8249229476,-12.9081358168,1.10512319587,-21.2902174281,-24.5902750584,-31.8796700492,-26.9792633606,-94.1966909224
off_to_on,-3.43534284862,-4.97163834599,0.408975374989,-0.040758716,-7.01403779657,-9.27820637234,-3.54537399908,-8.78114289906,0.455337503522,-5.52528447617,-6.9792515778,-9.14254361012,-8.59003134968,-43.352008843
off_to_on,8.19992330292,13.513287193,1.97495655537,-0.202033910531,9.57184363921,15.1454557927,26.8821508167,1.87978807898,-0.737559101288,11.1505442221,16.0114636631,20.0341817229,17.0790662639,-39.0305311823
off_to_on,14.2622909551,23.0746699677,1.9292184233,-0.29105067853,20.7572651943,29.981816042,29.1828833255,11.3379480832,-0.840017349875,19.4095045127,28.3531499222,35.4142697026,31.59661759,72.3515384732
off_to_on,11.9215231956,18.4729626041,1.41889001484,-0.627021320832,20.9019528541,29.1582343113,21.72769479,13.4132498188,0.0999095964262,19.6840992076,23.8853586009,29.1034569681,25.7293067875,243.809935117
off_to_on,3.40250782737,3.71339229139,0.911923444286,-0.52147186143,9.33043326795,13.5479892437,18.6829560457,7.5142864823,0.5980244329,11.8405319988,7.29691131235,7.22705069094,4.95232666628,212.906577332
off_to_on,-6.1533139799,-11.4578264233,-0.411342028373,0.462257191517,-8.17865538882,-10.0104091656,6.72336218851,-1.91110346883,0.0710919667177,-4.12400535265,-11.8105049458,-16.1806422715,-15.9270930314,-73.5060563088
off_to_on,-10.6941876762,-17.2812303475,-2.23770109286,1.26921910472,-19.6530360321,-27.2464599179,-21.569846172,-8.58724825228,-0.440919604094,-18.2495141616,-23.233440392,-26.4585617373,-23.2763269157,-298.422923182
off_to_on,-7.91789885138,-11.4461475333,-2.59056509444,0.614525924378,-16.5497720315,-25.9319221576,-41.5127845302,-9.05109694614,-0.0901108480839,-17.8961843054,-20.9155989553,-18.828022614,-15.1288684873,-202.412564427
off_to_on,-2.53875374622,-1.85321760798,-0.826984803775,-0.905938955762,-4.35823676146,-10.4551319511,-28.7729585819,-5.39312406931,0.491738244445,-6.74950264329,-8.19259813758,-4.15254289037,-2.62994283932,48.7152993497
off_to_on,-0.60005691719,2.20662959058,0.956072735433,-1.35263231771,3.45435950275,2.72667023749,2.20280267488,-2.02844560059,0.360397467609,-0.881199293552,4.7879385577,3.03693192933,2.77336336763,135.988213493
off_to_on,-0.674226612461,1.54648003798,1.00504712341,-0.183846553266,3.27172184503,7.06380428133,19.3348239588,0.224033114779,-0.231698591555,-2.86059755196,11.4863016416,2.83817384608,2.77243241815,52.4880157705
off_to_on,3.50533178599,4.25793201733,0.526726999665,0.914943015358,4.55352140177,11.8853860698,18.3167425437,3.97498918524,-0.393593470539,2.49280690957,13.3719048928,7.02919363997,6.92573713727,29.74867257
off_to_on,11.08060742,11.3105986188,1.28752892832,0.514429529727,12.2247029015,21.5726291787,18.0659889707,8.80626260107,-0.0716183078535,19.46602949,12.7255947708,17.1968128927,15.1751909741,105.421134725
off_to_on,12.3361207808,13.0090722657,2.18542867602,-0.475343331386,16.0232370745,22.7030340339,20.4157647984,9.38433713166,0.0420563687232,27.443311406,7.42598760521,19.0840390981,15.5593175831,78.6178752017
off_to_on,2.48631559727,3.33879763032,0.819679330639,-0.294048712331,5.3896557087,3.71464510784,7.63133345426,2.75837890391,-0.17963740658,9.78931107474,-2.96654928968,4.55140925665,2.46029342845,-101.294526255
off_to_on,-9.73215836871,-9.6694328639,-2.26366488583,0.892076547917,-12.5020091857,-22.569554359,-19.5302917181,-6.01033739405,-0.11021502905,-17.9629100056,-11.8575980114,-13.611599974,-12.848621633,-206.467425869
off_to_on,-13.0016186868,-14.126021378,-3.69093239428,1.15216990084,-20.3160022839,-31.4169598708,-33.5591929979,-9.4192190345,0.422512390426,-27.2944739613,-12.7169370153,-18.8548277371,-16.7266290242,-89.7934810476
off_to_on,-7.57349781824,-9.29313059272,-1.82673589061,-0.343502551554,-12.738399842,-17.1666350516,-19.5877306762,-6.43108186531,0.673274417091,-14.7854762573,-7.75144105954,-12.6441863654,-10.3781744643,79.8054334032
off_to_on,-1.67384615461,-3.15297417748,1.16739634177,-1.9622902297,-0.53946906748,2.60800685118,3.03130206986,-1.84146298318,0.114977602641,-1.09702239687,-3.25595235105,-6.88729552768,-4.01947527163,94.5938381926
off_to_on,1.74677837796,0.770445777413,2.47962361771,-1.67233784833,6.38564760469,12.4946363037,11.475229173,1.25734853897,-0.659686598798,2.83550721161,0.260048582897,-2.9965362278,-0.292661607224,18.2675366836
off_to_on,5.93238987257,5.33793063352,1.80410657159,0.362462926857,9.08179742688,14.1391795461,9.45278169972,3.56215210559,-0.725772694527,6.39394955712,6.07256839738,6.13189535083,5.63630351948,25.6262225676
off_to_on,10.1414415186,10.3504090907,0.481423474956,2.01630456874,10.8261156757,13.8459828083,10.7385690432,5.11756078213,-0.0828834701965,15.0732553112,11.9395915286,17.6262766571,12.9219539413,85.5454546467
off_to_on,8.4456292281,10.5453665547,-0.622162171763,1.71732116546,8.94189241066,10.0173889671,12.4322975045,4.21573804367,0.456188904332,17.7465444854,11.4237263861,18.9749784463,13.9461167269,37.1179893201
off_to_on,0.180682260985,4.35594107063,-1.14465405863,0.0614128619082,1.038837857,0.210941514883,4.82322209236,1.37360678584,0.407499271819,6.4286771814,4.32152683726,7.59987045826,6.6908667689,-100.710163409
off_to_on,-6.83847691615,-2.9230189213,-0.696595929469,-1.1367914726,-7.69758158867,-9.71036443451,-6.17406639328,-0.403410319128,0.0829999714871,-8.37853682999,-2.47895901052,-4.77013358794,-2.11732383509,-140.193408901
off_to_on,-6.91660491236,-6.94677353117,0.289493605865,-0.95366169171,-10.1785993828,-12.4080130355,-8.15591121263,-0.651328586889,-0.0485697864545,-13.3208700526,-5.6979199643,-10.1466533577,-7.83706851734,-33.146036696
off_to_on,-3.61812858195,-8.79229225238,0.413698780572,-0.17930860332,-6.51134659073,-9.03234418323,-4.81631952078,-2.27218762881,0.0194172328218,-10.4697539004,-9.06900343648,-12.8097611888,-12.2721465916,58.4036237106
off_to_on,-2.42494458421,-9.25041256393,-0.616193489753,-0.0467185279418,-2.04486197039,-5.13586803167,-8.12126933545,-5.57176122628,-0.00783020270292,-8.38670025511,-13.4670201414,-15.3778208133,-14.7868131665,36.2802801732
off_to_on,-2.24380212636,-5.39019542749,-1.01925401229,-0.505763539722,0.622686559749,-1.57981516681,-13.8116582015,-6.08965096076,-0.236313440247,-5.70966844787,-11.8483783634,-10.6601407818,-9.27778854131,3.6401046826
off_to_on,0.705703120315,3.21339688419,0.361572195785,-0.326312742952,2.66541954645,3.66180769323,-6.72059246815,-1.28342593801,-0.423689375755,2.93015911756,0.498008448148,4.23506509122,4.7185401728,50.1123336844
off_to_on,5.16145255564,10.4433799406,1.71160860688,0.943081105551,4.44700645287,8.74076273307,11.3104506317,4.65880800748,-0.234821229612,12.3742840526,16.1739635769,17.51981891,16.4301815997,85.1540591472
off_to_on,6.71960808052,10.6234653031,0.765065329031,1.87977029065,4.86973891253,9.84509030035,20.5584486097,6.34810273848,0.345313729735,12.7939105661,22.1353192971,17.1129053812,16.1536747944,9.09376073128
off_to_on,4.59309284653,5.47192677889,-1.3111778173,0.90177271281,4.02240009656,7.13867318797,12.6841465434,4.21535779103,0.811381610693,5.88532232905,13.3717297376,6.99895985138,6.98302667926,-94.7394241551
off_to_on,1.31710117591,0.0233333138402,-1.31894016567,-1.2877298909,2.5589469242,3.09924844841,1.00064498666,1.99594403612,0.538013288245,1.53461372111,-3.39022310512,-0.948494324293,-1.79847378167,-89.2558317606
off_to_on,-2.00331514461,-4.06686495522,0.929986051802,-2.21402719969,-0.200806126829,-2.13172308065,-3.01992488524,0.270575708938,-0.412853418411,0.71918678383,-16.5615445733,-3.96231644512,-6.74642768078,-4.82524805381
off_to_on,-5.26552111894,-6.80778276247,2.03544002881,-0.831495545352,-4.17489960739,-8.28775724449,-4.53927288634,-2.56113897835,-1.09839451612,-4.4185479616,-17.7006657632,-6.50656381026,-9.00384618458,27.1570767172
off_to_on,-6.37061935765,-6.33574530661,0.176870368057,1.04077346266,-6.53396271339,-11.3581100508,-9.58141334207,-5.11824640932,-0.693744074181,-13.6857124772,-7.1873993845,-8.44993971661,-7.67792879648,-3.61665160993
off_to_on,-3.8290999638,-2.76870162147,-2.08424899031,1.24701510117,-5.45329675656,-8.56674118016,-12.3303324268,-4.49538804234,0.421535880842,-16.0631194657,4.69767853685,-7.29520910456,-3.11590844968,3.87779229577
off_to_on,-0.532900490866,-1.03419914433,-1.78000396543,0.152874354446,-3.33348239882,-3.51503130754,-7.98787540793,-1.80784088742,1.04699337027,-6.64013691646,7.02243533184,-6.4064839554,-1.13947476702,60.6821165802
off_to_on,0.433523435798,-3.03198752983,0.168223618101,-0.310085533253,-2.0219670866,0.160514806508,-2.574113033,-0.567653720036,0.63600402434,5.90516148385,1.68974032189,-7.75787423477,-4.01519165929,65.411262681
off_to_on,1.73129701586,-1.53638748178,0.953022617154,0.274126718697,1.80331788613,5.80009398034,0.854714023291,-0.00087492387565,-0.154030669184,12.654121865,1.26603253841,-2.07327017571,-2.35637448138,-7.09770324088
off_to_on,6.94477022585,8.98420085434,0.365693281416,0.426911313504,10.1218299403,15.6072391046,10.0688946238,3.66583797161,-0.521638557113,14.0348776715,9.17816681173,17.264823858,11.4179529461,-53.6578956687
off_to_on,11.3848961801,18.9089622566,0.420849652564,-0.536337717395,15.3963820553,19.9929789623,24.6303252808,8.69331985481,-0.495820228851,11.9554620917,11.6044638648,33.8935209679,25.0429649206,-22.2812369215
off_to_on,6.30646858598,12.8382865896,1.40361510036,-1.24669825893,8.02669423636,7.76256396126,25.1905909922,7.7948999581,-0.449252434738,4.48408617415,-1.56523423429,22.7565025717,17.7648882493,0.303815911367
off_to_on,-6.7481594119,-7.34849434203,1.33124845559,-0.46163943242,-8.09486853863,-13.9257590547,0.408120059996,-0.710255246392,-0.241196749308,-5.69466850596,-16.8931992035,-12.4651094713,-8.96516288829,-46.7734860062
off_to_on,-14.8208579844,-21.4626251496,-0.520388423716,0.913415617812,-17.2640988684,-23.9492233284,-28.2778539956,-8.49565307874,0.411179505134,-10.1400539544,-13.8320982287,-37.0952774,-28.6189204748,-73.2446029879
off_to_on,-10.2561489027,-16.8184236655,-2.2197231737,1.17411430697,-11.8537090592,-14.5576070694,-31.2021350927,-8.37786299619,1.02498680725,-9.66106689197,3.80661007861,-28.9785282251,-23.3027116463,15.8324488056
off_to_on,-0.368522998282,-3.09451552524,-2.05831038139,0.2668987815,-1.19393651646,-0.523246821916,-11.4206850869,-3.83821220588,0.731729239022,-15.8374875957,11.6847183871,-4.94263017745,-4.97524177491,138.117966628
off_to_on,4.63159210987,4.96169893993,-0.69794740711,-0.459129622621,3.78536517237,4.48844005362,3.44275644798,-1.60955297958,-0.364747575678,-25.6952040091,1.23697530991,8.44110155044,6.28706173672,127.164246436
off_to_on,5.32738042129,7.57778833946,0.493739125785,-0.431188980326,4.9562412074,5.92230809848,5.15213644279,-0.337329103666,-1.05761910613,-12.5628261329,-8.19716335872,11.2304533718,9.99301724544,-28.6060404447
off_to_on,7.18446051697,11.9155032803,1.35606087428,-0.338005841579,8.38725772509,12.5561028793,11.4601080581,5.07925873071,-0.609461877068,34.3405240138,-1.14780478002,17.8259978137,16.1120538885,-156.627031106
off_to_on,8.00233583603,14.0726615735,1.99688701299,-0.524740557497,10.3273874269,16.7152970853,26.4124787893,11.3168676295,0.253527101643,73.2731214481,9.75511806252,23.7776492116,20.2456109089,-115.05437917
off_to_on,2.01973405696,4.82921967023,1.64798791675,-0.334317428658,3.60535769399,6.62615351406,26.0342952791,9.07515912501,0.449147356209,47.8101410645,6.15839160655,11.9178270151,9.0617943002,44.5630842667
off_to_on,-7.0312148322,-10.7656261218,0.018984277332,0.550048629297,-7.03161041387,-10.1983757976,-1.95302692164,-1.97158028206,0.0500399801859,-34.0297100865,-5.19668848685,-13.5705704631,-13.0820115063,147.51915254
off_to_on,-8.85495079211,-16.180343088,-1.47698295682,1.24843712111,-9.43221718043,-15.0942267945,-30.8087480253,-10.4115140491,-0.0662170036907,-92.3294367134,-4.83585343786,-26.750082248,-24.2346444246,82.9410973332
off_to_on,-2.61318079204,-7.13441786907,-1.50876495996,0.847690576204,-2.93490302009,-6.71195872086,-29.4515405698,-8.46889729136,0.287033434798,-66.1412348474,5.50252093958,-16.9597523023,-14.9277052476,-86.09657445
off_to_on,1.30854675491,2.32423423308,-0.842758329408,-0.318229014012,0.518512816621,-1.83565925668,-6.015513509,-1.83610020014,0.393231107239,12.9769590567,5.43146517082,-2.22823413123,-0.146857008522,-176.112406441
off_to_on,-1.90186449132,1.87589088746,-0.843411869073,-1.181486591,-3.77069489028,-6.38944825142,8.19249162573,0.720657652763,-0.0819151191777,63.7282134307,-8.86925710742,1.76755217864,5.08253524812,-67.3870928637
off_to_on,-3.83910122073,-0.876731039466,-0.881295316974,-1.18188748263,-5.51197309387,-5.77780473339,5.60165418915,0.180848669176,-0.506013733529,52.6331004956,-16.2266839983,3.36643114665,5.31141732328,142.145031632
off_to_on,2.52398024796,3.80572911237,0.575686445906,-0.465442135159,2.71694300669,8.49876264745,5.18991896515,2.53965666461,-0.316794715051,15.6365533352,-3.72371101345,12.797233017,9.7231389634,215.959048233
off_to_on,10.233278632,10.1239063255,2.72069517086,0.573665785313,11.8164515706,21.0671060342,13.848839306,6.63173952527,0.0991835872609,-7.90725682526,12.7140420715,18.9912086702,12.6445638325,57.8037352674
off_to_on,8.70635452005,6.89025137351,2.80229246956,1.32168197128,9.84146604607,14.8219984839,14.9774187331,5.74625223508,0.107760359403,-20.198543921,13.1075659443,7.97765768199,4.36727272956,-151.957561164
off_to_on,-0.137000354492,-2.83497140361,0.197812190414,1.06397077552,0.401896410234,-2.74903515599,0.275088170432,-0.50362058023,-0.139886657641,-33.817961542,2.24053585441,-9.68383078525,-8.29491062095,-179.494313928
off_to_on,-5.82451041745,-6.3278520138,-2.25178322337,-0.137406283048,-4.26320042099,-11.5818827988,-13.4129188865,-4.77652196545,-0.0556346797482,-34.7317029636,-2.11229793439,-12.4791102889,-9.9075386894,-35.470036996
off_to_on,-5.29607297208,-1.82653039648,-2.08194445085,-1.07251845511,-2.84706087282,-8.46014322033,-10.7420188122,-3.26989514219,0.337059645769,-6.205616911,1.89272031261,-1.68813413096,-0.986270537046,72.6870005246
off_to_on,-4.52473265592,-0.313537062332,-0.429687208351,-0.733807838911,-4.36005194168,-6.54072745178,-1.20130559264,-0.713340160417,0.453232769343,31.4879640352,1.32148642881,1.48651712552,2.50127778535,49.7165295999
off_to_on,-5.64732839561,-6.12642551843,0.148337679004,0.245362278838,-9.90073967676,-9.7532619979,-1.01551682916,-1.61308877983,0.129958291457,39.4917603493,-7.16392620476,-8.93548229484,-5.24530069447,10.4048656353
off_to_on,-3.2451302206,-9.20776107934,-0.456222580124,0.437519091217,-9.00951844065,-6.87735528898,-6.83895326592,-3.12321739156,-0.185146637062,13.1902223122,-12.3421361538,-14.2212305087,-10.8175134974,47.4384005819
off_to_on,4.53350879802,-1.39142191116,-0.295039954088,-0.271938452156,2.72601646195,6.62936482403,-4.45466809957,-0.778321417987,-0.272761890629,-12.8633728779,-7.59069679215,-1.49308921523,-2.95315165401,75.2145198229
off_to_on,10.4264304405,10.2628948852,1.15400704915,-0.563275616021,14.2226805441,17.8729770254,6.12008425904,3.61328986062,-0.409749021049,-14.6557385043,0.699476339562,16.1219074011,10.6267013572,-1.79102140504
off_to_on,8.08977452512,13.54071938,2.12585114985,0.19397557355,13.4555986981,14.7252970046,11.8398554685,4.92365537467,-0.580602941551,-5.9771836594,6.29867212638,19.7595048151,15.5632343945,-103.197610601
off_to_on,0.970041369767,7.14485301914,1.30102503901,0.91823943623,3.19514363458,2.47739446821,8.29383574401,2.59594771229,-0.217640665916,-7.12856857369,10.9005688448,9.95276740747,9.85222695047,-92.3013982679
off_to_on,-3.76892465744,-0.919389256876,-0.422264858853,0.511904424693,-5.0132426326,-6.04994735839,3.79529560265,0.451580882005,0.755761212042,-11.631274,14.3360353322,-0.498475485869,1.39387566746,5.05312000916
off_to_on,-4.93089738381,-5.90755961649,-1.45820475444,-0.445037092388,-6.61600837042,-7.81493241297,2.56735114441,0.00983606322215,1.30556164031,-2.6630212604,9.63948702874,-7.17742097783,-5.83424821744,50.2376685232
off_to_on,-5.52507917689,-9.04890233548,-1.47511390668,-0.638757782433,-5.87477602608,-8.03600818319,-1.47581199809,-1.11715313131,0.524936793762,14.1603798949,-4.89506894083,-13.6509738929,-12.6754552089,14.5203387618
off_to_on,-5.42417067331,-10.243869265,-1.06098635455,0.00735819400765,-5.61067136036,-8.18046667247,-11.2515807002,-4.04023969926,-0.888194206469,17.8025472401,-18.1559663107,-17.533308466,-16.0256923232,-1.0861443893
off_to_on,-2.03284359356,-6.31108660644,-0.467638239838,0.400226753849,-3.56500844751,-5.09716387286,-18.3036354122,-5.86994847103,-1.3280491004,4.99629453713,-18.6098194553,-11.4440564016,-9.92844693717,40.5823377396
off_to_on,3.58779836171,2.65373500627,0.402273367162,0.0286805279824,1.39405486749,1.27548477614,-13.2410020082,-3.53670097241,-0.391516249757,-5.82089231489,-7.80455104008,3.61909279023,4.29419306682,52.4128978713
off_to_on,6.8912722571,10.8279466765,1.29469357912,-0.445771446409,6.09286549552,7.30205078268,2.29285335383,2.02281355925,0.642419596419,-4.14041330106,4.7279222855,16.7883837707,16.5435309656,-11.5604523719
off_to_on,5.78889653273,12.3352837065,1.65311733667,-0.399895710792,7.31787538912,10.7603192048,17.5760198412,6.68448836099,0.643707288794,-0.93855396217,13.2381309571,19.4746943846,18.0478222128,-66.8180090958
off_to_on,2.29368612173,6.49942816061,1.17001174382,-0.0679893287736,5.07329218168,10.655406609,22.260447935,6.94202811808,0.032354158349,-6.63301073845,15.7963949909,11.8036577843,8.76192893518,-39.3080235744
off_to_on,-1.27389204069,-2.65160605524,-0.0373964088803,0.161157213646,0.970985939918,4.90122814629,13.0498116883,2.64765141708,-0.161483922431,-12.5404546894,9.97001189334,-1.35045148102,-4.69914416793,14.6592682712
off_to_on,-3.96378676778,-9.33421456424,-1.43159488326,0.436155614795,-3.23983874911,-5.54026903661,-3.72483815782,-2.84077054095,0.127605188,-5.71730585977,-2.38254941581,-13.215386669,-14.0487322538,12.6945848472
off_to_on,-4.6711049883,-9.17664899599,-2.04093663062,0.877363481468,-5.44774959333,-13.1722780777,-15.5919299413,-5.33518481666,0.180750712452,9.07832062284,-11.2573053325,-16.1011153582,-13.4969668561,-16.845900134
off_to_on,-2.80499877458,-2.95358140368,-1.12060312057,0.905729757777,-4.67776829928,-11.4922388953,-15.08157999,-3.7737947486,-0.183054310251,15.8374892623,-9.15120200974,-8.08621508127,-4.36993489945,-0.110583902328
off_to_on,-0.270312994375,3.09416706324,0.716444096331,-0.0990643911281,-2.64933214999,-3.69071163319,-7.15489458454,-1.02950468182,-0.393962266352,9.96951620139,-1.97527446398,2.16681537827,4.63743674482,43.5058776092
off_to_on,0.713923154255,3.81076027911,1.70779884156,-1.60946539436,-1.04198135619,2.68625160243,-0.834463419132,0.23082077273,-0.165373899506,1.39012622864,-0.0873500381746,5.09588428128,6.35553276148,36.9755180499
off_to_on,1.19838007223,1.19419574412,0.942054180374,-2.1049043627,1.43875387198,6.37691788173,3.19934392945,0.890953682029,0.107323001876,-3.05328866601,-2.393985462,2.99538698419,3.26777240713,-15.0240253693
off_to_on,3.0901174891,0.433641540704,-0.429464897971,-0.711101781071,5.45618443671,9.57922523092,8.41198504295,2.48068465139,0.131851685669,-7.2598144315,-0.440122117026,4.20876846271,1.99850102553,-33.4385121862
off_to_on,4.20933258927,1.6140510352,-0.748782253786,1.5663204444,6.65049769717,8.52566772006,10.1798218096,3.07443142959,0.156159620684,-13.5928120237,4.9216128858,7.23538599343,2.34392942607,-2.00648309812
off_to_on,1.05185063605,0.882898634138,-0.0410581535947,2.60203622408,1.08312714381,-1.15663936852,1.79905578307,0.222011133929,0.315638035322,-14.3282215822,4.86945825957,3.31425778783,-0.432410325575,10.6588475939
off_to_on,-3.76733169605,-1.12760315096,0.38299981705,1.31529765486,-5.91656332102,-11.1683898165,-8.18223008482,-3.16806767564,0.218234513418,-2.56022537921,0.220506836932,-5.34033422471,-4.11563736753,-21.3538614329
off_to_on,-3.48941581707,0.340368385264,0.0814522972839,-1.03559350128,-4.61682796572,-7.42181525774,-2.93227208261,-1.5448694676,-0.326234770042,14.560382688,1.79501574598,-5.61508995878,-1.28561196568,-34.4601910621
off_to_on,1.81477049064,4.10027825795,-0.12093318202,-2.06544717933,3.87863740921,6.89073767599,13.3425585589,3.87853398522,-0.702378952373,21.5385563203,9.39150078375,3.64491075192,5.81895933424,8.45159631576
off_to_on,3.5420587985,2.01930206847,0.121155687916,-0.909039402919,6.54195737908,10.8387863771,13.4987019857,4.74480468384,-0.277665574374,12.1823328079,7.17632009362,5.53096650115,4.56676957273,47.285558863
off_to_on,-2.2778018417,-7.33357693813,0.0121445910725,0.778949071309,-2.59861400752,-3.81203187096,-12.1734845931,-2.22981332378,0.526637136022,-4.00979679498,-10.5666114512,-7.92096905512,-7.83970819834,24.864475496
off_to_on,-7.24248610844,-12.2971073457,-0.765662892508,0.920711421607,-11.4372041042,-16.9493872303,-33.0879442175,-8.61022233813,0.695190111032,-13.3189956153,-24.2453653392,-18.1007317098,-15.2700467096,-18.097195358
off_to_on,-2.66178321885,-3.45947889165,-1.08200998608,-0.330568893852,-6.41406668953,-8.32655905114,-17.7054561298,-5.44106228485,0.0581234515653,-11.6243121155,-14.2941687945,-5.68735425902,-4.53733974925,-16.188578238
off_to_on,6.25656485417,10.5364072777,-0.00120441404987,-0.951060453398,6.73011423897,11.0879979241,17.9974133849,3.42034592077,-0.481056489526,-5.47543804837,9.10169988043,17.0147786793,12.8515301192,12.1759176385
off_to_on,7.39951325992,13.019545618,1.50330000512,0.0340779249251,10.7188901241,14.8302818462,29.9956821277,6.73450149107,-0.28509450602,-2.08158281212,19.4752358768,20.840862004,15.2400278841,7.25052861468
off_to_on,0.0453214374,2.47218417572,1.6729960917,1.22187137329,2.20023255993,0.932118429427,9.01205635613,2.31783214978,0.171587630055,-1.04057249575,11.0612595705,2.37233998128,1.99375875928,-23.735387217
off_to_on,-4.29633586923,-5.94422404473,0.340718210688,0.957537742526,-4.2401393604,-6.50426258917,-8.79142406022,-0.901636739471,0.166401933407,3.13055141219,2.28150970759,-11.5020740331,-6.6947583335,-25.0896364735
off_to_on,0.0504966312262,-2.97572583613,-0.989390618003,-0.321995146266,0.573026284673,3.45536533368,0.295689328648,2.015575514,-0.167482589748,11.2795792054,3.30282142193,-4.57142897642,-1.18745899669,5.33008943489
off_to_on,4.47125310746,2.48973017042,-1.25291088813,-0.929847156779,6.42403568788,11.0898946375,12.1228162036,4.13763177713,-0.197388179273,15.4321588356,1.9606401918,6.04342728123,4.25634430742,17.9687374499
off_to_on,0.0760183823303,-0.885294394591,-0.845581265857,-0.403795421177,0.406620769693,-2.08693257941,-3.46615844853,-1.56727882703,0.121681574985,7.45420021212,-11.009856705,-0.680477206234,-3.80594448735,4.73476442518
off_to_on,-8.25812530627,-8.86921548009,-0.431069678791,0.173237740394,-12.2594349637,-22.5077063678,-31.274308614,-9.83139372467,0.239283355221,-8.81299077979,-21.9770168166,-16.1406321664,-15.3632540376,4.95997149719
off_to_on,-8.96025587308,-8.51242207705,0.106424914764,0.0649970841306,-14.8075307342,-22.3361308691,-30.9003319971,-9.67570466643,-0.00274698334735,-18.7447052044,-13.6371180645,-15.649890451,-11.6197547159,18.535398034
off_to_on,0.065101926441,2.35042546149,0.967541646842,-0.249896677809,-1.93177117198,1.925013442,3.8688246521,0.241074645386,-0.108025146805,-12.8187022273,7.90362097586,4.6675872459,6.85511906953,2.45221202927
off_to_on,9.61566683226,12.2256075208,1.53195415527,-0.217145734285,13.8140579351,25.5937990889,36.0336432477,9.99732396913,0.169371546997,1.91246891837,20.7289139804,22.9813448382,20.5545159236,-33.3268895089
off_to_on,11.1610890814,11.2885549701,0.96545143381,0.0162927360217,17.8283925794,26.9322580418,34.6482857597,10.9526161554,0.311922387177,10.0688696411,15.4289709455,20.8832873859,16.1742200979,-21.9622816773
off_to_on,4.47192901801,1.68069122079,-0.541782706455,0.292708633144,7.95310217651,7.97125721969,7.68506645289,3.9326425828,-0.135801351672,5.86612308893,1.88494598848,2.41246576039,-0.354429408929,36.9988600347
off_to_on,-5.07017901842,-7.72175456162,-1.74248559829,0.756565679154,-6.81615668435,-14.2802461879,-17.9891243873,-4.67693315857,-0.6981033894,-1.75301414877,-8.11791758501,-15.7836882753,-14.5979528902,49.0509690903
off_to_on,-10.87483446,-10.2797759324,-1.538466491,1.0118194994,-15.2805353192,-24.3846423503,-26.8795494783,-9.21480898909,-0.542417762212,-1.80186037477,-11.0631461259,-20.7357184329,-17.0462741357,-25.1888938064
off_to_on,-7.98506138189,-4.66933372686,-0.0128381626394,0.186122209524,-11.1887472775,-15.9351490836,-17.6166993446,-6.7074623652,0.274170348996,5.54903764991,-6.38149545806,-9.21684289743,-6.4187062728,-86.0311654893
off_to_on,2.1734057506,4.76453406444,1.58985602981,-1.40137404421,1.92909963721,4.76881203927,3.91847501672,1.52907856479,0.799317694347,10.455171149,4.30673144717,10.2094767137,9.7999375731,-40.9373478876
off_to_on,9.86419642168,9.18921294055,1.81575171983,-1.86928560477,11.5118699177,19.4370724976,21.7628689051,8.33005677633,0.491176538641,5.17679244079,10.9818166559,19.3107810679,16.8797487859,49.7181383677
off_to_on,6.16816630941,2.74361603347,0.294053203148,-0.279421066885,7.48909328552,13.1203421589,16.4852139714,5.98126591844,-0.0978540638478,-7.92571612391,2.46624052796,6.3826232052,5.47935438441,74.5151264485
off_to_on,-4.86252111423,-8.60196643893,-1.66930180475,1.51741122801,-4.96674869713,-6.79722584609,-9.84337169239,-3.85454848723,-0.238912494965,-18.5189207835,-14.9652567138,-15.885784289,-13.7531014487,43.5742676708
off_to_on,-9.43218812192,-11.0656345255,-2.1302627387,1.18282013055,-10.037210975,-16.379622499,-26.7596284175,-9.80523821385,-0.08218274193,-16.8046690871,-18.8881909422,-20.3058234956,-17.9856244633,31.4370956044
off_to_on,-1.60824488099,0.350311530287,-0.491576651823,-0.608520783777,-1.1352900659,-4.58230095178,-10.1760106272,-4.14433121878,-0.236756235912,-1.88844111974,0.904945783049,1.1473726374,-0.0739999017597,10.0613457812
off_to_on,8.60667816675,13.8495221618,1.75487424212,-0.999633884339,10.2193037097,12.7347770278,23.3603176623,6.97620154845,-0.617989450204,15.967631462,25.1620918814,24.3881017434,20.0434915989,-92.3099695142
off_to_on,8.77817811432,14.2012076289,2.52026005306,0.733304579925,9.83199882373,14.6957011412,34.578453853,11.0518411052,-0.471730663871,22.731150056,26.9229462789,22.3979842011,19.2184786851,-189.63116598
off_to_on,-0.0551207672847,0.89902878968,1.12914727966,1.92002931849,-0.868170416591,1.74653163969,10.4029046656,4.44594043451,0.385909804311,13.0906229145,4.29789946848,-1.73669506647,-0.711622655953,-99.2907572261
off_to_on,-6.88791886884,-12.2863758041,-1.27539579863,0.417880369955,-8.79745547843,-9.56712761201,-22.3031675742,-4.93464889607,1.06616249959,-4.2287910877,-19.4491701389,-21.6532321979,-17.6893766905,151.024989513
off_to_on,-6.15433582813,-13.9513026584,-2.84002963197,-2.11842056679,-7.41283020721,-10.6587118685,-32.5595999893,-8.76536421735,0.74422523816,-15.148360075,-24.8555839147,-20.8876911953,-17.3440204845,280.006230989
off_to_on,-2.25451929205,-5.63347099319,-2.25825620685,-2.49352920786,-2.36038538026,-7.0432172973,-18.0657621841,-6.45165831926,-0.193403012479,-13.7733743977,-13.7791862588,-6.5713682275,-5.41466385943,124.488183316
off_to_on,-0.0713415926648,3.76838644127,0.329572009032,-0.312392687656,0.127726965575,-3.6392609249,2.87578473633,-1.77600125339,-0.698473032869,-5.63119072723,1.0734777996,6.7880419911,5.68103747163,-120.895854805
off_to_on,1.36343976742,8.28506721023,2.98315944443,1.80090322337,1.58982395107,2.33380778701,16.9026098331,2.97085105052,-0.473350521286,1.2710993266,11.8351203852,13.3001589171,10.9960852427,-186.68737935
off_to_on,4.0311055182,7.64988190298,3.15524603349,1.85043622814,5.23094974639,11.3670377792,22.0977653897,6.72449550165,-0.161321460151,4.66548100325,16.5058471316,13.4365282398,11.2187369854,-95.7990230945
off_to_on,5.75776581525,4.04713870485,0.336466939396,0.522818494754,8.15779522893,15.4718511221,18.2354091998,7.27132218091,-0.178950300085,6.27670321778,13.5071440735,7.50814765783,6.36902658204,-44.2288761359
off_to_on,3.43527015801,-0.422392356847,-2.78441788412,-0.499408879135,4.96509951285,7.82711810584,4.19005615068,3.04578852933,-0.119530724599,6.0632836911,2.92985174712,-2.45451045068,-2.51254591534,-38.3864650299
off_to_on,-1.81221859517,-4.12291907844,-3.00479695076,-0.671457040209,-3.68190508402,-7.07233062294,-14.9327969425,-3.66510608877,0.378181864451,2.5123508002,-9.57036226584,-10.5145061536,-10.1336149493,73.2069013189
off_to_on,-5.73845293179,-5.78143157025,-0.390826123443,-0.450447339391,-10.3971440718,-17.4030266349,-26.3890870961,-7.86467896932,0.814451190676,-2.44941631851,-15.4443029145,-11.6511319133,-10.8012065396,243.350488574
off_to_on,-5.58994277869,-4.44132945577,1.92489512656,-0.200600393625,-8.71356393099,-15.0899457651,-19.5045166049,-6.30290191259,0.49236292745,-3.62389895951,-10.3229647832,-6.031156967,-4.13640375746,211.833286672
off_to_on,-1.89940806212,-0.194875633917,1.82076021207,-0.0348453638937,0.368564701707,-1.57799614724,3.15222983045,-0.170362028729,-0.343044921981,0.435806736486,2.07694199462,2.74298125689,4.96744507893,-73.2332394498
off_to_on,2.55352732828,4.19807455675,0.424555803947,-0.0709109727748,8.86404640735,13.0587031458,24.1516544752,5.78441019007,-0.734026665871,3.73087223641,11.7900302771,9.57180879898,10.0255055067,-296.70933003
off_to_on,4.34257152546,4.26058215316,-0.325082842702,-0.188568303473,8.60990925143,16.2143141127,23.9278957672,6.58441347705,-0.330138046306,-0.226884475181,9.72653629884,8.52371305579,6.55998456906,-201.359589234
off_to_on,2.09868549033,-0.732390272713,-0.498103061494,0.00398426235293,-0.393324948953,4.28027213805,1.07426671219,1.3632021866,0.187785927239,-8.67187479217,-2.79758369328,-1.33075628542,-3.49043117567,47.9303038192
off_to_on,-1.18757713435,-4.61779587072,-1.04842172396,0.494663335007,-8.36233631105,-10.3062688497,-21.3314791566,-4.75690085262,0.169692105004,-11.006731648,-12.2534253437,-9.94783692655,-10.2291985215,134.736682994
off_to_on,-1.08154732958,-1.19470506982,-1.34693530822,0.659611498097,-5.8160815852,-10.8976010773,-18.7449022421,-5.24769363515,-0.121651118661,-1.75723569588,-6.60790093944,-5.30771715307,-4.82061849123,52.2945178785
off_to_on,1.84855028705,5.98215370012,-0.109355278246,0.189324036904,4.087780894,1.78843158337,4.22323226684,0.0807393044999,-0.0764122408343,11.063396705,8.44272855875,8.42638518857,7.56061164513,29.9543298811
off_to_on,1.99963934878,6.55124843869,1.80345725999,-0.318917774857,8.23675253526,9.05566613221,17.8205962158,4.37983021883,0.264881100435,14.3665209983,14.422263651,12.2646039914,11.021756352,104.747690397
off_to_on,-2.52574725464,-1.94264092591,1.97112618321,-0.253748898758,1.03660134005,0.631791053067,6.67552298646,2.72775674901,0.340009988068,5.68681633267,4.05650954779,-1.33056428075,-0.00864180836278,77.7749326734
off_to_on,-5.37783632069,-8.77614572469,0.032204269881,0.0389933573706,-6.89273984318,-9.07848887332,-9.15370401278,-1.2356236574,0.000899587917613,-4.24120286254,-8.5109927427,-14.4374038925,-10.8411058343,-100.595360666
off_to_on,-0.855195086349,-4.51213016362,-1.55273127524,-0.127595758612,-3.5262061285,-2.46376613643,-5.05073479622,-1.25743697395,-0.264472586664,-5.82788912962,-7.99078349335,-7.8644233951,-6.19892310442,-204.517849052
off_to_on,5.95466749799,4.73056322304,-1.11077938324,-0.596373580698,6.07472168538,12.1550406562,9.6647077971,1.55886203934,-0.106941045662,-2.48803138644,0.223795677022,9.25657999168,6.71396816926,-88.7582247651
off_to_on,4.89225455085,5.49363103338,0.000283759979603,-0.601054851297,6.03441156452,10.3886262114,6.07905564423,0.558016550457,0.168075484981,-3.61162949657,0.0762858153075,11.2318129792,7.79160685075,79.0710142179
off_to_on,-4.06747619876,-3.16553850038,0.0280430679726,0.0281895853358,-6.3341687341,-10.5415959402,-16.5810987498,-4.97650356452,0.0886268416841,-9.04693204117,-8.42955861691,-5.60933298213,-5.50961326359,93.5566523018
off_to_on,-9.06359928143,-7.85756445473,-0.292585701143,0.686668303583,-14.2686642569,-23.4109742091,-24.7827811591,-6.89288178485,-0.288334470309,-8.29058785844,-8.13586861552,-16.0246912796,-12.9295018018,18.0640971773
off_to_on,-2.37146663032,-0.421226570354,0.51452832103,0.923907562385,-4.29701389433,-7.86842861445,0.153566324562,0.178633185624,-0.458213460233,3.51141318133,7.69446750684,-2.89598165989,-1.2017060881,25.3970835172
off_to_on,8.48254237518,10.0278352528,1.53998119373,0.782199440488,13.8506213716,19.8830418184,30.9646998443,9.54577348921,-0.12434809525,16.0198522619,21.7654289417,17.1449539711,15.3223704124,84.473488714
off_to_on,10.6173296294,10.0067995135,0.737642284602,0.270338238857,19.0109957835,27.6837500525,30.1277029186,10.1743287711,0.445744347174,15.6462068864,15.3745943616,17.7665675642,14.6688737405,36.3729518816
off_to_on,2.26221084396,-0.133411091969,-1.31306000328,-0.637685519002,5.58490508364,8.35922926787,0.314648498872,1.06428600587,0.699088830882,2.99468964479,-5.63328192766,-0.391818986063,-1.91121384253,-99.6998222191
off_to_on,-6.80757761373,-8.45759960967,-1.73492868705,-1.39090662905,-11.1330872156,-15.1553281232,-23.018313692,-7.81124978219,0.342971926334,-8.48922356806,-19.0006323617,-13.974113421,-13.371380807,-138.250748311
off_to_on,-8.80190454896,-8.1629333235,0.223408992158,-1.16205345498,-15.6652458263,-21.5868287515,-20.8420530302,-8.42798154189,-0.337706513981,-10.0222960561,-14.6204184335,-11.2386390085,-9.04884219448,-32.3022642604
off_to_on,-5.14047471287,-3.6449377622,1.75791096841,-0.0594275336751,-8.67315326463,-12.5129976801,-7.86231528994,-3.10918219511,-0.689496076886,-6.19565110807,-2.92318110493,-3.5347378726,-0.0896717759665,57.8140495186
off_to_on,-0.461476386051,-0.553958893311,0.646980733079,0.800989826144,-0.134619255358,-0.644825907766,-1.27404972799,1.25369013955,-0.350485617404,-4.58575768584,3.56374921313,-2.16095389336,1.05728256693,35.6464574177
off_to_on,3.72006590111,1.81270479778,-1.43363029812,0.822902241076,5.03695984535,8.07292490998,2.7804967288,2.42597963086,0.276429105761,-4.05420440761,4.76567992542,-1.63666446497,-1.64298959644,3.51336235367
off_to_on,6.90781729718,5.47197829872,-1.53745416964,0.650462680546,8.26083095925,13.4715876511,12.2712626381,2.90479493319,0.431748848481,1.00611532066,6.22740997394,6.35101818238,1.82056461636,49.5842858668
off_to_on,6.54410983201,7.62357282421,0.246650625696,0.801003695904,9.39096340337,12.8240559488,18.7509968611,3.80849794647,-0.0373539542405,9.13912334841,7.7902678723,15.3780017977,9.3402287116,83.9903909902
off_to_on,1.41303209733,4.54677524295,1.36921667138,0.554627388119,5.58137165167,4.01363259628,10.1152099719,3.14590506007,-0.43083120726,12.0594526805,5.66143498893,12.5590521819,9.85421287162,8.57664857397
off_to_on,-4.5388642615,-1.73041283405,0.821587103358,-0.763807248098,-2.36851883151,-7.05940639946,-6.97936246558,-0.0712808027255,-0.145054050176,6.21682041552,0.295414500439,-1.65446335118,0.772899879398,-93.8446361986
off_to_on,-5.96876655909,-5.54315592209,0.101455822096,-2.10678912009,-8.54173852561,-11.0942759662,-14.3548300198,-3.40268067446,0.453481230781,-2.21561127475,-4.2854683947,-13.2347255867,-8.15161334375,-88.0102972501
off_to_on,-2.77513223681,-5.03499286217,0.213912202144,-1.70724678451,-8.50936180915,-6.71762186582,-7.86643734119,-3.92466451582,0.542316336351,-6.00046514,-6.5443458728,-12.8262095104,-8.78336478521,-4.40337587393
off_to_on,0.351290425657,-3.34074580025,0.0915175513138,0.37756832031,-3.99697600089,-1.09340824747,-0.930511324446,-1.87361421687,0.0318534284917,-5.60653781981,-7.66587565326,-5.25569985537,-4.17256865502,27.170543422
off_to_on,0.584587648287,-2.65701429454,-1.12514726439,2.05753546718,0.495753928565,0.480128383686,-2.7374592241,0.0219268635616,-0.358550723241,-5.74851424711,-7.14827550971,0.232836891041,-1.33816661466,-3.21873329414
off_to_on,-0.0390508326589,-1.09037326195,-2.07579856295,1.80008546876,3.04043305517,0.190510975651,-6.02482615542,0.184425263205,-0.234435430318,-6.55286163276,-2.77332188548,1.93353690591,-0.694117770348,4.05009369091
off_to_on,1.2073771918,3.28502238938,-0.962390381215,0.297059879717,4.48332543126,2.22092087822,-0.348600914648,-0.0718520113369,-0.0665600432787,-3.38277976004,4.98082789498,4.32774932031,2.32432457113,59.6024011944
off_to_on,3.36470994848,7.94391134555,1.56858400247,-0.88096759521,5.2387758321,6.11246147503,11.8475491954,1.25758653962,-0.28896478812,4.82363012512,11.6611042124,8.90325475432,7.98342450763,63.7284581022
off_to_on,3.26861846935,7.86597924288,2.85575885102,-1.20057427046,4.17920379053,7.55520371481,18.1465069334,3.61535683954,-0.461979219994,11.7308550014,12.4801524222,10.7820928734,10.0736790274,-7.63048912998
off_to_on,0.120307352096,1.5684888904,1.44110437142,-1.00178081727,0.556562839281,3.62926045659,10.6650535216,3.9522476835,0.0507289938223,10.4813886216,5.97558278272,4.7173148538,3.93504831953,-52.666782519
off_to_on,-3.11619391998,-6.24216851535,-1.19565071273,-0.366160230924,-4.1079648433,-3.80644106069,-5.95086051688,0.630603570624,0.90711659934,2.14228805148,-4.79711658439,-7.12805123894,-6.39566794921,-21.1535799848
off_to_on,-3.03427686093,-8.7855099156,-2.36830237835,0.716232012833,-6.47532812509,-8.94009937778,-18.5002206142,-3.68650417943,1.04686671537,-5.45574557486,-13.0584951999,-14.9222675638,-11.4797559485,0.596975994882
off_to_on,0.101702443977,-4.1290055985,-1.10039543646,1.49943807773,-4.21965958643,-6.93692345872,-16.3819736051,-4.69502542297,0.138605188172,-6.79931675502,-12.4172045996,-10.6244881229,-6.7515475882,-46.7736306807
off_to_on,2.17215858283,2.45335787986,0.970540487636,1.00891300828,0.938252055103,0.221117766211,-2.14534285023,-1.89650033415,-0.901965508277,-4.11445190598,-3.39007485582,1.94691083967,2.16613316604,-72.9056805684
off_to_on,-0.136705858451,4.05699838338,1.47508161521,-0.507761039041,3.88433261991,4.42979728324,9.46235365683,0.745953953247,-1.06810807102,-2.88859009922,5.49998113704,9.65730643671,5.76159341401,16.0968446839
off_to_on,-4.54406101993,0.104622509057,-0.0299821734297,-1.57063118621,1.62066634752,1.08499254212,7.54985044405,0.45342200155,-0.408839797204,-4.03242721916,6.65646143289,5.13940387799,1.65085399838,137.773952229
off_to_on,-4.74954999276,-3.015101729,-1.52435575676,-1.17734760393,-2.29832641222,-3.73217403933,-1.06167303915,-0.449210197273,0.305953463511,-3.07830147678,2.40410382859,-3.75022216962,-3.01275075703,126.485028136
off_to_on,1.82303887202,-0.216700135083,-0.957072310064,0.117223263612,-1.58754627645,-0.728402051033,-1.16730182465,1.47051585,0.613768700591,2.79863869228,0.937809961246,-3.99947096287,-1.05967180705,-29.2657064414
off_to_on,9.35760275326,5.50077154858,1.0981070585,1.07813913386,3.9842616085,8.44590424781,8.21518039227,4.64823926682,0.579845566451,9.65577208955,4.11316426182,5.17459436658,5.36318126334,-157.430170046
off_to_on,9.38960169067,6.97086044254,2.08995454676,1.15489302465,7.09164246878,11.3494826955,11.318757627,4.09021184789,0.301674115193,10.7769170806,5.09953712082,11.3581286362,7.88585959983,-115.701048684
off_to_on,0.909682711638,2.1129652812,0.826435891088,0.622410462381,2.40798375875,1.64479550494,-0.54138486176,-1.03710726957,-0.193903511859,4.64855145518,-0.434190738982,5.64761591094,2.9110515212,45.3038116415
off_to_on,-8.1719366948,-4.18661119426,-1.04217272122,-0.119163361697,-5.47460412082,-10.757762865,-14.2224707616,-5.28934548105,-0.601711399511,-3.56135658003,-6.98904504594,-6.40077181135,-4.52105676446,149.970597503
off_to_on,-10.2220446274,-7.11846569603,-1.47128762998,-0.827891842088,-7.73125256689,-12.1455443947,-13.017202362,-4.10956733806,-0.466745950388,-8.34324932182,-7.23847743832,-13.315723055,-8.1311317703,85.014046839
off_to_on,-5.56080168733,-6.77070601957,-0.694814880577,-1.20099299877,-3.11525579986,-3.04205437231,-0.659280747997,0.0293401169467,0.153743544073,-8.89376811743,-2.67320083322,-11.3005487983,-7.35843034674,-86.8417085452
off_to_on,0.417424124354,-4.73208748522,-0.224583636646,-0.898291349982,1.17153590355,3.86002761959,5.73853859555,1.51355527237,0.577483089458,-6.99998415508,-0.307318958255,-4.5881705203,-4.84301324525,-179.06436477
off_to_on,4.48422077142,-0.226629408678,-0.193745214797,0.0658991383534,0.583034110566,2.04213753505,1.56855283441,-0.442087000775,0.312413445815,-2.99303217076,-1.27748640357,3.08522382183,-0.826873102251,-69.2799861729
off_to_on,6.75242235771,6.87242549146,0.453885789937,1.11714913664,-0.615782899797,-1.25518962323,-1.40739907185,-1.39808341271,-0.306541273802,3.36017437372,0.316380805437,10.5957941858,5.72486326946,143.074083282
off_to_on,6.81444530438,11.9634264923,1.49777681093,1.44463033434,2.81521319538,2.23454296211,3.55360618091,1.26545598013,-0.575025095779,9.49597964276,6.83526269367,14.8671398434,12.0482549273,217.841421652
off_to_on,3.26738117232,9.40399413182,1.31118364479,0.676636552513,7.87292379112,9.13979240945,8.39580052107,4.63453778452,-0.28271124685,11.0351072189,11.777468272,11.3117209224,12.273373098,58.0392473687
off_to_on,-2.62702584443,0.013661970373,-0.36097803373,-0.621085042316,7.11942066095,9.77929076204,5.9322544103,4.5861306322,0.198391295802,6.49745261286,8.01313011448,0.365382113874,4.16132094256,-153.12034254
off_to_on,-6.54193220415,-8.85844907804,-1.48612359293,-1.27260813841,-0.451056396354,1.66184496061,1.10463967532,0.958112926684,0.506446000802,-1.07229811289,-2.71721582062,-10.9352402739,-7.47468070822,-179.804531626
off_to_on,-5.87942946428,-11.2797613264,-0.680101768832,-0.669182011193,-7.85531878975,-8.30517064052,-1.02854025541,-3.25544520684,0.564041858813,-7.37390869385,-11.9443018219,-15.6737516141,-14.9973791057,-34.2680609637
off_to_on,-2.589938245,-7.74752764373,0.591515966181,0.421077589096,-9.31983365773,-13.0911163649,-5.79011303015,-5.70521025414,0.324931472833,-9.88887945937,-13.6278520776,-12.5082394713,-13.9942842427,73.6516815367
off_to_on,0.13862614768,-1.90849810992,0.285268828716,0.673974850507,-6.02924916513,-11.3920293175,-15.9957264159,-5.63554997773,-0.266191946307,-7.92129733391,-8.11575322921,-4.0574159795,-5.29540363173,49.1387503688
off_to_on,1.77350184203,3.9759471513,-0.991343602204,-0.108631007433,-1.59936993526,-4.81229018451,-19.003733953,-2.70842472047,-0.89886304025,-2.41551808833,0.868187605316,6.10932990973,6.23266859971,9.30050907891
off_to_on,3.30676173409,8.44420319277,-0.972035156387,-0.726758998233,3.21836738765,4.8815496372,-2.35429156664,2.39638288091,-0.910013170099,3.48837373895,9.21074065042,13.4305232537,13.9322785879,47.3320234027
off_to_on,4.26269209526,9.04017225419,0.676950389144,-0.24738119878,8.27960971271,13.8177820933,22.6311440879,6.68684672496,-0.0546446457747,6.29323952232,12.9235779958,13.4695225107,13.0966976489,75.7883618186
off_to_on,3.29969971667,4.58742845676,1.86357312931,0.716293868445,10.3072226092,15.9371961557,29.8692559391,6.77226252292,0.946363382816,5.83409869732,9.65433045471,6.27529634491,4.86303654544,-1.91165076225
off_to_on,0.788464894517,-1.94393222295,1.20676423095,0.950268975598,6.04426641806,8.60596687469,11.8561532732,2.6571274032,1.07066169346,4.93907188556,1.35046471646,-2.52666715173,-4.37551858596,-104.04737507
off_to_on,-1.53685387514,-5.81554085702,-0.276261026242,0.318785969472,-2.17434344151,-3.36020435603,-11.1117599603,-2.0679847971,0.208728401625,4.34678628324,-6.3536371708,-7.44552873439,-8.73969135524,-92.5106777678
off_to_on,-3.03494026769,-5.56224092043,-1.10431305887,-0.314000647231,-8.11496200034,-11.9858430084,-18.5998652698,-4.32654747063,-0.672690484291,1.07585328327,-8.8820478266,-8.14870131801,-7.50198852206,6.01252019704
off_to_on,-4.17410529185,-3.5962633868,-1.2029333757,-0.512913217318,-8.78241604438,-13.5683801752,-12.6445362496,-4.29213502201,-0.704523255589,-5.81549004117,-6.45633770402,-7.07663036485,-3.76538509518,51.2051513452
off_to_on,-4.39714596671,-2.17846585482,-1.00211053617,-0.625394451514,-6.42020031851,-9.96095458349,-6.15481994319,-3.48372996572,-0.0993230595748,-11.073429763,-2.81027843015,-4.84483133963,-0.456373593904,14.4656442134
off_to_on,-2.25260207042,-1.0102343716,-0.242407369847,-0.726393228509,-3.29522260138,-3.89160033727,-2.32430702426,-2.00624853168,0.30313971588,-8.97694339952,-0.843297837628,-0.925072334307,1.2193506561,-1.62604327053
off_to_on,1.97389340239,1.10026324869,1.0589875192,-0.293870445358,1.45909113994,3.77374970583,3.12686442003,0.790250731758,0.182272418299,-1.36007216767,0.101308804795,3.43008644918,1.4182378716,40.5100947056
off_to_on,5.64547011368,4.14749475446,1.66233523629,0.676313635339,7.98975218231,11.6868627334,8.72001492796,4.01202981674,-0.031388886544,4.79486242158,2.79234456001,6.48659853616,1.79667695045,52.5616647084
off_to_on,6.41363569999,6.81684139594,0.653374587268,1.18314834006,12.089457413,15.7442626618,9.48283018426,5.43041546116,0.00728683660404,6.82284040333,7.77148199692,8.56085091194,4.36809794425,-12.0240764533
off_to_on,4.10603587151,7.00040537126,-0.828882498119,0.555705899735,8.91841569735,11.6293255931,7.2679127981,3.91826322021,0.052435016888,7.89172627349,10.7680823078,9.60882631778,7.88706534649,-67.6743394706
off_to_on,-0.158625643035,2.75191283766,-0.98005321983,-0.404129687589,-0.553250503399,-0.143179157394,6.444255537,0.530155927084,-0.159165643986,8.73534267737,6.31470720172,6.162501909,7.06912960926,-39.4807015904
off_to_on,-4.8392345994,-5.08870360823,0.0341359206507,-0.482732229293,-9.55279499385,-12.6905859036,3.05859192296,-2.77688032273,-0.295603953947,4.61016893772,-4.81501177958,-4.22110019755,-1.19925032577,15.4203032667
off_to_on,-7.49980193293,-11.2941805741,0.471064581895,0.163105602837,-12.0706027073,-17.4202493952,-8.52958392016,-4.56884545826,0.0896357724136,-5.9972903358,-13.846365993,-15.9535244834,-11.7292137516,13.4667679886
off_to_on,-5.8215894474,-10.1860738425,-0.182254309,0.274203786173,-7.79712662265,-11.3127003733,-20.2795486995,-4.27472252484,0.669347029225,-15.1169570252,-12.6262803595,-18.6337608816,-15.0862351667,-16.6978624059
off_to_on,-0.563476253039,-2.21043645398,-0.602270000003,-0.559038804804,-0.726184344256,0.208354130161,-16.7857520043,-2.23092144707,0.580634393659,-13.5482257635,-3.09680363467,-8.86106891134,-8.14602470115,-0.170661779423
off_to_on,4.21889492797,5.93686611921,-0.0444979394158,-1.22001395044,5.17882909469,8.50104054886,1.23708907605,0.410295033191,-0.325191896927,-2.6701983329,5.28682092612,5.70514033501,3.0110868152,43.6665603549
off_to_on,5.50044087961,8.93488061149,0.471472723634,-0.636633546269,8.19952250432,9.96321867463,14.6578200347,2.53799148676,-1.05674900607,7.57164024216,7.25317753047,15.5912995146,11.1263930255,36.9506018776
off_to_on,4.2842092608,7.70384299334,0.125921395648,0.744456894605,8.1220474198,7.78543321199,12.2163560601,3.84875356525,-0.699030169098,10.9087986772,6.26765009933,17.8151810723,14.0658325855,-15.6710164793
off_to_on,2.70588319741,4.99235941957,-0.214654861906,1.55989965559,4.91270482481,5.4253285085,4.77979868631,4.17298304624,0.348409484769,9.22456934657,6.29496204285,12.9842409278,11.6877467782,-34.2298182448
off_to_on,0.325041452703,0.144669990004,0.335520127562,1.13925389623,-1.06743724546,1.58912355985,4.97130607353,2.63610034882,0.891019795102,5.58596978866,4.70300782949,0.976561776611,2.55822682678,-2.15997107392
off_to_on,-3.77284216497,-7.39277203543,0.877182158943,0.0145802907642,-7.47033817639,-5.4823950415,6.52139202444,-1.06420629301,0.489486807658,-0.219820519848,-2.09972660751,-14.5775608306,-11.0409280118,11.1079848305
off_to_on,-6.82885069422,-12.2638527941,0.148803031252,-0.886878498397,-9.7848153783,-11.4565132774,-2.4428163186,-4.75269056406,-0.138727548763,-7.25241492362,-9.93599213027,-22.6405347634,-19.1603204063,-20.9394427623
off_to_on,-4.68455866766,-7.64189185711,-1.14907935317,-1.07154834419,-5.03637677466,-9.29312566744,-15.8451606603,-5.15880747117,-0.27574496046,-10.6568907346,-10.500079358,-14.4770413761,-12.9753930549,-34.2670457313
off_to_on,1.5745349577,4.06965543106,-1.21990728758,-0.632146579919,3.5521064519,0.275054725427,-16.887951863,-1.91868480358,-0.0891426708824,-7.38607632243,-2.96242656169,3.72409284534,2.90558648271,8.76881852813
off_to_on,5.46226325144,11.3268103364,0.0474441678274,-0.0140220635619,7.97186621962,7.29717322822,-4.40030967217,1.564261341,-0.0768061936946,-0.864351783096,4.42048523316,15.6639597503,13.7500249829,47.7285628929
off_to_on,3.25715729029,7.12970811751,0.949857375265,0.32562709551,3.95756515357,4.86469771243,5.85396633072,2.37304616263,-0.203431437962,3.8105032586,5.39545466588,13.380523087,11.5966033917,24.8937709631
off_to_on,-1.1544578109,-2.23376501762,0.617925437808,0.280068306826,-3.23308149977,-1.50782846631,6.25170078068,1.49576140261,-0.119483966746,6.03615837656,2.66722941416,4.21181560945,2.881178512,-18.7217380557
off_to_on,-2.03338050889,-5.97929165458,0.0326389814795,0.160866861839,-4.67507329776,-1.65903673551,6.14555148883,1.39408842766,0.107837221673,7.21538069852,1.47872259576,-1.84107110876,-2.61442920377,-16.9548146465
off_to_on,0.594785408914,-2.29649905744,0.0266199645224,0.284728768906,1.06931061404,4.80141456564,11.4437272485,1.85971910756,0.109178875574,5.6597440154,1.81225012629,-3.74351654534,-3.60510024381,11.8707527185
off_to_on,2.35995005681,2.07126355673,0.000164744476437,0.549908881579,6.31983022459,8.14613359742,12.3261267062,0.887379120039,-0.0687189093385,-0.399649975616,1.06986595085,-4.70096332988,-3.82274308992,7.40231745182
off_to_on,1.34597338933,2.71289017888,-0.537274957931,0.554663267267,4.45825059649,2.3816115942,0.720936207211,-1.26095965366,0.00656846570744,-6.79143593439,-0.0690049247523,-3.80583053109,-3.10889422652,-23.4818518461
off_to_on,-0.599808940981,1.38124984307,-0.697323348166,0.0673426332722,-2.19211020085,-6.91259083623,-13.5358737608,-2.08154004246,0.350000347623,-6.96195074186,-0.0222447881639,0.246082309263,0.530610585893,-24.8280045979
off_to_on,-2.2023836053,-0.242609886252,0.2266306859,-0.720888071063,-6.73918789394,-10.7612680005,-16.3589311752,-1.08969571436,0.401971325085,-1.54990533908,-1.29970260059,2.47699036179,3.53821596896,5.73924499611
off_to_on,-3.85197358411,-3.32393539521,1.10898463591,-1.29527519329,-6.33369325737,-7.46518331531,-9.43536507491,-0.766077813782,-0.0875340585012,1.87719463585,-6.37890953722,-2.10735906912,0.34798130998,18.4235656893
off_to_on,-4.23473514029,-6.49971572572,0.502405029696,-1.10741884368,-2.93969382338,-1.41591625496,-3.32997348776,-2.04115930515,-0.559688185759,-0.038934446451,-10.1382437355,-7.84575883686,-5.99518030253,4.85076660469
off_to_on,-0.630033448796,-4.3752145786,-0.92412501996,-0.0374278003747,1.60217693827,4.36283706628,1.50035384581,-1.99698576369,-0.430113480849,-1.80623783274,-4.34293540137,-3.8432185111,-5.48133806728,4.56015930629
off_to_on,5.65934561112,4.21167182419,-1.2029593306,1.23149284265,6.34528553441,9.09147611253,11.0199357838,1.50828512362,0.0478863143788,1.49044122798,9.02424999894,9.10073540323,4.12723058674,17.9306284541
off_to_on,8.33723007592,11.1829617453,-0.0304477353457,1.60956009679,8.28976815937,10.1715998064,19.5599532652,5.37803340884,0.216583634466,5.95736714616,16.6119963546,16.428312256,11.9415973072,2.10423640377
off_to_on,3.7062046645,8.19890389767,0.902658654792,0.748699993874,4.286952884,4.77248731486,13.7333644075,4.82915252809,0.0293676706152,5.05769094421,9.93385557464,8.5183662105,8.09352261342,-33.3022730305
off_to_on,-3.66808377799,-1.92673015495,0.658462214417,-0.427143736497,-3.16475497158,-4.14809460694,-4.42677480889,0.183970089324,0.0182690995704,-0.230664932661,-3.34740365444,-6.38863465659,-2.86915948789,-21.8241678984
off_to_on,-6.47650378624,-8.61413133625,0.239006696294,-0.791847788607,-6.96052231871,-9.00018624535,-15.7410329321,-3.53811670685,0.329341084675,-3.5909687989,-9.9638508454,-13.6857393865,-9.04884967395,37.0448975909
off_to_on,-3.80858899504,-7.09965702851,0.391706846883,-0.419886568588,-4.34392651607,-6.69253736993,-10.8933188267,-3.60503552051,0.441704912502,-3.31219982315,-7.97676071812,-10.49592333,-7.18188286641,49.1485437113
off_to_on,-0.724528476666,-2.49691242658,0.113322860095,-0.296446430453,-0.525385091663,-2.22972040899,-3.18340200984,-2.3429747619,0.0154565250277,-3.26666365908,-5.57187894508,-4.70834782763,-3.70672852085,-24.8001468684
off_to_on,0.0278775354863,-0.097543002359,-1.29208536585,-0.697282231194,-0.484696147558,-0.756546233768,-5.05161827119,-2.05580955308,-0.520698985249,-4.37537464681,-5.70392075129,-0.419556558178,-2.09576761907,-85.5008724115
off_to_on,0.892371257359,1.60167267326,-2.1693479656,-0.708978315417,-1.44969029647,-0.29312731054,-6.92819681198,-1.07763363086,-0.557681519041,-2.19875840211,-1.80448416747,5.64949689142,1.59165016986,-40.8080624507
off_to_on,3.53805090284,5.22282683941,-0.565947637107,0.294512245367,1.75557189115,3.54333327079,5.33349788784,2.51511426816,-0.119444784669,4.69951618744,9.05626176621,13.3237526863,8.76997170282,49.1497539612
off_to_on,4.91896409202,7.54589033718,2.34343741912,1.46470394198,6.9576169051,8.70046677596,22.3771513526,6.0761378532,0.273227055012,9.84050125559,17.3655676943,14.396884831,12.2215313015,73.7173459882
off_to_on,1.99124025924,3.6886674449,3.12603246983,1.4718565233,6.63068086489,8.22174171439,20.5543280935,5.03129700443,0.315054380218,6.55810640086,11.9582023866,3.55258606924,5.27889722448,43.3862920092
off_to_on,-2.89695288091,-4.34572295891,0.610536700544,0.262430716138,-0.714038673826,0.304718774317,-2.8220019684,-0.539593988652,0.135115813299,-2.67569155627,-4.42804050866,-11.8581293209,-7.44687892812,32.0748610857
off_to_on,-4.74640938311,-8.76041177141,-2.40813413337,-0.941592964874,-7.31785884248,-8.1236042768,-22.4655039224,-5.36988717256,-0.0426306092423,-8.92583428833,-16.9261356426,-18.4374043789,-14.210815173,10.7313000428
off_to_on,-2.40431248628,-5.4291841039,-2.76907718532,-1.21494232504,-6.28166072289,-9.44920659219,-18.1228038214,-5.33359497923,-0.105746202056,-7.17944592781,-15.0882786699,-10.9668914248,-9.34663367306,-92.564801109
off_to_on,0.759082601694,1.68527867578,-0.675481003367,-0.737663333481,-0.122016715162,-3.73272076917,0.634601813522,-1.65681900183,-0.000681577041609,-0.541885603633,-2.83663609435,3.4370000227,1.77120639298,-190.720643356
off_to_on,1.80383469485,5.93001530976,1.31386626685,-0.0673317544361,3.71585387641,2.73421222646,11.0284760178,1.80071330482,0.199397075696,4.84251157071,8.15166367982,13.4290333709,9.76427599823,-99.9687777192
off_to_on,0.992679874032,4.63644147836,1.74199684086,0.547987657896,2.39921430133,4.82926802748,6.74102653768,3.03315303465,0.216520440398,5.62731333032,10.6163484497,12.7264746963,9.58723806161,151.839410842
off_to_on,-0.0918448866083,-0.0474827422703,1.13389320968,0.867123022219,-0.718066621898,2.63945364457,-0.485110702185,2.44091971278,-0.122868022612,2.35861590418,5.95073329707,3.36633144045,2.74649725432,281.854040554
off_to_on,-0.539031306179,-4.03694031116,0.196930965815,0.469373557746,-1.799616129,-0.258628704648,-1.73630883764,0.888355433643,-0.516105535517,-2.04561009928,-0.203108682402,-6.64315162554,-4.94479840268,125.61328663
off_to_on,0.0335814724101,-4.08191760515,-0.955470710098,-0.515506991796,-0.225655008506,-0.66418466283,-0.23900766873,-0.910032093414,-0.463651561786,-4.2030698491,-3.69262165727,-9.55733620062,-7.52694926219,-121.725229459
off_to_on,1.37007699335,-0.101040451864,-1.76086082083,-1.01646578189,2.32149917102,1.36940686327,-0.852763756566,-1.94911866237,0.0388205032988,-2.70735017666,-4.01532630297,-4.53449642868,-3.67128160619,-188.774830383
off_to_on,1.89376631617,4.10154628351,-1.16470651102,-0.171859774364,3.43469881472,2.53446189761,-1.48345685663,-1.51269960535,0.443584058278,0.62469997884,-2.75634852851,2.13079311508,2.10975374803,-97.2579754594
off_to_on,0.156893321985,4.25736683176,0.670304026751,1.27449383406,1.28471859463,0.0665285254646,1.46705416442,-0.0634173264965,0.397077609822,2.90655032741,-0.899118512476,4.58895823523,4.57519583656,-44.0444131246
off_to_on,-2.53401326239,0.512985690881,1.88980890156,1.5365831157,-3.05513218207,-4.07040295266,5.65163720841,1.25805531205,0.174482886052,3.17002466499,1.6154570177,3.31716662624,3.29749593326,-37.2721512468
off_to_on,-3.00867173375,-2.93339650558,1.15964157632,-0.0301532490062,-5.25803504564,-4.73864183268,5.20332899332,1.69840254121,0.148925180221,1.99748911748,3.67913646898,1.60265476599,1.09072295212,74.0944227434
off_to_on,-0.518731382232,-3.39768538241,-0.500958018077,-1.91527396769,-2.40274061259,-0.413914926591,-1.73590953592,0.989038349562,0.170504374263,-0.538743672084,2.50637867415,-0.462853224383,-1.21210009461,243.869519253
off_to_on,1.94003897526,-2.26859535719,-1.13811939655,-2.08183811188,2.56790017461,3.97732715581,-10.2290182779,-0.785250731456,-0.149176255201,-4.04711470207,-2.41682291982,-4.04331298533,-4.34453330125,212.452686355
off_to_on,1.74700110975,-1.20043517047,-0.481909175514,-0.307809632395,4.02065263776,3.22179283271,-12.486012848,-2.5804126116,-0.712684406284,-5.74620898189,-6.2460783334,-6.01988019074,-5.94412760685,-72.7824067792
off_to_on,0.0953569392394,0.797531008296,0.0883864149527,1.59747682583,1.0412074373,-1.1505366022,-4.71740194187,-2.53007310399,-0.913939110101,-2.67406860234,-3.29060994045,-1.79501872102,-1.93687544915,-297.332970404
off_to_on,-0.347291931734,4.11323830915,-0.109518003894,1.86999838041,-1.69592852567,-3.12030549492,8.28545562489,0.0243253986348,-0.366232541536,3.53676434741,4.95334574195,6.18103528486,5.99233076385,-203.053152417
off_to_on,0.515920052924,5.44921131019,-0.19948821486,0.625351789051,-0.908720352124,-0.408000693843,16.0747235839,3.0603766839,0.611833346043,7.21842070648,9.77732717582,9.01324468049,9.58770253985,46.5545614273
off_to_on,0.709165773178,1.79706374225,0.473628155019,-0.5772858107,1.12516496417,3.11391200046,12.2829693967,3.68694484421,1.28146008587,5.12115149848,5.08609660528,2.74122418183,3.97855914162,134.845637158
off_to_on,-0.35240653726,-4.07114149586,1.02946617707,-0.674677869365,0.983128801243,3.29511744037,0.925223579936,1.32791563055,1.10195451325,-0.256372944311,-5.15613192996,-5.98747106128,-5.33212231717,53.4372828614
off_to_on,-1.26306266557,-6.10688926625,0.398025219325,-0.15207781085,-0.686324115437,0.529965211731,-8.80068982715,-1.85094539395,0.128494349786,-4.61927476157,-11.282542448,-8.5142703289,-9.10280599585,30.9104806346
off_to_on,-1.09261805566,-2.64442005759,-0.852649937881,-0.107434918918,-1.10123968792,-2.29077614757,-12.133383018,-3.42610014898,-0.983608748306,-6.07354646327,-7.97154268008,-4.00902974693,-5.04930401229,105.187677168
off_to_on,-0.340055736417,2.00791644654,-1.15903670707,-0.689699410099,-0.137234654354,-3.58551990412,-10.1529573585,-2.61602631074,-1.40902678072,-4.22126939138,1.67594811263,2.41061733697,1.76158911174,78.1884371063
off_to_on,0.463111252715,3.68472059172,-0.144806869555,-0.930997033148,0.0902900166332,-3.12830308362,-4.28167447702,-0.134335409551,-0.841249223231,0.929366360506,9.99995830368,6.72041377649,6.24700277326,-100.262585391
off_to_on,1.17349122626,2.4832573235,0.896511110171,-0.12228839478,-0.778638176777,-0.811484919632,4.56582145698,2.39266364495,0.205626071594,6.40424514178,10.6231850105,6.8644395318,6.44594476992,-205.000234946
off_to_on,1.11156660547,0.25701026733,0.793554926009,1.12199780239,-0.967021269298,2.36356443668,11.6652484986,2.95761017634,0.927415804221,6.44659359806,2.67801157167,1.22887122619,1.86872203462,-90.1005480784
off_to_on,-0.26173031274,-2.10181590185,-0.116033643842,1.53235008194,0.162770909077,3.79458690989,10.3716864689,0.800889603941,0.988939261533,-0.344351734819,-7.63622552778,-7.52029997155,-5.33610045034,77.983238326
off_to_on,-1.60113901446,-3.29787179717,-0.72432059374,0.714693225147,1.25523750602,2.16261070016,1.21171305501,-2.06010139741,0.576496847035,-6.71611757717,-11.0838781904,-10.406467621,-8.58417111721,93.6075834959
off_to_on,-0.81023668771,-1.25280614482,-0.570200807085,-0.436194620781,1.48863236157,-0.320111607115,-6.27609062703,-2.43910725125,-0.0732684881707,-4.86002545229,-4.43224436705,-1.73164362982,-2.79641152977,18.8180825421
off_to_on,1.54115246421,3.19901583677,-0.00995448240412,-0.895619162682,1.44653286577,-0.783427151772,-4.8365307325,0.159708203402,-0.738220476366,2.67498115489,5.13188057395,10.4437876813,7.04162379957,25.9747697128
off_to_on,2.23214393662,5.12174521757,0.514089523122,-0.653575753276,1.11885609053,0.174241632325,1.21834215964,2.61425482697,-0.938050132482,6.02016631175,7.84992508689,11.6912241308,9.58147303477,84.8305684093
off_to_on,-0.078748827985,1.36643908496,0.743139392716,-0.42387754246,-0.492391774562,-0.239963585084,2.40951179335,2.01572276036,-0.297487438395,1.64908191835,2.93398252374,0.0984031496255,1.59679547259,36.9226535925
off_to_on,-2.54279431227,-4.29109162143,0.439199186055,-0.493493789048,-2.93966449143,-2.24810213577,-3.07905333699,-0.794037835932,0.649084774723,-3.53270719609,-1.77649258144,-10.4074073172,-7.16444894259,-99.2313585618
off_to_on,-2.05428076926,-5.51885648725,-0.35345751095,-0.348009194995,-3.74395631769,-2.99336752047,-7.88363929327,-2.67138061456,0.751234251641,-3.2483300396,-1.44335153601,-8.57392681219,-7.07055971268,-138.586829916
off_to_on,0.379439562009,-1.69405654159,-0.958420159848,0.461363196324,-1.56234071087,-1.07017059808,-5.5002564963,-2.11206123419,-0.205448856086,-0.241616330981,0.00402316763868,0.315831731404,-0.851714625314,-33.3581911776
off_to_on,1.48323845222,2.0903086188,-0.656331138003,1.43881422175,1.72828783526,1.3468838507,2.61777081621,-0.284629385893,-0.913434073054,0.227147639703,-2.14487153189,4.47096244356,2.52017369921,57.0029388263
do_nothing,0.606111588591,2.70237325931,0.271349539218,1.50494341947,3.41466658538,2.01519828343,9.83907648627,1.19920667036,-0.238604064228,-0.601721886689,-4.99468000912,2.4213596639,1.40876739857,35.6135597457
do_nothing,0.0102519340805,2.18499350731,0.727204539844,0.268796658038,2.96154226755,1.71961262042,10.7589347644,1.87380136404,1.02600105127,1.43946890963,-2.56658296337,1.48657709439,1.45749679662,3.8054545093
do_nothing,0.739472224181,2.51890054188,0.268771817183,-1.31664682451,1.39017040158,2.05513449257,4.7758779206,1.83793617711,1.1210726954,4.57701633076,4.19325512328,3.58724352081,4.13975649777,49.7546665702
do_nothing,1.10022464192,1.75800752939,-0.258349240544,-1.81731651889,-0.703526506571,2.16878079673,-3.82699418658,1.04755929741,-0.178040068268,3.07100226712,7.69837213262,2.69824489267,3.90505262269,84.3153826164
do_nothing,-0.165266272166,-1.87599404762,-0.0231592522752,-0.830493797629,-2.69448364713,0.240814877891,-9.06685210184,-0.347511340305,-1.21585978337,-2.90426229653,3.85494111511,-3.31694926383,-1.83227406429,9.29904395018
do_nothing,-1.6478451431,-5.3593527016,0.476189476509,0.586396025726,-2.92795022258,-2.87339732256,-8.44208147463,-1.73329783022,-0.819260308125,-6.25572287223,-2.83704575764,-7.4425507567,-7.0834888665,-93.2807528625
do_nothing,-1.50150365072,-4.23538547962,0.206398900121,1.11466374403,-0.654020793681,-4.23520134826,-4.6237040806,-2.3956362417,0.186792571743,-3.01099286753,-5.58173282541,-3.73069644581,-5.47657669525,-88.2615996762
do_nothing,-0.20088504867,0.746751609484,-0.655857858224,0.587837230063,1.73501444808,-2.92157152101,-0.818352976619,-1.83202943789,0.46227876512,2.3505612722,-3.19085597269,3.49393964026,0.767240186853,-5.19549534682
do_nothing,0.464837941045,4.11951588344,-0.843150080034,-0.0651439289713,1.14190039778,-0.940920740908,3.23898871042,-0.0149685561755,0.117311358088,3.87574108316,0.252577912296,5.58733090369,4.48512473843,26.6511721951
do_nothing,0.136732119644,2.85114432575,0.0459381312484,-0.138545416411,-1.49290528835,0.445797382751,7.92317225721,2.0710128867,0.145636981149,1.74640275759,1.31064392856,1.17957746137,3.20600191748,-3.27138007825
do_nothing,0.0871613560564,-0.178352545655,0.801030339398,0.0794285795683,-1.74950469422,2.58803964252,9.41289497626,2.71219967308,0.56280876003,-0.16827921088,0.444647248704,-3.10032523957,0.61578255843,4.01261987861
do_nothing,1.02988443257,-0.835843806135,0.373256080443,-0.00369389067952,1.92659197455,5.89808899634,4.1065803117,1.28180929827,0.427452620746,-0.640848976473,0.121408094195,-2.080945162,-0.0935937727258,59.4757926011
do_nothing,1.95486822569,0.701776100433,-0.502189507432,-0.323215010295,5.09603089719,6.73883650086,-4.10099238308,-0.669020883019,-0.421745484602,-1.10352324885,1.354403836,2.00680000134,0.104628963881,63.9538363165
do_nothing,1.32354684274,1.02322352383,-0.406746609052,-0.354671894879,2.8062091155,1.28174946386,-7.34343264124,-1.28633890084,-0.936157719458,-1.61535538181,2.51849261593,3.4680790669,-0.727285924559,-6.96934714537
do_nothing,-1.05537682986,-1.17403539452,0.565756827498,-0.01923883885,-3.36908108635,-7.68930192935,-4.68725404627,-0.861551179785,-0.458119520558,-0.775081020916,1.5004849746,0.392137666937,-2.02232616312,-52.1833773561
do_nothing,-3.38438709836,-3.17264915061,0.902147956986,0.196733093201,-6.63694527475,-11.411560384,-2.61875598848,-0.869406189647,0.309222627231,1.13561012716,-1.16119109745,-3.39654660806,-1.8233910444,-21.2760650419
do_nothing,-3.2005943301,-2.02893450472,-0.0623841781492,0.0424717459924,-3.26254841617,-4.81532109129,-3.34077348623,-1.07748390759,0.461494301446,2.07665694419,-2.45967362096,-3.19519115732,0.218430700704,0.242686511573
do_nothing,0.0284959866742,1.29312539776,-1.12907110206,-0.126281783301,2.93786405701,6.28746701818,-0.826309776496,0.0770764062107,0.166478898168,1.15423414311,-1.13539293618,0.576670718641,2.10525973531,-46.8619299241
do_nothing,3.58829940694,2.95899702966,-0.937865076837,0.0222231072539,5.35306090209,10.7172448646,7.17349630824,2.07651097825,0.0886417511903,-0.612688867002,0.0136353685662,2.6022561209,1.54763504672,-72.9065860322
do_nothing,3.86886892934,1.19719217669,0.201153609966,0.25885117889,2.14761777073,4.52982374323,11.4445288948,2.0802735592,0.207414114788,-2.03116134062,-1.60681247411,-0.0973949926433,-1.22339719128,15.723244836
do_nothing,0.52424651619,-1.31286677846,0.89664791744,0.219855161108,-2.43075752674,-4.69601949346,3.83962177991,-0.654065894876,0.0482262144547,-2.3169368777,-3.30591227831,-3.16514757764,-2.86004900119,137.153910933
do_nothing,-2.83436779026,-1.02491180542,0.556407149213,0.0106364632963,-3.51717845997,-7.16949463539,-8.07967888888,-2.71778526103,-0.318237935624,-0.710035279807,-0.287758322011,-0.606891866502,-0.428465478797,126.259451193
do_nothing,-2.88727535573,1.47887164481,-0.114864355114,-0.0409884440936,-0.711035595941,-1.87882959316,-9.48860661621,-1.13547527688,-0.381369170436,2.24250909736,6.1279662556,5.4650954138,4.04631648856,-28.7478144517
do_nothing,-0.372222040149,2.13731302816,-0.282275399646,0.0128291644632,2.48361627717,3.98950785802,0.48355219453,2.01802974714,-0.10651475595,3.71627900135,8.27991818653,6.19954244186,4.76466845863,-156.449409906
do_nothing,1.55333289012,-0.745865257686,0.0596409663421,-0.123563096614,2.93574757177,4.66442037212,7.10891022779,2.45964908226,0.0735986426905,1.52778987652,2.20620783136,-1.32786237679,-0.458545691621,-114.856135987
do_nothing,1.50053541124,-3.69394851555,0.308593000863,-0.374653943405,0.679357460283,1.21203142548,1.37354209557,-0.127090397996,0.0977332536368,-2.27997716275,-6.25348388894,-8.52548433439,-6.20184907519,45.4080507658
do_nothing,0.596412261286,-2.68152795447,-0.0259217118951,-0.347585480862,-1.94496732832,-2.31071315222,-7.56826154736,-2.06372590189,0.274744305978,-3.44818488146,-8.68283510172,-6.47879062755,-5.69439609269,149.033969734
do_nothing,-0.14078617147,1.26756554965,-0.79999938862,-0.00811659308915,-2.78862680939,-3.98302728947,-6.51249336432,-1.36781386976,0.438071385158,-1.06804047991,-4.15957625189,1.88630896721,0.476466821871,83.5721714467
do_nothing,-0.853195450896,3.58914586017,-1.12946601851,0.234703658062,-1.44746304839,-3.63121136972,3.46836828197,0.0600480020769,0.0369477783989,1.60556360457,1.70998836445,6.60384596429,5.44577212832,-87.4777586285
do_nothing,-1.31596332873,2.29227274928,-0.122014769365,0.235711039099,0.721891614416,-0.840932953434,10.3350444511,0.390754892122,-0.703579010331,2.00355202855,4.87212806897,4.34220683363,4.97613873888,-178.147065361
do_nothing,-0.697843074188,-0.344464534546,1.7349486959,0.337092042652,1.66090843422,3.38361566642,7.52103572851,0.472117683252,-0.704978897295,0.809864951099,5.06373588656,0.224101731911,1.16449811841,-67.804240682
do_nothing,0.574469908666,-1.9303324997,2.35197409596,0.6099098445,0.444857869548,5.16491215319,-0.856089843408,1.07051559325,0.33407629898,-0.750904965544,2.25329006172,-2.21054388471,-2.56084468901,143.385097083
do_nothing,0.849891193233,-2.47438117509,0.288583779017,0.459166901005,-1.27287030467,1.98893701169,-8.13348646213,0.765838998702,1.12466331854,-2.5256485475,-2.89053143115,-4.38202897396,-5.12067554956,216.79840593
do_nothing,0.0483197102617,-2.00009041206,-2.79918420264,-0.464474789694,-0.495958810157,-2.46356874988,-10.4340765972,-1.06768489665,0.475599659522,-3.04768319731,-5.59442672444,-5.35788725218,-5.13522144713,57.2466865828
do_nothing,0.234053124749,0.721609503463,-3.34083089936,-1.37786204232,3.17486987512,-2.14455421989,-5.40059039352,-1.86938546142,-0.85680935052,0.356544313648,-1.04455581051,-0.390841052539,-0.109032031522,-152.59983161
do_nothing,1.95168902792,4.76274624247,-0.166727154974,-1.14622548488,5.50176330233,2.293326225,5.78943951319,0.410962808969,-1.1144281709,6.26930199479,6.70607240708,9.05325229791,7.96585438447,-178.939710041
do_nothing,2.2381290422,5.41197597704,3.50487449434,0.155949575969,1.76881601206,3.12958252582,14.2911850032,3.09546005513,-0.0223807549471,7.71322294312,6.89723045285,11.8360821371,10.5944036081,-34.4237205115
do_nothing,-1.19342840243,-0.265777658338,3.59957014155,1.21366629659,-6.41231491097,-3.30250540345,9.8294066615,1.92572824537,0.899008539106,0.439911597817,-3.25901539357,1.00868529567,2.13314546127,72.8521866948
do_nothing,-5.32484597193,-7.64749697372,0.0565764951355,1.11634874738,-10.8512932389,-9.57318366513,-5.44923606771,-2.3854812702,0.58992809607,-9.48323531417,-12.2982396696,-13.8070301235,-10.700069738,49.0528758295
do_nothing,-4.7437684701,-8.49506477754,-3.22617793108,0.33671116301,-5.55276081409,-6.04983846964,-16.0364355561,-4.58541076285,-0.199820184334,-11.447442943,-8.55292584654,-16.209464436,-14.5779564645,9.96103964877
do_nothing,0.952771982899,-1.01260175726,-3.11656120611,-0.210870238697,5.44532440421,5.42182154575,-10.8086589582,-2.10650737765,-0.318452978413,-3.16397308541,4.14312562438,-3.29695637399,-5.10151152431,47.4529872236
do_nothing,5.91501479272,7.48111373246,-0.436424120064,-0.390442050171,11.7346567303,12.5787908768,3.4187114385,1.8029340549,0.0732780620796,6.94176437755,11.7735003342,11.4566573958,8.25661995813,75.0170916411
do_nothing,5.21171241208,9.06656937973,1.85813215556,-0.56523743557,8.02837932901,7.94590812654,11.6023447747,3.27883123746,0.0715981058725,10.4352046072,8.36283564015,15.2219620214,13.6825826506,-2.33644226529
do_nothing,0.57969525402,3.59986081328,2.20687146046,-0.64522068923,-0.630940167317,-2.31493103912,9.21918142092,2.68761324242,-0.360676105524,7.14208350997,0.958471533795,8.34472798086,8.95183309577,-103.347974141
do_nothing,-2.70373307046,-2.95019068166,1.21335433048,-0.241234501668,-5.86777102556,-7.24651514034,3.78284358765,2.11761613282,-0.421697732153,1.49259744856,-2.95161041135,-1.1676179644,0.126275608943,-91.665956166
do_nothing,-2.58840134139,-5.9218249153,-0.0629735407827,0.415224510379,-5.35386529916,-4.58909485265,0.247971351834,1.00173873227,0.118342298638,-4.13002753723,-4.37897081873,-8.1285505036,-6.97732894802,5.87458155645
do_nothing,-1.42151816877,-5.19850822748,-1.1491573233,0.566516928182,-3.04061426362,-1.15391944287,-5.01203036523,-2.31570280233,0.544296902422,-8.80169244096,-6.60278860047,-11.2785443828,-10.1893120261,50.5615475712
do_nothing,-1.39306568478,-2.65240964846,-1.70094201435,0.0826052954897,-2.11977682241,-1.83270268721,-13.1229837034,-6.05048576636,0.346844515894,-9.6082344525,-7.3950975675,-9.46265002357,-8.74979933959,14.414445556
do_nothing,-1.60504522466,0.46676781564,-1.26380058339,-0.226162553236,-1.35457088583,-3.46160263087,-14.8491686349,-5.78331783224,-0.0837836529309,-3.98763893762,-2.82445583782,-2.35542722349,-2.61724316964,-1.25418273184
do_nothing,-0.178268081052,3.31848647444,0.0760826280826,0.189820398639,1.40386432388,-0.656499394085,-1.90934486698,-0.269489583096,-0.208493849751,5.21485816281,5.27332204049,6.72399998575,5.64462803233,40.3165967002
do_nothing,2.59065553499,4.76009538604,1.40719692161,0.708552264784,5.07414704217,5.95591997802,17.5244281997,6.1424524418,-0.114451375972,11.0238604281,10.7439221751,12.4236569542,11.1561226028,51.8648805632
do_nothing,4.3097413808,3.90955194044,1.74336117567,0.380669790819,6.40166949038,10.0121231924,23.842226572,7.95178239468,-0.123379097851,9.23515743796,9.93238097613,11.3131721527,10.0997006096,-12.1383953635
do_nothing,3.10547050187,0.962044692639,0.859458742383,-0.675792916185,3.81202565306,6.72949517722,8.62733618815,3.94324157459,-0.146308124859,1.90345334105,3.49581527531,3.35802945334,2.56612198624,-66.941754868
do_nothing,-0.444733842026,-2.64988582501,-0.625075668308,-1.34324468391,-1.156353574,-1.97946883092,-13.8262888918,-2.38088041385,0.0482575674399,-5.70498077233,-5.83263004856,-7.78524474202,-7.0628102409,-38.9069140536
do_nothing,-3.71479765474,-4.69123914559,-1.66958595053,-0.868546644411,-5.50114892506,-9.4697390018,-21.9564710599,-6.41085843644,0.260217648273,-9.27808078167,-13.1451119625,-14.611709022,-12.0566295345,15.2205402538
do_nothing,-4.23015106943,-3.51198263178,-1.4169498938,0.344990644157,-6.78394552273,-10.3108519793,-10.6213553903,-5.80702233156,0.11818988226,-7.08896714322,-11.9586515457,-10.3445687732,-7.99525543647,13.1429771438
do_nothing,-1.86293372512,0.0372106332581,0.0610476115873,1.29682332871,-4.26855118845,-4.4752719296,5.68766293237,-1.60909522319,-0.236575295076,-0.658178729988,-0.897995557547,2.54057115616,2.15754265763,-16.5299645424
do_nothing,1.07790339067,2.70365345871,1.50545922571,1.30839858745,0.55031649199,3.24645390625,11.8320479425,2.83719205391,-0.266913912913,5.40956979323,11.148527737,11.8518011044,9.19546581015,-0.00220516753128
do_nothing,2.22119469191,2.09932798252,1.49601357861,0.392460221516,4.54591662292,7.4453984422,7.55809935048,4.48911985817,0.151820343949,6.67434101054,12.6593462166,8.6178932948,6.80047339913,43.225216292
do_nothing,1.43001388597,-0.45742041953,0.0126717655101,-0.808419569802,5.14472833967,6.12441003119,1.81059659927,2.89348651267,0.503500832207,3.13195652223,3.08412446826,-1.85976766184,-1.2366381877,36.3643144594
do_nothing,0.385712005079,-1.53789792004,-1.413421976,-1.34492215438,2.47874899436,1.47736003737,-1.67783012623,-0.0217130805523,0.328422426794,-1.13722026995,-6.36832643267,-6.97564122159,-5.64792777999,-15.5895491612
do_nothing,0.349528738916,0.295344943064,-1.3621267573,-0.712117527108,-0.751086705627,-2.40197864992,-5.46779093247,-2.07993787848,-0.207189630727,-2.81225423475,-6.73029971018,-2.68929840993,-2.62888828415,-33.6607431672
do_nothing,1.06511255613,3.1617970126,0.00309840687001,0.471930628271,-1.7172851987,-2.58141171769,-7.80957367711,-2.20363267754,-0.591630640102,-2.0083485279,-0.797370885819,3.74123388955,3.14328609613,-1.91213583307
do_nothing,1.44752742506,4.13285724405,1.32172503103,0.948824029648,-0.0855690182893,0.509767995962,-1.83800268392,-0.397622040197,-0.539919667342,-0.274495004581,3.30373390272,5.42638508917,5.60337617199,10.9447546842
do_nothing,0.400884542208,1.48638499962,1.46883884444,0.292284830699,1.41131590312,2.81884871131,10.5704708188,1.96929065383,-0.131682078306,1.18964301333,2.45216178694,2.54677644421,3.0467673232,-20.9013548479
do_nothing,-2.49491400732,-4.33095593743,0.345671945834,-0.503503321253,-0.48354586862,-0.0506442113479,13.9084065224,2.17610050982,0.372288243701,0.811614972881,-1.15647612372,-2.82399187816,-3.13274487686,-33.9361314307
do_nothing,-5.60966049637,-9.66600579878,-1.23083843742,-0.346813508845,-5.28860283549,-7.06412257871,-1.66131740945,-1.16856311492,0.661261002176,-2.27599086695,-4.91721489458,-9.55242493836,-9.86859939824,8.76419285157
do_nothing,-5.11334593248,-8.48460017773,-1.96948387242,0.42729633522,-7.48948614131,-10.1929230796,-21.0912541337,-4.9074296103,0.520404954161,-4.87932052161,-5.93359381498,-12.1579820328,-11.0050824448,47.1809781536
do_nothing,1.15054851634,1.72460867239,-0.956751038714,0.562974201523,-1.94657955538,-2.45578088772,-18.5286492136,-3.62193756158,0.054394252648,-1.54392049447,-0.505080583719,-2.49417550476,-1.04033566597,24.4507682613
do_nothing,8.96567736074,13.8770177459,1.21029188396,-0.231535082781,8.42483712476,11.5048300016,7.56332970377,3.04033482591,-0.358392150899,7.01125882148,9.80616057456,16.0843229523,14.9736889504,-18.5771480409
do_nothing,10.0136644553,15.5665153024,2.46870481385,-0.801883916634,13.2401128141,17.2929060475,27.4396385075,7.96333877021,-0.480497806005,11.0967970365,14.435088188,24.3915043465,20.9071866069,-16.6029449324
do_nothing,1.41762818444,2.90176096776,1.34106880024,-0.250737263023,5.96375230582,6.92512154884,16.7568167467,4.69323271591,-0.42515493374,3.18607288229,4.49717905696,8.52076644063,6.80989702163,11.9276409795
do_nothing,-9.01207673439,-12.769824441,-1.122974527,0.676149094185,-6.96739891866,-9.85824126866,-10.8687318232,-3.65187422662,-0.318079181809,-10.1435905382,-12.8439564073,-18.4102931772,-15.6682348388,7.33854440541
do_nothing,-10.6374103146,-16.3701335321,-2.34154449153,0.622519419538,-12.4421458641,-15.8336261439,-21.8117432727,-7.66667532526,-0.0203038500494,-14.1073108233,-19.279349238,-28.0686225711,-23.7663665691,-23.2912573816
do_nothing,-2.48253760333,-5.97442103225,-1.24574728222,-0.394899989188,-6.06029669848,-6.82251112644,-6.9095450761,-3.57683481987,0.512940175106,-4.08198255012,-7.41793010051,-11.0776573377,-10.1362971029,-24.5728300027
do_nothing,5.87954290632,6.33801169974,0.610474391199,-0.947241682716,3.22087124159,4.34039522229,9.56841821417,2.54768382704,0.837952884737,8.43926686498,9.52162476622,12.3030301737,9.22974409393,5.64771066056
do_nothing,6.36504756311,9.83581093308,1.30853931762,-0.180206714608,5.30561234564,5.59009002703,6.7078541654,3.71690004799,0.471724501336,10.7770883677,14.6287025535,19.10253455,15.9283206482,18.1224541391
do_nothing,1.25873539546,5.73248834556,0.867037272627,0.976216739907,1.1709017971,0.391086451979,-5.47451368159,0.800052368347,-0.315810965442,3.91612985897,7.25168530169,9.71625568649,9.52651667667,4.7763787228
do_nothing,-1.95530124644,1.19151278337,0.469773817814,1.02441113143,-0.947429194997,-0.163781158469,-5.26058243001,-0.66254959546,-0.688491936283,-2.16503009887,-0.646597615593,-0.23836472462,1.6583661562,4.62422722321
do_nothing,-0.890141128136,-1.16314139527,0.298100855885,-0.16013215102,1.85103239956,5.32390275506,7.42419156047,0.841358938559,-0.349994259172,-3.06322581048,-2.80823188536,-3.90145622505,-2.36405646786,17.6812902736
do_nothing,0.624330898365,-3.24308632553,-0.460807857907,-1.19990485851,4.182535666,7.2776970869,12.8794371893,1.72744503251,0.0565505484146,-2.84817330116,-3.85617428891,-6.57124720019,-6.20681808715,1.69742949195
do_nothing,-0.209006727831,-4.91242148864,-1.65682904185,-0.921901935407,1.5059436965,0.227290481748,1.75189362506,-0.248990663632,-0.0509285585263,-4.35574410298,-7.37972728461,-9.96881968985,-10.2614670509,-33.092001053
do_nothing,-1.61488545386,-3.53643747895,-1.76165881274,0.308566566589,-3.47909021577,-8.87792977376,-12.68596203,-2.85414698628,-0.292613758212,-4.28695292195,-8.60376895871,-7.46747145568,-8.22358279712,-20.8589466351
do_nothing,-1.33257566056,0.566761889421,-0.00837694588383,1.11473214072,-5.44329810987,-10.2059933149,-14.0223788411,-3.13512752012,0.0317468238547,0.277957033851,-2.31939712878,2.86164341116,1.74041939522,37.7056405023
do_nothing,-0.15604859205,3.39079458254,2.10842910965,0.69030111415,-3.30771729881,-3.23843869536,-2.23889857421,-0.987234849315,0.722290098433,6.09945909239,8.12059515426,11.662440939,11.063682579,48.5525618435
do_nothing,0.343804363702,2.82925090346,2.42232039828,-0.390472087062,0.19969378452,4.59050008964,10.4025388983,1.9144330248,0.835837857519,7.71648018389,13.9593417275,10.1862179491,10.9066510421,-26.050563113
do_nothing,0.666019244855,1.08787045404,0.687736777741,-0.910633482866,2.91322249267,7.63503279336,13.8800612215,3.98800190491,0.0711713116575,3.94847480813,10.0175295758,1.54631051642,2.92283030832,-85.8832163686
do_nothing,1.6692598008,0.377460246387,-1.31353741284,-0.381544858707,4.08560729961,5.89157224456,6.26104859284,3.6162349278,-0.723311466051,-2.090507426,-1.64880357258,-5.28190733894,-4.66526649638,-39.9034879576
do_nothing,2.09676758588,-0.167257252678,-2.00984945564,0.477319619299,2.9417724007,1.54230883422,-7.16794849211,-0.0252431897763,-0.716581853742,-6.81600693452,-13.446426012,-6.98237010243,-7.47045476942,50.0645683359
do_nothing,0.399099040881,-1.51571914577,-1.43987652159,0.655610329217,-0.276169763354,-3.29477560013,-15.4333973479,-4.50987409794,-0.176478296628,-7.65090063393,-15.9624487665,-5.68485471614,-6.451715607,73.4311593488
do_nothing,-2.17161410251,-2.05743705441,-0.395698832397,0.0581452793715,-2.88276369911,-5.84486365622,-9.40020087036,-5.1932402073,0.102212772941,-3.41547810937,-5.14971007109,-2.16998112428,-2.64589668722,42.4418017134
do_nothing,-2.8429312605,-0.528943403335,0.764306534569,-0.476915913126,-2.46040909977,-4.11091739597,6.31963296181,-0.873961916551,0.0125195426644,3.57385489606,10.7214760452,3.47283165375,3.21810667418,31.9667607262
do_nothing,-1.16758454396,0.980213266875,1.83312096266,-0.329474396253,-0.398043043961,0.163484491265,14.9586359251,3.74590960096,0.103915062996,7.61071766214,16.2006871083,7.09007224441,7.22292619872,11.6934138128
do_nothing,0.716563784592,0.124001772409,2.03458411203,0.14760844252,0.195852755836,2.96857141992,7.41877242647,3.78963678907,0.508275006639,5.15860127742,5.76406163702,4.01696422396,4.86626582026,-92.0006423768
do_nothing,1.41938417833,-1.40218286209,0.661182945777,0.264316314998,-0.486003260849,2.946847516,-5.44341344051,0.517398627865,0.643030994286,-0.589676576607,-8.17751380016,-2.83056809543,-1.9122520356,-191.622216316
do_nothing,1.55672583036,-0.22116473147,-1.56745967193,0.0119001388771,0.433700124883,2.03967292162,-7.99937786096,-1.18927166145,0.142045064049,-3.563219449,-10.1993949109,-5.09428210072,-5.44962311987,-101.286966685
do_nothing,1.54462128674,2.96632120948,-2.68755493348,-0.0616537546376,2.80366798479,1.11566308069,-1.25448494512,-0.177777987597,-0.528359756187,-2.28798780231,-1.11623595925,-0.329117133847,-1.9749564749,152.000116676
do_nothing,0.572462873529,3.75181812504,-1.53374362933,0.157190301588,2.58789951914,-1.25494901987,1.69407184429,0.188405530925,-0.719427624513,-0.404012500354,5.33417340928,4.51967011869,3.48023498353,283.563290622
do_nothing,-1.37756156046,0.383417703391,0.818194777097,0.136108990676,-1.57160553814,-4.44236568481,-2.39710922988,-1.62249634659,-0.420319911224,-0.473094190362,2.59518384168,2.9395641532,3.98168172195,126.815380532
do_nothing,-2.53889173084,-3.64050821987,2.15496735119,-0.346230155015,-4.82283633125,-4.28168105969,-3.35208365896,-2.61657832378,-0.0328434133718,-1.09523826812,-1.93639142805,-2.87319874162,-0.762280484569,-122.541155029
do_nothing,-1.64743432678,-4.36104267489,1.49131904821,-0.638945765596,-2.40476490163,1.01009353669,3.2961286354,-0.452419420334,0.300108524053,-0.54469433308,-1.19614733626,-6.249722052,-5.27459614153,-190.570711107
do_nothing,0.2695160082,-1.91547391017,-0.120984157185,-0.103094929101,3.11249871333,6.37849651219,7.77833116415,2.40456059944,0.621185124476,0.468676063941,1.08447523331,-4.36343926829,-5.21198066353,-97.8943481387
do_nothing,1.52930866198,1.05092279065,-1.04631584052,0.805992670668,4.91537702692,5.363751117,2.40494642555,2.38525690681,0.663592374945,0.990726863257,-0.684622903326,0.77411323484,-0.798570413859,-43.1025325772
do_nothing,1.7997722412,2.97012642295,-0.774375356367,0.975724867995,1.14564876916,-1.3243140956,-5.38957103275,0.121906088002,0.0945558343061,1.62046920576,-3.22730640069,6.00324253752,4.70060786695,-36.3157973556
do_nothing,1.34149769669,3.48536790639,-0.0361102077156,0.0992019989608,-3.11259651401,-6.43237228262,-5.05314178873,-1.03293672212,-0.729577204987,2.41159040438,-0.5405779257,8.1691089479,7.34849832375,73.9354934049
do_nothing,-0.0776643718239,2.13392084889,0.286532266523,-0.886999968897,-3.20605385066,-5.03516631434,0.941251888546,-0.200885848711,-0.902286615088,1.7389944494,4.83395840379,4.66903481884,4.82953694475,243.334524042
do_nothing,-1.88642755776,-0.718960778928,-0.0125158558083,-0.98527755947,-0.397990772476,0.556725314499,3.20588056852,0.52049509156,-0.12996360007,-0.779646237774,5.44279785109,-3.03098127845,-1.1458742823,212.707054356
do_nothing,-1.99527827252,-2.92161613379,-0.4657433579,-0.280659082041,1.38534793582,4.86420517601,1.07452556541,-0.0143204546095,0.740746024807,-2.75985194058,0.77605586776,-8.52005449728,-5.70193074073,-72.0051101073
do_nothing,0.339426080041,-2.75100750557,-0.403510856929,0.39158592928,1.08919605222,4.96601313099,0.534365387716,-0.729174300208,0.746231916829,-2.60215488771,-3.09855721362,-7.08678220016,-5.90074457322,-297.220987873
do_nothing,2.2649945707,-1.19900793208,0.408218275995,0.559947664148,0.445043949552,1.48173939415,0.872699758629,-0.920606918558,-0.00112297775374,-1.97639474341,-4.06706315211,-1.57574771975,-3.54425719512,-203.879202918
do_nothing,0.805231249018,-0.118628012425,1.30160780335,0.461040581258,0.353615311628,-3.07119385244,-3.47624979688,-1.15525298052,-0.592524701027,-2.14219333762,-5.14161928995,2.17181076034,-1.19582076425,45.7258644427
do_nothing,-2.25793146639,0.703641141173,1.13250154584,0.404658070271,0.0373598881969,-5.47274329995,-8.91563609209,-1.14529201051,-0.532906524493,-0.689661492484,-5.3918901416,3.4333789662,1.84406041148,134.722999722
do_nothing,-2.414774847,2.17791070975,-0.365943545609,0.258820793981,-0.859619633585,-3.72511537923,-4.52935221389,0.413437801158,-0.12507060618,4.06754894157,0.282185031891,5.04589938503,6.21773434857,53.7340870713
do_nothing,0.78715070997,2.85717094252,-1.85705023933,-0.258357168827,-1.39962258573,0.69066275485,9.18057772968,2.92888515191,0.237246348656,7.80796815994,9.83971453046,5.80978968529,7.97366888463,31.18337643
do_nothing,2.96383211904,0.76118631211,-1.687138845,-0.97733475281,-0.587451139455,4.16856728951,16.5191517036,3.54394803769,0.514012012791,4.8132793015,12.4042407353,1.77604233674,3.02811598674,105.574816149
do_nothing,1.77147759279,-2.15540174208,0.0788233018073,-1.21001756875,1.5295683464,5.20744684408,7.84814338705,1.15428893645,0.623387323514,-2.83906358457,3.29646864943,-4.76477057188,-4.79447608626,78.8472615644
do_nothing,0.136592173815,-1.68170212381,1.60847788887,-0.413879019183,3.5132886685,4.75273809054,-6.62998676725,-1.66817302939,0.232564636533,-6.81176759103,-7.53202860417,-5.97657343358,-6.92875573044,-99.8119660746
do_nothing,0.320277808403,1.54783453605,1.49805111744,1.03421267994,2.73671436406,1.96711073762,-12.6670159969,-2.60048548011,-0.625548893074,-4.21971663442,-9.23202340263,-1.01736008238,-2.42459390632,-205.330954862
do_nothing,-0.579284394277,1.45940428301,0.293218357675,1.87686287464,-2.31400614416,-5.48057415092,-11.085494276,-2.83913630902,-1.14890619496,-1.31766001635,-4.92091858106,0.725821265268,0.12338937523,-91.0055625391
do_nothing,-4.67905147541,-3.9566991548,-0.593717855608,1.12006211638,-8.27759777789,-13.9636977866,-9.50049058955,-3.72203210014,-0.58609127117,-2.48289454518,-3.51975293439,-5.07933390143,-3.4415588826,77.2470079285
do_nothing,-6.6811159768,-7.11093466477,-0.721917908748,-0.736426608189,-7.72573022798,-12.3953271447,-4.15684862522,-2.62573693991,0.651013505194,-2.2640070752,-3.00298384915,-7.45438645107,-4.54847618954,93.396077557
do_nothing,-0.234970775932,-0.510612270535,-0.609038054833,-1.9396088907,2.38267808613,4.32396317046,12.5521664351,3.21857532617,1.27101773248,5.11839188217,4.9985917247,4.28202186551,4.77692652337,18.9472188333
do_nothing,10.1096403115,10.3836407102,-0.461046814785,-1.29429338517,13.7309793261,22.7054862265,29.4475724751,9.71721701247,0.624118109249,13.1149130243,15.944050462,19.6609690009,15.7457461278,26.3306112045
do_nothing,11.4840817506,11.5930261702,-0.000498311399006,0.449689170941,13.2618563807,21.4365362292,22.2296996264,8.40500022865,-0.511115747929,9.2401378651,13.4653440857,16.4143814565,11.5303426086,85.5069195465
do_nothing,-0.0798640910213,-0.68352738496,0.595345378368,1.43510290556,-1.06379151849,-2.1530145329,-11.1061662733,-2.04808563153,-0.912740071021,-6.04945266251,-5.46202685634,-7.53309985211,-7.72842592265,37.7051126121
do_nothing,-12.0663491847,-12.9248624992,0.685277363495,0.837164874028,-15.3350933014,-24.640692888,-37.6038931125,-11.5128522512,-0.350371310638,-16.4361614301,-20.3230424958,-25.8830071901,-20.6052103475,-98.9302049193
do_nothing,-10.634701007,-10.7045091896,0.251545042513,-0.348386038663,-14.6594785901,-22.3065745533,-26.6247283547,-9.68504369606,0.329051525377,-9.92973010426,-12.5841905115,-16.3953516597,-11.0866462451,-139.034579144
do_nothing,1.41950970568,2.55641253397,0.00213382954393,-0.742895962619,-0.672143373661,0.63466917045,9.62048473246,0.933308129171,0.37643486468,5.13975658158,7.8120653231,9.00593643053,9.29849250514,-34.1430347768
do_nothing,9.01828846451,10.2751030964,0.0947179284056,-0.219057032313,10.9144115854,17.9797586026,29.5920960014,8.13588356362,-0.0349799596094,11.0490956449,14.9668739528,19.5228585411,15.8166685614,56.4150212059
do_nothing,4.88705018793,4.4761812322,-0.195579496649,0.304873653284,9.53993077536,13.6903462444,14.0457619086,5.2835825107,-0.238311911046,3.40899239479,1.97923538423,5.7820739335,2.60756765778,35.3210758977
do_nothing,-2.81874688519,-5.04104353328,-0.991974866887,0.263915364432,0.782728062258,-1.54382640746,-12.5419106576,-1.62320331939,0.00817038522889,-5.20743399617,-11.2908937221,-10.361149026,-11.0951263507,3.71474504055
do_nothing,-3.90653403739,-5.41826111299,-1.10121980591,-0.019648692025,-3.64945235089,-8.01997472012,-16.5075302214,-3.37996956979,0.300562966543,-3.64945633466,-7.0501185961,-7.80206474821,-7.7176724759,49.996479585
do_nothing,0.617054145487,2.32344238094,0.217252663359,-0.111735867062,-1.24591464909,-2.01697142194,3.23037119583,0.622130078249,0.203975099256,4.09032371917,7.43768517558,6.66742992097,6.55214148978,85.0054284371
do_nothing,2.99607907146,6.70503455911,1.6406812968,-0.103846288534,1.08551350829,4.15930037466,18.8025561665,3.58893034997,-0.170110510203,6.73418592209,12.8451510372,11.5873371083,12.5451318516,10.0980001081
do_nothing,0.863059281616,2.30700460199,1.32821662321,-0.221089591542,-0.922612956055,1.89606560181,11.1652173653,1.51866486548,-0.334491188707,1.18625813218,4.0789518098,1.15261319645,3.71645244872,-92.9316570187
do_nothing,-1.41575359799,-4.39051675844,-0.363406948773,-0.268689065704,-3.48250876301,-3.80307658534,-9.26030093538,-2.52901967988,-0.0831268023785,-5.50727544945,-6.83557695768,-10.2237420055,-8.19167466034,-88.5174611944
do_nothing,-1.18347179308,-5.62123438471,-1.27291393444,0.0764686499358,-2.25936092302,-4.72253735094,-20.0209097448,-4.08924794859,0.229709295985,-6.87480298163,-9.56965957172,-10.1880048621,-10.771789435,-5.74520728729
do_nothing,-0.777206982911,-2.08716857476,-0.542990146605,0.605391243471,0.656866908833,-1.33420737027,-13.4290789382,-2.85504506175,0.171205856761,-3.68932705338,-6.07506703841,-2.56455382569,-4.85304527604,26.0971710419
do_nothing,-1.89779804469,0.830773029806,0.322757943671,0.673464788431,1.00520187662,0.553141923398,0.126787095374,-0.922064517055,-0.159315968823,0.156252827144,-2.09951578866,2.95801539375,1.38124577701,-3.75395328029
do_nothing,-2.05647860786,1.67931320517,0.0286662625911,0.0348269078604,-0.182541853304,0.128645622108,9.22329000794,1.25360228343,-0.254974004589,3.24516900693,1.99886265839,4.70573738658,4.51843696344,3.73295899789
do_nothing,0.972593533703,2.82059381639,-0.513985530703,-0.742524918019,1.43557523829,1.87358515188,12.597319431,4.10695644548,0.0654005240946,5.70558644188,7.39173008887,6.27058068746,6.43922123181,59.6374283096
do_nothing,4.64965773152,4.11627713063,0.0745873287727,-0.890558687969,5.29110684261,6.44295580378,13.1285680842,5.77923866957,0.360707313808,5.99608828819,10.1371352962,6.68423311428,6.87562320217,64.5515294245
do_nothing,4.67573378869,2.3792755297,1.1436768379,-0.296024346163,5.25003547639,7.59386639212,8.90426298044,3.28003046086,0.189267950062,2.2753238662,5.16595069441,1.87848456559,2.75045292325,-6.29375831742
do_nothing,0.778864950644,-2.46994356535,0.931852613149,0.464778238776,-1.31498619772,0.811743090558,-3.14348221394,-2.72910507314,-0.231275342684,-3.71404413626,-4.89393806658,-6.11128180907,-4.86278398379,-51.7651109764
do_nothing,-3.21912001403,-5.4846994894,-0.556001814736,0.823968386026,-8.29290141149,-8.91947130112,-17.1525665288,-7.08665112534,-0.325736597459,-7.08502080065,-10.6379328003,-9.25443512896,-9.09004901709,-21.180864095
do_nothing,-4.34831582537,-3.17304246952,-1.38233966508,0.673337781384,-8.05777285325,-11.9838487354,-19.9921356873,-5.6520732451,-0.00209129493404,-4.98524846045,-6.72600375286,-4.18805161802,-5.44421977089,0.00464218517667
do_nothing,-3.11675551457,1.34797407368,-0.522062765688,0.157164907359,-1.26847232789,-5.46421848609,-6.77982517533,-0.181361188577,0.23277800706,0.149351798948,1.72953295303,2.82702767958,1.80866104317,-47.5092451429
do_nothing,-1.30370260781,2.62742858149,0.717885970848,-0.564137133901,4.5637820862,4.00837752538,10.2123084519,3.93768121004,0.0555057303169,3.43237714274,5.55544271389,4.23706969861,4.87112429164,-73.7683589872
do_nothing,0.625196158318,0.279887055438,0.745776158566,-1.11367384011,5.06028490351,8.6527983865,14.5012217627,3.89945046403,-0.198451545273,2.7919098146,2.24470448252,0.578636361283,2.08920459531,15.2982723412
do_nothing,2.92528753069,-1.25151820444,-0.124681340237,-0.864090493809,3.01996018836,7.25320726153,5.43683203986,1.63564641131,-0.0864554514593,0.475929579978,-2.2056735196,-1.7439655187,-1.16909607559,137.703845917
do_nothing,4.66591022991,0.494191666914,-0.502026805143,0.329943667772,2.11964368373,3.36093875589,-2.08147967833,0.145448120314,0.239031471907,-0.289080854856,-1.6517242853,0.446449929154,-0.550312064404,127.412734386
do_nothing,3.93258398863,2.92004895571,-0.0588271330184,1.48011611574,1.32972452527,-0.626143716141,1.16415196528,-0.165827219243,0.264636357275,0.989503785863,2.7550163914,4.00206027563,2.23616830483,-28.2031944028
do_nothing,0.218683700384,2.64713824853,0.330896332173,1.25784806527,-1.67885614744,-4.32546562175,6.36698024058,-0.655672115404,-0.0942577503354,2.11224367851,4.99019472871,4.6220495667,3.21543686847,-157.366332632
do_nothing,-4.07758061056,-0.0705390177601,0.187822974452,-0.301265447846,-5.02867858531,-6.26418620698,1.13605325702,-1.56510347968,-0.357999783874,1.20724459115,2.30768177754,1.64092582587,1.54087427209,-116.432164769
do_nothing,-5.45226321078,-2.63716137271,-0.0209049931014,-1.51710951015,-4.76439440075,-4.30330127218,-10.7981086,-1.6910610508,-0.174305421235,-1.25460287573,-1.98500716525,-2.82515191429,-1.07868734714,45.3960927881
do_nothing,-2.93774716861,-3.6376262502,0.0528667484063,-1.02523475258,-1.09789896052,0.340368227545,-14.2814356116,-0.58421293724,0.206105212024,-3.43941825773,-4.04381847228,-6.62697185865,-3.78490963826,151.806157811
do_nothing,0.737424085053,-3.16162995148,0.0384755084667,0.455712526883,1.75842660092,3.14117116903,-4.69661505406,0.496946582583,0.305170237528,-4.08724716713,-4.35650045535,-7.92818055973,-6.18513169568,86.793146379
do_nothing,2.39691656339,-1.14434976975,-0.349294638409,1.07273128425,1.98117010133,2.03729379477,5.99844290941,0.367971035799,0.0360056177712,-2.85776432024,-4.75803469183,-4.83885278035,-5.8685296448,-88.4349574455
do_nothing,2.09155000369,2.21975099858,-0.648951502274,0.290600530542,2.13547585679,0.305161580621,7.33863905442,-0.304683890634,-0.254213179855,0.245656891346,-3.38055876282,2.63267323626,-0.316581108871,-184.491463382
do_nothing,2.04270406514,4.93810102929,-0.296177323108,-0.57506952183,3.60668318076,1.34622120721,3.91729409475,0.0824730004033,-0.241206315631,4.3164413652,2.79462377425,10.3400936712,7.97487843452,-73.593815992
do_nothing,2.46580141073,4.46157384749,0.498006013028,-0.37717005435,3.30071184281,3.17589223353,4.74285450006,1.68738703413,0.0492013790524,6.72213961322,10.7206239849,12.0353416488,11.7364512771,145.924601063
do_nothing,1.07866376768,0.902467054588,0.975691994353,0.348666842101,-1.06208810729,1.64642259429,7.58291212252,2.68291957687,0.319625746276,4.80468844801,11.8905676233,5.27568442577,6.58854662741,226.923979118
do_nothing,-2.46324739955,-2.67171323996,0.712595829554,0.452435026919,-5.5959772182,-2.41556091072,3.65388141568,1.40908855288,0.287816783059,-0.73551987815,2.72855013261,-5.21751846885,-3.38538225097,64.1727419997
do_nothing,-4.53875031064,-3.74258526187,-0.0618940176777,-0.0814237364734,-4.67320346293,-3.86546875235,-6.52172159876,-1.4723655353,-0.0631848741464,-5.55739044023,-9.22638294682,-11.4096558756,-9.92842826639,-157.34612798
do_nothing,-2.30004288386,-2.72179350752,-0.814689420751,-0.360484331703,0.680813597198,-1.19127953023,-12.6998146028,-3.51106766517,-0.428902143729,-6.02037260345,-13.1675955451,-9.36759930004,-9.15419439004,-190.049546656
do_nothing,1.63744759148,-1.25446856875,-1.0670405943,-0.103696943336,3.62311290598,0.911215510606,-9.81042717254,-3.03972137526,-0.426653690193,-2.89804280027,-7.08305352839,-2.20420136113,-3.68346704221,-38.8875386558
do_nothing,2.42139716895,0.144694706589,-0.606451198205,0.0869726969756,0.96996701703,-1.14346671422,-3.51795916267,-0.775354159399,0.00713246823403,0.356586570328,1.55093212771,3.99678832866,2.13103654964,78.9242987036
do_nothing,-0.208681197291,1.4925216466,0.288891711903,-0.107592420297,-2.75730080591,-3.99600303003,0.727602129926,1.21779776509,0.493359859291,1.90286164403,5.66748459703,5.74925177318,5.72918793794,56.1776977244
do_nothing,-1.84768362166,1.9492202665,0.931207230126,-0.242242091091,-2.28815048305,-2.16062436241,5.02594739868,1.79218691903,0.568896707639,2.39657364637,5.0849990074,3.65927642674,5.79135102648,9.56391518641
