label,COUNTER,INTERPOLATED,AF3,F7,F3,FC5,T7,P7,O1,O2,P8,T8,FC6,F4,F8,AF4,RAW_CQ,GYROX,GYROY,MARKER,SYNC,TIME_STAMP_s,TIME_STAMP_ms,CQ_AF3,CQ_F7,CQ_F3,CQ_FC5,CQ_T7,CQ_P7,CQ_O1,CQ_O2,CQ_P8,CQ_T8,CQ_FC6,CQ_F4,CQ_F8,CQ_AF4,CQ_CMS,CQ_DRL
off_to_on,2.10657021488,1.88823603738,1.13928474087,0.616159155931,2.77539084463,4.26555882239,7.06883921208,6.02729889862,0.0266502248869,7.49093099046,1.80563593603,2.68797143508,4.56199744533,-39.3598722662
off_to_on,1.84445697441,1.44353294065,0.955212731129,-0.792650208962,1.82770323177,6.21739692782,5.18249962878,4.48075787925,-0.0104212410777,1.45638550745,-0.512975126457,-2.26644182993,-1.99020479217,64.6527204445
off_to_on,-0.876981303931,-1.03505880212,-0.921475772105,-1.59817014293,0.112133678607,3.12498811219,-2.02487559584,-0.64323457826,-0.0249387166815,-7.2322333933,-2.30681260877,-6.43373760412,-7.15201895989,58.3195460506
off_to_on,-1.80256445115,-1.45284064263,-1.62160813656,-0.525895486441,-0.931331751544,4.38378207604,-5.94150511131,-3.78260798899,-0.0363156973638,-7.88387526451,-0.905119096226,-3.09024123331,-4.22322761525,-6.03994023458
off_to_on,0.712323594516,1.0690488577,0.232363214818,0.882512221982,-0.961500576514,7.42222755859,-2.02587058594,-1.98928505771,-0.0500204156617,0.792405630497,1.98419731014,4.88066212225,3.21605942532,-4.36936650874
off_to_on,2.83546454533,1.98931113078,1.94991006345,0.733607748317,-0.393560524947,1.85761970869,4.15318509266,1.9944823768,-0.0385177013426,8.13167900533,2.38696918187,7.20089778078,5.50414151512,44.9500779572
off_to_on,0.741111562539,-1.33313749239,0.76197165155,-0.284342177933,0.148571766294,-10.0974918278,4.33434943934,3.02003897166,0.00719849985543,5.49556152187,-0.504973038744,0.748965232741,0.226397654398,27.5564493549
off_to_on,-3.65002409211,-4.59080309742,-2.07425285613,-0.25353728633,0.0705826074007,-13.0980601778,-2.07907138451,-0.762633662416,0.0489461955019,-2.97397530814,-3.16600294781,-6.01687931446,-4.72844365886,-55.2592718089
off_to_on,-4.95773979343,-2.56246544973,-3.10509811355,0.772976015064,-0.691259382617,-2.10523348624,-7.72649268865,-5.60626208432,0.0505679874822,-7.12227569213,-2.33948273413,-5.52781059852,-2.66110693082,-80.684679398
off_to_on,-1.27339760335,2.80174343995,-1.14331979476,0.982140173868,-1.24243282215,8.03919981592,-5.95587023397,-5.67165990928,0.0250689055358,-3.85012976704,0.948432053727,-0.65509590598,2.98205075763,-10.0155849361
off_to_on,3.62940134971,4.87022936221,1.79436473008,-0.185088985895,-0.509020814766,4.56353312851,2.22810924247,0.552417744305,0.00520970242961,1.3699869673,3.00226883434,2.07819610459,4.46469523609,49.6694989086
off_to_on,5.09606801128,1.66017064416,3.17309732491,-1.23319042042,1.29106969355,-3.815073166,9.44600585306,7.61147778736,-0.00626892657683,3.51569625115,2.00262110427,2.3205741283,0.586814938463,25.897257532
off_to_on,2.71497496537,-1.88630680947,2.28508877907,-1.0100762086,2.58100367035,-1.52862280224,9.15290400001,8.40189511986,-0.0244366765327,3.20962604289,-0.372874502503,3.33255044518,-2.92106584729,-11.4108640329
off_to_on,-0.287591278049,-1.38357510216,0.36745875788,-0.163252990062,2.12759836456,8.41127302649,1.79631973801,2.28768991772,-0.0407202864811,2.92240504671,-1.52154161903,4.31018965578,-2.07438362699,11.8605494153
off_to_on,-1.64229077304,1.19396363894,-0.887247605435,0.332894646775,0.233299438904,9.21819828143,-5.97302991778,-4.27906127351,-0.0325407491044,2.35181452401,-0.864746250481,1.7913902533,0.833257332235,43.9408926079
off_to_on,-2.28457623138,1.10656743418,-1.19606422084,0.579916951695,-1.95330599581,-2.57060996295,-8.36241062302,-5.97956537267,-0.00579971130303,-0.452623782223,0.11416904905,-3.53989158529,1.59440196297,8.21113656513
off_to_on,-3.58737654095,-2.25864484083,-1.86615855976,0.857635422605,-3.42543263848,-11.4561239985,-5.74846932601,-4.3810043377,0.0107354084717,-5.17230937572,0.0447974424399,-7.11715228808,-0.434390938424,-53.7547610465
off_to_on,-3.98028003445,-4.65586384733,-3.23498744384,0.636767622908,-3.22442628128,-7.09737618022,-1.98911068817,-3.26278375242,0.013916739148,-8.1270641686,-0.769186705785,-6.39566931489,-2.45565343331,-50.307150351
off_to_on,-0.647390779809,-2.48960712737,-2.82624344277,-0.358411979917,-0.654784949799,1.25285555811,1.49709722885,-1.72043454001,0.0303868282986,-5.34650192267,-0.942661757599,-2.14196195553,-1.90795321556,5.68919053442
off_to_on,5.23290987508,2.79224215466,1.46659273775,-1.06483363675,3.18324665103,1.80966752261,5.62061392873,3.20210142261,0.059938906371,2.84643930089,0.183020190776,4.25660364286,1.05744541006,25.614145433
off_to_on,7.7551599672,6.18725707163,6.5545942849,-0.42229903312,5.07148721577,-1.16639794178,8.61818068827,8.79688170078,0.0518225910896,10.2896581354,1.63786662148,9.93124004584,3.78232254751,-1.77053157362
off_to_on,3.13273210069,4.38718170104,6.20506811529,0.754050097713,2.78103835777,2.54307596409,6.25137447358,8.11141762844,-0.0283965621627,9.854343607,1.88660912713,9.28327411101,3.40833715381,-3.32249270221
off_to_on,-4.37871807207,-0.811996521732,-0.53543429253,0.685891858889,-1.68668973959,9.39040355594,-1.39312003693,0.234451514677,-0.123211414889,1.34040923125,0.620881758894,0.127349516454,-0.113472371264,36.5992061855
off_to_on,-6.79297814463,-4.4788311064,-6.5721727139,-0.720340829491,-3.88083203737,7.02348282498,-7.80569454661,-6.84130752778,-0.118495800447,-7.19335372967,-0.923176918486,-9.86546868103,-3.41146367564,43.5305128843
off_to_on,-2.35208401952,-3.82322890269,-5.38249281173,-1.54438523781,-2.23643857511,-4.39973208059,-7.77984433779,-6.71463809322,0.0214178465443,-8.1733852635,-1.49171920847,-10.1393967196,-3.26208013609,-13.0721011072
off_to_on,2.56945532431,-0.755820004467,0.533434487191,-0.46918964282,0.290817798669,-10.6291699457,-3.62453472354,-2.74671330235,0.173901909642,-2.96068191165,-1.11912527266,-1.26535210484,-0.470521612183,-57.95207839
off_to_on,2.45797854786,1.19370252095,3.71353093988,1.43609808218,0.663953149994,-4.65565868655,-0.180137607141,-1.24700828604,0.160615651479,1.33845221342,-0.575111864979,5.38734547347,1.40555701171,-30.6635307402
off_to_on,-0.464408293739,1.15353730837,1.9155732469,2.12880699811,-0.281620958571,3.39960900954,2.51298727387,-1.16611808865,-0.0431725714614,1.73602525466,-0.0906162156696,3.59043707199,0.892066576969,18.7226030591
off_to_on,-0.999716349753,0.648081737251,-0.701050279365,0.970846325817,0.0113802312684,2.78163246443,6.31654015676,2.57249700933,-0.235093712918,1.40627224618,0.594103061711,-0.301008659996,-0.0946496465298,18.20472462
off_to_on,0.93355860442,0.350234473642,-1.24664539229,-0.917226369989,1.48729070607,-2.39200893003,7.96530948161,8.05107634127,-0.185267365017,2.37938942733,1.20212194343,0.565867077427,0.0656122352444,-11.3261432992
off_to_on,1.40765073781,-0.255577143152,-1.03535281322,-2.05934066752,1.86832627629,-2.01646461811,2.58020512436,7.25505878976,0.0833097872103,2.16174951862,0.994259079943,2.67320153287,0.494005366809,-5.90392073228
off_to_on,-0.252568241082,-0.407126298311,-0.597728484417,-1.74927764771,0.585469991071,3.56294466184,-6.2392716257,-1.06060266047,0.285844839826,-0.365321163533,0.0795378946201,0.183082589951,0.368448378097,27.0715770034
off_to_on,-0.68023641909,1.35485316307,1.85102568809,-0.260447243674,-0.542514936317,5.76529003691,-8.22328346531,-7.54050474067,0.196198888224,-1.40327558317,-0.366969332472,-3.41615615976,0.784083276736,28.9183363793
off_to_on,1.00689756317,3.40866812472,4.84893825574,1.35042800607,-0.683005704144,2.08441793386,-0.960755607089,-5.1344937188,-0.0826359634392,1.23427194441,0.165995092714,-1.34498987554,1.95742058253,-3.98383699117
off_to_on,1.22125633569,1.58450944349,2.90344075076,1.86983827227,-1.17564330118,-1.71527011947,5.07524272134,0.777117927639,-0.250000525928,2.69004426965,0.439089012836,3.30093081465,1.23000509998,-19.7495407381
off_to_on,-1.69997076983,-4.26504424493,-4.58044476778,0.973347564347,-2.36824950692,-2.30936160383,1.21552981451,1.0899323591,-0.171519021776,-1.90950340196,-0.804217366198,1.59471435201,-2.86255502461,-7.3548304106
off_to_on,-3.76503602863,-7.62284864045,-9.05882509123,-0.396386367417,-2.01259738913,-2.53171513697,-6.08997178448,-2.98339013766,0.00328424943804,-7.96910669778,-2.48446510389,-5.38082108142,-6.34245877046,-9.08473870562
off_to_on,-1.29832884953,-3.11030776515,-3.58786413009,-1.0586938609,1.14805103872,-3.69263068336,-4.40904278816,-2.44431430668,0.089499264592,-6.27090662113,-2.04966824294,-6.45971722995,-3.85139322198,-29.9156014281
off_to_on,2.84084674963,5.16037027048,6.01705701475,-0.823606237901,4.23413161633,-2.55118031063,5.92021682093,4.6364724117,0.0916537271792,3.18565758553,0.980641027997,1.8529731119,3.32439783696,-18.136503302
off_to_on,3.23720849406,7.82467364228,8.0631716039,-0.336055850974,3.43378815509,1.55079864397,11.4922866096,9.23159702938,0.104595937811,9.72064857976,3.68138840644,8.68983743456,7.61565007689,36.6094580909
off_to_on,-0.00364624302847,2.42855396467,1.16694774196,-0.00966012532546,-0.607562471455,3.78231846209,4.42911149759,4.2789706989,0.110331624647,6.32997464611,2.99608683405,4.99558860581,4.67828841997,62.8283767287
off_to_on,-1.80733990057,-3.59466777381,-4.45740143043,0.28470014179,-3.41039253013,1.79337746652,-7.26526272812,-5.19672829136,0.0187583569529,-1.27658638123,-0.377989072311,-3.09197813709,-1.28556890633,12.0874034082
off_to_on,-0.0148423489009,-3.29171916445,-2.2477174951,0.597440063091,-2.5084491867,0.315204104892,-10.9776002809,-8.96418779111,-0.135704058172,-3.91204421528,-2.72386339756,-4.53774167588,-3.77568311304,-55.9722866809
off_to_on,1.94470013237,1.07239275449,2.38301843783,0.624904945284,0.00489935365014,2.90508251273,-4.58645622968,-4.34838439242,-0.19492925028,-1.48252651294,-1.85662486293,0.177751516701,-2.19400800904,-52.7968877424
off_to_on,0.883929296608,2.47915267648,1.95179125663,0.185228362588,1.18527269264,4.56367129439,4.00899377364,2.40678580416,-0.0948171294083,-0.515646082714,0.413311930406,2.12988299507,-0.671524497278,15.7816622604
off_to_on,-1.75070316902,-1.01521398634,-2.10974824764,-0.458864777404,0.857757944491,-0.758455788134,7.59611777875,5.0435584888,0.0454089481248,-2.87263409361,0.967446462518,-1.13813972292,-1.14648220073,65.4328333341
off_to_on,-2.89728834093,-4.7518340774,-3.60572694905,-0.855956920334,0.371527687189,-8.86959445746,4.87099254627,3.00743009657,0.0991865895157,-3.9393905782,-0.553649877023,-3.67518825511,-1.6184308064,44.8366072322
off_to_on,-2.00541924708,-4.19286622627,-1.49531752032,-0.668859692292,0.0179502552146,-9.45720294121,-1.58720400088,-0.704616317351,0.0871084734442,-1.06889985228,-1.62169950216,-2.24723889598,-0.441217752888,-23.8830938323
off_to_on,-0.195811827553,0.360391221195,0.594060679273,0.163291996345,-0.482262963706,-0.765061027645,-6.97794624766,-3.12982403227,0.0840993833973,2.73108327978,-0.430659416185,0.13963711408,1.47873139034,-89.334924971
off_to_on,1.97009721171,5.27273825931,1.54127430332,1.14725516999,-0.497756116255,7.42794952213,-5.82457232352,-2.43778299375,0.0709783513386,4.40864236382,1.78607962905,1.91019901853,2.99953710024,-97.6201772991
off_to_on,3.6663530383,6.94148076621,2.93572348224,1.29926261506,0.464013528054,7.09292569631,2.42992364668,1.15597685593,-0.0119629079473,4.60025923999,2.57607652648,4.96313717823,3.95362654131,-7.73853696898
off_to_on,3.08161073108,3.86487471241,3.75179237586,0.14488220487,1.21722478682,1.6639880279,9.81798186338,4.49460180812,-0.121165739175,3.92930831771,1.35667313232,7.35986399334,3.35681096009,140.392342601
off_to_on,0.0261818929484,-2.08258974083,1.24630427818,-1.36122562764,0.418193256387,-0.896533295934,7.27514945515,3.8378901697,-0.143125113689,0.585427660536,-0.382131023409,3.00120710726,-0.355491141498,197.361311441
off_to_on,-2.60713508326,-6.34262064499,-3.0594187717,-1.66322251382,-1.03635287599,0.47713323979,-3.59133707093,-0.791179571592,-0.0594154928985,-5.32118271367,-1.44678753338,-7.40420961845,-5.76802079124,51.5771509099
off_to_on,-2.53273649677,-5.78002041341,-4.29436347815,-0.498227092655,-1.17986618289,0.547901605552,-11.1443494203,-5.22276124286,0.0304430241783,-8.88367426655,-2.07567405214,-12.9512065712,-7.95799181838,-184.632481035
off_to_on,-1.42536466767,-2.07707193413,-1.79214317068,0.803993853861,-0.125822018983,-2.93405068426,-7.73332325624,-5.73285442905,0.0596324088997,-5.84637762809,-2.44476501166,-6.12640899598,-3.93014699894,-253.752981145
off_to_on,-1.69502236454,0.882742636721,-0.023991436225,1.14420381542,0.202655135957,-5.96932416917,1.6084496202,-2.44999727723,0.0654947751187,1.27228420323,-1.52586573579,5.948449567,3.0867358285,-68.1150062086
off_to_on,-1.78565962014,2.26499181622,-0.705017006441,0.859342983228,-0.525153498872,-4.36172696015,7.00963155664,2.09620561404,0.0834083317998,6.09828140546,1.26431447548,10.4911294997,7.06919556312,162.049353848
off_to_on,1.28148884152,3.93811664867,0.0262513229971,0.62154414295,-0.389896489411,0.831517984598,5.77366751364,5.58504826638,0.0698316866939,5.99333998517,4.01899136256,5.19122760166,5.79833309178,195.774905068
off_to_on,5.63410033839,5.37025552782,3.89669574584,0.164065140981,1.34550862521,5.05654349162,2.40244555515,6.19810157784,-0.00973900411452,3.45153140353,3.77154954511,-1.50507979869,1.92706084902,57.009724803
off_to_on,5.66635563264,3.24442827161,5.86695747232,-0.903262580129,2.49946348836,5.32468965909,0.0896425211055,2.84771961074,-0.0936566041534,1.13738575811,0.321018401399,-3.33256071107,-1.41680625349,-53.4851338299
off_to_on,0.13673379509,-2.51055382841,1.7129447471,-1.77092805838,1.08492997495,2.46836858847,-2.02426610443,-2.82758336692,-0.10123385811,-0.829746526619,-2.92924357882,-1.9511414921,-3.39836938691,-59.3636389896
off_to_on,-5.34140583436,-6.59169212703,-4.40491872487,-1.26218048428,-1.62894990015,-0.510744657704,-4.09115150315,-6.37750797037,-0.0472546818357,-2.88656171625,-2.96961068501,-0.824666774063,-4.15346603967,-55.246620287
off_to_on,-5.66955856482,-5.06640173637,-5.54702929839,0.288861003244,-2.86370146262,-1.56692014644,-3.84219816686,-4.85297402827,-0.00376056120634,-4.53538719717,-0.836336520155,-0.592086066804,-3.45815853629,-80.6055289304
off_to_on,-2.17306972305,-0.79532535483,-1.95035364148,1.31676194822,-1.85389942771,-1.35581933041,-0.938733415538,-0.40010907587,0.015589068075,-5.13065275507,0.251813547232,-1.13808925075,-1.46725483602,-42.7355366836
off_to_on,1.14976951034,1.43567923316,0.711253004453,1.18645558397,0.0581759439019,-1.82469592854,1.4069809029,2.48466660481,0.0500424894438,-3.8186245291,-0.387345359683,-2.2264492949,1.00825084007,82.0004522627
off_to_on,3.27505328209,2.05007405205,0.841909906178,0.75866779293,1.70094913065,-3.10400099912,1.33125233142,2.46005537165,0.0907116172282,0.766771192817,-0.277121591368,-1.27986414958,3.47821823135,145.355968474
off_to_on,4.5344996676,4.06656389761,1.77605877184,0.582846855801,2.52536248951,-2.97261758131,1.2773434091,1.75498998294,0.0760609221922,7.6721832796,1.85261735787,3.65931577866,5.43177774499,41.3246738359
off_to_on,2.97521868588,5.62086352514,3.70083248776,-0.0190218470725,1.71417396963,-0.150065063014,3.2284007279,1.69373886984,-0.00249379259536,11.1025797906,3.46542356125,7.96789777924,4.94667471623,-103.930271464
off_to_on,-2.4454240856,1.71540967768,2.25728430045,-1.35953964946,-0.824517650755,3.31746838078,4.04435069321,0.901244580288,-0.0705607425389,5.3563557539,1.65198026539,4.20125760452,0.190848219923,-102.279758999
off_to_on,-6.95785451885,-6.23434502686,-2.96978428549,-2.18106632629,-2.90882813749,4.45738526435,-0.191627230824,-1.36150582706,-0.0729445363163,-6.44528431696,-2.30269686904,-5.99833367327,-6.56315817698,18.8376448202
off_to_on,-4.27939671414,-9.32594255585,-5.42495395906,-1.22624359725,-1.96374594277,3.00780709081,-6.54086737136,-2.91226104039,-0.0402159311398,-13.0758583397,-4.09748437723,-10.8809755317,-9.03757867893,72.865573264
off_to_on,3.9480595732,-2.71214043017,-0.912616029397,0.786505312872,1.24237724025,0.885338746282,-7.00617264272,-1.55109310999,-0.0203230094556,-7.65734551936,-1.87544647771,-3.77853081142,-3.63100179531,6.87713969581
off_to_on,8.50748146168,6.80084102933,5.23607310815,1.98552064075,2.94717028673,-0.872291121399,0.700905857835,1.3840472111,-0.00448986722705,3.79133076163,1.63038627618,6.94419325093,5.24660463929,-41.6840829692
off_to_on,4.08133894914,8.9323799408,5.13398301196,1.66302761187,1.16770481136,-2.39877065236,8.28189235155,2.36760826421,0.0322294185833,9.6320493452,2.83518823592,8.97376923813,9.18201691478,7.29559495981
off_to_on,-4.18270484991,2.37325804751,-1.03607650147,0.614644391462,-1.8393838235,-3.16389711839,6.2037567003,0.0526675841915,0.0656632763971,5.91042985599,1.32880154474,2.00042171097,4.8866880045,51.1203704213
off_to_on,-7.89215756267,-5.29929860933,-6.22605426211,-0.41810966507,-2.79171120106,-2.57251818654,-3.85779279203,-3.08982403923,0.0556584751488,-1.40359173987,-0.752777234205,-4.45679863233,-2.78889543202,-3.09707392056
off_to_on,-5.08391711842,-7.60623512025,-5.87814233169,-1.2927025175,-1.20847229148,-1.78334882393,-10.0286732267,-3.38905523037,0.014382134453,-5.38063208602,-1.7678276872,-5.29358648723,-6.86047975871,-72.0651055171
off_to_on,0.326661753471,-4.27045233741,-1.29476134379,-1.59827013278,1.10390373224,-1.78381025483,-4.42637955059,0.305417385559,-0.0147784500793,-4.51809823191,-1.49642700489,-3.4277687997,-4.99977839363,-37.9109546533
off_to_on,4.87587823871,1.87012747675,4.34550678822,-0.746701964392,2.58985813141,-0.213999513546,6.95346151003,5.07844531761,-0.0264803078911,-0.813890553677,-0.128188880024,-1.05512845294,0.0156762156,51.9239334394
off_to_on,6.99131220813,7.41705826137,8.09448465829,0.733273943714,2.48525498583,5.46072242455,11.2012622351,6.06681589696,-0.0452563689893,3.38911763433,1.78540133384,3.22213970033,4.18122798486,64.4050638845
off_to_on,4.94333636231,8.11348678521,6.58011920723,1.31186290368,0.491141294201,11.0828335316,3.83815587507,1.36166994862,-0.0611634535973,5.37896022354,2.6887130974,7.48314926258,5.096910182,-3.87096195076
off_to_on,-1.20500607992,1.80717477798,-0.894254795661,0.478804540902,-2.2015862706,7.89084213966,-6.37823379293,-4.92345481182,-0.0355728710162,3.02138329233,1.1882836898,5.70663401584,2.55582989765,-37.0187509968
off_to_on,-6.57479713111,-6.7371164923,-8.38839494653,-0.447334492664,-2.93846380954,-5.1244759583,-8.69485477782,-6.37508732579,0.0259884138581,-2.09378701699,-1.76934077546,-2.43135070878,-1.58484984574,0.0209690778997
off_to_on,-5.73976508613,-8.9843345513,-8.19179134243,-0.251410889179,-0.810999598066,-15.9473604952,-2.9684825024,-1.9711275664,0.0653570172304,-5.21349391969,-3.3295554584,-8.24576265834,-4.34247144329,18.344676233
off_to_on,-0.371490285891,-3.05763019023,-0.99831918202,0.457106539022,1.3384055276,-12.4975370145,2.07787196182,2.31538718083,0.0514330664378,-3.96422503326,-1.99722678405,-5.4534035502,-3.85590221812,-24.6942985255
off_to_on,2.33252033076,3.32976940706,4.19074823535,0.400982616734,0.63220976308,1.71705916164,1.37092613944,1.51711959448,0.0181162326883,-0.915436552396,0.601934493976,0.891575774417,-1.02211096365,-49.7757767247
off_to_on,-0.0386359481599,3.40313297802,2.4345199927,-0.347280023598,-1.18268723162,11.4517705201,-0.650425104457,-1.32985839857,0.00280762621113,0.905843804882,1.9274830455,2.51962503419,1.62498967321,0.0831084369034
off_to_on,-1.57407158166,0.379589291119,-0.584686899231,-0.696983801366,-0.1264483074,8.62944726481,1.86940936933,0.11907746513,-0.00501402558428,2.07021617773,1.51551686639,0.156873273922,2.54574760246,55.5614891038
off_to_on,2.48530795511,1.30815051918,1.79011938197,-0.347298321821,3.28828456547,0.560014167915,6.59620872195,5.37063139375,-0.0266625606396,3.96121917727,0.813621930061,0.643368307062,2.21499818558,36.9552493599
off_to_on,7.5417823357,5.35296106722,6.26372273199,0.00965585634306,3.83926906063,-2.24653583163,5.97211608882,6.80830069241,-0.0498452861262,4.84716019306,0.745574021345,4.83740543383,1.77823342468,-15.5635582008
off_to_on,5.67086316821,4.86180477934,4.54219899891,0.0589989651763,-0.65259844219,0.295451157664,-1.63305471431,0.456418947118,-0.0540869620732,2.25151899978,0.664770685836,6.19201712198,1.39398467535,-18.2146063831
off_to_on,-2.90222231897,-2.57832114825,-3.69205816234,0.191697287602,-5.28829469962,0.917958496681,-8.78185643075,-7.77071476068,-0.0395985511483,-2.51591391288,-0.358515400778,1.13556981824,0.111495882282,14.7800077334
off_to_on,-9.71130058379,-9.74191341653,-9.78319112112,0.460871254143,-4.54330039748,-2.87443738291,-8.33442262983,-9.42951890737,0.00191609865906,-5.7654793434,-2.12519930623,-5.90660141775,-2.69726115588,7.39200961774
off_to_on,-8.69506149796,-9.17034577587,-7.78388717208,0.385059449846,0.220572182567,-5.9955021713,-2.03027175858,-3.76489838246,0.0898565293801,-6.16864687859,-3.33434789444,-9.04996106742,-5.6850225114,-38.4837410137
off_to_on,-2.10114501681,-1.90454946349,-0.871803531646,-0.0259703937264,3.28105483096,-4.04189729534,3.14260558418,3.00672530774,0.173235515598,-4.56552442112,-2.5666052057,-7.00399877593,-5.65859988941,-45.673185082
off_to_on,4.49314757668,5.71446108565,4.97411961152,-0.143108840074,2.62268542376,0.951229927546,4.38356223282,6.2471208991,0.115097680901,-0.409226468767,0.538387288491,-1.17068102225,-0.554537042607,5.17017245971
off_to_on,8.21445240361,9.61871668728,7.84752701344,0.0989025226077,1.22687387734,4.18639882322,4.63938619706,6.36102648411,-0.127282182551,6.72781069029,4.38490683581,6.7766444483,7.08428281285,44.9252147875
off_to_on,8.24013824348,8.94865682121,7.88679923521,-0.0282739565105,1.00515478649,4.1145195609,5.54393537489,4.65581685561,-0.337190661309,12.1938424082,5.8976812493,12.6957608358,10.7993313133,31.0178444435
off_to_on,3.60027328302,3.23207995168,3.64737059938,-0.669424618625,0.123350507066,2.8249547494,3.80111179589,0.627757126991,-0.21803423556,8.69369624726,3.01351214322,10.3715360617,6.1004078936,3.51053924023
off_to_on,-4.53010374353,-6.1045933456,-4.72524613239,-0.872391791649,-2.49050892364,2.04608921239,-3.03903268458,-5.13820271273,0.200045215016,-3.61044402557,-2.7636073133,-1.1896026932,-4.20757161291,-0.537952152381
off_to_on,-10.5470114028,-12.8233289751,-11.4567998142,-0.0963316638923,-4.00482805666,0.756687981432,-10.4044181998,-8.78114238556,0.481534186111,-13.9426103666,-6.93472594972,-13.2678070028,-11.7405270192,-5.52763376915
off_to_on,-8.6804477999,-10.043372949,-9.55377373943,0.78367021711,-1.66864121597,-2.75741566619,-10.3693667906,-6.55828227091,0.262183018714,-12.1096359185,-5.89734704103,-14.7985434417,-10.1744502194,-27.8736901893
off_to_on,0.141229321901,1.22139034284,0.559684039552,0.814465022797,2.53151208153,-6.99473560955,-1.35886718603,0.594218716414,-0.268087393357,-0.530131237951,-0.375068935737,-4.1807865733,-0.983379634809,-25.2372516416
off_to_on,8.26672259582,11.1847767151,10.1363456518,0.379586881291,4.09944419604,-6.98679703232,8.87984686727,7.40335022485,-0.539239069954,8.93126026507,5.14053779602,8.83239424993,8.20186835047,22.0904810396
off_to_on,8.94673154708,11.0566711727,10.7408274188,0.256319372465,1.76046395608,-0.0948541055758,11.282264261,8.77933430172,-0.266609802083,8.79007154919,6.32767643255,13.0717439402,10.3898492929,43.3723069018
off_to_on,2.65281608682,2.01823375038,2.30671565165,0.123401896077,-1.50493530332,8.36206210262,4.76779174892,3.78128140381,0.229625425577,2.53950525957,2.64878877462,6.32890965664,4.80036820366,-22.8540341767
off_to_on,-4.42438477393,-6.86779388772,-7.3694238638,-0.654098172196,-2.61218116959,9.07572817756,-3.79541656969,-3.68217400417,0.44137844145,-2.17530801845,-2.40856097912,-3.78446350292,-3.15106379463,-99.4574696982
off_to_on,-6.71800392983,-8.22456880501,-9.83424745891,-1.38021226827,-1.40517728552,0.329862385679,-7.56463197032,-7.68036977102,0.252270677402,-2.62097585322,-4.5569518442,-8.04173951713,-7.02943283985,-46.8424441687
off_to_on,-3.58302526998,-2.54864806034,-3.20167369575,-0.802836540832,0.366922631706,-8.00071649398,-5.56935907629,-5.22886775239,-0.0422980632673,-1.57131369274,-2.60032204783,-4.53978267102,-5.05417345149,123.28939632
off_to_on,1.43968529445,3.8555074519,6.11599309824,0.663667970042,1.27635457218,-5.95162457278,-1.05881880223,0.795971004848,-0.182878441323,-1.7173366944,0.713153221341,0.610471849387,-0.782686255726,210.271925125
off_to_on,4.38304586667,5.35899001571,9.14350854964,1.21248660735,1.06521791962,3.55057795353,3.07623237019,4.72791505971,-0.194367580484,-2.20868809648,1.948816717,1.78920620692,1.79101439836,61.5467592263
off_to_on,3.90009588504,1.65581525926,3.26267865151,0.360488806156,0.40327334687,8.36487298195,5.47348953487,4.22857960898,-0.184578263711,-0.564455984174,0.802079945439,0.932173765118,2.55596117204,-206.00157328
off_to_on,1.26044039636,-2.84830106115,-5.04189220504,-0.324219843489,0.0570290879138,2.73047838557,4.72628500367,1.65228644702,-0.119983013048,3.20003262127,-0.178053321314,2.82952577476,3.43025297595,-303.154810867
off_to_on,-1.8144530195,-3.83335177428,-7.65676769727,0.172405642235,-0.188718621822,-6.54163056871,-0.0294692381518,-0.641216394574,0.0646490570873,5.21881191921,0.473493157533,5.31690578269,3.68465467361,-95.1916212007
off_to_on,-4.33301133538,-1.20363564138,-3.76086440841,0.667477477722,-1.21573902911,-9.85777146572,-6.21191346106,-3.07967749621,0.262972576042,1.72908337286,1.09508140404,1.18984058258,0.488397270627,223.583299997
off_to_on,-5.04260843021,1.72048909648,1.10064439435,-0.111480457083,-2.47162202733,-5.02492831159,-8.08545948929,-5.39800537685,0.280187790863,-5.15274997951,-0.254046316038,-8.48454423196,-5.35426248432,326.434109837
off_to_on,-2.1345999694,2.48347865007,3.35955544984,-1.21946816035,-1.52921232858,3.79775124533,-2.43895205383,-4.06531898024,0.0928025993822,-7.79763854933,-2.33189828992,-11.3666816309,-7.88474470407,113.295119557
off_to_on,4.06754827133,1.60094920938,4.45160082295,-0.953770716521,2.37304739571,11.202205349,6.59186680419,2.70548639253,-0.116816249164,-1.77595910391,-2.0956058044,-0.482846540724,-2.9646649449,-178.419643092
off_to_on,8.89140170842,0.494345995211,5.23671598002,0.307697167747,5.46552163985,11.7359951827,10.5979108573,9.36654097667,-0.195984286956,7.24775276058,0.829745294676,12.7960119531,5.38526758024,-249.347158905
off_to_on,6.74501265167,-0.607663314004,2.79964462915,0.686236080739,3.179959445,2.42717913594,5.48687302921,7.79548506813,-0.169062162664,9.23419336925,3.22745836794,12.1449672032,9.02466582903,-76.8256168353
off_to_on,-2.0103698818,-1.68402946309,-3.88828915926,-0.0959459106223,-3.14570908938,-10.8407654703,-4.1411208563,-1.84363032144,-0.11725122943,2.23967607269,2.42263149695,-0.934526627687,5.18278739934,95.946430939
off_to_on,-9.72628329354,-1.72847354485,-9.162530747,-0.269659889967,-6.65103830814,-15.0566428476,-9.82790621172,-9.79105885507,-0.0364108649039,-5.41812237179,-0.461232456643,-9.42184538209,-1.46896865562,91.5827743295
off_to_on,-9.14014427079,-0.401439891323,-6.70235728062,0.932210629205,-3.43376296064,-5.0284073513,-7.60445472355,-8.30150702399,0.0986501603361,-6.66493354275,-2.48598661028,-5.58358776216,-5.81131263172,0.658133647724
off_to_on,-1.38063776821,0.495311530208,1.32009956468,1.7101839782,2.37613634757,7.67427693431,-0.827918940801,-0.622996827409,0.213504311015,-3.96910413373,-2.60301163179,-0.157162041522,-7.12610239345,-3.43263345813
off_to_on,5.82134861874,-0.43770603014,6.47145431199,0.330861095762,4.37690715263,8.79715372909,4.47748117108,4.65762293341,0.195595056151,-2.56975992082,-1.69150546836,-2.35918406882,-5.93400726363,64.3344556054
off_to_on,7.18160793726,-1.13143348118,5.21083217549,-2.01703039036,2.11041594614,0.892368526609,5.67687164561,4.78372241529,0.0525096160941,-0.762154724534,-0.0598468842523,-4.2736845594,-0.829697382896,51.567124414
off_to_on,4.27718679729,1.33868310134,2.2344321554,-2.56805910581,0.033857105542,-1.75362174995,4.5159226177,3.63947232309,-0.0895661842949,5.83183013975,2.5778309474,4.14672845178,7.56474578185,-62.6029752175
off_to_on,0.851607005592,5.10216916002,1.46375607893,-0.631586331832,0.0063514308917,3.82538105847,3.1141914988,3.25991852096,-0.144533425844,12.7583875952,4.67208079053,14.5165941156,12.5450930654,-121.684001226
off_to_on,-2.36365978019,4.33212872082,-0.0559962488738,1.60963628769,-0.535110399148,4.87071110264,0.800387418867,0.712444928393,-0.137283888839,9.06387432622,3.19451216354,9.94806257036,7.13891965091,-39.6640389062
off_to_on,-5.59179064695,-2.41760221727,-5.10615596056,1.99287895231,-2.69256833672,-4.80482058018,-3.79889621311,-5.07950934708,-0.107597250133,-6.18589477018,-2.02774520625,-7.83306995039,-5.63493475879,64.1278578702
off_to_on,-5.99823148144,-8.19099166893,-8.4142911423,0.793595699695,-3.19909453584,-12.1871681185,-8.39872959778,-8.6709202162,-0.0380868606163,-17.9081231928,-6.27434190785,-17.5761853471,-13.4944568324,57.6648289408
off_to_on,-0.778820274021,-5.68923923381,-3.12271465214,-0.243591478352,0.204380285654,-4.69290020374,-7.64592609212,-4.50200672754,0.0767685190914,-12.1781562246,-4.7308384733,-7.64313669487,-8.62233793265,-6.45380466153
off_to_on,6.21858499439,2.51966258425,6.79528072806,-0.357145315223,4.00837174085,8.41566599263,0.140952688852,4.40108608735,0.164909476665,5.12500882609,1.24372554823,8.03831459116,2.73034824227,-4.17340922828
off_to_on,6.6238167843,6.59927882068,9.0759427281,-0.335431104002,3.23084112129,8.76700933725,8.68074945938,8.79169616373,0.150594449826,14.7474920042,5.1817470338,10.4324250048,8.03429743364,45.614506901
off_to_on,-1.19217450919,2.41396151368,0.137774371079,-0.887852518697,-1.27390575869,-2.7040518581,9.46833980711,4.35799525869,0.0557554516122,7.88929220949,3.30376044706,0.745193808643,3.7921261367,28.1386706367
off_to_on,-7.63404317837,-3.05091659583,-8.13402039238,-1.37089808939,-3.6983652146,-7.00991548698,1.8816937968,-3.20950241915,-0.0354404226474,-4.38261904272,-1.07742229904,-5.24342818836,-1.66559740111,-55.0867406706
off_to_on,-3.47575682298,-1.73357449548,-3.98422426121,-0.636610022215,-1.22570423483,2.95365944232,-5.58511557253,-5.63457958264,-0.086179894485,-7.28855611703,-2.35946967608,-1.17950061171,-0.654443044203,-80.7839487158
off_to_on,6.79572876805,4.08753762411,7.2402465706,1.15895411192,2.49297021762,10.9240237316,-5.44455046568,-1.66290084063,-0.116470100339,-0.51218470885,0.0632255169948,4.05262136722,3.81309166309,-10.1965674968
off_to_on,9.6090413574,5.14950987804,9.68132468548,2.29518698095,2.75873751034,2.5823897685,0.197023876274,3.0098559074,-0.122089109314,4.83862920618,1.8333719848,2.6416973987,3.52397127832,49.3585896688
off_to_on,0.273110342959,-1.6117200683,-1.26473320403,1.3981869899,-0.200626504848,-11.9522081324,3.39733997661,3.48311795428,-0.0637134122567,2.50955290413,0.208445135358,-1.88160164607,-2.80911576656,25.4573266515
off_to_on,-10.3694001624,-8.64281425661,-12.4832247062,-0.763969441591,-2.53299789625,-12.9761206863,0.580054438196,0.268688603711,0.0496645177448,-2.88748398762,-2.44193271231,-3.20265928476,-7.9033685065,-11.6784844029
off_to_on,-10.0972622469,-7.71003945757,-10.5829805,-2.03650781906,-2.0898500919,0.409269170434,-4.12185946124,-3.23659878131,0.134947292409,-4.93373708205,-2.57360196823,-1.88388441574,-5.96847674779,12.0327881016
off_to_on,-0.43308230452,0.0905096600883,1.55398409772,-1.38207881677,-0.156051443562,10.8770644678,-4.84038790108,-4.57416112634,0.127752694666,-3.33243227144,-0.330910044954,-1.54433102047,0.338900396809,44.3810631299
off_to_on,7.428574422,6.98124056972,10.5357199711,0.107287977004,1.25999770307,8.23020465168,-0.282695876969,-2.7038009389,0.0563363984641,-0.774611192612,1.54050847203,-1.45436252789,4.78142509954,8.52483913345
off_to_on,7.6743422009,8.07376822554,9.52052185314,0.905340612255,1.60305082445,0.202193902252,5.86770173727,2.22256416972,-0.0105136310143,2.44284406138,1.97472870768,1.26449220742,5.51067740401,-53.6796764129
off_to_on,3.96519896828,4.62752956006,2.91611702736,0.859426041676,1.18037210172,-2.94119108335,8.34736059428,7.2871681276,-0.0496456715338,6.39662772511,2.07436914708,5.16915374479,4.73148808964,-50.3002537358
off_to_on,0.357716979411,-0.348835662023,-3.05543994169,0.636904443516,0.210694136886,-1.94568995763,4.17038629824,7.27368762046,-0.0772893729333,7.55187796241,1.93177996829,5.54966068877,2.93271472854,5.66811280532
off_to_on,-3.62079439569,-5.06855133562,-6.63394991278,0.231631432658,-0.853420092441,-2.00698657773,-4.24353669861,0.217664076192,-0.0897354288276,2.25825482992,0.0639593492246,1.11926000824,-1.53487615795,25.4113815779
off_to_on,-7.30090356488,-7.40417291143,-7.12811003376,-0.691488922296,-1.1795072684,-2.56360289187,-9.63593544019,-8.1640596149,-0.0634488277221,-6.39779921218,-3.20849793385,-4.14436632204,-7.09603792577,-2.13090249656
off_to_on,-6.07853815537,-4.97616356633,-2.89813220665,-1.35803298442,-0.548863926407,-0.746378878926,-6.58809245145,-9.34672057584,-0.00375894373805,-10.2173544626,-4.59274268459,-5.89286929487,-8.20899319932,-3.5380776996
off_to_on,1.02124650591,0.966546286957,3.93587113351,-0.474641663998,0.11012286563,1.40404025704,1.68534932177,-2.11957830563,0.0524456474511,-5.6549235637,-1.97252179342,-3.67781629324,-2.55083222236,36.710957827
off_to_on,6.66078085931,4.96758532111,6.52324496358,1.39910332488,-0.0894244166559,0.597783158485,6.32077850467,5.50533889887,0.0814369457839,1.86032249105,2.11396852468,-0.187584766996,4.49272055774,43.789870129
off_to_on,4.28863497587,3.6328057605,1.8767697102,1.76614700878,-0.626953801791,-0.801701984698,3.60271794328,6.16453212296,0.0834675622586,5.35142081641,3.52803418732,2.04061435147,6.09277089687,-12.9045629566
off_to_on,-1.72760140462,0.342332218727,-3.44770517378,-0.409785271323,-0.182526942576,1.39102397399,-0.895971325813,1.66728275572,0.055041776539,4.55147031398,1.94484575776,2.70453090168,2.66633248594,-57.8619068514
off_to_on,-2.1196639437,0.400675731665,-1.76357709656,-2.57269319963,1.36962459235,4.93164378633,-0.944836654526,-1.19027236336,-0.00484762265734,3.54626510373,0.520217322253,3.12814876023,0.254371960182,-30.556668923
off_to_on,3.07681742537,3.037507392,4.2597415321,-1.60290509897,2.33252322798,3.71236521614,1.79419106092,-0.379794092898,-0.0612152683645,3.06807108484,0.634429598198,3.66904157352,1.2462873993,18.744988505
off_to_on,4.44989363142,2.48907957824,4.99177395296,1.69643799369,1.11858650813,-2.37310748819,1.80602719531,0.384193937221,-0.0695751379228,0.186966225037,0.17917818047,2.3970035102,1.55853213879,18.0067061329
off_to_on,-1.99080359954,-2.99697693467,-1.99290700009,3.25192493407,-1.49581034145,-6.6758109955,-1.16980233822,-0.950649312507,-0.0471760777565,-4.92055771133,-2.16048701411,-2.08454274147,-2.03162479896,-11.6085549617
off_to_on,-8.18703833676,-7.77120289924,-8.14503741387,1.04774381241,-2.88553460752,-5.17156583438,-2.80358486808,-1.98217708862,-0.0547551856519,-7.29979290521,-3.99476936224,-6.92315893862,-6.31249155583,-5.99714991633
off_to_on,-5.9102825606,-6.23927597853,-6.09326499678,-2.23302736894,-1.65047588789,-0.760449716603,-2.17767841373,-1.26890949839,-0.0784919874098,-4.11499006946,-2.61872526912,-7.03867477642,-6.15160873036,27.1879950601
off_to_on,1.52952886094,-0.103274141607,0.778622688037,-2.85672143871,0.590618785659,2.62219019572,-2.41991338468,-1.1016669328,-0.0103935730848,1.01553147176,0.834568881353,-1.68859431191,-1.44224558549,29.0184033396
off_to_on,5.27799115835,4.74899603682,4.69240949761,-0.670407907497,1.31434231344,4.47764850973,-3.14907109182,-2.24321611108,0.174919370374,3.42735265552,3.11687250021,4.07668377498,3.73886380034,-3.98979754163
off_to_on,3.81267842246,5.9217681778,4.28272459682,1.45751511457,0.462594020442,4.71737897588,0.438699189483,-0.803930431869,0.290179973972,3.67987685593,3.30174157665,6.03367179922,6.67163952997,-19.7116339879
off_to_on,2.56317317125,5.32399359599,3.54596416589,1.70571376019,0.260836052225,1.88503683229,8.12986025743,5.14261947103,0.12401513312,4.57054911447,2.72174864495,5.34342522382,7.02696041544,-7.2027518579
off_to_on,3.14556074001,3.86078410818,3.28255481272,0.83487804527,1.55116597876,-2.67586094374,11.0188976743,9.47507481191,-0.232708218817,4.66033994509,1.43377687911,4.04909436158,4.05990367119,-8.97587007855
off_to_on,1.13097170858,-0.0401108676877,0.347417652064,0.0356700910332,2.11026676231,-3.97732302397,2.77732134158,4.71314013212,-0.404227465403,0.245394434192,-1.76116203973,0.327223070631,-2.53161987254,-29.9607643284
off_to_on,-4.7879318048,-5.96959865363,-5.07262642867,-0.641418606149,-0.13111403966,-0.641873487369,-9.72668294673,-6.44976833083,-0.16903521423,-6.8408735034,-5.48445215466,-6.8230770287,-8.95455125286,-18.2340082134
off_to_on,-8.71699826417,-9.55664581592,-7.77889141482,-1.22684621105,-3.49807983933,1.44701110584,-13.5731818342,-12.6309336602,0.228085417954,-9.2353564856,-5.57878638424,-11.422904977,-9.24956700227,36.5174647532
off_to_on,-5.71970777686,-7.14527922594,-4.80789757608,-0.996683664697,-4.17377125186,-2.2432865031,-5.59020160581,-7.64886554727,0.349742710832,-3.64352913291,-0.603200319674,-6.27016389535,-2.61932053849,62.6077919165
off_to_on,1.19422038009,-0.297909578318,0.502480636346,0.221320865611,-1.05321562227,-6.31843353771,5.0843548797,2.53661517085,0.101406503996,4.1619821604,5.03463847868,5.49629029971,4.67626232623,11.7763555747
off_to_on,5.88737893214,6.22226884736,3.94185684654,1.13546153438,2.88566920006,-2.14996869578,9.31906262528,8.53702732753,-0.179939855768,6.74084695758,5.91118071821,11.8511182165,6.7978830369,-55.9173429291
off_to_on,6.78563834833,9.2324900486,5.62466761494,0.661106450431,4.24833404496,8.35371645488,6.61800803169,7.89483010919,-0.187132283184,3.78854123088,2.01764413134,6.84760322578,4.61078813814,-52.0820342365
off_to_on,5.67256797723,8.15198067579,6.70068356383,-0.3201088689,2.56737278695,12.9787303184,1.22373212414,3.78591354209,-0.00590430615042,0.240006376551,-2.04247238428,-2.19287066537,2.16233177151,16.5464194467
off_to_on,2.39051200981,3.26545979707,4.86314963623,-0.254177004138,-0.389813780013,4.7283217413,-3.70272017882,-1.39871919438,0.0859885430327,-1.27900538374,-3.10564189725,-5.53362125673,0.247475348578,65.1960808312
off_to_on,-3.77253017943,-4.02481360866,-1.99972511589,0.575853345326,-2.79802348665,-8.67748710886,-5.71713131051,-6.08822035167,0.0262884660625,-1.75852592768,-1.96524734186,-3.06878828163,-2.6281824886,43.5787873194
off_to_on,-9.13150937759,-9.84939918007,-9.68006144825,0.455308981295,-3.35461498561,-13.9395205903,-2.83881710623,-6.79977576047,-0.0146546541294,-1.63184615018,-0.459320690565,-0.833566159036,-5.18947028289,-24.7257563895
off_to_on,-7.99860966799,-9.91041248723,-10.5901065122,-0.897099553725,-1.48186981908,-7.08086748355,2.4844831612,-1.77171590424,0.0421933389742,-0.353768710291,0.805675198262,-0.682889662815,-4.29915841667,-88.5843591295
off_to_on,-0.659432992183,-3.88899972739,-3.20542128259,-1.59549350184,1.49552243627,3.99610394885,3.69276431209,4.02883019162,0.0663498709981,0.484974289328,1.35699366062,-0.0356821320135,-0.513338682862,-96.148222473
off_to_on,5.79312990044,3.75135050349,5.58583122663,-0.351730855216,2.68189208388,9.37785314638,-1.24683256138,3.78113853108,-0.0342817143713,-1.29881608107,0.385279341902,1.20557109487,1.9794484808,-7.52003567785
off_to_on,6.13559926116,8.02114204082,8.66611600118,1.45602431121,0.911025782424,6.37209376417,-5.34148642037,-1.26090279916,-0.136082535925,-3.44938039055,-1.31416039885,0.716778905225,1.67245578973,139.114691054
off_to_on,2.70789170272,7.39373774458,5.82600933324,1.6199277815,-1.25144836373,0.0021734416003,-1.78904662995,-2.85841517858,-0.086499489485,-1.0386398071,-1.24527215687,-0.389718435848,1.59368921502,196.644597732
off_to_on,0.541035735536,3.5781010604,1.37151800945,0.104696034803,-0.778062857134,-3.21737954371,5.52539726534,1.9443366379,0.0565126795956,5.1526969452,1.22494665652,1.22554086901,3.3289548727,52.6632282716
off_to_on,0.345783417434,-0.848035723731,-1.96622430911,-1.1192389435,1.3533747987,-1.88104499485,7.04281795836,5.97050813289,0.115997945356,7.40895028336,3.08783848436,3.93133168688,3.60802830307,-183.648563413
off_to_on,-0.653235151072,-3.85100127044,-4.07904925516,-0.843833199637,1.47951510483,-0.376943528014,1.17317149819,2.55211256946,0.0567381726621,1.59914870869,1.55998308925,2.16892170977,-0.18027085829,-255.207597405
off_to_on,-3.23599051859,-4.56280229816,-4.73703318832,0.115139571123,-1.14089426435,-2.14176683714,-4.27969835169,-4.52405640573,0.000795395373777,-5.75100570161,-1.72961053046,-3.81218169576,-4.68150405522,-70.4437887043
off_to_on,-4.9590183918,-3.67650333628,-3.15962787871,0.47350844611,-2.95818443935,-3.67019902418,-4.24650788536,-6.73512619026,0.00750940769234,-5.8903601852,-2.89577989794,-6.30722839786,-4.87410007954,162.959857169
off_to_on,-3.65332090244,-2.45734539569,0.0479602825121,0.100229925462,-1.28171736422,0.606656811581,-2.21823830071,-2.6347014728,-0.00217855571707,-0.0491457892559,-1.24235940088,-1.51951830824,-1.38504132193,200.117111004
off_to_on,0.301362920769,-0.896701419333,2.82679983722,-0.3255546912,1.83400547456,7.5629103603,-1.8642961467,1.92703008007,-0.0735015025583,2.95204117507,0.280350160381,3.89060385462,0.962289918277,59.1904936344
off_to_on,4.6848177487,1.90336398956,3.67811650255,-0.371530728783,2.64688174022,6.44698740435,-0.548081757057,3.18887708634,-0.115306282899,-0.15369661131,-0.0489891925832,2.65659359815,0.676466708035,-57.5113934906
off_to_on,6.59850066147,5.05170745373,2.55333193302,-0.00959042140884,0.744055256837,-5.23568571775,3.98040220452,2.78471032607,-0.0460661475253,-3.16672112358,-0.393389200288,-2.01555709712,0.853054693728,-65.2757641472
off_to_on,3.93485141181,5.57515825817,0.242491125569,0.617659112161,-1.20540398223,-13.6990889662,6.75545705023,2.18719301526,0.0644711035738,-0.627467239576,1.11081443749,-1.90223090582,2.89216433059,-55.1805173355
off_to_on,-2.02198343299,2.2589829493,-1.84729986315,1.01074547797,-1.46988390397,-5.29776836713,2.4621183494,0.183918078293,0.0971794079541,4.32628192416,3.02120152855,3.11889136458,3.83688709928,-74.1981086442
off_to_on,-6.22192084198,-1.98334623436,-2.06262562083,0.468820685325,-0.648606462697,12.5183497419,-4.71740946122,-2.76293711049,0.0545597467083,5.36709391509,2.62212855407,5.14848263875,1.48607860628,-38.3157485662
off_to_on,-4.67622794503,-3.64512084827,-0.309356282897,-0.886163928798,0.327274365786,17.7414512023,-5.88121489675,-3.16238101032,0.0245630953449,1.65653598695,-0.22069014244,0.650149871779,-1.93235775179,78.8155889823
off_to_on,0.570177804136,-3.06812908898,1.09044127145,-1.70566195946,1.16876283851,2.56331210412,-0.439121980892,-0.092359750173,0.0220165759027,-2.69935327305,-3.06480161568,-4.70129066381,-3.45543730621,139.444766161
off_to_on,3.74867843738,-2.74610700275,0.142933102379,-0.876633722746,1.22975658463,-15.2881983945,3.40013743108,2.25079548525,-0.0155045995532,-4.70932612149,-3.85641185833,-4.95010581942,-3.35463972431,40.7425071452
off_to_on,2.44191715593,-2.45187691504,-1.74776483876,0.850541804635,-0.174902348231,-15.5490270163,1.3311122615,0.717630017545,-0.0875254470111,-4.11422369606,-2.35024572253,-1.39858251645,-2.7995988402,-99.4039268124
off_to_on,-0.434018363717,0.197405072459,-1.5981114884,1.60457324354,-1.95775141612,-0.859334104205,-1.65581894096,-1.77242248051,-0.106127475016,-1.28841082194,0.576705543241,1.40567144609,-0.767099993373,-99.8057722242
off_to_on,-1.72178479463,4.32752744512,0.60264168995,0.755245952227,-1.80281896981,9.73333001179,-0.73174130359,-1.04564605737,-0.0353241332701,2.39981417843,3.29862817323,2.1943686637,3.1873023822,16.3576503032
off_to_on,-1.57855821395,5.28015393449,1.84518716402,-0.405670693782,0.585984553503,7.00939340887,1.27996429759,1.55173645596,0.0458730741783,3.71231288348,3.73083615143,2.13752867094,5.6234722714,70.2989475517
off_to_on,-0.900767258075,1.34902606436,0.91648027124,-0.587010306348,2.50252673584,-0.00673265660194,0.195730431832,1.66201324945,0.0634942800767,1.17524593984,1.22341014727,1.33283305158,3.12293465298,8.21337889403
off_to_on,1.03894062862,-2.63901025833,0.208907365519,-0.142008534618,1.67624624366,-0.883334598679,-1.68379001129,-0.735965213012,0.0471365074988,-1.44551700851,-1.87851591352,-0.177617690757,-1.79210010855,-39.4679790359
off_to_on,3.86084588538,-1.70351555891,1.3535263384,-0.152209821379,-0.711687745391,2.29915043435,0.0580898593997,-1.43597050668,0.0509042966378,0.319154705744,-2.39197092309,-0.649223858514,-3.30851152696,6.15955060834
off_to_on,4.08905122872,1.87616959376,1.97971853101,-0.613125209313,-1.83424910842,1.85607519791,3.58738666871,0.962691011049,0.0494586088702,4.18059825846,-0.266789844858,0.584601983648,-0.634633118331,48.5005983612
off_to_on,-0.41942014287,1.67745022861,-0.575397779729,-0.533419857814,-0.952039357494,-2.83279919504,3.24603477949,2.79104701389,-0.00775398845469,3.26054324777,1.31082707717,0.847270853906,1.11413038185,-2.55805801584
off_to_on,-5.84157285171,-3.34783662245,-4.33641783155,0.384276715428,0.261451362776,-5.95143805272,-1.49107374679,0.950480970272,-0.0864716549899,-3.53770347594,0.234387618106,-1.83270039866,-0.900633118241,-68.867659997
off_to_on,-6.20529401786,-6.93655205875,-4.75039728475,1.15634145644,0.486304279904,-4.3961869764,-5.37749225697,-2.85069428093,-0.101020823337,-8.66251094134,-1.8695998188,-4.45155535355,-3.09493539278,-36.8740642215
off_to_on,-1.23622519151,-3.90237021838,-0.94942842134,0.849378774087,0.156760943678,-0.43926191582,-4.93498119879,-4.78702504705,-0.0399491126131,-5.8849909,-2.18480184174,-2.81068661473,-1.69217980982,49.5152344851
off_to_on,3.46853977484,3.21396461987,3.18238180624,-0.192686884144,0.150290893662,2.90978869757,-1.36843313536,-3.07006843869,0.0230828295227,1.48925919041,-0.298717050593,1.85613772559,1.3833757417,62.5025989916
off_to_on,4.16671166458,7.76592546138,4.29101056665,-0.869088615782,0.473589916135,4.53516567995,3.3483580114,1.48503960336,0.0418378792604,6.02172885735,2.00349510674,4.38419147567,2.38654741103,-2.84575041734
off_to_on,2.8235836822,6.65915716059,2.99567833819,-0.670906332393,0.57040953955,4.06241680801,7.57611037505,6.2040680332,0.0440170186616,5.89013860446,3.21038572405,3.13186688762,1.95254389696,-35.7164590148
off_to_on,2.18871345857,2.10575504535,1.33903022793,-0.0742770114377,0.088147058468,1.81390706148,7.41701821322,7.02060883325,0.05403307177,4.39119151823,2.8166759475,1.33747800823,2.76071758598,-0.959107223697
off_to_on,1.17004637148,-2.42712480088,-0.419500507685,0.237803543758,-0.826773246636,-0.448831501434,-0.150934646567,1.61518271549,0.0447160353813,2.46429622144,0.656367561973,0.859368519462,3.32418407738,17.0846184839
off_to_on,-2.12932713772,-5.24503503792,-2.75854532193,0.148662536698,-1.42585674006,-1.51091791634,-9.8987193712,-6.22056195495,-0.00201042976415,-2.02114927724,-2.57931357173,-0.537218376226,-0.246310984862,-23.440485015
off_to_on,-5.70333352429,-5.9652744587,-4.55367445278,0.052479440036,-0.774369975795,-2.64204460184,-11.036038013,-8.7197579477,-0.0476824758564,-7.79561937233,-4.64402058613,-4.01894294939,-6.56338631724,-47.5152750462
off_to_on,-5.59313151282,-4.49347471743,-3.91188489605,0.232819070515,0.974590491489,-4.84712911207,-1.0312285711,-3.16133765829,-0.0533263850283,-9.12867837796,-3.5164648277,-6.16062058246,-8.61713302325,-0.0211139887915
off_to_on,-1.3210173737,-1.11200386248,-0.656994935966,0.445363998407,2.1076792667,-5.46405204712,9.17570256686,4.16560302036,-0.0367070942997,-3.36153726252,0.00736838464966,-3.47023471514,-2.87972433014,53.4412207713
off_to_on,3.65478785557,3.29736371568,3.38056682398,0.205954178659,1.22963404901,-1.20801036526,8.77196359336,5.91440746919,-0.0291624543303,4.72465143159,3.0139663702,2.3869706246,5.4187750078,36.0721074113
off_to_on,6.18083098162,7.11238819362,5.90193843339,-0.478327822349,-0.707432664834,5.85697667085,0.759677693452,2.60380960887,-0.0157269883321,8.54717673501,3.77897986841,6.59628434956,8.59646835267,-14.5283275627
off_to_on,5.40416362124,7.77772599451,5.08581730672,-0.875285180737,-1.5950213649,9.35560183352,-4.21416230764,-0.274017960679,0.0288662084754,6.62219235397,2.83733206018,6.38481125373,5.07956003715,-17.8162729736
off_to_on,1.45892641176,3.25324793333,0.441065250204,-0.343434570976,-1.13004393775,6.10560862359,-3.26631208342,-1.1473796023,0.0746057804042,1.74181005474,0.936238828459,2.22110981252,-0.774105882151,13.602503058
off_to_on,-4.27981022689,-4.6373930235,-5.50860088827,0.685529467443,-0.784317716006,-0.782077855365,-2.09021148435,-2.61087572894,0.0674775502048,-3.32752902375,-1.78436650292,-3.57418773989,-4.62070200378,6.957657045
off_to_on,-7.64298952986,-9.60942201078,-7.63287970586,1.02036667647,-0.756568631022,-6.56576250671,-2.65577626151,-4.0985753014,0.0130320811642,-6.35075063607,-4.0133873384,-7.04481572569,-4.89131594084,-36.8537763363
off_to_on,-4.4842996324,-6.67334443847,-3.04477687499,0.190651013281,0.612129762314,-8.76358471121,-0.266283841928,-1.41706496622,-0.0300801294746,-4.96790116794,-3.30085569379,-4.4685833489,-1.88364396218,-44.149490629
off_to_on,3.23647885749,1.39275912996,4.45646399835,-0.849339490724,3.29920273928,-6.01064536401,5.58216001542,4.84851382737,-0.0369176286774,0.286333771985,0.378318672421,2.46832478573,2.1795941352,4.507251969
off_to_on,7.57457107811,6.28947166871,7.41530554277,-0.891170686799,3.96483354928,1.67208167097,7.12193339923,7.11030325729,-0.0380225753671,4.17223594681,3.16942638871,6.05379128622,3.35470206477,43.42374472
off_to_on,3.61817582499,3.9215199835,3.06572423388,0.0103476151515,0.253401537947,9.20111425353,0.132782890314,1.02358156695,-0.0480279055195,2.38784759072,1.91537514481,1.61292349422,0.00331380333545,30.927159274
off_to_on,-3.90144999526,-0.981634560134,-3.46443866253,0.737689693458,-4.80659020652,8.5398210732,-7.58904098375,-6.91668167521,-0.0341976552354,-1.97263555268,-1.19890864319,-4.94678701379,-3.76902451084,4.24329440741
off_to_on,-6.27772121749,-1.84273765115,-5.48841637527,0.616782892431,-5.71955343031,-0.972977400061,-6.50159643993,-7.34118655526,0.0185997509407,-2.24243985812,-1.52184370109,-4.29327943304,-2.42015895864,-0.954304398312
off_to_on,-1.64796015489,1.00989026546,-2.29495058865,0.0540079939244,-1.48540264666,-8.76995310384,0.927905406787,-0.517001380141,0.0646361960781,1.93038589372,1.24440967205,2.82822367485,3.11456824812,-6.70695078104
off_to_on,3.65405930454,2.06619820061,1.54199818302,-0.319160808441,3.24562384576,-5.48088145321,4.54691536513,4.94954046149,0.0580302075973,3.97085086864,2.61320126095,6.31217868859,5.83297563727,-27.6940544264
off_to_on,4.18871094994,-0.505931806851,2.74703018658,-0.403556130784,4.32555377745,3.96195073906,1.72170033453,4.39913041301,0.0184554261654,0.713716408805,0.20160855036,1.72364273561,2.16906137824,-23.5811704208
off_to_on,1.52316349524,-2.47843533825,2.27795954722,-0.305594967816,2.54253914956,6.9004102312,-0.429216749823,1.7157271863,-0.00608252421343,-2.60791320151,-2.60210867476,-3.33879190205,-3.02488011306,23.0442277276
off_to_on,-0.196643605431,-0.79416765259,1.86116689394,0.0351068008337,0.769664195552,0.846664873942,2.11411017907,1.11707775176,-0.0120932328154,-1.06370710789,-1.88940210135,-1.73821619055,-3.61396565039,42.6424269799
off_to_on,-0.790898322326,1.35289892059,0.774287945438,0.430902036187,-0.488785139587,-4.13534773032,3.85387067191,0.706610919053,-0.0281138263669,1.64090663576,0.813378055203,1.85171565545,-0.720416443757,-23.8035500742
off_to_on,-2.59636431028,-0.252665429341,-2.12424524632,0.291381041194,-2.28580500955,-1.82593578867,-0.54356507037,-2.61704689955,-0.049411554852,-0.679912650244,1.14695480829,-0.692314719437,0.0458656961219,-99.4282958389
off_to_on,-4.66297589238,-3.52054312651,-4.96899571711,-0.43559309787,-3.80563663064,1.28422975436,-6.83043665426,-6.39400839873,-0.0399666852194,-5.58540398112,-1.14468823886,-6.43599670733,-2.23219803078,-46.5645512928
off_to_on,-3.10631182696,-2.54425368721,-4.20599015736,-0.698294799911,-2.90714834976,-1.64966842135,-6.88751146976,-5.44262248296,0.0028489558029,-4.56874207201,-1.87309027079,-5.04435283517,-2.62212883235,123.018264668
off_to_on,2.3195337996,3.1750914077,0.512350934453,0.308724137645,0.229813406413,-5.40921334951,-0.250394983158,0.447793050168,0.0363760544337,3.52533413643,0.886487105601,4.32240351992,1.43648280156,210.04603585
off_to_on,6.16839164393,6.79713054293,4.9050207946,1.50996115908,2.78158940033,-1.23852681488,5.67788985217,5.90656341239,0.035086931906,9.21326761217,3.56604058388,10.0790469814,5.69897056628,61.8293976117
off_to_on,4.20843608855,3.29665683907,4.86329985875,0.955996642537,3.07870012906,7.70071874658,5.70315568817,6.70831682021,0.0214093388477,5.33598004482,2.33436627632,4.92794253577,5.1393272872,-206.039687816
off_to_on,-0.464753774859,-3.20109348319,1.43350203617,-1.27240749421,2.35398998499,9.76258258122,2.15761935374,3.72833877732,0.0184775223386,-2.83259397645,-1.27289418843,-3.4863953739,0.823378431927,-303.873708301
off_to_on,-1.78631231588,-4.88359953268,-0.937518797507,-2.51818085954,1.78759635776,2.04333262433,-0.300261960671,-0.0523747857934,0.0123253103614,-5.40633811591,-2.72730569023,-4.46814003543,-2.46477150404,-95.1600419228
off_to_on,0.262473027391,-1.00478968727,-0.70173577117,-0.861398954724,0.200410429569,-5.9320121896,-1.0091934998,-3.27523165468,-0.0137647020951,-1.6426180664,-1.00077287522,0.0478976378448,-3.16470066428,225.374413933
off_to_on,-0.288303400916,1.59382748747,-1.02288977965,1.99708924148,-3.30548082441,-6.81662505465,-2.23239288152,-5.55626032935,-0.0399571296457,0.610349818067,0.521459672692,0.111350164321,-3.58891686058,328.233294985
off_to_on,-5.43586114242,-1.06503203643,-4.06201149059,2.62269092402,-6.06843433981,-4.21384272026,-4.14771582174,-5.55315155438,-0.03722481836,-2.31245445828,-0.470895247637,-5.5186757801,-4.43966603523,112.544116758
off_to_on,-8.22093893524,-4.12344123525,-6.16138772731,0.294783870503,-4.19256561323,-3.35981090003,-3.97922669585,-2.18174324324,-0.0126620116288,-4.71637404193,-1.88204087167,-7.10497034249,-2.95444281626,-181.359853551
off_to_on,-1.77114263677,-1.30993060969,-2.20357135859,-2.04802355368,1.84106830813,-1.77216950352,-0.260634353211,2.82243112396,0.0049860958888,-0.871975488692,-0.687876327372,0.729446242917,2.19741940218,-251.442356838
off_to_on,9.4291414755,5.25920435631,6.0165169719,-1.69534421218,6.52054442604,4.35338948315,4.17180351574,5.67470681767,0.0106194436276,6.08689809989,2.40892158445,10.0498052633,7.38246049492,-76.2398390365
off_to_on,13.1028477894,7.52769851306,10.0556006877,0.464718929051,5.45457629452,10.5637557955,5.08331743231,4.49922894553,0.0205639043399,8.45150166755,3.91239717375,10.3110621591,7.80689444193,98.0527109286
off_to_on,4.48698663873,2.60760104926,5.05082751168,1.51056245965,0.447643072714,8.98731998168,2.15643371593,1.36514987407,0.0334282728875,3.975247517,2.19143031989,2.18462409261,3.20126477031,93.2551802465
off_to_on,-7.18182404453,-3.66633893239,-3.70610034995,0.440320395571,-3.14661362087,0.0301436302434,-0.649073401443,-0.520955944063,0.0279156972323,-2.5088656377,-0.878650853982,-4.96648961833,-2.55214424976,1.31568588687
off_to_on,-10.1662500195,-5.19595739444,-7.31381451967,-0.939045227595,-2.93627212549,-7.88573932172,-0.723846389993,-0.884291351128,0.000933585523188,-6.00149399188,-2.797158125,-6.0540953963,-6.26583160158,-3.58286392602
off_to_on,-4.10752884449,-2.94280365325,-4.03685673744,-0.843785394636,-1.24859297804,-9.19781136641,-0.454153645396,-2.10279336679,-0.0229707233484,-5.84997089334,-3.0356881392,-4.39037899187,-7.33500974915,63.3108632898
off_to_on,1.84399618172,-1.2303713354,0.190775595205,0.281699983775,-0.772455401081,-5.71735846929,-2.86898226603,-4.75622982984,-0.0272320314503,-3.60617796062,-2.26056816264,-3.7289916789,-5.52215150852,49.9355085798
off_to_on,2.08826593316,-0.684154445425,0.796333664321,0.878864441232,-0.988072540358,-0.992629880788,-5.53544022029,-5.51880162141,-0.0221194237183,-0.246781109129,-0.695172764963,-2.52405707186,-0.386159672203,-63.6911785354
off_to_on,0.0360268941985,0.919097011186,-0.400721634091,0.46360918252,-0.00862939553518,3.52405668562,-3.15790220513,-1.36504634958,-0.018736529668,3.18131973144,1.47943542837,1.7085394934,5.97521765603,-121.372706501
off_to_on,0.637067212463,3.12302203908,0.219526292248,-0.195064383313,1.91979991262,6.2016512719,3.65366510652,5.22468141744,-0.00912198419488,4.85349973884,3.10968576409,6.67157754962,8.67513474903,-38.5092878888
off_to_on,3.18327779125,3.17609070375,2.59381188181,-0.469738727298,2.75892230125,5.126952288,7.3706756365,8.0924450026,0.0130932033935,3.99950016987,2.97078652238,7.62328164468,5.16828969858,65.0464224233
off_to_on,4.00054454857,1.36108583648,4.1439270182,-0.454343738826,1.75854230452,1.88500648308,3.74735865098,4.78140120691,0.0326886959616,2.01182377149,1.39699964855,3.69900965041,-0.913589334727,58.1125212562
off_to_on,2.19018575439,0.853220007974,3.47805443417,-0.312067469266,0.161052569284,0.411201114608,-1.71896884121,-0.683837372659,0.0318966407108,0.309520014584,-0.222848745538,-1.34029018554,-3.84820369997,-6.19682787217
off_to_on,-0.724241161658,1.51804160198,0.623682542274,0.0646693834714,-1.09396089794,0.510075292316,-1.99131976788,-3.59310973943,0.0154960452641,-1.5946846281,-1.41210479426,-4.26082975293,-2.94118985062,-4.32403780181
off_to_on,-4.03878329319,-0.881865410507,-3.92997556611,0.571111524763,-2.30688734237,-2.2146825115,0.73563206643,-4.13909321958,-0.000362140856074,-4.33188994937,-2.69959726514,-5.40408567532,-2.37331591648,44.7276509799
off_to_on,-6.89715309097,-6.77344272441,-7.76725332553,0.718410006058,-3.11868074652,-7.80628800791,-0.85940656876,-4.64651903095,-0.0125498696544,-6.125505548,-3.63986206858,-5.91723336745,-3.90400006272,27.0751747883
off_to_on,-6.09004412861,-9.03926552436,-6.53306760498,0.254094122176,-1.84321244015,-9.17293509579,-6.19786455061,-4.0095160227,-0.0258507271445,-4.18246995639,-2.46567601959,-4.4705017373,-3.70151290409,-55.3529826716
off_to_on,0.432315407406,-2.06239516355,0.847704886451,-0.446076297414,1.70756215421,-1.92940333451,-6.3022223502,0.467139772784,-0.0331171362001,1.3598861709,1.20950408942,0.832966734989,1.33782358587,-80.2102447952
off_to_on,8.22504840612,8.52863367416,8.28218348673,-0.840168294662,4.33997512451,7.82358021612,1.98917628227,6.49141409442,-0.0218010814553,6.55484367152,4.6038761634,7.81881612841,7.28763736035,-9.60457591942
off_to_on,9.40857804502,11.2829805336,8.19350688452,-0.727895572861,2.83496643751,10.7893757767,9.43597433504,7.49511035282,0.0031451942295,7.32001066962,4.42200810774,10.3125950331,7.28479394195,49.6006941548
off_to_on,2.48947706116,3.61175772689,1.13089078399,-0.140390302924,-1.35123599997,6.0669465413,7.00436139431,1.64117717757,0.0222087288338,3.2750170268,0.974651047001,4.76625627694,0.947755951931,25.7162384848
off_to_on,-4.90403389717,-4.91890888959,-4.5217973913,0.783198038097,-3.30950641867,-0.0351463073022,-1.18070062592,-4.43131631103,0.02671367302,-2.20896171829,-2.03682355151,-4.28880960402,-4.58944820397,-11.3537150521
off_to_on,-5.50038951552,-5.49359054652,-3.43208655379,1.47710447267,-1.0052861634,-3.83175477748,-4.53992161287,-4.10873747911,0.0240669239318,-5.11513489468,-2.128263097,-8.16368532499,-3.95957499782,11.8688564029
off_to_on,-1.2442644268,-0.794573813202,0.36183225623,1.05261046049,2.03661359198,-6.35233494013,-1.62949323154,0.343297865058,0.017869589157,-4.00533834398,-0.826207823546,-4.06483339914,-0.133270383038,43.6272261169
off_to_on,0.721546345943,0.753663435587,0.384115430843,-0.602984378887,1.63933043828,-7.19896210839,-0.35141627484,1.68187885808,0.0020755477282,-0.955440849444,-0.917954295471,1.4113267868,0.656543982594,7.94780998185
off_to_on,-1.53694371834,-2.56690456571,-2.88711756201,-2.10980210738,-1.45427026441,-3.76659853765,-3.71782038912,-1.68068358047,-0.0206997890743,0.664168770727,-2.22494506878,0.988463564935,-2.22080099719,-53.5474303897
off_to_on,-2.99957766033,-4.5062938743,-3.6755161882,-1.81234898596,-3.00151523927,2.57846045855,-4.85930457086,-4.06275959871,-0.0334190924898,-0.118141077841,-1.91734197467,-3.34558340551,-3.64955697072,-49.906767195
off_to_on,0.0593690088212,-0.795613351679,0.140597146633,0.192028101103,-1.0899825834,6.11371651153,1.02217054062,-1.34233240719,-0.0260854397165,-0.795444879887,1.1620111103,-3.20905916539,-0.524073877516,5.76501386294
off_to_on,4.69464723936,5.02777457319,4.44644100896,1.95970168782,1.89754945321,4.63074746555,7.73434987469,3.5247095044,-0.00890187641467,1.11904794657,4.33543275204,3.77725016835,4.16414672828,25.4410566399
off_to_on,5.78923242045,7.00979516827,5.13054429153,1.90783440268,2.95684900688,2.16876261711,6.74442135617,5.33862257987,0.00485594664289,4.2038829961,4.19326045122,9.65982884353,5.78447675879,-1.77738037396
off_to_on,2.61672881079,4.09011985812,2.73409753226,0.479934191456,1.78501933532,1.604994297,-0.433131867918,3.15526408598,0.0155995065269,4.54969741018,0.822091816426,6.69694873571,3.60176068992,-3.21215442543
off_to_on,-1.55080005077,-0.33846414182,-0.203385095948,-0.790543415733,-0.119957589705,0.189633634375,-5.04057720854,-0.334516645841,0.026435685103,1.01411272167,-2.4051730363,-2.07093076955,0.124623751904,36.4469499649
off_to_on,-4.20873355562,-3.61723581106,-2.87460406375,-1.20957727247,-1.67738389051,-4.08608829733,-3.48768548861,-2.9927825186,0.0286891909623,-3.14952691839,-2.99729017547,-7.35555385238,-2.85802942302,43.1915593467
off_to_on,-5.07634500204,-5.52182132515,-5.11741760327,-1.15532126701,-2.37527623681,-7.06431851861,-0.333967852927,-4.09050916151,0.0136427626763,-4.64825072052,-1.87829855794,-6.06868604468,-5.06352948574,-13.1135821065
off_to_on,-3.91487388195,-5.78518196199,-5.16425400196,-0.825249091288,-1.66979445794,-4.33684731557,0.256858120912,-3.06180028844,-0.00955209796055,-3.838883914,-1.24421178938,-3.2693138394,-5.60276076357,-57.6293540794
off_to_on,-0.206436659394,-3.11175487853,-1.47919314982,0.118279879083,0.232721566703,1.45202759331,-0.398618377716,-0.306864115124,-0.023231202305,-2.50270359321,-1.15323890736,-2.2327915282,-2.99113505919,-30.44186516
off_to_on,4.47491680207,2.35915173976,3.98591762867,1.4510089238,1.75526931409,4.62755937388,0.0218353208351,1.95810647917,-0.0235833495793,-0.24146386976,0.218648083491,0.375987745109,2.14370358079,18.643172866
off_to_on,6.37423125292,7.3195117976,6.83942259682,1.93662199729,1.5337459426,4.5772146061,0.795748899399,2.15762477187,-0.0192574021848,3.89781629207,3.10592035631,6.56108451616,6.31874705286,18.1576105813
off_to_on,3.44479269011,7.61449510618,4.73749371653,0.727677945695,0.24582669181,4.00892267646,0.848944507458,1.60596016752,-0.0121838224179,7.35301395424,4.70544065742,10.3226335323,6.36031202296,-11.1807995172
off_to_on,-1.82504830025,2.40671196971,-0.453481469979,-1.23113714051,-0.359592834282,2.09017386725,1.22698332906,1.94018058295,0.003241893686,5.54522515341,2.40113479376,4.96605236568,2.52762852238,-5.91539680628
off_to_on,-4.79956200732,-4.39541583566,-4.75209986239,-2.01449395043,0.0651441210525,-3.35366831544,2.21193506355,1.7581746909,0.0224766019896,-1.54722217135,-2.34278917162,-5.72711939648,-2.13539271141,26.7255476109
off_to_on,-3.40894357627,-7.19146615919,-5.22018813152,-0.924035855138,0.287756683992,-8.26529594751,1.50935786399,-0.927123273124,0.0298551496442,-7.4495439,-4.93945853172,-10.3963896618,-4.73165436969,28.6660407952
off_to_on,0.309948495554,-3.75467735164,-1.71270693436,0.739039999736,-0.336154851478,-5.4742947971,-1.72958090794,-3.98258656883,0.019593263587,-6.19477872974,-2.87892924732,-4.50419009198,-4.25664980158,-3.78335881867
off_to_on,2.72590749102,2.26853272843,2.79287867781,1.28627946015,-0.987181120448,3.54941735731,-4.173848878,-3.24930006251,0.00344408617145,0.311355833803,1.22792735928,3.86496142798,-1.57181229161,-19.4265533108
off_to_on,1.81073675696,4.4870773396,3.94622229295,0.524429144647,-0.936577699511,8.24231364361,-2.93821156162,0.546972567346,-0.00772947055652,4.46605944324,2.73731167132,4.8276585527,1.16984473951,-7.37041564808
off_to_on,-1.45166086081,0.485627455485,0.255110994609,-0.341174343491,-0.541602844186,3.29284111387,-0.156847219884,1.90568938255,-0.0161680477906,2.14355023784,0.48317310038,-1.02274195121,1.80242338047,-9.26329688905
off_to_on,-3.6822653015,-4.77495863052,-4.10893503503,-0.367552353939,-0.0917034932087,-3.92578745996,0.90156624136,-0.764804979399,-0.024175013362,-2.62177778139,-2.04032530566,-4.74004253058,0.318115156438,-29.8152176489
off_to_on,-1.7334566254,-3.91954572491,-3.09194847028,0.113199126961,0.921555058842,-4.65733381225,1.5222315549,-1.74236273133,-0.0231406978378,-2.9527653893,-1.16520910976,-1.02236199598,-0.538317614056,-17.8675748506
off_to_on,3.68728744322,3.76415483762,3.42733724161,0.209658744193,2.31881536508,-0.615965220072,4.19791309821,2.91097485071,-0.00711981413555,2.28488749843,2.36727002778,5.85565816401,1.54464824066,36.5836298655
off_to_on,7.2342547338,9.98621732243,7.88294079087,-0.257704749593,2.29206737931,1.53771681579,5.7140943631,7.32766370204,0.0130412846868,6.85735396192,4.24681264072,7.880912687,4.61781831015,62.5055139422
off_to_on,3.90504508812,6.36697455816,3.61863951716,-0.602277698279,-0.324560702356,1.45717146424,0.649779928606,3.22123893427,0.022042105211,4.43883310057,1.75721295471,2.32550687615,3.86986180377,11.8706997457
off_to_on,-4.43295615825,-4.94430765096,-6.00170681926,-0.283098234545,-3.46217758226,2.63476550709,-7.98221955612,-6.74545654566,0.0194732544115,-3.53264119969,-2.92126549396,-5.78085800751,-2.06435933031,-56.0081150079
off_to_on,-9.59173480375,-12.4669517894,-10.4587198938,0.370962789682,-3.55791952672,2.99730777864,-9.51278581233,-10.5431907206,0.0144576538846,-8.84448801358,-5.13600215215,-8.9857816116,-7.97797675814,-52.8583516821
off_to_on,-5.93898369145,-8.29265202738,-4.51279723213,0.660106494663,-0.168453138724,-1.94165226491,-0.434682874796,-2.95464422309,0.00767397748588,-5.84227994318,-2.96655695714,-4.7943744354,-7.41859338423,15.9034482374
off_to_on,2.7334410966,2.71872348605,5.38862761679,0.433224434565,3.02177115214,-7.99842796297,8.6042765642,6.82542261498,-0.00627808297411,1.89416519839,0.963345410717,2.04876272853,-0.441061402937,66.1155614671
off_to_on,7.6104872946,9.06527141176,9.01823281606,0.102570805829,2.73606421499,-5.33312242113,6.64170373282,7.65033409693,-0.0220437035387,6.11906972944,2.97535639982,5.02123866889,6.28066574043,45.5594396509
off_to_on,5.22234723054,6.18186371715,4.22127190898,-0.138376919948,0.109972347547,5.49227748178,-2.14084950832,0.921934956549,-0.0254668095065,4.00264121242,2.45171157448,3.19860397302,7.17038919924,-24.3178598924
off_to_on,0.267516101296,0.140554523485,-2.216003593,-0.538907465052,-1.32760086589,10.8733612519,-4.99860799534,-3.35180164103,-0.0137364440716,0.321099804071,1.42773534108,1.253768945,3.20733120715,-90.9733484754
off_to_on,-1.96920022043,-2.03139434663,-4.19067298113,-1.03770739857,-0.555682390638,2.77970824171,0.367407459833,-1.49159227976,0.000630485946104,-0.558624959627,0.929023192415,1.88009291211,-1.07189242627,-98.6767368094
off_to_on,-1.99073705475,-0.969641482734,-2.56622185687,-0.874164867493,0.208300438449,-8.59610631967,3.5542173395,0.590445369315,0.00877290110995,-0.371447952342,-0.210409188484,1.79187914225,-3.33883162668,-6.6760384472
off_to_on,-2.72077981555,-1.29570662658,-1.11156903904,0.42587826261,-0.517287581464,-8.4783639279,-1.04175195882,-1.22361250691,0.0146584939489,-2.01478399918,-2.41560308103,-2.12791170387,-4.02851656542,142.653282566
off_to_on,-3.3510004151,-3.20319962871,-0.422458843284,1.92641736131,-1.20620077405,2.16365991486,-5.18938474724,-2.68477119645,0.0206717397618,-3.19234962187,-3.44254813811,-6.15444329781,-3.15828891428,198.369012957
off_to_on,-0.931164483495,-2.7655672438,0.985299482138,1.94318724939,-0.110417131672,9.01612632069,-0.756625821805,0.549673910201,0.0184505648375,-0.316106323404,-1.31625389824,-4.32381443599,-0.190133473633,50.2983238743
off_to_on,3.36339644706,0.659788815127,2.25147042672,0.0616511264187,1.57610496877,4.29983334186,6.07603775036,4.38682214677,0.00324301124931,3.60353418716,2.02768798918,1.81713795591,3.13120591427,-186.782264979
off_to_on,4.58748977017,2.91683190078,1.23332301917,-2.07725760713,1.35868728943,-4.88706775424,3.93463219554,2.21923205717,-0.0139567139559,1.99271573602,2.67648076098,4.39296019981,3.41794102872,-254.833217229
off_to_on,1.31828941421,1.90834528626,-0.834921228276,-2.44250072128,-0.619235845272,-8.08476217192,-5.14609962483,-3.88875335919,-0.0197646779677,-4.02074095345,0.237899933743,0.89678259559,0.40979445163,-67.6107239906
off_to_on,-1.92665842077,0.817069097412,-0.373225899624,-0.777922342296,-1.59326722066,-3.36003855299,-7.54340356656,-5.11892340852,-0.0156803725631,-4.98274541034,-1.38682666396,-1.90346442158,-1.82007785039,163.438773969
off_to_on,-1.52370810089,1.88733277058,2.17318349487,1.27605555312,-0.26496532101,4.03791706003,1.42755413802,1.07722654147,-0.0108640480194,2.82194557256,0.26847623094,1.12879295704,-0.468945123564,197.258605234
off_to_on,0.0818180922502,1.73539016433,1.73694069142,2.00905667009,1.32408314381,8.35518250896,9.68706376298,6.61632685881,-0.00517771820824,9.61388935608,2.40934290306,4.89577247343,1.69859848318,57.9362043186
off_to_on,-0.750837678853,-2.62143887655,-3.21046651953,1.17455237355,0.95786090203,6.14294136275,5.58820826929,4.02800729178,0.00695223636427,4.92267265382,1.12880690783,2.08540609,0.592209675656,-53.7867850919
off_to_on,-2.31976258141,-6.6521327223,-6.37209243952,-0.177480680195,-0.571476024486,-2.06910639458,-5.5406405553,-3.25536196202,0.020356202449,-6.58339972381,-2.52324335249,-4.69960191999,-2.5566254044,-61.002239621
off_to_on,-0.678087573671,-3.60986587498,-1.97818343277,-0.912608282112,-1.07497259138,-9.78109102901,-9.48593039184,-6.25344252333,0.0220713993744,-10.6227790908,-3.80353945097,-6.43857492978,-2.80789996023,-57.1829152592
off_to_on,2.82050456652,4.3231918857,5.65006120953,-0.737262423957,-0.401605057244,-8.81626386837,-2.66937548774,-2.61940689299,0.0104218880076,-2.97931138153,-1.03228685317,-1.40236359466,0.712754296281,-81.3814568351
off_to_on,2.90225495207,7.29818250931,6.9388149237,-0.225986776652,-0.079359995365,0.891561248147,5.08538417203,1.9767217172,-0.00245797239962,5.60564974809,2.25677173116,2.88619382414,3.14501545211,-41.8756494749
off_to_on,-0.819526409699,1.55046294248,0.551771168764,-0.101366838007,-0.226537975658,9.5059206086,5.5543776043,3.12596402749,-0.00890724785487,5.62453927507,2.56276118544,1.94961444463,1.24902839098,83.6949824609
off_to_on,-2.49943106115,-4.8347844438,-4.6550084724,-0.3951527026,0.549236852611,8.61758251587,1.27008294003,2.33455939133,-0.0133690154379,0.818122268269,0.787339716139,0.333990499235,-1.70615410089,146.790134605
off_to_on,0.586819719479,-3.54791104057,-2.60881973825,-0.380673049544,1.95677772961,0.810454012189,-1.5856924086,1.72081597278,-0.0182038639463,-0.606802346621,-0.240537061561,2.21701916413,-1.21102462494,41.907935621
off_to_on,3.07588677894,2.21178597568,1.67404767228,0.443392146277,1.51709883389,-5.53152123531,-1.93244904255,-0.0705744480412,-0.0155987974873,0.90870193704,-0.136405989179,3.63179403664,1.4815500708,-104.339933593
off_to_on,-0.136910098524,3.35928105333,0.804451062397,1.42598774581,-1.40893409579,-6.85131195702,-1.77883344903,-3.59663815258,-0.00139701977335,-0.467451102187,-0.443467190671,-0.235771759364,1.60740918329,-103.52943654
off_to_on,-5.11312274836,-1.36249511718,-3.36123883439,1.30285945901,-3.49004327457,-4.92670441573,-0.96582697017,-4.84388887597,0.0140266911534,-4.21494127389,-1.27188763536,-5.56974870211,-1.44708324446,17.3465653958
off_to_on,-4.12702230237,-4.3491478391,-3.18547871742,-0.186163167372,-1.63170799917,-0.566833071426,1.22409431002,-0.526203029646,0.0185549289704,-3.90703008922,-1.18614585879,-4.99086729235,-3.14590694586,72.0052318119
off_to_on,2.6640839933,-0.9937753771,2.44974881273,-1.68511478963,2.23673825017,6.02184499387,2.55369277384,5.33955640508,0.0139586181443,1.60554692694,0.0495779493167,0.952794789493,-0.648260308829,7.10425457446
off_to_on,7.03997191105,4.16406269337,6.41736281756,-1.63762931581,3.39405144561,10.0323650226,0.75665761883,5.47590337223,0.00882073703054,5.57515696125,1.02988338846,4.72263269186,3.13548854904,-40.6782017929
off_to_on,4.00477886055,4.6495412451,3.85893689165,-0.0917829903947,0.712390873265,5.27114520192,-1.99306304386,-0.617267395315,0.00313155473821,3.30418332972,1.01057170271,2.94918813553,3.66249215759,8.45621277231
off_to_on,-2.42336005501,0.206798801442,-1.88373214856,1.33842633956,-2.14861788346,-5.78670677967,-1.97348821026,-5.68753190162,-0.00791757609467,-1.78043025719,0.590028664848,-0.453296933729,0.298665135628,52.0097062185
off_to_on,-5.79995254276,-4.56379890882,-5.27298267357,1.27170774268,-2.10675609844,-11.9606155583,0.160977621123,-4.46118130536,-0.0194493292547,-4.21968077406,0.035894163046,-2.13314587077,-3.6844376602,-2.75226837683
off_to_on,-4.53451074998,-5.75557765815,-5.00602655056,-0.0325004262418,-0.23441007585,-6.75091769619,0.873210802797,0.366045614732,-0.0199562665897,-3.18295672931,-0.932260444973,-2.92265982996,-4.7173154576,-72.5036693646
off_to_on,-0.63886454382,-2.14448697461,-2.17999233743,-1.10957926715,1.02470282749,3.4282785988,0.118523535591,3.54105357535,-0.00840447455181,-0.411837982931,-1.46230172459,-2.52041133138,-1.49735489039,-39.0291272523
off_to_on,3.93716307418,4.56085972359,2.69168840906,-0.863935943235,1.35403801063,8.23250585609,1.00754245867,4.01198442778,0.00393203859842,3.25908387252,-0.12128758432,1.68789996965,3.97145717158,50.7691935963
off_to_on,6.56153925643,8.91005087916,7.19782506201,0.389676259556,1.36481212243,5.95354176514,3.08361760024,3.15229763083,0.00997246094539,5.81973857446,2.09837987406,7.36503928802,6.8105421437,63.8999787004
off_to_on,3.78242196661,5.10869941405,6.15853346983,1.30650689031,0.324799184746,2.11258320418,1.76540883338,0.35229233546,0.0134822466066,3.3706250463,1.95789913045,6.31157414334,3.21561958144,-3.61372282789
off_to_on,-3.60424296218,-5.10956627591,-1.63038398067,0.877643471772,-2.10815943188,-0.668878908426,-3.64574740801,-4.70429155403,0.0165496069686,-3.81252650806,-1.23678580517,-3.63487054379,-4.26587996462,-36.3492666585
off_to_on,-8.31001706092,-11.4226513671,-8.76211158583,-0.506458913589,-3.44663845322,-4.40048178046,-6.86411083162,-7.77617772554,0.0127190109297,-8.35850577324,-3.50743133283,-11.9169629148,-7.87524391569,0.819159360563
off_to_on,-4.46149425706,-6.39202595201,-7.0303092406,-1.41855676442,-1.03761332247,-8.27427368011,-3.0679385113,-3.94098081717,-0.000897900924834,-4.42838796956,-1.40521596255,-7.85288104151,-3.55176026551,19.1214400893
off_to_on,3.87453220041,4.48172542857,1.57015651828,-0.943033592483,3.2665400345,-6.76145960568,3.81032015582,4.40877320687,-0.0146482941037,3.50616038247,2.58387964965,4.1632046399,3.53479331366,-24.2587607532
off_to_on,7.23019806088,9.41521766298,7.26215025298,0.288514545345,4.48591336383,2.16072213024,6.5849086477,8.83924020867,-0.0179389967119,6.40179831295,3.20038938894,10.3380855878,5.5579957525,-50.0463077461
off_to_on,3.01388352349,5.23512796345,5.28090074464,0.883539521154,1.10358038545,11.4593215085,4.27124212201,5.40538511579,-0.012660798835,3.06945426859,-0.0086353810915,6.06642858393,2.09591824719,-0.795786053993
off_to_on,-2.25500757755,-0.667860216436,0.276604951292,0.388983363971,-2.80637013674,11.6019931143,1.0299558099,-0.829457161702,-0.00666721451069,0.057375563623,-2.21911701416,-0.32769027605,-0.798044781755,54.6551369344
off_to_on,-3.17282364453,-2.62225063709,-2.47071552853,-0.250722528144,-3.23834135853,1.29529754893,-1.65713781077,-3.80415312985,-0.000437846781912,0.103634561181,-0.739080977449,-2.2169071724,-0.411197231647,36.4882023728
off_to_on,-1.77087204501,-3.17556596041,-3.52139055002,-0.037807876082,-1.15234977607,-10.6152607713,-5.365209014,-4.14069981348,0.00955033846332,-1.1497366094,1.22792849681,-2.8622428464,-0.419068732284,-15.5706420941
off_to_on,-1.53884312087,-5.11087131286,-4.41669548315,0.742907231769,0.24744211467,-13.5660139714,-8.13593485494,-5.06984477551,0.018716742441,-5.30071397323,0.124724760511,-5.71451412789,-3.03180485394,-17.8760762521
off_to_on,-1.09851522106,-4.65416417391,-2.77010212214,0.907823523543,0.543354552219,-4.9666282922,-4.68598969727,-4.84321709091,0.0175108408733,-6.25315181301,-2.16116881974,-6.04366142402,-4.11767696419,15.4536316304
off_to_on,1.82427421073,1.66502481682,2.78008365531,-0.111986469492,1.41527928618,7.43700321271,4.7480421778,0.679955163264,0.00591153648044,0.14341641555,-1.40655814823,0.709949818677,0.0170401938727,8.21897050151
off_to_on,4.48254726715,8.53884516837,7.23599621276,-1.5260452629,2.5072433701,12.5157533001,11.6010131337,9.10452421709,-0.00573130241152,7.72404714984,2.050532882,8.63684889967,5.37294385635,-38.0050943513
off_to_on,2.74791965457,7.60046563734,5.01114648017,-1.97050529135,1.59108598222,6.39965861174,8.70536380011,11.5651612237,-0.0111313030255,7.62137138311,3.51022048806,8.10256946993,5.1206898095,-45.8886843842
off_to_on,-1.68894594293,-0.441501595839,-1.40762275413,-0.846809534603,-1.27923576409,-3.70210818981,-0.915041911274,3.66874948955,-0.0134548596484,0.512279912964,0.770890325127,-0.140567056359,-0.471087419633,4.50955222717
off_to_on,-3.42176976969,-6.40397662925,-4.70041884599,1.10282876385,-3.06611653605,-7.78053747638,-8.41755924698,-7.89317395828,-0.0145415073456,-5.15386584748,-2.78785750513,-5.93319968824,-4.47765248859,44.334943256
off_to_on,-1.61636937974,-5.21761391255,-3.28095780678,2.3990559859,-2.01469789861,-4.32862080604,-9.16837888642,-12.5224652776,-0.00941328026655,-4.9258759935,-3.02148927183,-4.08841513281,-3.12101421147,30.678535639
off_to_on,-0.481172849724,-1.30112346184,-2.05364945796,2.04209274007,0.0677323947806,-0.241523598853,-4.83226658939,-7.0759018915,0.00342988002826,-1.88980181876,-0.236259251359,0.0640110029954,0.205689705808,3.29903965187
off_to_on,-1.32352291256,0.0768434070858,-2.66198230234,0.321753204936,1.00890307053,0.143767062275,1.46052527111,2.40977398664,0.0151292245865,0.515359329493,2.08243823939,0.636286173047,1.43742788957,-0.58059092663
off_to_on,-0.232945218518,0.402504153169,-0.451638605584,-1.48290885574,1.280377903,0.465863649902,7.09693759439,8.33717597702,0.0168668873996,2.43047866173,1.95586349456,-0.664994581442,1.18015366963,-5.1732040757
off_to_on,4.17816269149,3.09078270998,6.09185064807,-2.20092444913,1.96984678233,4.25183561005,8.65190688703,7.93033236336,0.0108674966429,3.57194535187,0.375634479321,0.314365931754,1.32482388889,-27.1553007044
off_to_on,6.30504576364,5.83209820119,9.65553887644,-1.58125126582,1.87475832943,6.93541714699,3.96796406784,3.08394996659,0.00425838418014,1.66443687426,-0.96088829315,2.55412757704,0.826513537648,-24.5755543565
off_to_on,1.18255177392,3.39438499015,3.4865067282,-0.198097205485,-0.611160035216,2.07106113703,-3.75650224932,-2.67073816131,-0.0021669058739,-2.62868468406,-1.41682100674,2.17028376431,-1.47229358408,22.2851991442
off_to_on,-6.89641766588,-3.6094481454,-7.50883072788,1.10941900229,-3.73134519672,-7.11263761014,-7.89436125281,-6.10294073176,-0.0108299395056,-4.2716397746,-1.0306891839,-0.848348034322,-2.95559721825,43.0056830962
off_to_on,-8.62534418398,-7.99669367213,-11.5315303644,1.65017413296,-3.5941114416,-9.76277784711,-5.55312626172,-5.39515225576,-0.0175240957232,-0.670020364916,0.061487515039,-2.76393270743,-0.622246691738,-23.6066564415
off_to_on,-1.52352319197,-4.79047771196,-4.58682795124,1.17472537632,0.461882016478,-1.85035138418,-0.0889844311476,-1.23478447186,-0.0146618862571,3.85438683713,1.32365254236,-1.52298711959,3.23958776722,-100.192228683
off_to_on,6.94230899185,2.69315551082,5.23644934938,0.12763396026,4.25600683627,7.68285195617,3.90732600704,3.32210391141,-0.00324283633443,3.85182036768,1.78076826791,1.3308283806,3.34314721958,-46.9907354637
off_to_on,8.40286910739,6.9141383623,8.4527328895,-0.609065002136,3.70536180569,8.13507587651,4.95161339463,4.95198195736,0.00734373851785,-0.00993836268957,0.845443965743,3.17899679617,-0.860244004488,123.947093778
off_to_on,2.33138886837,4.31356768774,4.20800243608,-0.59784753489,-0.31466815701,-0.00840102278555,3.415423756,2.60362608777,0.0117779667416,-3.05409022032,-0.98251657663,2.20740049341,-4.04585498657,211.058252837
off_to_on,-5.01193021774,-1.7545472622,-1.70341670258,-0.330284483888,-3.44668139894,-6.94844909467,-0.248892735039,-1.62978579392,0.0128533426615,-3.35246946544,-2.35474777822,-1.83125469412,-2.50069646931,61.4188100516
off_to_on,-7.49408320995,-5.15189635013,-4.4847301353,-0.469536311644,-3.04605594253,-5.57241066442,-4.13557391307,-4.0898351226,0.012212306182,-2.31065928203,-2.01679111944,-6.0562353428,1.13616932691,-207.043143917
off_to_on,-3.73094937641,-3.02249165668,-3.36677397041,-0.80352901508,-0.345210307781,1.91533714069,-4.86313338712,-2.62339166226,0.00616590747985,-0.405638589265,0.110114114141,-5.31252726334,2.48323412338,-303.709464619
off_to_on,2.86342507296,1.83334540254,-3.06993506586e-05,-0.511905581021,1.93277051378,7.62580873603,-1.46014333006,1.33613510003,-0.00561392819508,2.9493111713,2.47711670108,1.89589121526,1.44452924037,-94.0994293726
off_to_on,6.84215491854,4.17177006153,2.92735556568,0.54827348544,2.38217723666,5.4139574408,2.74853144921,3.98117063942,-0.0151218155116,5.77603494779,2.96726416034,9.28026110934,0.724229994587,225.534632277
off_to_on,4.83770014666,1.8686633737,2.78024223403,1.46512723168,1.22920043864,-3.69135835527,4.12676656388,2.81013417921,-0.015304752855,4.35316339384,0.980179575161,8.54085106558,0.634095060475,327.142791931
off_to_on,-1.34891601935,-2.12530811106,-0.553696551465,1.38585123907,-0.599094654778,-11.0068790737,2.60531079932,-1.05612721351,-0.00877555009339,-1.34747506945,-1.75446238065,-0.514743948226,-0.827176746715,111.716621015
off_to_on,-6.0506171107,-3.57746440708,-3.6195656836,0.454450197038,-1.88353799007,-7.4262727705,-0.00476263451366,-4.18809647929,-0.00194514489243,-6.40227572542,-2.91694330699,-9.0892674302,-3.31848352545,-181.06947566
off_to_on,-5.04839281335,-1.61904603805,-2.77703995131,-0.638880379175,-1.52619513466,5.58798991331,-2.74342801583,-3.86102999232,0.00428018828962,-6.39867551684,-1.8787602103,-9.32409626518,-3.35460223156,-250.864998303
off_to_on,0.436062079539,1.3079161875,1.42067418189,-1.45056817164,0.303757555391,14.6741961288,-4.27635087549,0.0201411202793,0.0114970850872,-1.86613393679,0.180677873081,-2.14946338332,0.610271558968,-76.0710888335
off_to_on,5.12738796616,2.84949508027,4.60341332031,-1.67593169101,1.69990323747,8.902988464,-2.26552704471,4.56973153654,0.0159206167568,3.3786378229,1.85485060733,5.39491780404,4.84839523859,98.3223332391
off_to_on,4.65821898077,2.3535415459,3.34464630247,-0.882432994287,0.819352715302,-6.14480115435,2.50553045956,5.34006291218,0.0117283145508,5.91240857557,2.35711382072,7.54745042403,4.30924523197,93.9045010109
off_to_on,-0.514885137193,0.123427920995,-1.33372919797,0.814251346737,-1.5539718734,-14.3071575102,4.5277869073,0.3786024147,0.00077619256458,4.27944959607,1.33895315593,3.5899071975,-0.921753862647,1.44597303948
off_to_on,-5.21593100488,-2.5332676515,-5.02686167127,2.1325381209,-2.26551222198,-8.38830117813,0.799035590927,-5.94679039708,-0.00852169202654,-0.271025080726,-0.758522856059,-2.53127069882,-5.11931133557,-4.54849376654
off_to_on,-4.09138518697,-3.01193019339,-3.99357077908,1.698711769,0.433785856519,2.83028261139,-3.16018280793,-5.95447691972,-0.0118602233523,-3.71686749661,-2.22839510384,-4.90428325408,-3.41332180366,62.2417642637
do_nothing,2.36336218056,-0.0399153192579,1.18480489621,-0.153615887013,3.92506429477,8.17909948088,-0.735381758452,1.74926241505,-0.0118118665077,-2.75518493826,-1.49684924405,-1.02769689491,2.2942547758,49.9382956049
do_nothing,6.87337941101,3.26559476927,5.43706067921,-1.53212855374,3.59807914599,6.96416955591,4.40504210467,8.22695486344,-0.00983943380048,0.586478679972,0.589828077832,4.0592893842,5.18575416085,-62.9858387452
do_nothing,3.12314558523,2.23685930157,3.90767864153,-1.23970753157,-1.33210852773,4.20190853906,2.65936029231,4.43508241677,-0.0032877395675,0.962763592534,1.36080767259,2.62258889149,1.51236181216,-121.05284561
do_nothing,-5.46550277437,-2.4661553137,-2.16269287748,-0.103944632473,-5.87330476623,0.454771021798,-5.62512863633,-5.75608026866,0.00726765950798,-2.33144181735,-0.0504137382613,-4.81874601339,-4.53351395811,-38.5742794474
do_nothing,-8.39943244398,-4.39956711694,-5.84050844707,0.402183576388,-4.66083353679,-5.79355023878,-8.43679884091,-9.09087797672,0.014672152344,-3.42606713412,-1.23770800215,-8.05152351146,-5.48023500296,65.3536831228
do_nothing,-1.31844604055,-0.0461144567413,-2.60748700779,0.11671127273,1.36691294445,-10.0836807033,-0.0518177411929,-0.746861296482,0.0134828391392,1.27417226993,-0.0216516552533,-0.722918721799,0.221458249069,58.6535285765
do_nothing,7.39440548918,5.35324834396,3.51993136,-0.00404697996861,5.72243016111,-5.8938950624,8.8180063818,8.27127195956,0.00666292720143,6.39605387734,2.01688163678,9.16453168537,5.97582037257,-6.3407398982
do_nothing,7.08570220291,4.46215011184,4.9178959473,0.443996798671,4.0803682282,4.010729334,6.29338198547,6.08513622179,-6.96410151777e-05,4.65273836092,1.65150291785,8.96991493529,5.13782763849,-5.18739833502
do_nothing,-1.02813679508,-1.85534928218,0.46588620024,0.785017011264,-0.82948315704,9.009954421,-2.84305755645,-3.46527682876,-0.00584313718742,-2.13122440627,-1.0576091169,-0.943762894359,-0.845613540295,44.1903722217
do_nothing,-5.95289864375,-5.67323732176,-3.3035189951,0.368974075967,-3.27628631915,5.03812691401,-4.99360020305,-6.7457434788,-0.0116600588279,-5.29079697283,-2.57836198076,-7.66002039017,-4.86018123063,27.3443650017
do_nothing,-2.34838579354,-2.89504878169,-1.75793746629,-0.552608662669,-1.69870857187,-0.427895159262,1.12208530258,-0.0210330304254,-0.0141428558204,-1.90410930435,-0.992386823678,-4.09489110691,-3.36770640589,-54.9904565774
do_nothing,2.90087958353,1.96456236012,1.58046182688,-1.19915803759,0.462962370054,-0.810669825987,3.63609070128,5.99955276471,-0.00895878567544,1.62354171239,1.28665292002,2.03136874224,0.223672255658,-80.2948512539
do_nothing,1.80810453731,3.04118485669,1.06440794124,-1.00124692317,0.319045021039,0.0917501665477,-2.51878447987,2.53310186428,0.00136283308683,0.090448004317,1.21527509955,1.33094152403,1.54414797554,-9.64378200465
do_nothing,-3.10031925106,0.692788275768,-2.32385140772,0.0634447294347,-0.936500930746,-3.37907461782,-7.53735702079,-4.98835713193,0.0093177405349,-2.77109612975,-0.498362982981,-3.17764489261,0.863969545375,50.0567424352
do_nothing,-3.4993436349,-0.838303007702,-2.75886238657,1.34056954765,-0.749392317773,-7.49369595778,-2.72163249842,-5.88443603688,0.0115543450466,-0.989372573903,-0.847116356517,-2.2932781946,0.812896646394,26.1269953028
do_nothing,1.88678808551,-0.0864890136522,1.28210273567,1.70216398689,0.89094085244,-4.60597591316,6.11899544573,0.549344357502,0.0105308505978,3.95298765079,0.76787145028,4.10500666335,1.43623562677,-11.617852417
do_nothing,5.66823114894,0.809112439924,4.58811781084,0.551825484957,1.964725313,3.77639257151,8.21158621555,5.58088091255,0.0075691893579,5.46400286986,1.78383305926,6.95717705206,0.721620740853,11.3099137039
do_nothing,2.77833072656,0.316522972533,2.78058615616,-1.20756167808,1.49211399179,8.2576230477,2.96453865738,3.96978687462,0.000822237193556,1.51888349597,0.443454991315,2.05233650342,-1.2502746283,43.5086665012
do_nothing,-2.75451269677,-0.741649924108,-1.72488036854,-1.87795337406,0.230720511347,5.09940281431,-2.44206419111,-0.560205209166,-0.00847368395462,-3.26736957134,-1.68417254861,-4.21770792845,-1.99880896841,8.16174664503
do_nothing,-4.18781930711,-1.21839538949,-3.59220294187,-0.910968967798,-1.030560966,0.23880516754,-4.84366938711,-2.60460095299,-0.0139585827298,-4.58368534825,-2.02646408197,-4.91838359796,-0.554763796665,-53.6013747205
do_nothing,-1.0983644972,-0.944649973065,-1.69984044475,0.500317651456,-2.03689580126,-1.24634997538,-5.66833979981,-1.84036739313,-0.0115787207237,-2.84137967836,-0.385647990772,-1.60531763511,1.0087550084,-50.1658450116
do_nothing,1.42801484463,-0.101098709193,0.540420604481,1.07886029008,-2.11305631483,-1.81069591462,-3.75388327555,-0.770360516664,-0.00460330210166,-0.353217120975,1.20167444911,0.266197286697,0.720661249238,5.88190307701
do_nothing,0.569415307653,0.896446893038,0.679578812122,0.908438286539,-0.504890848549,-4.51756741651,2.62908485757,-0.156812991256,0.0018418882019,1.83103519014,1.23463970313,-0.034302038744,-0.614231880839,25.9206499519
do_nothing,-1.06474277522,1.14130794326,-0.0552309309118,0.663473975107,1.89797320953,-6.23033339653,8.23077766757,0.547970871697,0.00697976822332,3.08592843042,0.228755257215,0.722747153207,-0.943543628702,-1.5725789584
do_nothing,-0.143695313345,0.400252122502,0.32136491807,0.276862578916,2.76517962737,-2.7062668099,5.30655987584,0.887150603098,0.0114333303007,2.44810569252,-0.400228457005,3.0181577358,0.205682471047,-3.46191099303
do_nothing,2.40962528278,-0.0663751859594,1.42986689817,-0.595822025376,1.1215556331,3.89866261963,-3.63833049781,0.230852440287,0.0122594682205,0.339059112878,-0.0848044469209,3.55880023162,1.49585214395,36.257911136
do_nothing,2.81937807014,0.509237607926,1.50113215867,-1.36786160321,-1.18711799974,7.6292254234,-7.08180833893,-0.45597017609,0.00636953677633,-1.19659622759,0.464352575816,0.618518063339,1.53255910021,43.3022694094
do_nothing,-0.216320648769,0.579958953141,0.120486150053,-1.07266023454,-1.78711965312,6.09250629476,-0.99037104927,0.161383143567,-0.00321600943705,-1.27586911722,0.259160914837,-3.16953959792,0.100299537619,-13.1170902183
do_nothing,-3.43952216197,-1.25347112344,-1.33823994235,0.0371557810634,-0.645649892681,1.23532876154,4.98240810797,1.49574124451,-0.00982171795602,-1.1732205435,-0.695103605088,-4.0805126672,-1.67681464451,-57.9571192976
do_nothing,-2.93964069405,-2.90312184613,-1.59162779671,0.716943428679,0.436743704842,-4.29031887484,2.32007729281,1.58429173919,-0.010948298123,-1.49063799008,-1.26014947037,-1.42688914035,-2.02018750177,-30.637019601
do_nothing,0.756209691089,-1.17487530996,-0.77398439969,0.618384472047,0.479600409898,-7.39206102729,-3.74449582815,-0.349126764172,-0.00903714591345,-0.763812797257,-0.542679526481,2.06971928985,-0.257698196379,18.9092160114
do_nothing,3.0398560924,2.65053484531,0.108991864077,0.616862607728,0.104487713527,-4.53756560368,-3.45174217867,-2.81341574404,-0.00536133069308,1.49347503867,0.784788707315,3.02819721514,1.7822810054,18.489440991
do_nothing,1.06792397724,3.48397314496,0.400154009948,0.952949261967,-0.0346059416561,3.01611400579,2.15474493121,-3.34808046496,0.00128449100096,2.75561726849,1.2005566454,0.626528263572,1.43245840208,-11.2141981107
do_nothing,-2.35227864021,-0.184216952322,0.246749455263,0.547199852137,-0.132954109971,6.81400915458,4.07485770547,-0.781293654112,0.00925248749395,0.904881013634,0.391077439191,-2.29715132303,-1.1392539368,-6.06211841837
do_nothing,-2.38794739784,-3.38934301737,0.171849782553,-1.00247400765,-0.316446502423,0.960458906557,-0.00710795850961,3.06310242842,0.0129759635025,-2.04485810817,-0.337776044831,-2.10872079523,-2.46971596325,26.866977391
do_nothing,1.24743613501,-1.62481530776,0.478214614743,-2.10887701347,-0.107530653314,-7.2995593792,-3.32232419955,4.22570544685,0.00959357802431,-2.36484758173,-0.0821469723138,1.05770397578,-0.246785702878,28.8688980992
do_nothing,3.87578082229,2.54475836425,1.01150500876,-1.22660532998,0.598119123177,-5.17281343938,-1.57102100719,0.896909516611,0.00260762495155,0.263906275702,0.304887907102,3.12460581104,3.18892364954,-3.96926981331
do_nothing,2.21322812002,3.29419488904,1.26321249594,0.735437749666,0.955274312303,6.82304558219,1.69351461835,-3.25063294987,-0.00336956589734,2.65463183908,-0.228974347937,1.5577155599,3.60081901245,-19.831932041
do_nothing,-1.55919630288,-0.200796299209,0.6266367773,1.58804000161,0.305800732257,12.9501414006,2.41551537792,-2.73599752442,-0.00769510493116,2.47256760628,-0.995001288001,-1.15198430176,0.237756909298,-7.4538234657
do_nothing,-3.38640219969,-3.36237613492,-1.11578171548,0.887986826644,-0.740259018507,3.38563204048,1.3424013045,1.9698991126,-0.0108085843314,0.164787248443,-0.619666445274,-1.64961714818,-3.52512463886,-8.99775780635
do_nothing,-2.53495827997,-3.0561399987,-3.11091602433,0.107330429799,-1.08867710309,-11.129928471,-0.13572448443,3.91775970159,-0.010255084154,-2.80524876512,0.516669767243,-0.948648536105,-4.44727133251,-29.6640029675
do_nothing,-0.926798623457,-0.675686226084,-3.44108201536,0.0276366972565,-0.578923841464,-13.2256202127,-2.68581100827,-0.689325984481,-0.00397601809811,-4.7502738931,0.707416237366,-1.79640013584,-2.27680902405,-17.9946080574
do_nothing,0.745562383827,1.56644071634,-0.764016421093,-0.143998532564,0.0724106768569,-1.7987956619,-4.70935068619,-5.97493206485,0.00472429811707,-3.25497392287,-0.199306968227,-2.61294432752,1.36013778941,36.4560499232
do_nothing,2.93842682235,3.25169515823,3.52652993725,-0.796857727722,0.38748099621,8.27742765945,-1.91114599038,-4.02743865916,0.00997562913627,2.40876553692,-0.353818290647,0.550350594468,4.477247025,62.5646073082
do_nothing,4.15988134767,3.68763326633,5.62963992009,-0.964953247602,0.474610350849,6.96140411847,4.7493312804,3.33646815443,0.0100384419883,7.81530808265,0.939568932769,5.93792687953,4.84437483229,12.1438954497
do_nothing,1.85052419214,1.20942381332,3.0557976524,-0.163384934095,0.499361077771,-0.152536690458,6.99062524924,6.62998818384,0.00738203419796,6.43817054797,1.60016068939,6.1567442077,1.30039862256,-55.4383122631
do_nothing,-2.91712606938,-3.32654442972,-2.13278115617,0.504413972762,0.486204274427,-2.91607928572,0.761889066086,2.30680974738,0.00328193543564,-1.76627193876,-0.125384555101,-1.06520076685,-3.75578782601,-52.3704243056
do_nothing,-5.14840384968,-5.52620130867,-5.07615717569,0.238370521707,0.469738298048,0.0596173832567,-5.75526565224,-2.59060787987,-0.00297790958399,-8.39710885465,-2.45060399877,-7.66123649238,-5.46520218642,15.1366884822
do_nothing,-2.24172581036,-2.70333167401,-3.43470246184,0.0410673196477,0.245587911315,3.05243682883,-3.26237214222,-1.78877784537,-0.00956574234705,-6.39078750342,-2.19777305476,-5.44860653806,-2.01134937189,63.7320894939
do_nothing,2.13306577296,2.0857406904,0.244015925038,0.805177423883,-0.680597696253,2.2266674753,3.81629317884,0.888823741385,-0.0117206427374,1.01144773286,0.526987339236,2.33082469693,2.63379056309,43.8940563212
do_nothing,2.98127793417,4.01639041974,2.09991564718,1.24618918939,-2.06166924582,-1.68645902971,3.37377378579,-1.11060282614,-0.00758740042914,5.02538768064,2.33273516868,5.59856106464,3.52573415682,-22.0906270489
do_nothing,0.665796422291,2.59254370918,1.54029735525,-0.174293028157,-2.24038787855,-5.96868248253,-5.03004505326,-5.31843585906,-0.000786653565787,2.97964655148,1.37173626061,1.44329543015,0.854976797073,-85.6981261497
do_nothing,-0.582103036123,0.721222053447,0.809233685903,-2.13013173967,0.0912814779846,-7.06714391098,-8.16558861592,-3.62550583016,0.00455959789195,0.0958021174169,-0.371879218886,-3.09935971709,-1.26629238945,-96.1251594228
do_nothing,0.481907717431,-0.540065261395,0.960961377124,-1.7904647526,3.35769426591,-2.14708755254,0.778810333171,4.22151811178,0.00797507861118,0.17525197108,-0.592746033674,-2.22177334246,-0.955737576458,-11.0827675181
do_nothing,0.767954503742,-2.29836383405,0.594892387461,0.784206557078,3.96800363151,6.47369168896,10.7509281881,8.77591606292,0.00984814886394,0.525206378389,-0.0579568888296,1.36100285117,-0.174781426221,134.989646143
do_nothing,-1.34679059614,-3.64227983175,-1.08802571881,2.27929415071,0.637377398472,10.9203365724,8.38310641924,4.23864430247,0.0082240476084,-1.73728807072,-0.55999350159,2.43350109934,-0.341824680777,195.875283541
do_nothing,-2.83779957185,-1.80370323281,-2.2486621838,0.882919107627,-3.42548576928,6.1129652927,-2.84968758993,-3.44154386922,0.00187076328328,-3.6428133301,-1.32685268868,0.903316187384,-0.0708787283537,56.0472113125
do_nothing,-0.715149275082,2.57163255553,-0.982037281954,-1.12900019917,-4.01836574544,-3.15697291021,-8.51176092912,-5.67868365541,-0.00581808793732,-1.10515602978,-0.286866562042,-0.341146015931,1.38844685809,-179.030269254
do_nothing,2.90199175339,4.57604488535,1.44481137319,-1.03622337926,-0.885800883017,-7.76102755393,-3.96835499728,-2.80970639003,-0.00976728271179,3.46993667186,1.84907806766,-0.978811240759,1.77589371393,-252.995307772
do_nothing,3.38614659303,1.6637714187,1.97602444229,0.323021092288,2.31974018779,-5.4724036416,1.43023143795,-0.949534187221,-0.00889866453378,3.78772586039,1.94588047189,-2.09201372245,-0.561654862797,-72.1767407031
do_nothing,0.0176138401025,-2.30641588202,-0.0123259341488,0.433728219154,2.615014032,-1.89369091485,0.524325942691,-1.18294134825,-0.00569855914066,-0.901678472104,-0.640716092388,-2.23180566717,-3.02660576159,158.406616889
do_nothing,-3.18473551632,-2.57934872004,-1.88655294694,-0.605546163559,0.601869983602,-0.86313915181,-1.88787614157,0.834294108314,-0.0014454655561,-4.24839678299,-2.48277991709,0.419664858336,-2.01592842929,195.879838135
do_nothing,-2.92693550413,-0.259686182323,-1.45757643005,-0.534085131805,-1.21810820739,0.259085375522,0.810693043785,5.37327550896,0.00422262058495,-1.83852705075,-0.964926395192,3.39320316406,1.4035702974,58.8928821742
do_nothing,-0.296989232068,0.246084997555,0.330888448431,0.932790768608,-1.37092446178,4.18591288758,5.57599431404,6.22643229934,0.00945771534261,2.68797751716,1.67894001937,2.41511033289,2.63636050844,-52.903804876
do_nothing,1.71969067449,-1.29802299925,1.32870913412,1.43424827647,-0.105948937034,7.73701421132,5.02646118296,0.227546397971,0.0102850309057,3.24188269713,1.64657176692,-1.66232562301,0.312398253884,-59.7408369113
do_nothing,2.11783200604,-0.805684897988,1.21382017525,-0.126690380311,1.38201521485,5.8436362531,-0.643025706806,-6.51916413885,0.00567296620239,-0.184330241001,-0.718573322328,-3.16621241618,-1.68139102938,-54.492443642
do_nothing,1.7510689454,2.79159406246,1.03574654339,-1.67829802814,1.56213128468,-1.21902387729,-4.43761595082,-6.23558186241,-0.00076019709801,-2.35557502246,-1.60433074571,0.227146028737,-0.135807483941,-79.0458133904
do_nothing,0.869869227011,4.78828851067,0.74711785146,-1.17100010091,-0.359331489581,-7.87549970706,-3.37330819019,0.0423004834641,-0.00537754822817,-0.747211546408,0.304043560105,3.8644267738,2.59068680716,-42.7102028359
do_nothing,-1.01281542731,1.35557521654,-0.693206318997,0.450346781553,-2.8792836561,-9.17410164426,-1.55460368978,4.33364701152,-0.00788237532824,1.40405855624,1.87378296505,2.60636181074,2.02929652126,80.0810799437
do_nothing,-3.03984835936,-4.40489925284,-2.76765912598,1.06522218786,-2.85680391428,-4.51454825609,-2.03555192728,2.59301637018,-0.00868095075127,0.565927429925,0.49886950176,-2.32336727769,-1.88074195753,143.791574092
do_nothing,-2.91536227561,-6.0833091182,-3.03779572684,0.544916756437,0.722045473505,2.93002833597,-1.81446488714,-1.07816599113,-0.00628833709351,-1.86477234557,-1.86579827122,-5.39843231868,-4.5865935537,41.6212083546
do_nothing,0.0860195655077,-1.95728742369,-0.344633822962,0.204394814264,4.42627884125,8.24443756833,2.33321009764,-1.43430815594,-0.00011558961179,-1.89915029074,-1.76442478917,-3.50447419188,-2.84064527085,-102.992963771
do_nothing,3.22263325424,3.46778629571,2.99679159403,0.209357788091,3.81107314701,7.67714921605,7.30284798403,0.97270226389,0.0065055490442,1.10478613987,0.558996976857,1.55395467404,1.52635946255,-102.179351973
do_nothing,2.97958268735,5.18879089646,3.61766415449,-0.328091390093,-0.901012792097,2.03143962153,6.92834966808,1.95271270563,0.00926644334373,3.35115168063,1.76243759143,5.5466320303,4.1664597573,18.7305912609
do_nothing,-0.466758050435,2.503911904,1.10137952269,-1.14786122038,-4.60112819128,-3.62525598457,0.211999942091,0.0515258414835,0.00764475421574,1.62259703667,0.497174126701,5.0559031718,2.97395660909,73.7119182439
do_nothing,-2.98264999172,-1.67147319897,-1.74185255941,-0.884840338332,-3.40754912587,-5.40428694064,-6.99185215893,-2.11180425406,0.0041061657438,-2.34976465558,-0.927068298474,0.0467259959175,-0.311140617865,7.94529093002
do_nothing,-1.41284395048,-3.93267067256,-2.35578873083,0.533738725003,0.79173807709,-4.32119429566,-8.44771013928,-1.99064482282,-8.86775310684e-05,-3.75872552743,-0.379939443168,-5.01128859501,-2.27852958006,-41.983604772
do_nothing,2.3225205549,-2.51984635085,-0.906845341373,1.39351384456,3.16599773385,-2.74645467101,-3.67614121318,-0.122691169398,-0.00505408420767,-0.560040515891,1.02859146955,-4.62163943408,-1.17599076508,5.83725110427
do_nothing,3.46660315908,1.51510916384,0.770834068165,0.645610408047,1.92015094621,0.116863303862,2.56088750691,1.29723378748,-0.00903231224447,3.80467825088,1.0147220968,1.00136244781,1.32403608957,50.2376847257
do_nothing,0.345728491054,4.37253283574,1.33905692094,-0.638704257349,-0.421490744058,5.18350532444,5.44329576148,1.22772890411,-0.00878394816295,4.20391538739,-0.460796847457,4.87396394842,1.66339543016,-2.79360028308
do_nothing,-3.660156067,2.49371947446,0.54011869572,-0.966376015127,-1.11666040506,8.07107063571,4.14336844506,0.35517841955,-0.00393392293123,-0.244363152046,-1.55831164128,1.75817350844,-1.50485133734,-71.6667006488
do_nothing,-4.41581163257,-3.11412512909,-1.14454213167,-0.330863644171,-0.414913341661,3.11352196518,1.34837373996,-0.322293321014,0.00200178944537,-5.08818761331,-1.37663545409,-4.39431256428,-4.93777640343,-38.0442899207
do_nothing,-1.59643610065,-6.69470759048,-2.38495906756,0.364255712621,-0.0864341137577,-6.57382619413,-0.410149376772,-0.528045829291,0.00586031625475,-5.43465861205,-0.583658804325,-5.3811810801,-3.88223413303,52.0768146974
do_nothing,2.0466134693,-3.59682908877,-1.43601797458,0.69909404432,-0.435611670795,-9.79845806796,-1.1820736672,-0.382815123691,0.00751861084331,-0.89862104262,0.367953109019,0.265095672169,2.0883205403,65.3501797004
do_nothing,4.31185504521,3.99086322927,1.83820722423,0.649318911239,-0.268051522077,-1.67494746202,-2.07677710408,0.165463844505,0.00742868950424,4.61488101407,1.72193450513,5.86696077652,7.67634819107,-3.13662601176
do_nothing,4.52975859673,8.67326515331,4.61739909739,0.0358111108435,0.73101712183,8.15577878391,-2.58052726557,0.982312262509,0.0045246377574,6.8247664715,2.8211372637,5.88219334777,7.24792269314,-37.4756574264
do_nothing,2.16816855759,5.59211889192,3.46283967571,-0.911675985184,1.16287805021,7.39282041613,-1.32055534775,1.11154836552,-0.0012914863112,4.07821528458,1.89470890691,1.6520092232,0.809488676757,-0.996258567625
do_nothing,-2.54678577234,-2.38296721623,-1.38841233585,-1.17664533217,-0.0191285301382,-2.35383451702,0.844134303648,-0.44285132591,-0.00685170594347,-1.98308108823,-1.36374684008,-2.8475715012,-6.20425946019,17.949022363
do_nothing,-6.48604514367,-7.73182711956,-5.36088078582,-0.224147900726,-1.58311595807,-7.99290285729,1.24092620658,-2.78143775549,-0.0085665235374,-7.0515945121,-4.18849737719,-5.75524330811,-8.34562131753,-24.5376151048
do_nothing,-5.3468982086,-6.04205977566,-4.37599062847,0.924102173526,-1.30026097305,-2.99374083036,-0.2271599049,-3.01969760697,-0.00636899105616,-6.62581482422,-3.40499909375,-5.81206534346,-4.57040349263,-49.8983411616
do_nothing,0.714939266823,-0.0785042393656,0.299998643598,0.977046728001,0.915867315337,4.73029910845,-0.0967063937941,0.39921417276,-0.00266231332946,-0.446198700546,0.498193995771,-1.41758271567,1.73831347007,-0.211750768151
do_nothing,5.62548470476,3.83670325384,3.47397225863,0.223460804112,2.37243179956,5.17643946931,3.02093906615,4.68035859912,0.00133281579844,5.71757305957,3.49270997742,5.09804271016,5.77715605005,55.9638471836
do_nothing,4.2242642921,2.84139499163,2.26413467917,-0.120935848949,0.935251227366,-0.326685097783,4.65312870947,4.94026932463,0.00553479044044,5.50255185216,2.68732903451,6.87583865919,4.92749584747,37.9935086253
do_nothing,-0.956578284295,0.0922343257834,-0.648365055109,0.0312578772152,-1.82136593395,-3.18737793602,0.293387005266,0.150774851579,0.00829470389283,-0.224990240824,-0.303120937658,1.27710964419,0.897495585189,-15.0426664627
do_nothing,-2.95360603487,0.0760531443003,-0.886613251038,-0.26389641959,-2.34960175424,-0.768940476609,-6.53977662229,-4.93636442211,0.00714237731507,-3.91705017402,-1.64815633985,-4.4090773922,-1.83067342435,-18.7358155232
do_nothing,0.190292328869,2.53164991386,1.72360701769,-0.96703699741,0.0442239874929,1.24467653375,-7.30321397572,-5.1625402962,0.00260160687238,-1.12390367454,-0.209107263366,-2.2400501332,-0.890914099731,14.0391918391
do_nothing,3.08318806008,2.88861889922,2.99978226544,-0.842090288817,2.03870749767,-1.03069679682,-0.114194752537,-0.924064272438,-0.00187996901081,3.49925772246,1.34745518297,4.04131965307,1.04814169132,7.22082692125
do_nothing,1.0302906475,-1.09969135261,0.19583768069,0.369827214024,0.946689498582,-3.56020892303,6.75685939424,3.00147947652,-0.00499373898598,2.91450905791,0.47294356452,3.7752731128,-0.0886959311663,-38.3988885801
do_nothing,-3.33633562,-5.54046702878,-4.01845929103,1.18720593963,-1.3223494599,-0.902359480221,5.63907459095,3.53248709163,-0.00902384222776,-2.26394507157,-1.78102685619,-4.1319182779,-3.67946355899,-45.8778903967
do_nothing,-4.22525040612,-5.15851928084,-4.80532734908,0.602604642866,-1.10169060306,5.06189110513,-0.721408099893,1.779957185,-0.0128231606588,-5.07190726445,-2.38202136538,-8.5749860613,-4.65598104007,4.95029044977
do_nothing,-0.908144183115,-0.389043931809,-1.32230957334,-0.340606624061,1.33071959408,6.82746033497,-4.13366671628,-0.139288562933,-0.00698394181717,-2.49462681378,-0.545438924186,-2.70121782272,-0.62521463968,45.2066006427
do_nothing,2.0766325427,3.26305382777,2.45230329146,-0.288520868756,1.96925829912,0.93659432748,-2.30482139732,-1.76536057037,0.0142832182247,1.02425887999,1.4121301537,5.74678789679,4.21698128332,31.5650537036
do_nothing,2.01123022426,2.79058260452,3.09062274423,0.289774892276,-0.701924189114,-7.04564951429,0.286543002733,-2.8156339795,0.0334034178785,1.47679780193,1.53425162171,6.30698178121,4.57522586196,3.73883426458
do_nothing,1.11140767552,1.18106427175,1.66190103834,0.11712064772,-2.97496074954,-8.44172161028,1.00456558131,-1.83317129377,0.0165104842763,1.20483832572,0.726828049293,0.923915631078,1.22687665866,-0.59305072072
do_nothing,1.74299048148,1.91133656356,1.08069770306,-0.61580145509,-1.28610680715,-1.35578452861,1.85345397821,1.41461373319,-0.0393189482765,3.43518292099,0.756910306042,-1.10066706776,-0.690477141181,-5.46293562188
do_nothing,2.26943164009,3.15831054365,1.4046517877,-0.659045290124,2.25238678339,6.83327877429,3.06942177994,3.86657690669,-0.0727450487469,5.22862191844,1.17685441441,1.31639219257,0.454432752544,-27.8490209972
do_nothing,0.0979301742573,0.808267297812,0.268427031908,0.053153999337,2.76324041513,7.57704368114,0.824950225016,2.27557088553,-0.0125898823141,1.46519041156,0.139554040272,0.7399090074,0.779542658359,-25.7624488887
do_nothing,-3.49121334843,-4.39949952813,-2.59033194323,0.348097349654,-0.269442163966,0.895647704421,-5.19904696829,-2.06672729228,0.110310883536,-5.90836974589,-2.20049459142,-4.51139167863,-2.39690952525,21.2594579209
do_nothing,-4.62606199377,-6.87092360492,-4.14855283649,-0.00834639913365,-2.41852967827,-4.93585067625,-7.66225800843,-4.26733036124,0.147318692782,-8.72177845327,-3.25488312503,-6.44163627628,-5.68477934361,43.2587852851
do_nothing,-2.11211966313,-3.66672282461,-2.36962000091,0.0977828497899,-0.975743666209,-3.82625137955,-0.918606986917,-1.86483618774,-0.00377140543661,-3.52764268016,-1.52658357678,-0.682142131622,-4.17175535101,-21.8373716617
do_nothing,1.28780812531,1.60215945105,0.664796558515,0.907707682468,1.38924029559,0.788195938433,8.7047940332,2.17619904501,-0.222887290439,3.46871522849,1.19310700008,5.38198297769,1.44164707993,-98.3807120319
do_nothing,2.78585978309,3.98602186582,1.74574882143,0.949718613368,1.14421993445,1.63587065553,9.18302052346,3.37895288754,-0.246864508193,4.94181781868,2.29313690772,3.65512061374,5.59421592074,-47.2354810798
do_nothing,2.44681684115,3.37350473222,1.12905268354,-0.541862448372,-0.862794197309,-1.58135777286,-0.818800869287,1.06483469757,0.016847011114,1.90301739369,1.68609707308,-2.07671304249,5.0119000708,121.400695883
do_nothing,1.70488574811,2.88486901527,1.65439526935,-1.86222531327,-1.28018628443,-2.10671185164,-8.90463692346,-1.48653056724,0.320628449282,0.769528614656,1.13429743197,-2.17971219902,1.92865552009,209.089786987
do_nothing,1.05475014136,3.10709693845,3.733227035,-1.0557828987,0.407838754777,2.71312456276,-5.09233405377,-1.3278314999,0.323491653006,3.28939162241,1.09447752954,3.84512441144,-0.192538366467,63.552748794
do_nothing,0.174871434274,1.42243609889,3.94197549061,1.0209624025,1.49579826718,6.01338289394,4.70307219428,0.862857942319,-0.00312432651866,4.12598799543,0.223374926428,6.60182283248,-1.2176022998,-201.582769439
do_nothing,-1.06578074862,-3.13113069942,-0.337142716041,1.67933564745,0.492994978646,1.18435035349,6.69428255946,1.70880486285,-0.323067607414,-1.10472261743,-1.93785285662,0.616113449536,-2.94492069372,-301.339508577
do_nothing,-2.6003877859,-7.36638430612,-6.59240849565,0.175129321268,-0.96040222329,-6.9850101361,-2.14000533864,-0.906455820506,-0.321979254387,-8.92410893656,-3.61770475919,-8.12723556185,-5.00483166179,-100.322818418
do_nothing,-3.97297679083,-7.30861329911,-9.08463471178,-1.31312505795,-1.04298938711,-7.41216364377,-9.98305077141,-4.65133156349,-0.0492391140116,-11.151864796,-2.91730959312,-10.2491185922,-4.60556174882,214.735929306
do_nothing,-3.54878164896,-2.33180341292,-4.69140863576,-0.844214944532,-0.197225779801,1.74284159032,-5.66474330335,-4.27123168029,0.194619821304,-3.89485362363,-0.115136529854,-3.69586855849,-0.362479896768,323.807423645
do_nothing,0.311954609024,4.64742567105,3.85072815941,0.734189506183,0.351071317075,9.41082551355,6.96183016533,2.17530475022,0.226312102318,7.80415320064,2.83995493823,5.66446720419,5.18268919627,122.352459651
do_nothing,5.92178630448,9.43611319598,10.0968067991,1.29538762347,0.567417571728,5.9742882982,13.7146055349,9.03996999254,0.117599920606,14.1242303862,4.20044455694,10.5440211301,7.57847926195,-165.579914667
do_nothing,7.93024324418,8.61743602113,9.03989920977,0.364360471068,0.782110871926,-4.09549701564,6.9500245091,7.91174499693,0.00598129153265,9.35751067858,3.18774776476,7.53512316642,4.67434423358,-246.848840185
do_nothing,2.95771731445,1.78122245581,1.30143355243,-0.691875235255,0.433374780904,-8.6582035118,-6.17220743556,-1.99104285112,-0.0775305361027,-2.50369975147,0.0985110578323,-0.823390270335,-1.29451203858,-88.082170804
do_nothing,-5.06333973119,-6.64594301765,-6.84104963129,-0.848103332146,-0.755742716461,-3.69847074583,-12.5728099507,-10.999576375,-0.147064544535,-11.069010647,-3.24149776694,-7.3190522435,-5.62274441196,83.1730661939
do_nothing,-8.14089306615,-9.76851291171,-8.58906428349,-0.490235655331,-1.45733645101,3.26179726147,-7.47148616388,-9.41370391905,-0.154962967788,-9.44124644208,-4.14543936183,-6.22160917144,-5.30604836957,90.3643558482
do_nothing,-3.45784471773,-4.97822178191,-3.18724448217,-0.274512472325,-0.410241247455,4.82570600966,2.10354865471,0.867547734763,-0.0528443677919,-0.926372662881,-1.77435204368,0.00588104476662,-1.64152186755,9.55029169315
do_nothing,3.20738038163,2.48730863074,3.13566450067,-0.0425905830347,1.2475137699,2.43027546486,6.58885691605,8.66192736753,0.0947825857176,5.08413335833,1.30344759355,3.03164463231,1.42562128953,3.90233855852
do_nothing,4.71475840943,5.16921054372,4.0469128495,0.592310386055,1.255362288,1.06700088489,3.99704144985,6.9576888412,0.160815099589,3.72024730691,1.90164515603,-0.462616451332,1.63776722089,64.4625035887
do_nothing,0.981803105919,2.08210174662,0.232610432064,1.23615428617,-0.365010349974,0.577612085125,-0.00193477072001,0.0610441008801,0.108702995013,-0.691146958209,0.329307869921,-3.95993370997,0.545702470765,49.5202184329
do_nothing,-2.22110816183,-0.976874215483,-2.21238349527,1.02451116514,-1.21299297012,-2.53840799252,-0.226086215652,-3.66809901782,0.016971265784,-1.18375315305,-0.206869743702,-0.550018085807,0.847260724305,-62.2297775182
do_nothing,-1.42323697655,0.151649104286,-0.0429955478931,-0.166114762496,-0.155422238633,-6.80912116762,2.16206707664,-2.20342040248,-0.044203792949,2.75948837616,1.47758250952,6.36500478776,2.44391303683,-122.14341879
do_nothing,0.983165329423,2.75424627948,3.32500639956,-1.35298414348,0.96736748481,-5.58168518408,2.30454841913,0.00818967518601,-0.080150386595,5.02100624316,2.55350470487,7.33354703799,2.5725992269,-44.6056812676
do_nothing,1.53535581907,2.12962121514,3.18281036463,-1.46510665579,0.32294087507,3.13747740667,-1.6104914142,-0.264210014342,-0.103061259151,1.21616866126,0.421312322225,0.34553426393,-0.1185363005,59.0121497235
do_nothing,0.624647657296,-1.35871925727,-0.107915651414,-0.478931432278,-0.971801320958,11.2134039103,-5.96443657095,-1.3683019631,-0.0799111129413,-5.33593614141,-3.02586710223,-6.24553118155,-3.2510474054,59.1364715495
do_nothing,0.530371289861,-3.4125514777,-2.55712889122,0.646351827036,-0.648748665931,8.8709532144,-5.98806471647,-0.674174112983,0.00458810063246,-7.3785258359,-3.69273963402,-5.36334010495,-3.54062110552,0.290546538043
do_nothing,0.802043289232,-2.43146041161,-2.56330178603,1.03579631853,1.00004738261,-2.89108766717,-1.17629013399,1.27015262785,0.0906217418523,-2.39261362441,-0.90165219024,-0.141262489681,-0.996351842832,0.13165562694
do_nothing,-1.03745371965,-1.09477172891,-2.13785468577,0.675359942827,1.38003972916,-12.4096581573,4.27219378316,1.95290335463,0.106526115357,4.28891202864,1.87339238592,1.88048399094,1.22112148435,44.3967773374
do_nothing,-4.4548245024,-1.17490442854,-2.38044474363,0.14303077351,-0.454669192348,-10.3402220638,5.98506890252,0.559806892123,0.0578330016199,5.61048124679,1.9433201109,-0.609138785073,1.01369733445,25.7707016916
do_nothing,-4.93994056762,-0.566308054985,-1.23877197995,-0.149057269447,-2.12923910602,0.577787585921,3.62052874787,-1.10133813344,0.00318839690104,0.984797855158,0.562197820614,-2.27263081558,-0.142599616897,-55.3274423945
do_nothing,0.183726033463,2.66896540621,2.68924422328,-0.242888909077,-1.1421829595,9.90091301434,0.365671023166,-0.913964394641,-0.0320187655685,-3.22291448931,0.198589281993,0.469957139335,0.34472597798,-81.4972323932
do_nothing,6.93817463021,6.01196952024,6.54182698381,-0.32390095376,1.59256345905,10.6889564352,-1.13311266626,1.06341657883,-0.0626515128204,-1.7010111293,0.790566488202,4.90207642383,2.31816822551,-13.6073296567
do_nothing,8.25437840461,5.11948550209,5.87515354146,-0.415087240671,2.77163800088,4.08426124452,-1.3734225963,2.44099616276,-0.0815648817027,3.09942044733,0.527057297012,6.02876212915,2.92374352303,46.7556687175
do_nothing,2.15495401504,-0.289004454506,0.2484960085,-0.398178480359,0.843128175944,-4.60920141088,-2.26097460515,0.935925691363,-0.0549934283534,4.21217086966,-0.893685744276,2.22651884766,0.473045661955,27.6875579162
do_nothing,-5.67137998723,-5.75669529544,-5.83333744254,-0.145853172857,-2.12329519643,-10.26759087,-3.82137134356,-2.74975880865,0.0130295428242,-0.653553300676,-1.87950183696,-3.76035313538,-3.09537017082,-6.86354458009
do_nothing,-8.08863003748,-7.15525744435,-7.57924364233,0.355853732274,-2.93671254303,-9.20791200556,-3.97785247415,-5.01411152293,0.0667726354881,-6.07176573069,-1.45977042873,-7.57668824885,-4.37915348721,14.1306533873
do_nothing,-3.86331634485,-4.33715200427,-4.2383928848,0.823915064521,-0.853878885284,-1.14128946739,-1.42421415425,-3.1066303526,0.0688858694611,-5.90903875426,-0.338693968471,-6.47716121286,-2.38593852761,43.1000046456
do_nothing,2.11948975704,0.317525074401,1.16239595266,0.721475734272,1.86532819624,8.29112782944,2.71621436078,1.66664745253,0.0417429393105,-0.629470603883,0.668704250588,-1.24925447546,0.783026133182,7.43302655997
do_nothing,4.78150654754,4.65041669498,5.01235890463,-0.129163885637,2.61456117521,10.8028916983,6.32481845385,5.44507051122,0.0179433434053,4.49096660097,1.58102673096,4.40636864575,2.77771544445,-53.5474031749
do_nothing,3.40745645473,6.99539651621,5.57328643671,-0.989560124166,1.06184700539,4.37758510862,7.76228434624,5.87477996948,-0.00843015629783,6.1436680225,2.15042232346,7.00230584861,3.17154262847,-51.5413715764
do_nothing,0.654846603937,5.69054071289,3.30683850715,-0.824211551622,-0.965444504526,-3.66900151985,5.40832649653,3.28335240772,-0.049431158988,4.73966230086,1.36552301934,5.77401618283,2.47920377051,2.60727645681
do_nothing,-1.12264368108,0.530818513888,-0.174340360062,0.289196751903,-1.72413921719,-5.72957003068,-1.77825769581,-1.29379511109,-0.0772902835069,0.957504009955,-0.922381732363,1.92237584024,0.55913345219,24.0571677518
do_nothing,-1.61111550954,-5.57589081417,-3.2916738914,0.974748970174,-1.14920406827,-3.3296403516,-10.967306165,-6.56006332458,-0.0546605907174,-4.787540396,-2.91095387699,-3.13887040246,-2.5004282975,0.174417562138
do_nothing,-1.49197759303,-8.12426108632,-4.88500709662,0.310109857775,-0.248739202569,-2.90260821323,-14.6203988874,-9.2688891284,0.00574517937345,-9.0000522632,-2.60887826533,-7.25613123066,-4.63186957505,-0.438748331127
do_nothing,-0.99223615523,-4.94488984837,-3.98178183669,-0.765858234349,0.394174843382,-4.33113442189,-6.99577614727,-5.53756184495,0.0522333432609,-6.27222567111,-0.231079534813,-6.98174469075,-3.09403475383,37.4815127952
do_nothing,0.152146685335,1.67488302676,-0.30293763643,-0.6549053778,0.912042239752,-0.931283904934,7.8204859054,3.83813383928,0.0582074557596,3.20300732394,2.12378068757,-0.917798243698,1.73392233972,43.2523066684
do_nothing,1.69151739214,6.84442472614,4.30677604393,0.548350028587,1.24772080483,8.03080395579,17.5831719509,11.5191763767,0.040253750552,10.7850271876,2.80203218663,6.44221200705,5.42538427313,-12.5065036791
do_nothing,2.32768523369,6.87261131312,6.02297370365,1.03557561375,0.857616325216,12.5755605268,13.6144321372,10.2153366141,0.0171656494508,8.27995674237,1.69625921328,7.81580619092,3.91324662604,-57.5138157169
do_nothing,0.730002213668,1.85965872429,2.51760399959,-0.115588889781,-0.354834964819,4.95888248514,-0.476565091477,0.824151996615,-0.010928229203,-1.85032326921,-0.472306782152,1.60911713493,-1.63392556359,-32.4861523006
do_nothing,-2.49357810216,-4.39266319969,-3.51835285539,-1.4180382568,-1.44617299384,-7.94042469329,-12.7962663368,-8.2255418738,-0.0383359485345,-9.14144070824,-2.61918047866,-5.37424133637,-5.66656964427,15.7079102103
do_nothing,-4.29865769415,-6.99312649005,-6.15370637194,-0.90294424829,-1.38065144906,-12.405294092,-14.3177028035,-9.70343135928,-0.0452990669663,-7.33076939216,-3.14802640664,-5.7134312099,-4.10118805589,17.2845329587
do_nothing,-1.95418998442,-3.74538290789,-2.64541155828,1.07638711443,-0.300824500677,-5.57918211145,-5.41945388737,-3.96494297006,-0.0276716604447,-0.0528784724991,-0.99057860971,0.121711359704,1.51276642176,-9.48436873116
do_nothing,3.21565839166,2.63902351729,3.09177102036,2.10556723967,0.70192314516,2.42069533055,5.96045240242,2.97292506033,-0.00701854223121,5.45933983379,2.48228302414,5.18230648307,5.7619518384,-3.91065471592
do_nothing,6.11290623776,6.47329433174,4.88267812018,0.760753699594,0.933854441052,3.88048536129,10.6752225917,5.57724201128,0.00356031593359,5.95440811612,3.89738863335,4.3574214463,4.66095100334,27.5476401699
do_nothing,3.29531767537,4.28040174092,1.45833427737,-1.5791342624,0.646500223858,2.51120651541,5.34548836045,2.90704334311,0.0175656638231,2.43098529062,1.50805709813,-1.0385708969,-0.773280078573,29.005202067
