label,COUNTER,INTERPOLATED,AF3,F7,F3,FC5,T7,P7,O1,O2,P8,T8,FC6,F4,F8,AF4,RAW_CQ,GYROX,GYROY,MARKER,SYNC,TIME_STAMP_s,TIME_STAMP_ms,CQ_AF3,CQ_F7,CQ_F3,CQ_FC5,CQ_T7,CQ_P7,CQ_O1,CQ_O2,CQ_P8,CQ_T8,CQ_FC6,CQ_F4,CQ_F8,CQ_AF4,CQ_CMS,CQ_DRL
off_to_on,-0.941102945681,-1.73006172298,-0.959667891089,-0.259979896429,-0.346189063731,-1.57134309115,1.79202427361,-1.7444707684,-1.0076560338,1.2589756677,0.552155859732,1.98908999941,0.421514974399,74.1084840625
off_to_on,-2.77600104827,-2.42595090463,-2.01333333872,-0.612062431201,-1.28830079356,-1.35482158314,2.86010072415,-1.16869799559,-1.31139654491,1.21954654785,0.0350277801164,1.1422846429,-0.584084816307,31.0575401837
off_to_on,-4.56104830828,-2.9971787562,-3.15789090431,-0.94292993568,-2.13804941629,-1.52626186128,2.64752317424,-0.867069929819,-1.40186478391,0.279882926615,-0.845632975868,-0.528079304361,-1.86193571628,-21.0508856871
off_to_on,-5.74471248176,-3.26334967399,-4.05871819151,-1.19963810042,-2.70857933615,-1.97859351871,1.25841608707,-0.891544366213,-1.31031619467,-1.27624389749,-1.86289247432,-2.51348042015,-3.02338021138,-68.4596414084
off_to_on,-5.79866870823,-3.00699267671,-4.29751827543,-1.31883926313,-2.82578141602,-2.35831363048,-0.763855292551,-1.07809138674,-1.0831393776,-2.86236257132,-2.67293702812,-4.11211549286,-3.62534941882,-98.6091037138
off_to_on,-4.42410062497,-2.08036572293,-3.54020416507,-1.24444505597,-2.38398513018,-2.22925470216,-2.62772647479,-1.13033238451,-0.763047553018,-3.80856171241,-2.93260154259,-4.6797124742,-3.33257007144,-103.544328421
off_to_on,-1.71088246358,-0.510261074779,-1.70649140208,-0.948543516305,-1.39574472243,-1.2863011816,-3.57534068712,-0.762380176105,-0.380200133717,-3.62113714482,-2.42913385509,-3.87224487027,-2.058877981,-82.0196567448
off_to_on,1.81728824874,1.44831049307,0.929559709293,-0.448251756037,-0.0155785263985,0.469198039934,-3.15818703904,0.155649639834,0.0446682659267,-2.18569739534,-1.17513176135,-1.79194013566,-0.0334105781238,-39.7535136923
off_to_on,5.3035136716,3.34264897632,3.75937131132,0.188249531047,1.47679238739,2.66864908519,-1.40976142206,1.50841605934,0.488722547808,0.163581041288,0.568375368918,1.01912077045,2.2388525807,12.1886564025
off_to_on,7.78587796835,4.63908351695,5.99009185037,0.850226805478,2.73588964053,4.66399699247,1.14734130856,2.94158886062,0.914595108104,2.73766432404,2.35387087715,3.74022743872,4.11667781657,60.3965815472
off_to_on,8.48767718488,4.89304880835,6.88636301536,1.40662699656,3.4397921927,5.74069542304,3.66599438306,3.96753267526,1.265032852,4.71915230474,3.67789529646,5.53565511862,5.02076513034,92.661559551
off_to_on,7.07673988344,3.91466982756,6.02607661261,1.73664681335,3.38413456919,5.38189474823,5.25732283438,4.13652504108,1.46954350103,5.4425386714,4.13883899299,5.83131550049,4.62593507037,101.113529793
off_to_on,3.80433821622,1.86723922728,3.47950783055,1.76023433864,2.55078067199,3.48564072574,5.29640619257,3.21295310335,1.46260340296,4.62871841956,3.56941806419,4.50929694815,2.9813286384,84.1406023918
off_to_on,-0.53093094323,-0.745245915381,-0.159600251493,1.45971453816,1.12645489276,0.449112860839,3.64621748987,1.29074430775,1.20754121155,2.48960474446,2.09815429012,1.95270326496,0.514286624299,46.6332298829
off_to_on,-4.79323107306,-3.20847361408,-3.91576367805,0.886128721183,-0.538944973525,-2.92076262289,0.721798051599,-1.19887598666,0.716930489924,-0.335469856619,0.117200141987,-1.0754872626,-2.08850662511,-1.45187196641
off_to_on,-7.83440164983,-4.81082768079,-6.71207403484,0.148320672032,-2.02542474379,-5.64857503292,-2.62955166635,-3.59749175958,0.0606228132628,-2.99018284217,-1.83474502176,-3.67874952972,-4.08757400104,-47.7795433027
off_to_on,-8.83407805551,-5.07134760818,-7.70407286576,-0.612158799052,-2.96090547197,-6.90507931903,-5.3938742354,-5.21587733225,-0.643560521709,-4.68505899216,-3.23676483512,-5.11492388382,-4.91919142984,-80.842696597
off_to_on,-7.54700808754,-3.90502630353,-6.55816627941,-1.25325636051,-3.12811321229,-6.28691611854,-6.71424572241,-5.55314909355,-1.25539234681,-4.95567757298,-3.74337297223,-5.02850452914,-4.37127645369,-92.8494863892
off_to_on,-4.37710904665,-1.6651924479,-3.57835419317,-1.66295129464,-2.52638966764,-3.96188150828,-6.16527577739,-4.46482967633,-1.64700307155,-3.80611489893,-3.28374330923,-3.55027229195,-2.64827555066,-81.5650524115
off_to_on,-0.252798873598,0.957514562353,0.368089941602,-1.78038603953,-1.3680781218,-0.625336750246,-3.88810154412,-2.22132387378,-1.7361848449,-1.69008507425,-2.07078097377,-1.23384487608,-0.303082277433,-50.6738788904
off_to_on,3.65755979927,3.15116941433,4.10935093585,-1.60316714498,-0.0100093088633,2.72095615567,-0.542950130743,0.565596925963,-1.50772743312,0.659756896768,-0.519123674915,1.14485701928,1.94179416533,-8.6214844161
off_to_on,6.29926165237,4.24425236862,6.53271838118,-1.18077048562,1.15820751227,5.09353565697,2.90242030347,3.12628322892,-1.01615177243,2.49057716121,0.897970401989,2.85288053102,3.42470002677,33.7144856708
off_to_on,7.04102611325,3.92559869713,6.93590476563,-0.597892136988,1.83314277505,5.84439569195,5.47615896635,4.76737748802,-0.36938398473,3.28295843136,1.8027967418,3.43771847712,3.75093314908,65.8828340356
off_to_on,5.84350490961,2.34714551695,5.25001054568,0.0461995649121,1.88549505183,4.86179474647,6.49703052469,5.08027266061,0.300874365131,2.91071816796,2.02601430876,2.85705040115,2.90733345038,80.488278925
off_to_on,3.23677645299,0.0726372431634,2.05889822058,0.65629388579,1.38929488602,2.58693835173,5.76601991365,4.05646511305,0.872314477001,1.65470167279,1.6416205324,1.46103783985,1.24976734749,74.9161762832
off_to_on,0.120654107558,-2.11221013684,-1.59310409972,1.15384099944,0.584445364212,-0.156169629957,3.59815250372,2.07424885483,1.25852372508,0.0725112466265,0.915987373342,-0.15951012431,-0.628909045216,51.7368634585
off_to_on,-2.54056727997,-3.46467354934,-4.5423771582,1.48252950809,-0.213005720824,-2.4547333593,0.693047047415,-0.235361330256,1.42175400487,-1.22199740891,0.193344832578,-1.39910998285,-2.10294999466,17.7399025436
off_to_on,-4.02482308219,-3.53515788787,-5.88302198366,1.60859695683,-0.721320922295,-3.61944431105,-2.10413744639,-2.19572368092,1.37025650165,-1.78503087972,-0.238203314056,-1.85388987359,-2.71953235191,-18.0798581545
off_to_on,-4.05978911551,-2.31701312478,-5.25454023195,1.51909398236,-0.786569209459,-3.40513160645,-4.06674475158,-3.29431478919,1.14397805975,-1.49196801798,-0.250740798931,-1.45131794698,-2.33759163587,-46.9880153614
off_to_on,-2.86795480911,-0.244819185125,-2.94544071207,1.22104041147,-0.428288680705,-2.06508172807,-4.78863562411,-3.326771548,0.795964195209,-0.558279136731,0.0860585344532,-0.45092653558,-1.15609862046,-62.7312305692
off_to_on,-1.04375072281,1.95778579786,0.219318245268,0.742678352413,0.17637186419,-0.225854799519,-4.26451554899,-2.43206739395,0.377199477063,0.568803360853,0.545270287154,0.677721958089,0.372551439695,-62.9168545724
off_to_on,0.685224409313,3.52763093348,3.16583436831,0.135728911566,0.762315608761,1.36542521401,-2.83481648883,-1.01449728059,-0.070092288153,1.40026340563,0.842845595872,1.44873990193,1.70900820741,-49.2266946709
off_to_on,1.72343981163,3.92232570471,4.93384829772,-0.52420238786,1.0741300852,2.1243974116,-1.02858045961,0.413412136432,-0.510177767942,1.60024130231,0.75783167873,1.549557597,2.41254537071,-26.4979580629
off_to_on,1.80493414815,3.00168631129,4.99072551122,-1.14228580174,0.95720275971,1.83798273738,0.630475931972,1.40831114198,-0.906417834967,1.11027944808,0.226402163593,0.95493701341,2.28146326418,-1.03853758833
off_to_on,1.05743155612,1.06888379632,3.39211100283,-1.61608807885,0.411346795923,0.723199893209,1.7835802265,1.7321638454,-1.21495500144,0.157285697976,-0.625884603019,-0.0754129480429,1.40309967433,21.2497695612
off_to_on,-0.0818640493894,-1.24052040306,0.739240221323,-1.85347839253,-0.410001487696,-0.680859556988,2.31124916405,1.40439883353,-1.38510484032,-0.853424606011,-1.52543813431,-1.11097362179,0.102267438637,36.3512472372
off_to_on,-1.05961325455,-3.18031660976,-2.04615669592,-1.79329412787,-1.2526736876,-1.74186008088,2.30846622855,0.660078099272,-1.36880424481,-1.51328070751,-2.14966419255,-1.72892090737,-1.18681373242,42.8073855364
off_to_on,-1.43164332133,-4.14692268542,-4.0462140746,-1.42325128361,-1.84680599811,-1.99287516677,1.98574537978,-0.161849650338,-1.13691989372,-1.58093021843,-2.24629944822,-1.68563414011,-2.07465646926,41.4724328304
off_to_on,-1.03441530017,-3.87560684054,-4.65556772703,-0.789323741027,-1.99419194843,-1.31986282036,1.54707530612,-0.753139787224,-0.696332229191,-1.0782703436,-1.72846027173,-1.01352121639,-2.34046593124,34.5727729555
off_to_on,-0.0399715452326,-2.51327167578,-3.7684155018,0.00745468038916,-1.62899838663,-0.00540131474001,1.0994986713,-0.942422151192,-0.100185867098,-0.27321898498,-0.710285996478,-0.00520686754924,-1.98461042578,24.520844196
off_to_on,1.12273154143,-0.54678107776,-1.78419863884,0.82754775292,-0.833626449807,1.387874447,0.630470553595,-0.736743203733,0.554694071309,0.443104653915,0.529538676479,0.908514323355,-1.1975009732,12.9883762022
off_to_on,1.94639040059,1.38229325223,0.562029493764,1.51983398374,0.192255966638,2.24837686257,0.0567091712319,-0.289825660498,1.14496353141,0.733517986532,1.64229347252,1.33857034219,-0.264714691414,0.601877072076
off_to_on,2.05293682271,2.70602679471,2.47667399973,1.95279689414,1.19577980451,2.17046968796,-0.684287648943,0.182692229194,1.54890149384,0.471656447911,2.32653257389,1.10348609806,0.549283751777,-12.6604000773
off_to_on,1.34927284864,3.11796071179,3.38850033503,2.04249975559,1.94461968349,1.13199909193,-1.54813833637,0.501646213159,1.67754867768,-0.189370276549,2.42528962855,0.313637020609,1.09152726071,-26.6071085957
off_to_on,0.0708461470543,2.65438325559,3.13234295245,1.77056763236,2.28626678722,-0.478312322024,-2.34910129203,0.59455680881,1.49915222115,-0.87003391982,1.96872757437,-0.662964704483,1.35156387966,-39.9686041353
off_to_on,-1.30413933693,1.64453863392,1.97369064542,1.18797081774,2.17638512723,-1.99943340998,-2.80123353286,0.510337635636,1.04893306143,-1.12334830876,1.14893248909,-1.34428895139,1.42612477931,-50.0241889365
off_to_on,-2.23766823048,0.554855863539,0.472800453268,0.404015406076,1.67238736816,-2.75409194701,-2.62565650394,0.376131692763,0.420770741424,-0.639035545014,0.239223181986,-1.3344940391,1.43873396971,-53.0403016978
off_to_on,-2.34255663721,-0.208466723795,-0.753551595335,-0.436482065694,0.900738912969,-2.32649433551,-1.68325778215,0.31894638134,-0.256773206713,0.590265919596,-0.509236634877,-0.503154112324,1.45420286505,-45.5037950028
off_to_on,-1.5401384511,-0.459894306049,-1.27810827419,-1.18230301917,0.0140820753586,-0.753681713881,-0.0764349616163,0.389685144314,-0.852683807808,2.21412636894,-0.95325652539,0.929743721657,1.42951449976,-25.7669339916
off_to_on,-0.103401348668,-0.295235727848,-1.02202663054,-1.70471747632,-0.845295371354,1.44896066992,1.82962278124,0.525977114582,-1.2641775825,3.61451525395,-1.0937345972,2.44355064169,1.22644891491,4.5332470038
off_to_on,1.43368719665,-0.0297038199261,-0.267090612119,-1.9203206729,-1.56521268406,3.44786452423,3.48770879095,0.573399456617,-1.43705043291,4.11935024648,-1.05037586166,3.39217772603,0.683912120315,39.944149089
off_to_on,2.46990282603,-0.0392864732027,0.480776871007,-1.80386051166,-2.06556478595,4.38749417729,4.33405184984,0.359085039251,-1.37081653948,3.26716401226,-0.98805256069,3.24674981765,-0.279604971241,71.9791075034
off_to_on,2.56352885016,-0.570466355739,0.7208305355,-1.38953428654,-2.28995967199,3.71925339192,3.98574857726,-0.212252109989,-1.10908745284,1.02469784161,-1.0272253709,1.81823862609,-1.57930068754,91.1937983555
off_to_on,1.60825919868,-1.59764386477,0.187356039046,-0.761562689779,-2.19833482512,1.44200738228,2.39974191209,-1.08219869428,-0.720387038408,-2.13095470412,-1.17728162094,-0.625679554849,-2.93675748459,90.0435329433
off_to_on,-0.10884622772,-2.79120820536,-1.01336720082,-0.0366226940769,-1.76964965181,-1.84083222447,-0.0693932796713,-2.01996803488,-0.277094835277,-5.31025885524,-1.32252455745,-3.40176054022,-3.93500127016,65.6371017306
off_to_on,-1.99272520629,-3.61762803317,-2.41761164536,0.658236885296,-1.01670364084,-5.08092977087,-2.74388829505,-2.67791224881,0.160298835629,-7.4706283244,-1.26925991061,-5.60806547186,-4.14682006758,21.410953366
off_to_on,-3.34265700328,-3.54135799095,-3.37090618322,1.20821619399,-0.00662099651442,-7.11816900981,-4.81518729008,-2.70869675073,0.549545790907,-7.7584451903,-0.837132668089,-6.41777968201,-3.29594036548,-33.0024949901
off_to_on,-3.6021529537,-2.25606884042,-3.28799208365,1.53012891584,1.12536695924,-7.07988193091,-5.59707687151,-1.90504376261,0.863841290494,-5.81961885803,0.041572116563,-5.37287354463,-1.39248918789,-83.9024938478
off_to_on,-2.56809961812,0.143953949014,-1.90840339462,1.58534055657,2.18149864359,-4.70989534341,-4.75724715453,-0.30967716459,1.08388008487,-1.96822517755,1.25672095254,-2.57483393305,1.21290692385,-117.175354072
off_to_on,-0.483247733547,3.12514703304,0.552830278351,1.38413175072,2.93306943232,-0.508970199701,-2.44762534304,1.75092739315,1.19051990734,2.8544014886,2.52062225437,1.30005605377,3.88765666296,-122.449973419
off_to_on,2.02432447932,5.83713125992,3.42492690984,0.980752532658,3.17441522489,4.37212690238,0.715704207675,3.73127046559,1.16293447963,7.32937270525,3.44161065742,5.17656486259,5.88149719287,-96.4680774951
off_to_on,4.13821149103,7.36708657361,5.77633080711,0.460159509935,2.78515546956,8.46370420677,3.82354886051,5.01803863394,0.984125648436,10.1471431791,3.65064905971,7.89863477274,6.55095402006,-44.5389025694
off_to_on,5.12276116739,7.04657396802,6.72479364231,-0.0807863416787,1.78018731268,10.4324636511,5.94568351851,5.12344798928,0.651836359123,10.4111595271,2.93860264738,8.59079716468,5.57314655238,20.5089633551
off_to_on,4.57387477854,4.70688040271,5.75701763762,-0.55346795906,0.327752184969,9.51597264282,6.41892905547,3.85783260255,0.18989059148,7.92830817022,1.35433390352,6.94577920731,3.07619987082,81.6954713325
off_to_on,2.56611478486,0.790093814681,2.94348991105,-0.894266399465,-1.27566425421,5.7934522218,5.05879693659,1.42119200405,-0.3459423427,3.2900098441,-0.77573508308,3.34203775411,-0.363190886339,122.642692722
off_to_on,-0.355094326185,-3.73270073448,-1.03391578724,-1.07386891471,-2.67130572833,0.199766202543,2.22545478137,-1.6228295623,-0.871882975248,-2.28592184001,-2.92052018146,-1.25151444915,-3.86296999645,132.300370999
off_to_on,-3.33571085316,-7.62170291131,-5.06160952938,-1.0970264325,-3.52868001502,-5.72920068051,-1.27889384826,-4.48962361969,-1.29070120683,-7.30578782875,-4.49181159108,-5.55759116159,-6.48146365611,108.191422746
off_to_on,-5.47782150385,-9.73206514548,-7.92981912242,-0.993432729039,-3.63487045639,-10.3052297053,-4.44995355079,-6.39340334688,-1.51365633542,-10.4343498392,-5.02169048616,-8.37232069911,-7.49222840415,57.155555193
off_to_on,-6.12106306126,-9.36829640584,-8.71699814018,-0.803178909878,-2.95552154744,-12.1928574949,-6.38329772425,-6.77783889127,-1.48351021353,-10.8783273907,-4.31263456404,-8.92660457829,-6.60260927563,-6.66175968873
off_to_on,-5.04980835609,-6.5156087915,-7.09611500749,-0.562049487156,-1.64804479928,-10.8139817658,-6.54360925712,-5.48579702812,-1.19143226801,-8.60200867789,-2.50995778029,-7.11305595965,-4.04641976485,-65.9659691984
off_to_on,-2.56018267866,-1.87080438232,-3.45891551805,-0.292006566067,-0.0218782383192,-6.52599214241,-4.91782665642,-2.81431536913,-0.68227499098,-4.31295874328,-0.0704136649276,-3.50785213886,-0.519961732768,-105.333913373
off_to_on,0.632835843218,3.34229472442,1.18695798481,-0.000338663054897,1.54312387268,-0.518318722527,-2.0068579813,0.563541595366,-0.0462820907771,0.770573109328,2.36567533983,0.817057104696,3.02015848637,-115.554066499
off_to_on,3.61631193474,7.71974768186,5.51837053037,0.312372250404,2.69628787388,5.53981919058,1.33762828254,3.7867720546,0.60050881442,5.2912352045,4.15983017787,4.62895540029,5.63541126088,-95.9774260729
off_to_on,5.55629310421,10.0820107893,8.29961557191,0.638969756453,3.20466368265,9.99096180988,4.17632231762,6.04733536897,1.14158045518,8.14388299477,4.86052451762,6.90828507526,6.67428706916,-54.2225311465
off_to_on,5.94316322909,9.81304383014,8.75891097637,0.953242613575,3.00554730593,11.669353835,5.76076329871,6.81123924495,1.48402978603,8.76710121861,4.33026437699,7.14319472031,5.95003820572,-3.42991803332
off_to_on,4.7306933252,7.03169124279,6.81836540639,1.20478320536,2.2097737295,10.2247273462,5.74108471628,5.95485303101,1.57545895584,7.25323359171,2.77593454678,5.45491709857,3.77527456415,41.9708515207
off_to_on,2.330272113,2.54570174786,3.10568334933,1.32553891834,1.05794778871,6.19642118395,4.24280120475,3.77926923702,1.41041000911,4.25695866908,0.675117109156,2.52105565594,0.847194354513,70.5860529311
off_to_on,-0.531395376663,-2.39389175298,-1.25275226647,1.24816319975,-0.154332121252,0.822999402425,1.79636727125,0.903960990826,1.02646643912,0.746774937799,-1.37572023986,-0.670220850372,-1.97619593603,77.1165158192
off_to_on,-3.04093504163,-6.45993369594,-4.98744103478,0.931370396943,-1.15817836103,-4.3465288016,-0.849744311906,-1.92257051481,0.492917861976,-2.31042113285,-2.84129384725,-3.14896213562,-3.93608174507,63.272900181
off_to_on,-4.5392260987,-8.62521434692,-7.07393239824,0.383762915391,-1.77599894471,-7.91582573447,-2.96694446387,-4.03448156426,-0.103828318065,-4.22792750627,-3.39885900765,-4.2658389114,-4.58794693139,36.4183409374
off_to_on,-4.70119998972,-8.43613581315,-7.03042006457,-0.323387931147,-1.95240010851,-9.03683128085,-4.05805402073,-5.01902995859,-0.674303607533,-4.75820789577,-3.01545333899,-3.87212309523,-3.90829478393,6.56303470713
off_to_on,-3.60459274538,-6.10810238174,-5.03465209797,-1.06145230208,-1.7467685118,-7.62240742853,-3.9787605813,-4.79920306953,-1.13730935694,-4.09551779438,-1.93139729622,-2.32546880632,-2.26641539817,-17.160642639
off_to_on,-1.67507017076,-2.42381576964,-1.83120397154,-1.66946596863,-1.29503145514,-4.32122517192,-2.93861489381,-3.6122596496,-1.42818931865,-2.73954683239,-0.5613252993,-0.329219534204,-0.27822220714,-29.3205683115
off_to_on,0.466367647291,1.524426241,1.53164246297,-1.99378046535,-0.756522153426,-0.274847632657,-1.39209818307,-1.90103273826,-1.50493187295,-1.28098549056,0.650325055856,1.33254001809,1.40481561085,-29.4134342014
off_to_on,2.20028210814,4.66325223645,4.04356784271,-1.93154829332,-0.264284371426,3.25784705548,0.135036071498,-0.160043561425,-1.35307094899,-0.189293614747,1.37020870214,2.07036597626,2.30135161524,-21.2274574125
off_to_on,3.08769580994,6.23683647961,5.04014483519,-1.46469208341,0.106544110483,5.28774405129,1.22154259835,1.21167916882,-0.989414359781,0.326303738729,1.46869509215,1.68235435006,2.23618388863,-10.7446476085
off_to_on,2.97959543359,5.99085054434,4.38167430277,-0.672772538543,0.345480598706,5.37573954109,1.67051665568,2.0066349119,-0.463322746404,0.34385853315,1.03834090943,0.403473557984,1.36847123885,-3.48092313418
off_to_on,2.03113308204,4.19738673902,2.45448500329,0.281007221457,0.490712910326,3.72671316221,1.53876218378,2.23024386891,0.146538184868,0.147430790648,0.338337317811,-1.19883997157,0.110698320316,-2.30338806968
off_to_on,0.625488318728,1.52715272507,0.00619565590378,1.18826456001,0.59947100565,1.07898713849,1.07465593235,2.05062716759,0.741683977412,0.0783297807687,-0.310784794659,-2.44077595252,-1.02815085915,-6.51845275575
off_to_on,-0.761366462097,-1.18015487099,-2.12095291059,1.84812025014,0.716869531329,-1.56532684385,0.594960835342,1.70283029742,1.2196009537,0.379400890594,-0.643462866099,-2.77188751233,-1.61972037122,-12.4984070356
off_to_on,-1.70953432868,-3.17094676179,-3.26611264538,2.11898586781,0.854053005902,-3.27721308041,0.349989806845,1.38585650109,1.4935019345,1.08992602062,-0.537075064546,-1.97204725224,-1.45531973521,-15.5121159969
off_to_on,-1.9730054724,-3.98172833354,-3.14609110665,1.95421366859,0.981980898484,-3.49697972721,0.427188234023,1.18935888706,1.51153442337,2.02605420564,-0.0446376348358,-0.230140975795,-0.604424150196,-11.9734699049
off_to_on,-1.53551480248,-3.53808913149,-1.91496910469,1.41116909214,1.04143424527,-2.1997066095,0.726366411558,1.07316172112,1.27000193976,2.84883143659,0.634370115782,1.91890553966,0.62133911543,-1.1829833673
off_to_on,-0.594715893356,-2.13126313753,-0.0785739887459,0.631512563229,0.964795268311,0.115802513223,1.0121731581,0.902455691239,0.816104446416,3.19099811177,1.23074469894,3.77388579791,1.78161129509,14.1430956914
off_to_on,0.513611000143,-0.292590151325,1.6971483726,-0.200583564605,0.702191006717,2.60405888467,1.02103254586,0.521776700009,0.238426122541,2.79515693864,1.50106278335,4.7008569369,2.45740166281,28.7760509138
off_to_on,1.42406440827,1.38626060581,2.81367097422,-0.908896979315,0.244099116837,4.35498066036,0.580547003622,-0.161803483451,-0.35293269477,1.61491266222,1.30933957225,4.341788196,2.3879755078,36.9658602089
off_to_on,1.84954360127,2.42925081696,2.92733479362,-1.36875352244,-0.365942273737,4.69037059451,-0.304350594824,-1.11780992333,-0.851351532573,-0.154078068846,0.669418959551,2.73063569695,1.55183899221,34.747421685
off_to_on,1.65907199225,2.59818369577,2.04010033256,-1.53123122892,-1.03215533462,3.38301557043,-1.43162689675,-2.17667589686,-1.17684167208,-2.1211521715,-0.262515777127,0.282009181434,0.16927209251,21.6577160043
off_to_on,0.907174725657,1.93294643349,0.473081113213,-1.42248788478,-1.62143740386,0.733155377694,-2.45779056187,-3.06623127788,-1.29093988419,-3.80820980306,-1.23909399031,-2.33960166192,-1.37030014628,1.17397352927
off_to_on,-0.189000406298,0.70865219546,-1.25818673029,-1.12128063349,-1.99004293334,-2.51797157591,-3.01094186161,-3.48980336551,-1.1996642651,-4.78252073396,-1.99722853787,-4.4239179176,-2.62975889302,-20.3384658762
off_to_on,-1.31491049342,-0.667713606504,-2.61818379378,-0.724778209774,-2.0172148267,-5.40851962038,-2.82260568417,-3.22169637675,-0.944810900656,-4.77445755905,-2.33301560386,-5.42495578847,-3.2549224077,-35.8163381448
off_to_on,-2.14660519832,-1.78461508637,-3.21602614322,-0.31585497901,-1.63897652196,-7.04246245179,-1.83248868017,-2.19004505858,-0.587618762838,-3.74762475186,-2.15412800253,-5.11155924744,-3.07452585914,-40.0367240068
off_to_on,-2.437918729,-2.33918612003,-2.91009905347,0.056755562706,-0.874115924879,-6.85652344439,-0.228764513017,-0.520520070831,-0.190997703072,-1.90540709373,-1.49719998726,-3.61566020286,-2.14168539173,-31.5657523357
off_to_on,-2.08516069922,-2.20762055086,-1.82701805207,0.379937473063,0.165479606011,-4.7899479195,1.59233003022,1.47434901779,0.193674669552,0.362938989004,-0.509692156116,-1.3706302503,-0.708476401291,-13.3794805713
off_to_on,-1.15416979799,-1.45979574592,-0.29911049322,0.661395239458,1.28594558788,-1.30948658669,3.13707794081,3.35994298267,0.531596460457,2.57792063249,0.593963949843,1.03286093296,0.854260702371,8.10560404385
off_to_on,0.135927875785,-0.321918303699,1.25053213117,0.907105982786,2.24560389085,2.71537318209,3.96115320894,4.68286143072,0.801480947518,4.28022867419,1.58655652731,3.02251676884,2.16457971262,25.2755416064
off_to_on,1.4676176673,0.896117827621,2.43407213806,1.10236352279,2.8077703597,6.24925774898,3.80652819207,5.08634193387,0.987851063761,5.12908668591,2.27733797777,4.19545303036,2.93146329933,32.046372722
off_to_on,2.50486847007,1.88564338197,2.99727713997,1.20593640993,2.80142569359,8.37163525537,2.68479619471,4.40759184642,1.07393440194,4.96829423227,2.54568923096,4.40183203285,3.02268756998,26.095687883
off_to_on,2.97832450759,2.41399915471,2.86605903862,1.16114947932,2.17423840143,8.52288434411,0.879971237211,2.73093541365,1.03984936965,3.84966581662,2.35525428616,3.74429332117,2.4825640564,9.77902110043
off_to_on,2.75461847288,2.3727990387,2.13699480557,0.920336840715,1.02147352389,6.64910230626,-1.13089761692,0.381445292296,0.868101100242,2.01357696567,1.75059140258,2.50518657176,1.49976006195,-10.6289935289
off_to_on,1.87207098949,1.79205938468,1.02541794697,0.472993998547,-0.421543057314,3.20901628115,-2.81523387518,-2.14158171654,0.554714476433,-0.165777631157,0.841812696591,1.03532911591,0.339958448619,-27.1337078759
off_to_on,0.533046591656,0.821494530932,-0.205300012774,-0.134479251279,-1.82675469697,-0.954705744247,-3.73849716357,-4.27690413014,0.121166983932,-2.25781967081,-0.216924379122,-0.354029722954,-0.73313371965,-32.9050762929
off_to_on,-0.945860853738,-0.312698217764,-1.30939936329,-0.797242868279,-2.85211684536,-4.84068720806,-3.68706370083,-5.53317934667,-0.378974444907,-3.86076575991,-1.25096816637,-1.46152154869,-1.52408932889,-24.8340388439
off_to_on,-2.21347597415,-1.36318685686,-2.10314229026,-1.37216437864,-3.23241302426,-7.54701715873,-2.72364812425,-5.60850509665,-0.863509985736,-4.67925396543,-2.08895344307,-2.21202235201,-1.94167709696,-4.84228192493
off_to_on,-2.97281229259,-2.11573856973,-2.48310198721,-1.71507627089,-2.85650936619,-8.49265602929,-1.15976340114,-4.46775395035,-1.23646210497,-4.58044715641,-2.58632209286,-2.62468430761,-1.99811758447,20.5538027691
off_to_on,-3.05527312521,-2.43100329214,-2.4233896463,-1.72377442622,-1.80663764638,-7.54553827566,0.544533382026,-2.35720184414,-1.41121615495,-3.61776605996,-2.64775117971,-2.7554569199,-1.77769874952,42.3249002871
off_to_on,-2.46024788473,-2.26644633487,-1.96196091046,-1.37243553511,-0.344642248185,-5.02877655352,1.92125379941,0.249157686979,-1.3351887791,-2.01663740179,-2.24601358087,-2.64361582805,-1.39000008331,51.9834061287
off_to_on,-1.3496628294,-1.67604317083,-1.18544618068,-0.725232628366,1.15459762779,-1.61066918594,2.63147002855,2.76025747092,-1.0078747857,-0.12387456569,-1.43303658759,-2.28641586494,-0.926411282515,44.5888740406
off_to_on,6.72509126396e-05,-0.790399345237,-0.217123981906,0.0765383824573,2.30569193902,1.88492180029,2.55700238864,4.60933930039,-0.485655629149,1.66948527802,-0.338421363655,-1.65145491286,-0.435507977315,20.6771071793
off_to_on,1.27394608127,0.21600558866,0.793118289344,0.850788251869,2.82178655231,4.69220157256,1.82034698238,5.39105777126,0.129211805714,3.01487798902,0.847688605606,-0.718848635955,0.0754813869877,-13.5724102785
off_to_on,2.19962630204,1.16162359641,1.68156780097,1.42354033208,2.59689220338,6.28289843409,0.729522173279,4.9592483301,0.712851849953,3.68170142044,1.9068452524,0.468191180612,0.616417507715,-48.0412903457
off_to_on,2.61070574819,1.89014487131,2.29058411809,1.67532177593,1.73512695057,6.46709128733,-0.331868153615,3.4595723678,1.15026347491,3.60248658863,2.63449864965,1.77019369962,1.17956550234,-71.7434407274
off_to_on,2.47544965344,2.29230991387,2.49600812477,1.57083872065,0.516457239444,5.39616246706,-1.03239956088,1.28785840531,1.36294015615,2.87604654738,2.88316062578,2.95531446981,1.71126454379,-76.3024068369
off_to_on,1.88601332463,2.31521318036,2.23699456985,1.16337420207,-0.691317852496,3.47744391142,-1.19690039558,-1.01529052449,1.3255093248,1.72846235792,2.59597282822,3.74563464102,2.10485289302,-58.7298415973
off_to_on,1.01600781062,1.96111443908,1.53902592511,0.573715355177,-1.5468679765,1.23402146671,-0.854069577771,-2.90555633438,1.06703050693,0.444105798366,1.8217067953,3.89436041513,2.22203160196,-22.610013669
off_to_on,0.0636386162551,1.28037639287,0.520313183207,-0.0484311513069,-1.83930745519,-0.844518778545,-0.21394152562,-3.97343137904,0.657714646255,-0.712086437289,0.706657523949,3.26925800973,1.938788216,22.7105407786
off_to_on,-0.799553641239,0.363331002814,-0.624460866197,-0.567431220842,-1.54814200053,-2.41677873458,0.415368735932,-4.04248951349,0.18647353117,-1.55750905868,-0.535144082988,1.91312890527,1.20139015541,64.7106283135
off_to_on,-1.45888017605,-0.66638512271,-1.66222545172,-0.895525675137,-0.839841458753,-3.34110761102,0.742482365109,-3.20103395617,-0.262768598165,-2.02185299168,-1.66635209772,0.0579541519466,0.0716882611348,91.2946663069
off_to_on,-1.86006735017,-1.65811803856,-2.37315559755,-1.00794854942,-0.00288397504997,-3.65800894359,0.599965576175,-1.75995344466,-0.628492499237,-2.13774458559,-2.4747670763,-1.91644098338,-1.25828322627,94.3338539817
off_to_on,-1.99189123655,-2.4443506725,-2.60242683203,-0.936888204795,0.656028619318,-3.5199273707,0.00760859242269,-0.151105154278,-0.878294457448,-1.99959350302,-2.81476173504,-3.57059004725,-2.49421916994,72.0983442983
off_to_on,-1.86162076186,-2.85975166811,-2.29781849646,-0.749125399284,0.91862221866,-3.10038414301,-0.829837569878,1.20217053583,-1.00489249507,-1.70928485974,-2.63309382387,-4.51654295638,-3.30823763698,29.8667338131
off_to_on,-1.47860095097,-2.7715101382,-1.52273092836,-0.517182739515,0.727702849518,-2.51816855617,-1.59031061926,2.00310593846,-1.01547507315,-1.33141523384,-1.9749768335,-4.52027169389,-3.4319394704,-21.4596638983
off_to_on,-0.855825534963,-2.11772718042,-0.441325428585,-0.294900072367,0.200904052665,-1.80368191573,-1.94555061136,2.15325897665,-0.920539999353,-0.876094717548,-0.971136524904,-3.56576229484,-2.74658973232,-68.330774802
off_to_on,-0.029109540027,-0.944043817497,0.719585531282,-0.105418806218,-0.418598627303,-0.916961935192,-1.6790433571,1.75835262059,-0.72778864274,-0.31550902795,0.189590166214,-1.86242422731,-1.34038003937,-98.2558815208
off_to_on,0.917097199775,0.575890119576,1.72124680316,0.0560005110491,-0.856190475884,0.193358844772,-0.771288678423,1.06990165053,-0.443718987369,0.374110923004,1.29559360933,0.20606770509,0.490206318206,-103.201420954
off_to_on,1.83431962052,2.15024812119,2.36328281887,0.207821631789,-0.910540990033,1.51685522305,0.577149715596,0.384845687288,-0.0815785291845,1.16504291094,2.14917378393,2.17685602206,2.30234023687,-81.7443030856
off_to_on,2.52060335956,3.41686422641,2.52232099708,0.364257621274,-0.530899819856,2.92669234365,1.99468539013,-0.0615562028183,0.329011431632,1.94890791056,2.59915138824,3.6206530302,3.61982904434,-39.4137853108
off_to_on,2.76315268705,4.02514740327,2.1721457387,0.521744312168,0.161307644564,4.17055319398,3.04657668713,-0.173069158329,0.736734376608,2.5436490334,2.56552901699,4.24233277334,4.06722437111,12.8345884519
off_to_on,2.40522919855,3.73471049578,1.38403657125,0.655552920918,0.914837781528,4.91812141542,3.36912260418,-0.0145487416301,1.07216394546,2.74066566095,2.0535374589,3.94444607601,3.48559520374,61.5625257825
off_to_on,1.41632934398,2.50297539521,0.310301750738,0.727578767749,1.44003602167,4.85540173369,2.78851246701,0.227231700909,1.26132243973,2.37929779446,1.15513909335,2.84003750129,1.99288164164,94.3933946624
off_to_on,-0.0619400503894,0.531345179317,-0.843813573143,0.701591431162,1.51641818874,3.79767757218,1.38651455607,0.328428004483,1.24596057381,1.422545158,0.0367062884738,1.215061934,-0.033777022726,103.206815873
off_to_on,-1.71824052936,-1.75286991702,-1.85463414948,0.559283852495,1.07729941789,1.78309405986,-0.509048036126,0.126934431722,1.00395119963,0.00362289547168,-1.08721074552,-0.546835811175,-2.0535845346,86.1550545152
off_to_on,-3.13225118066,-3.78457685031,-2.51684841071,0.310391031251,0.240187056472,-0.888574436807,-2.4082955723,-0.401715033037,0.562210544463,-1.5798907699,-1.99191214645,-2.05653790848,-3.51111340972,48.0073643892
off_to_on,-3.88390885234,-5.00293009159,-2.67931141784,-0.00717282655126,-0.729105075604,-3.69272132852,-3.79427330803,-1.12046931826,-0.00352403242471,-2.93076012901,-2.48717738179,-3.00614657416,-3.99645647365,-1.2212192251
off_to_on,-3.68197496377,-5.01118034806,-2.27629527198,-0.337024867607,-1.50686148018,-5.99042868346,-4.26973650175,-1.76984489353,-0.583518216148,-3.6611883242,-2.46016495232,-3.23131095166,-3.36856692961,-48.9548039514
off_to_on,-2.47150173104,-3.70751182109,-1.3492766434,-0.619838204418,-1.82480803116,-7.18728834327,-3.67271752139,-2.058435105,-1.0599181092,-3.5142371435,-1.90637040907,-2.7377719419,-1.80307358461,-83.3266763468
off_to_on,-0.481564724538,-1.34336809587,-0.0530058300085,-0.808624151962,-1.56614636969,-6.89796486464,-2.1269476993,-1.77426183917,-1.33617340699,-2.45784194249,-0.939072271653,-1.68951056961,0.252400363678,-96.1764364113
off_to_on,1.80981586573,1.51629105494,1.36017533579,-0.878313643104,-0.80972826945,-5.06889891693,-0.0123453983073,-0.877480292887,-1.3610723261,-0.71738751321,0.228507555238,-0.363921170709,2.20456186843,-85.0106632848
off_to_on,3.79153152643,4.12823998316,2.58077095555,-0.827012319653,0.194064153465,-2.02065375774,2.13593073345,0.460450231931,-1.14011639557,1.26932261103,1.32759986649,0.914699209686,3.48628316539,-53.4516244992
off_to_on,4.88724805443,5.76921790613,3.3043626562,-0.670049677352,1.1080382334,1.60756494529,3.77094646804,1.88908813383,-0.731129469141,2.96635574164,2.0964918775,1.84890035319,3.72314593101,-10.1022731828
off_to_on,4.72719096917,5.94248458387,3.30510911015,-0.430924292928,1.62426703973,5.00161494196,4.47947197127,2.97694798545,-0.226159193323,3.89174172991,2.34658022496,2.23411080965,2.84468807174,33.8306764958
off_to_on,3.27092016802,4.53156382239,2.50336281873,-0.134156115382,1.57099686209,7.36943633114,4.08934851748,3.34633719922,0.273968037614,3.7620491112,2.01423268221,2.00378099687,1.10659742544,67.4977557802
off_to_on,0.840237686141,1.8523566942,1.00745717931,0.196482500609,0.97287768511,8.14032782367,2.7104052906,2.80227544435,0.684147166264,2.58443549956,1.18292032546,1.24420262336,-0.983138899404,83.1572056125
off_to_on,-1.95277482686,-1.41692694734,-0.887163272196,0.534147602807,0.0432611808864,7.11327354786,0.699915055363,1.41233184404,0.951302549075,0.665915235783,0.0671341506826,0.174955306655,-2.81216195929,77.9976466127
off_to_on,-4.36584983498,-4.41257450815,-2.74896984151,0.842767953055,-0.888962957853,4.51377642814,-1.43545524923,-0.491851537356,1.05876084817,-1.4657098756,-1.04008272767,-0.902464754883,-3.84164263553,54.5851235324
off_to_on,-5.73046171227,-6.32083160404,-4.10543581933,1.07379302769,-1.49270636114,0.942715501372,-3.17266336037,-2.39653846661,1.01949508181,-3.20793417359,-1.84349763448,-1.67826860837,-3.7615506402,19.8735342241
off_to_on,-5.64083606577,-6.60504176031,-4.56200445864,1.17051605055,-1.54901559089,-2.77045121852,-4.10392816498,-3.7499835501,0.862888257395,-4.05474434208,-2.12574094227,-1.91458914028,-2.57823616095,-16.8864077212
off_to_on,-4.0727087158,-5.15859066191,-3.91474170067,1.08152787766,-1.02703913684,-5.77224949163,-4.03313777499,-4.12662453358,0.621386317637,-3.74314024847,-1.80865694119,-1.51311922556,-0.610214017859,-46.7112126477
off_to_on,-1.39682944427,-2.33885880791,-2.22430715407,0.780363848209,-0.0957279126018,-7.3943364679,-3.01452907988,-3.36148208949,0.322472406287,-2.33230052248,-0.977898071428,-0.55165803611,1.60440867348,-63.1864968945
off_to_on,1.71693522186,1.12792373408,0.173781112827,0.284432110745,0.932381230697,-7.31316920975,-1.3275074032,-1.61241175981,-0.011679305355,-0.192407399926,0.137426902552,0.723329113973,3.45988086622,-63.8811902615
off_to_on,4.47729053757,4.34340334334,2.73199168063,-0.33527524372,1.70575270287,-5.61977060635,0.601957920244,0.671279261484,-0.358368311863,2.09375952363,1.22559772016,1.95095429307,4.44926135144,-50.5394605454
off_to_on,6.18044249903,6.47886883335,4.81621026527,-0.960349259939,1.95113887965,-2.78345700782,2.31051477444,2.86746125108,-0.686856517334,3.88872753374,1.97744377714,2.74728607087,4.29854223696,-28.0969304528
off_to_on,6.39224763585,6.99376530401,5.86463262961,-1.44870226468,1.56422767302,0.478407749903,3.40881060284,4.35429510361,-0.954590385261,4.67390901838,2.17234803413,2.81257110271,3.03330693838,-2.91940665826
off_to_on,5.05516319232,5.77127585051,5.53935870875,-1.67109053108,0.644042014709,3.3881496363,3.66863019269,4.68824566916,-1.11098685104,4.19164985596,1.74098201493,2.02587247017,0.963727001177,19.1264550075
off_to_on,2.49451503228,3.13694627642,3.8291231782,-1.55004329939,-0.539094386277,5.30242631622,3.06732858014,3.73524315862,-1.10919598248,2.51815294635,0.786943249509,0.49890540042,-1.40301242038,34.1558270353
off_to_on,-0.672684907606,-0.239413555072,1.07248266472,-1.08840102897,-1.63000084242,5.86299531736,1.78246088565,1.71636273606,-0.922406632656,0.0489086052354,-0.439118426891,-1.43062812099,-3.49511929102,40.8847819358
off_to_on,-3.69739797995,-3.52610315502,-2.10918510801,-0.376682656635,-2.30007194133,5.06628658356,0.141216600906,-0.846145115787,-0.558595917576,-2.59860443551,-1.60604422803,-3.27057144873,-4.81654792145,40.2979657578
off_to_on,-5.88205483529,-5.9429217501,-4.95561158559,0.42536950194,-2.34732963757,3.23757060898,-1.46125956134,-3.26810132152,-0.0673072712938,-4.73937493719,-2.39124190608,-4.4967636523,-5.06021934372,34.6203325194
off_to_on,-6.74105605419,-6.94811804851,-6.75401484931,1.12937490725,-1.7540478808,0.921720645158,-2.6549651295,-4.889275355,0.465671943827,-5.7934375708,-2.56799934351,-4.69637325748,-4.16978611975,26.0830251467
off_to_on,-6.10177189621,-6.35357332215,-7.02085061013,1.56963346526,-0.686060990484,-1.2754177815,-3.17869119592,-5.25417385714,0.935750305371,-5.43411840756,-2.06737727711,-3.69329316342,-2.34098194704,16.0150241582
off_to_on,-4.12790492693,-4.34616222528,-5.6315649207,1.64951679146,0.562749045466,-2.84919762313,-2.93635112191,-4.23770201998,1.24468601287,-3.67615977121,-0.99814235771,-1.61859647983,0.0313748887693,4.62608158144
off_to_on,-1.26737566436,-1.41967265109,-2.86330240152,1.36815389589,1.66035533078,-3.51739253882,-2.01438883353,-2.08133692294,1.32599835601,-0.882497528208,0.380303640489,1.0981689405,2.44381614138,-8.46442209682
off_to_on,1.85649018672,1.7566444353,0.662627375276,0.81859899831,2.33133836434,-3.26980016274,-0.657031161237,0.669569317858,1.16268739207,2.31269108767,1.72442553546,3.82029919486,4.39028592997,-23.2341442085
off_to_on,4.58221160471,4.49522757962,4.12603536327,0.157832750147,2.42799968875,-2.33755024338,0.794827678907,3.30962482637,0.791619748008,5.14802392841,2.69461681044,5.85814828556,5.46261360784,-38.3091978064
off_to_on,6.34592313924,6.23532616486,6.70560665948,-0.441780622176,1.9592968927,-1.09705033585,1.98721714637,5.15892181592,0.293242861928,6.91400962296,3.04165351248,6.64761500813,5.42838658219,-50.5917412022
off_to_on,6.7903118602,6.64752203331,7.77992404544,-0.84379752247,1.0737807487,0.0582097925428,2.63971938997,5.74026903278,-0.229956415531,7.1264691908,2.66930442047,5.90539834194,4.27485070261,-55.7898853224
off_to_on,5.82940480598,5.68288438505,7.08119873109,-0.985124541226,0.0069102272992,0.837083961931,2.61416616598,4.9013445467,-0.67933557076,5.65337968005,1.65755446934,3.71771035579,2.21304363523,-49.8097404166
off_to_on,3.66084541967,3.56555921129,4.76274534165,-0.887756625418,-0.987740626236,1.12548177245,1.94778233933,2.85061826767,-0.982389059311,2.76304083987,0.241391613625,0.535720152518,-0.358503145347,-30.5768605511
off_to_on,0.725633118833,0.737548535371,1.36286955873,-0.641871327871,-1.70207015083,0.996263153552,0.841224571527,0.09939897012,-1.10525809917,-0.921962738159,-1.24845469494,-2.92436658586,-2.92603858073,0.408454922569
off_to_on,-2.37736853637,-2.23026522807,-2.32601606032,-0.367166480138,-2.01556108863,0.655820530248,-0.396714441129,-2.67277933456,-1.05302835383,-4.5591296649,-2.46702142661,-5.85281817061,-4.95877856346,37.4918538862
off_to_on,-5.008308569,-4.74512079135,-5.45025692649,-0.166708826274,-1.90879127271,0.349357789437,-1.43408122856,-4.79263654908,-0.85970466349,-7.2810651065,-3.13799351825,-7.54589697887,-6.0170780565,71.7042639722
off_to_on,-6.61502149164,-6.30166407095,-7.30136195976,-0.0898971828162,-1.45074640732,0.259751055811,-2.00765853163,-5.76139185922,-0.57301131867,-8.4065155649,-3.11747313678,-7.58171549037,-5.84988910104,92.9859489958
off_to_on,-6.84978992572,-6.57789566153,-7.48423757469,-0.11762330248,-0.769042348296,0.436014350954,-1.99574858531,-5.37375503526,-0.240220296236,-7.6154902397,-2.42368186057,-5.92670588341,-4.45926341681,93.2340848277
off_to_on,-5.64962981822,-5.50224452321,-6.00553065795,-0.174590212449,-0.0144270206956,0.776445141142,-1.45002279054,-3.7588779261,0.100193885833,-5.04200803415,-1.22671510132,-2.94530796207,-2.11336198723,69.2272559172
off_to_on,-3.25968668027,-3.27756008533,-3.26107857475,-0.163899160718,0.670933108563,1.07208536338,-0.575817605995,-1.33574687802,0.419423818757,-1.25622441329,0.197352214521,0.688972666557,0.700881911775,24.3944083581
off_to_on,-0.189323150187,-0.352249100669,0.0724571351936,-0.010926237956,1.17609064218,1.09465412321,0.334412481865,1.30204713467,0.693601463011,2.86495485017,1.53505577338,4.1573278482,3.38001007033,-31.3288844638
off_to_on,2.89474370646,2.66252339618,3.2120898783,0.299963115386,1.43388296584,0.696844581664,0.994863711502,3.53954874461,0.897787165652,6.34991749067,2.50889869901,6.69164509918,5.34039559197,-83.7418044011
off_to_on,5.31752952655,5.11839707021,5.46284215995,0.709940815326,1.42508728442,-0.112496098088,1.21816614322,4.89069709498,1.00335387367,8.37430485558,2.93737997062,7.75313088001,6.15624567006,-118.20957955
off_to_on,6.55309918505,6.4740595393,6.38144475964,1.09817085033,1.17631886731,-1.14812200025,0.975313294744,5.10741897738,0.981628551933,8.46952153764,2.76808320927,7.15013726341,5.6632448696,-123.99659345
off_to_on,6.35065246088,6.42489649242,5.86831760719,1.31904513542,0.752845691006,-2.09442087604,0.403044681664,4.22218743077,0.813451636975,6.64116276826,2.07796048071,5.06894098857,3.99870082496,-97.7552719091
off_to_on,4.7951915709,4.98356700571,4.16708926061,1.25219596839,0.246400174563,-2.6057760126,-0.245374123082,2.51763911369,0.50110215397,3.36397473157,1.04373101483,2.01426864798,1.56533041942,-45.0005307021
off_to_on,2.28435386253,2.48605877319,1.77651909652,0.848460546668,-0.241921339411,-2.42909148471,-0.691055231246,0.436523759224,0.0772032006431,-0.546266789132,-0.107295095588,-1.32111917631,-1.07285259848,21.0230861963
off_to_on,-0.574545288325,-0.484027486216,-0.696660300583,0.155843413471,-0.622085545323,-1.50632597666,-0.732179047191,-1.53979574524,-0.3943827212,-4.14890793139,-1.15162240872,-4.22231397402,-3.33422882782,82.8678952539
off_to_on,-3.12052784213,-3.23747860151,-2.70046620667,-0.684219284013,-0.834984162245,-0.0190753350955,-0.323005544456,-3.00980161274,-0.828082330301,-6.62240897038,-1.91510537415,-6.11205455755,-4.76265387538,123.813089263
off_to_on,-4.80551634446,-5.1519196317,-3.87030811602,-1.47046424484,-0.866121364202,1.64512165877,0.39989716812,-3.73647423416,-1.13515274884,-7.46827940583,-2.29968076082,-6.66758718727,-5.13007316717,132.722440907
off_to_on,-5.32543261989,-5.82788133879,-4.09705217829,-1.99583129881,-0.747774307489,2.99940427454,1.1564795645,-3.67949133541,-1.24621384134,-6.61947130381,-2.28793216713,-5.87110806302,-4.47161180544,107.330932089
off_to_on,-4.6802110936,-5.18444928144,-3.51687503398,-2.10591838326,-0.547104337013,3.60648289428,1.6172773602,-2.97281702136,-1.13078000504,-4.42667566878,-1.92890179397,-3.9881192552,-3.04734089845,54.9231836782
off_to_on,-3.1484762809,-3.46713030472,-2.43334275019,-1.74441537489,-0.342458251716,3.22289525353,1.52292749327,-1.86125046644,-0.807295956406,-1.53248560027,-1.31341022631,-1.48540744708,-1.24763226006,-9.82770614782
off_to_on,-1.1883268391,-1.16643644754,-1.2019509622,-0.972071442559,-0.195038493459,1.89049955228,0.788552412783,-0.619783645829,-0.340043842968,1.32394731391,-0.548648214155,1.08691252422,0.524460587075,-69.201248895
off_to_on,0.702560397781,1.1273550271,-0.116807131036,0.0462351369877,-0.126051743759,-0.0579763110319,-0.444899074499,0.518324078406,0.176479985757,3.5105622568,0.260244003874,3.21928502095,1.95555668153,-107.606010333
off_to_on,2.12348359453,2.88860168079,0.664519918825,1.08236999062,-0.108713001461,-2.08572837054,-1.83431272218,1.40505811812,0.641042315883,4.65426929686,1.01845287622,4.54456111011,2.87914025732,-115.993929901
off_to_on,2.8634466265,3.79025105423,1.13719897313,1.9019780931,-0.0797951187647,-3.6073206935,-2.93058850678,1.98492147935,0.96987159703,4.70091891551,1.64162653533,4.89799837366,3.27590158083,-94.1771363291
off_to_on,2.9260201006,3.76885882696,1.40711355687,2.32189853623,0.0318475933229,-4.16566855701,-3.31989650712,2.27133804398,1.11447006046,3.87487393458,2.053557575,4.32720306668,3.226788973,-50.4003378898
off_to_on,2.48578373079,3.0056442897,1.61175989161,2.25291945572,0.269529881202,-3.5747906169,-2.76560543463,2.30752009138,1.06837398718,2.56223474178,2.18784233271,3.05576943447,2.84476034576,1.59388304933
off_to_on,1.79822141249,1.83637013638,1.83754867696,1.71772844845,0.619649253468,-1.98203267002,-1.30365427855,2.13063783823,0.86210211602,1.16433475659,1.9974403914,1.41403503485,2.21681229974,46.9834355029
off_to_on,1.09868457763,0.625444332961,2.0670668916,0.841171392226,1.0022180353,0.171578294139,0.743003227824,1.75435018447,0.549434648985,-0.0264313248603,1.47132492455,-0.24402266801,1.38074408358,74.3145571067
off_to_on,0.526717995035,-0.350661645732,2.17771648415,-0.182745171675,1.28776681358,2.2816968298,2.84042921708,1.17550137772,0.190651239788,-0.889097229336,0.65243318984,-1.61783350272,0.344281924024,78.5830451657
off_to_on,0.0999723615776,-0.971912103039,1.99313276226,-1.13732602319,1.33780548263,3.76123245042,4.39084395696,0.39978627455,-0.161400640375,-1.46114928185,-0.351898142241,-2.51478235937,-0.865577083565,62.0659112371
off_to_on,-0.25806994101,-1.27608887636,1.36806288856,-1.83117052471,1.05651461287,4.21425307185,4.90796334911,-0.527300557975,-0.468476770185,-1.86507669343,-1.37532858124,-2.87251867303,-2.14984714132,32.8018684649
off_to_on,-0.652752984136,-1.39974403177,0.273473828467,-2.13679339679,0.435576532348,3.54856019477,4.1672716928,-1.5006623647,-0.706648299431,-2.21096245341,-2.21776683954,-2.74761444236,-3.31181077275,1.39624104671
off_to_on,-1.14491045237,-1.48762652446,-1.15322190126,-2.0125366798,-0.425415144111,1.9924938807,2.28442379674,-2.35936650218,-0.861023471488,-2.51837619681,-2.68766674271,-2.27729118185,-4.07904832049,-22.6636705609
off_to_on,-1.70091617886,-1.61007595586,-2.6167695785,-1.50505008216,-1.33338900843,0.0130174632,-0.303689139589,-2.91719921864,-0.919777299376,-2.69085620418,-2.65153450847,-1.62712918425,-4.17470984073,-33.9152479374
off_to_on,-2.18732905463,-1.72309422873,-3.73488614832,-0.733996671422,-2.04991556648,-1.83570808847,-2.95123151937,-3.01236497679,-0.871592559138,-2.55379128372,-2.07631052134,-0.940518950948,-3.41769667075,-32.1376244247
off_to_on,-2.41333797338,-1.68765163023,-4.15181966103,0.136159016138,-2.35981661566,-3.0821025404,-4.97692720901,-2.56033245526,-0.708553914777,-1.94026104986,-1.05029395138,-0.304346380213,-1.81578175367,-21.6171210067
off_to_on,-2.20527191115,-1.34026484309,-3.65820694067,0.930766227566,-2.13893747783,-3.46979076515,-5.84858724758,-1.59122076449,-0.433534586358,-0.789330650309,0.226700902195,0.259844452281,0.38708332037,-8.90137755344
off_to_on,-1.48463363781,-0.585411125398,-2.27596116937,1.49924722437,-1.39867697828,-3.01211172684,-5.32597825673,-0.257336792771,-0.0684814377079,0.785041445751,1.4845176692,0.778020233461,2.73585731628,0.0123250885264
off_to_on,-0.319103496649,0.52978125695,-0.276427754876,1.74302021748,-0.291539332851,-1.95570777857,-3.52271320518,1.19396014386,0.34110059254,2.48656047379,2.44596695257,1.28672702862,4.66486218067,1.971386339
off_to_on,1.07466172764,1.79282465003,1.87895203209,1.63252299745,0.925699865016,-0.672126806705,-0.872355563063,2.47544712302,0.729202402525,3.90042147537,2.89558157338,1.79149572104,5.64953230971,-2.37606254707
off_to_on,2.38042811373,2.87039321923,3.66068165948,1.21059966714,1.96081314432,0.479559515287,1.98840857146,3.32748066347,1.02092013714,4.61160357385,2.73454815549,2.23761944465,5.36467824909,-9.23480636339
off_to_on,3.26934325083,3.40953231239,4.61977217082,0.58166651333,2.56601952581,1.26816635528,4.38436450643,3.57822138331,1.15019595067,4.33963291479,2.00596282847,2.50730854152,3.79801218032,-13.5733393338
off_to_on,3.49645969284,3.16206806768,4.51684212561,-0.11151066043,2.60450559508,1.6436585014,5.76825481017,3.18013805728,1.07846794007,3.04377291061,0.883040695402,2.44888282245,1.27859454322,-11.4735078198
off_to_on,2.97539542153,2.08738758739,3.39110831736,-0.719135300625,2.0837176279,1.71339002551,5.84633715945,2.21455057795,0.808004549464,0.960708213058,-0.376220615932,1.93217016551,-1.59478757907,-1.96067010611
off_to_on,1.80714575152,0.393660666429,1.54748230956,-1.11745606622,1.1466437094,1.65673191387,4.63475260243,0.866269901441,0.384974069845,-1.44172330857,-1.49467802881,0.913241575223,-4.1086550542,12.4156354389
off_to_on,0.254433212829,-1.5025460717,-0.533898654239,-1.23625377712,0.0259024852557,1.61735440137,2.43900155429,-0.621108391278,-0.109533634374,-3.58377966853,-2.24325369946,-0.51498027811,-5.62927000842,26.4786710852
off_to_on,-1.32933703905,-3.09024095331,-2.33677895554,-1.07399676673,-1.02315379023,1.62076289683,-0.231219917259,-1.99490034101,-0.578375783402,-4.9311388897,-2.49144396302,-2.10881393493,-5.77871245317,34.4463417478
off_to_on,-2.59361239777,-3.91719306604,-3.45274553968,-0.696367770341,-1.7887311781,1.55414751092,-2.78565977516,-3.03541298844,-0.931670745784,-5.1429681736,-2.22887311865,-3.50998078849,-4.5395340678,32.2854362769
off_to_on,-3.27827858868,-3.73280804633,-3.68598388649,-0.217823999159,-2.14883491649,1.21996196264,-4.68430069489,-3.58365479687,-1.10767147609,-4.16640216556,-1.55500085044,-4.32967649579,-2.25664172123,19.4717871689
off_to_on,-3.27088749569,-2.5728379906,-3.08888694592,0.229598452864,-2.086452433,0.443533348091,-5.54714513861,-3.55485233124,-1.0852276034,-2.2500979845,-0.643533614107,-4.26109862452,0.46331575881,-0.550122672922
off_to_on,-2.62055927221,-0.756282165221,-1.92198367809,0.532190203848,-1.67398432687,-0.809542207946,-5.22356774245,-2.94270037886,-0.884775089725,0.125462320949,0.30548973811,-3.18775820954,2.92363409013,-21.4246852204
off_to_on,-1.50989075224,1.20651207324,-0.55619896732,0.625305552115,-1.03716920247,-2.35847322467,-3.81247041354,-1.81983873835,-0.558608747883,2.37858913808,1.11141034615,-1.25099247181,4.52825465786,-36.1008376821
off_to_on,-0.198258067816,2.7662271691,0.647177914001,0.510023430002,-0.313867682494,-3.81449637136,-1.63408928198,-0.33656668982,-0.174523666804,3.97899721898,1.64521909485,1.15183115557,4.93562354888,-39.4010312818
off_to_on,1.04403931432,3.49915214384,1.43882677571,0.250568776027,0.378025851418,-4.6804200229,0.838566354883,1.28548097258,0.201410066985,4.57954738842,1.84351656601,3.4480406706,4.13346949252,-29.9893741797
off_to_on,1.99244575902,3.23181248343,1.73513886505,-0.0471061935025,0.955515806809,-4.51653142496,3.07590311258,2.77172675311,0.517656248543,4.09314094655,1.70603167523,5.0343129467,2.4181477897,-10.989293088
off_to_on,2.50396163082,2.08689501985,1.61142486109,-0.269438048401,1.36865599485,-3.11759764302,4.59954498917,3.83150781987,0.742638411129,2.69861919608,1.28308984613,5.44757989822,0.291460390851,11.0138594505
off_to_on,2.52929569838,0.437613715919,1.2443070392,-0.33182190904,1.58924489752,-0.634857482178,5.08333219844,4.21386519432,0.862963538961,0.780043982248,0.660313600971,4.51168692833,-1.68895898008,28.2604242965
off_to_on,2.10591411461,-1.21280388611,0.829620302437,-0.206332972749,1.60013757593,2.40998617574,4.42799017798,3.77325329313,0.877330149928,-1.17934414468,-0.0546547009344,2.41171393873,-3.05934200673,34.5906554546
off_to_on,1.33995018551,-2.38655131459,0.508110971715,0.0682397421047,1.39295922702,5.23779756875,2.79154280685,2.52706717938,0.790234754907,-2.7181779351,-0.742786950137,-0.333732196155,-3.55795933355,27.7090810374
off_to_on,0.384029393717,-2.77209252563,0.325071512081,0.397556902325,0.976054967151,7.0272286186,0.563500934455,0.682801421978,0.608940798992,-3.50283445122,-1.28451996678,-3.00215647055,-3.16694840347,10.1080496083
off_to_on,-0.585536711146,-2.30770246097,0.234797143859,0.66101642013,0.387811425446,7.16878262684,-1.71819986535,-1.38313278451,0.345024836904,-3.39550047597,-1.57454117839,-4.86633399782,-2.08519219216,-11.7132183544
off_to_on,-1.39236397004,-1.18512619595,0.142611455282,0.75033030883,-0.293776862108,5.47540239356,-3.49402149063,-3.20013362657,0.0191499020202,-2.4733429965,-1.54185787035,-5.40620106942,-0.649645621844,-29.4937037974
off_to_on,-1.88590971112,0.222966893859,-0.0368285857972,0.605473586151,-0.954166326109,2.2758032534,-4.32549478572,-4.31892151114,-0.334284444674,-0.99947634294,-1.17194792649,-4.46888928162,0.765706107764,-36.1528755282
off_to_on,-1.96930886003,1.48460679806,-0.331052057859,0.236709379751,-1.46196204871,-1.64858324027,-4.01654689521,-4.43809643134,-0.666410396726,0.644248411828,-0.523355354428,-2.32480566581,1.84297330493,-28.4015287632
off_to_on,-1.62471008192,2.23886782527,-0.691427065195,-0.274437125783,-1.70179292164,-5.27214108699,-2.67674751496,-3.50279965376,-0.919522703693,2.04682762269,0.270669509323,0.402341094039,2.38341883194,-8.08970508528
off_to_on,-0.927910599789,2.29510438159,-1.01160594945,-0.795964213563,-1.61004025387,-7.61930649758,-0.702026743536,-1.73994144498,-1.03888322865,2.86181539369,1.02234252387,2.91495613973,2.3313147269,18.2153656384
off_to_on,-0.0432543453636,1.67424851364,-1.17363062681,-1.18199359469,-1.19997269701,-8.05393190188,1.32932839703,0.388914620138,-0.987658421847,2.88702972841,1.53149365703,4.47856159291,1.76212717979,41.3225717154
off_to_on,0.806555328778,0.58551914423,-1.10102686881,-1.31443195586,-0.565141899744,-6.47165171116,2.82130020746,2.31039402955,-0.760065970073,2.11426687595,1.64111184667,4.64442998035,0.846757199466,52.5041131246
off_to_on,1.39332776114,-0.647940993956,-0.795493367171,-1.1374514921,0.142908861367,-3.33229249687,3.33941517086,3.50504293897,-0.387729106474,0.73727152831,1.29030997694,3.38813005641,-0.194304886125,46.5464312714
off_to_on,1.54728165573,-1.68730484413,-0.340860382165,-0.674778467751,0.757091668676,0.479825753762,2.74942245486,3.66557928025,0.0638934292167,-0.887055594446,0.546062509884,1.11896892909,-1.13591768418,23.7284917358
off_to_on,1.21329838318,-2.26940850416,0.128106171149,-0.0249623006414,1.14379279585,3.92413565213,1.26828252496,2.79560541645,0.508938492938,-2.31997718895,-0.400917398993,-1.44481971691,-1.78636293207,-9.96619428011
off_to_on,0.479568480965,-2.26680292072,0.479450030458,0.663730258696,1.24157997488,6.11515998762,-0.59484937541,1.2129331628,0.861001321779,-3.14986427027,-1.28055302179,-3.49780739179,-2.01676816085,-44.5207644352
off_to_on,-0.435292661316,-1.70493672457,0.63773977681,1.23138917216,1.07574240898,6.57770149069,-2.19536172256,-0.54847670485,1.05371158586,-3.10429392848,-1.81893822867,-4.39735498086,-1.78157073054,-68.9380051415
off_to_on,-1.23833787581,-0.739034689809,0.614458215601,1.546735415,0.743280821913,5.36581217932,-2.9619568152,-1.90997519943,1.05595367856,-2.13574502909,-1.82383372159,-3.86342409914,-1.12861641627,-74.7174696359
off_to_on,-1.6485610853,0.396126525587,0.500836254164,1.53873632588,0.373804670069,3.01119677214,-2.59120428706,-2.43867517958,0.87739359499,-0.45379770261,-1.25285610254,-2.06513051172,-0.195572323533,-58.6525548773
off_to_on,-1.48831438515,1.44599159152,0.424322858109,1.2117058101,0.0808730904701,0.323485567599,-1.16208566144,-1.99338427761,0.563158977323,1.5120296546,-0.239953355999,0.433300912484,0.811047137563,-24.0511295075
off_to_on,-0.75023928239,2.18997818055,0.48555923846,0.641032907362,-0.077941647992,-1.88666600564,0.872354671321,-0.774947049353,0.179995997899,3.21637254801,0.932543153315,2.84984189536,1.6552140234,20.0254130694
off_to_on,0.384673986502,2.47969044356,0.7022381231,-0.0479328143832,-0.11718463978,-3.06687999658,2.82011524168,0.739336706351,-0.201250734914,4.14594095958,1.91180017818,4.42877769658,2.12438063087,61.2946945623
off_to_on,1.58815616708,2.25889075881,0.985375249589,-0.711125803467,-0.109831021313,-3.07876801265,3.97325713623,1.9583902483,-0.521283950501,3.97168654242,2.38069778295,4.67435918524,2.08485296903,87.803402086
off_to_on,2.47632675979,1.5672660271,1.16205347285,-1.21851414628,-0.149340475022,-2.20202749429,3.8481235667,2.38407700406,-0.741846273178,2.65960129787,2.15974458987,3.50086154676,1.52387478502,91.4347229708
off_to_on,2.72615179325,0.531469470726,1.04058151941,-1.48037226304,-0.302651978162,-0.992578683551,2.36261061891,1.7917971039,-0.847444996638,0.502509109139,1.27134586066,1.25347823191,0.563311925134,70.3330510533
off_to_on,2.18112409905,-0.65424322003,0.496037718408,-1.46178200776,-0.573237007774,-0.0509854085173,-0.112239257656,0.321479749976,-0.840664537897,-1.94367492354,-0.0564378687579,-1.40381229634,-0.56364396944,29.5369468801
off_to_on,0.912060557053,-1.75723255264,-0.456535377482,-1.18375044531,-0.889874650202,0.212660086547,-2.84947183416,-1.555546689,-0.734544585206,-4.00708606988,-1.45080241464,-3.69520201457,-1.57027999997,-20.3550674031
off_to_on,-0.788396699603,-2.54523148309,-1.63274620127,-0.71281898539,-1.12714370785,-0.267905029124,-4.98630397143,-3.1864574567,-0.546007437049,-5.0909842013,-2.50299919419,-4.96786652815,-2.19424090589,-66.0897669792
off_to_on,-2.47887199791,-2.8319339061,-2.71110809748,-0.143385213481,-1.15132902844,-1.1978078986,-5.79883270489,-3.95570490642,-0.293111370357,-4.85257391003,-2.89205008368,-4.88119842546,-2.27268598525,-95.3982160161
off_to_on,-3.69010364802,-2.52232659673,-3.32307562976,0.422269831193,-0.87518258072,-2.04423234433,-4.94247736385,-3.49967910883,0.00341298338886,-3.31374593553,-2.48458312652,-3.49422810922,-1.79078070628,-100.34227366
off_to_on,-4.05842117525,-1.64645595199,-3.17486686448,0.891932865635,-0.300745866843,-2.25364085412,-2.57790200436,-1.84375578771,0.316282387061,-0.866452239655,-1.37877574859,-1.22942029457,-0.886810206396,-79.4488292642
off_to_on,-3.43228411726,-0.368993470748,-2.16069436421,1.19664811369,0.467013431815,-1.4825703287,0.661997298196,0.587010972303,0.608800474295,1.83292326046,0.122217077938,1.26923807585,0.189161510257,-38.0705890214
off_to_on,-1.92017696487,1.03450768483,-0.426223719382,1.2981731958,1.24283876046,0.243616336897,3.85692779799,3.0903571188,0.836201650175,4.05092089915,1.59959350265,3.33407507232,1.15068455086,13.0881876789
off_to_on,0.134230817631,2.23531170677,1.64497310662,1.19109488931,1.81409564056,2.50430860003,6.07865591992,4.90432775044,0.952643594735,5.19009509683,2.64323988901,4.46364872323,1.76019282158,60.8454850208
off_to_on,2.24205230433,2.93260262824,3.5246021192,0.900672492955,2.00676515775,4.60306724371,6.67616377412,5.44924975182,0.922691511899,4.96249963936,2.97230809492,4.44814243795,1.89634700923,93.0186955106
off_to_on,3.89774321722,2.9373831278,4.68796874155,0.477513286893,1.74219412428,5.79467879735,5.4751253447,4.51474032436,0.733756569699,3.46985679089,2.51484971714,3.39841659841,1.58174302592,101.574090868
off_to_on,4.70933232463,2.23382783571,4.77265952301,-0.0101117005604,1.06512224913,5.54309280342,2.82812665216,2.33029063276,0.404817352627,1.16589100127,1.42284818364,1.67978089305,0.963098668008,84.6327688215
off_to_on,4.49440092302,0.996119861246,3.69675899199,-0.485759602092,0.133305520598,3.72149181908,-0.49916156135,-0.503428263428,-0.0125770190534,-1.2863566017,0.019848699075,-0.21891889557,0.252648240805,46.8406427811
off_to_on,3.31741495893,-0.449646700541,1.69664103566,-0.875520354851,-0.827777906703,0.684349288167,-3.56731164262,-3.19935529663,-0.442697636279,-3.21624796404,-1.300400354,-1.83360756741,-0.34717219214,-1.95118825425
off_to_on,1.46195535877,-1.71218493605,-0.730933519511,-1.11896381491,-1.58990069169,-2.81602195815,-5.54943623474,-5.02397243392,-0.801923138374,-4.14230829073,-2.1912476552,-2.84385367192,-0.708490246502,-49.3121417013
off_to_on,-0.650085442846,-2.44743826157,-2.96709810752,-1.17884516595,-1.98534795663,-5.84398797705,-5.97252023508,-5.51460315938,-1.01857391538,-3.90306415129,-2.4498285395,-3.1311793161,-0.809835582789,-83.455527927
off_to_on,-2.5667547604,-2.46317841194,-4.44790593006,-1.04775190638,-1.94856910717,-7.55822686785,-4.83906264901,-4.60572029276,-1.05049061581,-2.68380267688,-2.06490912999,-2.76958618139,-0.725709370153,-96.2168467924
off_to_on,-3.91121344058,-1.78192989237,-4.82532861761,-0.750015744701,-1.52464258805,-7.46400274009,-2.59568788787,-2.62776882657,-0.895076046037,-0.935730022101,-1.2045336025,-1.96401084129,-0.580746971613,-85.0285818154
off_to_on,-4.45754821312,-0.639404273812,-4.06210506216,-0.33794585643,-0.844837248323,-5.56055302025,0.0335842648842,-0.184897701498,-0.588861871584,0.781348117158,-0.151624761666,-0.966516709582,-0.488529711019,-53.4093857319
off_to_on,-4.1620816063,0.584832724628,-2.43140426638,0.11735455558,-0.080496607944,-2.33887349082,2.2885016284,2.04296542288,-0.196996753514,1.97860353884,0.788695822466,-0.0014893876291,-0.500284924817,-9.87997933458
off_to_on,-3.14894641922,1.48570842235,-0.422894014082,0.538981660092,0.60741226409,1.36632301349,3.60614865962,3.50613431699,0.20380890404,2.38155526506,1.37940162287,0.778783102508,-0.583992862903,34.3719495986
off_to_on,-1.66089334612,1.7640244388,1.4131696266,0.858372694602,1.10635830489,4.62090419804,3.77214358484,3.93325770935,0.543507428973,1.99401285246,1.51223473731,1.30259933012,-0.641740620296,68.4361086227
off_to_on,0.0065495905135,1.32857729261,2.6327672674,1.02753663741,1.36778920131,6.65410318874,2.94661199247,3.37898399726,0.772798524746,1.06806450873,1.22334848761,1.56062147418,-0.55755658951,84.4455160224
off_to_on,1.56865184511,0.33407485182,3.02233160569,1.02674088453,1.39963619874,7.05988150183,1.56665195451,2.16497644439,0.869623477395,-0.00266791867807,0.664131470343,1.57812345717,-0.255576030304,79.4419133663
off_to_on,2.79856934952,-0.860794591401,2.6420573226,0.866170181701,1.24390591114,5.88034265359,0.16832306478,0.743914990401,0.837502780166,-0.825395243476,0.0413757022021,1.3938053421,0.255900451663,55.8779422197
off_to_on,3.55148106217,-1.80534565392,1.77768102026,0.581606362416,0.951841999538,3.55463697857,-0.804778331559,-0.460773022002,0.697945783433,-1.13661896683,-0.451177270536,1.05297432193,0.873408800445,20.6753131346
off_to_on,3.76715778874,-2.10568007782,0.82083209403,0.225629123126,0.567811886225,0.75943659609,-1.13989090025,-1.18349946913,0.480836942763,-0.876000411313,-0.688003052845,0.612218972967,1.42625116979,-16.8435645562
off_to_on,3.45785183027,-1.56334514403,0.121491452259,-0.143220388216,0.127080064365,-1.8016003688,-0.897508727155,-1.3738422067,0.216709606071,-0.186746971294,-0.638887510127,0.145150352855,1.7337077949,-47.5313202631
off_to_on,2.6903264569,-0.257923753167,-0.135559381579,-0.470690898212,-0.335104222109,-3.59126527043,-0.351850612939,-1.17176457001,-0.0667203879719,0.650195931163,-0.364017249487,-0.261973597182,1.67008446245,-64.7610914874
off_to_on,1.56937008419,1.45648684375,0.0121918255783,-0.71443822417,-0.77160160133,-4.35888044097,0.140215857512,-0.819806397238,-0.343743659441,1.3197055534,0.0164017094562,-0.529649843794,1.21274010377,-65.902681704
off_to_on,0.226503126766,3.04471515447,0.333118154581,-0.848032994004,-1.11861621012,-4.15950196554,0.288339492351,-0.551645632446,-0.587694797494,1.57608714731,0.364833539528,-0.614427020366,0.454588536955,-52.574781853
off_to_on,-1.1865150145,3.94915794821,0.503534067291,-0.86155590108,-1.30438654197,-3.27950948536,-0.0198671451656,-0.500611368701,-0.76899070669,1.31363552543,0.567025511578,-0.534410415865,-0.423821830119,-29.7001302159
off_to_on,-2.50281821281,3.76709385748,0.246524737458,-0.759845788504,-1.27057028793,-2.10477211074,-0.683080154952,-0.659631282117,-0.856808722488,0.586377410564,0.559760640694,-0.375026097593,-1.2120577358,-3.7491260973
off_to_on,-3.54874113715,2.39211871386,-0.542815667459,-0.559768536341,-0.998278106552,-0.981683706025,-1.43396268865,-0.901595547506,-0.825218214063,-0.421527310642,0.34116439743,-0.265190246745,-1.73555198045,19.2201413142
off_to_on,-4.15884604858,0.0738307829872,-1.73195984298,-0.287579645386,-0.526669501383,-0.117434787255,-1.94718444459,-1.04550797321,-0.662223820534,-1.45750453003,-0.0349884050692,-0.326648976851,-1.90498415239,35.10057509
off_to_on,-4.19862284997,-2.62698961382,-2.97155532731,0.0232403593163,0.0466408258976,0.452953872158,-1.96438292552,-0.938046497562,-0.378309594093,-2.27019275783,-0.475779380714,-0.613206519676,-1.73203263524,42.4183217078
off_to_on,-3.59247839719,-4.97966747255,-3.79906552859,0.334044258304,0.587558235576,0.831252589287,-1.38967886571,-0.517534633969,-0.0105306626389,-2.66573595688,-0.87055210903,-1.0653778231,-1.30809064732,42.0507940916
off_to_on,-2.3514850227,-6.28408452275,-3.79374698152,0.60377789366,0.964757320606,1.17432335096,-0.323439732765,0.162371481411,0.380699223244,-2.53953921586,-1.11284643842,-1.50474022048,-0.757480270886,36.2208083003
off_to_on,-0.593250256738,-6.07410108175,-2.73263624929,0.793161352401,1.09292377648,1.60170025202,0.973303343362,0.953960432476,0.722570924722,-1.88399261389,-1.12066593738,-1.67985314614,-0.186612513097,27.2515532172
off_to_on,1.45414043504,-4.26503295168,-0.694888107741,0.870395786772,0.963330732626,2.12807220201,2.16598523258,1.66848295539,0.94621029893,-0.780667182875,-0.854104007179,-1.35575894268,0.348675363121,16.6198111149
off_to_on,3.47045448593,-1.20072383622,1.92332253875,0.817590098352,0.648409495598,2.64417106576,2.95076985031,2.13703698971,1.0038150467,0.613233829668,-0.328912338325,-0.419148965648,0.8441058028,4.68748094634
off_to_on,5.08637149979,2.41666902728,4.49371363469,0.636282349426,0.276198308325,2.95064934238,3.13912861417,2.25568598869,0.881374604492,2.07927524032,0.376990790011,1.04038234045,1.31745272877,-8.81599760964
off_to_on,5.94803599241,5.69824703776,6.31972756508,0.350092368603,-0.0176455504144,2.83083622576,2.69730798198,2.00115120941,0.602907727292,3.35554870147,1.12835144905,2.71002355252,1.76421109757,-23.8266579847
off_to_on,5.79336191989,7.79670080956,6.83310374088,0.00292380215953,-0.142861549593,2.13593181967,1.73475637803,1.41795909941,0.224758531404,4.16529794529,1.7524002289,4.11376495801,2.12214953805,-38.9964802234
off_to_on,4.52458256639,8.13040166676,5.76563279128,-0.347785509113,-0.0917351379535,0.853546693591,0.454800109749,0.590233596098,-0.178369673127,4.26279815977,2.07396111128,4.74446182993,2.26622441887,-51.2955541584
off_to_on,2.25840577288,6.54270906211,3.24455382321,-0.641786116336,0.0558315256706,-0.862735451507,-0.907767185563,-0.384026069276,-0.531406619161,3.49502947272,1.9606504031,4.23144914207,2.04317071417,-56.5034548521
off_to_on,-0.663654025361,3.35304336374,-0.21842169785,-0.828345554077,0.163921342946,-2.71213247311,-2.13774361855,-1.40307426687,-0.775616041633,1.86616276277,1.36726380158,2.48916443875,1.33749548569,-50.5652020782
off_to_on,-3.71575770451,-0.714828291039,-3.84404434513,-0.87703396489,0.0990304649511,-4.30868213269,-3.06525790765,-2.35429585902,-0.879423881228,-0.417747862143,0.365154642994,-0.207839081851,0.144644626309,-31.3930756003
off_to_on,-6.27889990187,-4.70915821258,-6.77780280069,-0.783989450386,-0.20624207664,-5.26986398154,-3.56730358541,-3.10050399876,-0.841015722355,-2.94850753248,-0.856313309451,-3.25844904518,-1.38032879745,-0.426223656635
off_to_on,-7.76898268012,-7.68552725994,-8.30579362863,-0.571846133694,-0.709937891643,-5.30929812967,-3.55857548832,-3.4771689923,-0.683194109843,-5.17591354138,-2.02265267974,-5.8781012923,-2.92528919477,36.7634069463
off_to_on,-7.77547277162,-8.94025667163,-8.03627582142,-0.283337854801,-1.25792146412,-4.31135051112,-2.98904542272,-3.31542048144,-0.443402943291,-6.52604246956,-2.83759102375,-7.31517347701,-4.08484340615,71.2714851544
off_to_on,-6.17682043717,-8.18220991889,-5.9991377231,0.0294962003547,-1.62745214616,-2.37082508696,-1.85945867405,-2.4937974562,-0.162963450166,-6.55339764174,-3.06209559938,-7.07685439695,-4.47287004846,93.0489156532
off_to_on,-3.19965581141,-5.60003347713,-2.63851035737,0.317240828642,-1.60548234427,0.210921949826,-0.252564587525,-1.00539945457,0.120897995661,-5.08494672039,-2.58683456596,-5.09309037435,-3.85065147505,93.9297325178
off_to_on,0.600830366337,-1.80951878861,1.29730298311,0.542642536369,-1.07535490958,2.97331987904,1.63603575632,0.986315361709,0.378408638333,-2.30854199135,-1.47496532009,-1.76328347142,-2.22727822354,70.5613926252
off_to_on,4.44354535734,2.30323454311,4.93779613239,0.685176740891,-0.0796851940256,5.37933675217,3.49084790507,3.13342185543,0.586432070853,1.23111833226,0.0409448374722,2.13430378723,0.10621800959,26.2050732579
off_to_on,7.48938935104,5.80099468569,7.4961682885,0.739925199946,1.16701841481,6.91934791768,4.91273382365,4.95183551902,0.725719001731,4.74061356422,1.61096232091,5.64731453762,2.62833231773,-29.3599177293
off_to_on,9.0369702535,7.92037487685,8.44752283998,0.712160025797,2.32633894722,7.21754090314,5.50292136186,5.93194196118,0.779096889656,7.36918593857,2.85659645016,7.90842873912,4.71580785592,-82.0273542661
off_to_on,8.69761695714,8.24637541606,7.637579212,0.610609839734,3.0337047249,6.12034938624,4.97837029854,5.68644995578,0.73269935799,8.43361417875,3.47178401696,8.37128889792,5.81451344936,-117.159225174
off_to_on,6.50274274536,6.79499463208,5.29994968513,0.442788762847,3.01626408862,3.74745910216,3.28379761713,4.09082862252,0.580541219695,7.61177076401,3.30639790373,6.95290812857,5.60107427311,-123.908854392
off_to_on,2.91157086506,3.98730076722,1.98386593562,0.214773978391,2.19176850493,0.490678807647,0.658274156818,1.36619643099,0.330725259503,5.04520972991,2.40700414103,4.04211482846,4.08417501206,-98.7303777388
off_to_on,-1.28772337581,0.526579857228,-1.5843866992,-0.0642697908684,0.713175890947,-3.04529758183,-2.37744078255,-1.93293084763,0.010221952277,1.31603147754,1.00231556134,0.375950257923,1.61192547583,-46.8996277628
off_to_on,-5.1618941194,-2.78573597102,-4.66932973757,-0.374930853803,-1.05987255494,-6.15427099152,-5.12385513555,-5.03564839155,-0.33487758464,-2.69941480684,-0.562165723821,-3.17346698991,-1.21918688715,18.5588794114
off_to_on,-7.85610716513,-5.24584273245,-6.68299032446,-0.681626823423,-2.65770892362,-8.17310820032,-6.87664942611,-7.15134182192,-0.645372720631,-6.0596379307,-1.92009172405,-5.83366527358,-3.72709673946,80.3415789434
off_to_on,-8.79954407998,-6.40521771375,-7.29652260598,-0.932076230918,-3.63724635766,-8.62983049718,-7.12487119039,-7.69151800544,-0.860679674927,-8.00379183299,-2.7814296167,-7.11782006832,-5.32940060764,121.757578345
off_to_on,-7.83935568238,-6.15306335051,-6.48661243641,-1.06482076657,-3.71590607221,-7.36066189701,-5.71290687979,-6.44908192797,-0.933389903459,-8.14294995272,-3.00197387131,-6.91216747425,-5.69518775555,131.576933911
off_to_on,-5.26804572627,-4.70829609849,-4.51333709845,-1.02450921214,-2.85977359151,-4.56502142594,-2.9115991602,-3.67626115604,-0.842324597522,-6.5431143787,-2.60621799793,-5.45017175559,-4.81928132827,107.339032602
off_to_on,-1.73821134861,-2.53052964135,-1.84163409377,-0.781242082996,-1.29692001807,-0.779845698132,0.631012836575,-0.0316460633633,-0.59979584715,-3.68035035029,-1.76033175047,-3.1959509138,-3.00041689521,56.0778988933
off_to_on,1.91082782797,-0.180237977758,0.970720265341,-0.347684140586,0.549194584457,3.22642279307,4.05197563249,3.5926084918,-0.250388284859,-0.287871276723,-0.708090597177,-0.685770072266,-0.735722423797,-7.77942390426
off_to_on,4.86646303078,1.83042208074,3.39147527555,0.212972878873,2.18541275074,6.61907105562,6.50478459992,6.31389997615,0.138798461967,2.85341982151,0.306447298617,1.61641801579,1.43064952034,-66.6970161177
off_to_on,6.53858203077,3.15546419611,5.0136926494,0.793221727517,3.19377134875,8.68373880731,7.39210366815,7.49985817699,0.493783761225,5.11564577845,1.10349255777,3.40634716576,3.05510400834,-105.166119414
off_to_on,6.68680917474,3.67303205588,5.61924075097,1.26256366186,3.34989781402,8.98913098099,6.52966393644,6.93402035117,0.750707023744,6.15854188238,1.60014530583,4.55340658551,3.89404221317,-114.104690672
off_to_on,5.44927421601,3.47426991002,5.19812377162,1.49978889058,2.67856002057,7.48509977339,4.19145553215,4.85777642299,0.869365517521,5.96636677314,1.80499721445,5.05441538942,3.93044626454,-93.1873513814
off_to_on,3.27163237014,2.79461254377,3.92575315478,1.42765911876,1.43118789048,4.51126106052,1.02301480248,1.87944316014,0.839750060102,4.78963053299,1.78288101162,4.9614511171,3.32934131023,-50.4541096296
off_to_on,0.762771273392,1.91491300513,2.10830558516,1.0393941743,-0.00414720374553,0.714289070561,-2.14932609953,-1.21669699601,0.680441414589,3.0242712174,1.60810064097,4.3231244176,2.34748490134,0.574830805781
off_to_on,-1.47764412296,1.06644850982,0.111098238599,0.407679701084,-1.22838407759,-3.10437529074,-4.55348849388,-3.69829852999,0.430350325968,1.07705462235,1.3269874713,3.16707384124,1.23529693861,45.2672348212
off_to_on,-3.00999442907,0.369615477631,-1.71397972407,-0.328492634866,-1.9507667123,-6.17121674881,-5.67901905431,-5.0780866161,0.137184162192,-0.736447385501,0.944900953237,1.52879379577,0.166963795526,72.2875517834
off_to_on,-3.64417049133,-0.177179349509,-3.08814873859,-0.99720720248,-2.06410411668,-7.90814172075,-5.39593471153,-5.21582963743,-0.15342808768,-2.23356995289,0.441370554058,-0.491944287673,-0.780411649425,76.6583672608
off_to_on,-3.4489172737,-0.659787670264,-3.84329211287,-1.43867824171,-1.65502021719,-8.04532090293,-3.95448615178,-4.30597486782,-0.405118981241,-3.34495069564,-0.19539569678,-2.68084980137,-1.5993453635,60.5946691566
off_to_on,-2.68724346805,-1.17970430269,-3.93386538647,-1.54908572801,-0.951123295249,-6.65632462829,-1.8741897729,-2.76681006707,-0.593129803507,-4.05679573802,-0.931989638779,-4.69878635774,-2.29650556623,32.0068406388
off_to_on,-1.70528273217,-1.78255791879,-3.42521845414,-1.30986563656,-0.228018012511,-4.1139144162,0.235177469157,-1.07816732635,-0.70274727571,-4.35080828913,-1.6699549664,-6.1298966958,-2.83969624517,1.34094026621
off_to_on,-0.813299551118,-2.412036415,-2.46470284129,-0.793006884112,0.28896580998,-0.984848247427,1.85933293727,0.372464025978,-0.726169635479,-4.17440558034,-2.25488167888,-6.58236187375,-3.13490579006,-22.0672358329
off_to_on,-0.196201503957,-2.90823276133,-1.24426262969,-0.140072279031,0.494229385437,2.10490741512,2.71329372069,1.38450426336,-0.660370975487,-3.45703062562,-2.51505113922,-5.81218787971,-3.04679067532,-32.8663459072
off_to_on,0.121747929747,-3.05351340342,0.036702428463,0.479105189898,0.421019560722,4.60004405923,2.7863012179,1.95492900144,-0.507554073649,-2.16528232646,-2.31787415287,-3.82680001621,-2.45625445561,-30.8875650533
off_to_on,0.252620879387,-2.65184651537,1.20129072749,0.915497751929,0.208004265399,6.11278818426,2.29342814882,2.21353328708,-0.278076203285,-0.369905909432,-1.62411875237,-0.927572140773,-1.33156784228,-20.4077252169
off_to_on,0.37501390595,-1.61478080134,2.11409823159,1.08248459768,0.0300045511275,6.47152190324,1.56095070582,2.31877793687,0.00592268814219,1.71045343301,-0.519071992048,2.3315498422,0.21834236638,-7.91656523685
off_to_on,0.646430416877,-0.0232476302058,2.68893289425,0.976994308627,0.0213398365532,5.72030355672,0.892380816166,2.36201029283,0.308812507223,3.71695589585,0.793194874447,5.26468184149,1.93501174946,0.671642386259
off_to_on,1.12942402909,1.85940438742,2.8876958035,0.673805116175,0.221044094304,4.07998173864,0.464100435098,2.32044260658,0.583942927518,5.21857071022,2.03386655759,7.22212790606,3.45679538515,2.28645409906
off_to_on,1.75663507133,3.63302010123,2.71431306552,0.295447675484,0.55934411177,1.8874356327,0.284329716545,2.07638143841,0.781055135285,5.82481113288,2.91982296676,7.75723895749,4.41049064129,-2.36367435076
off_to_on,2.34577223049,4.85612998925,2.20745766328,-0.0317424878242,0.888383224436,-0.470783761451,0.223247429705,1.49134581642,0.857352278113,5.30776839058,3.23919829504,6.74244086037,4.52025965738,-9.45548813792
off_to_on,2.65872550813,5.16588874394,1.43437346481,-0.220282340725,1.04352555247,-2.61872411502,0.0954157959206,0.500399264067,0.789166309742,3.69065219493,2.90871943199,4.40048260699,3.697582774,-13.9597227126
off_to_on,2.48475820805,4.38770830508,0.486108051989,-0.248325804056,0.910778692994,-4.23951697093,-0.242143819738,-0.816681268695,0.580397608432,1.26849669446,1.99541121938,1.24340081248,2.08066674435,-11.9784366773
off_to_on,1.72038175918,2.60102143759,-0.527264128605,-0.161593194288,0.474601050286,-5.11101700447,-0.815977359577,-2.22166211991,0.264534188208,-1.45168785126,0.696954087377,-2.0602543668,0.00791813380289,-2.55799238823
off_to_on,0.419962170183,0.139197878953,-1.48358992387,-0.0502366014161,-0.171366171189,-5.12932108497,-1.51429520659,-3.3726513384,-0.10107807924,-3.8768772926,-0.711793628817,-4.84917711637,-2.06797142232,11.7454301298
off_to_on,-1.19955072625,-2.47974570712,-2.25939261348,-0.0093553716022,-0.853763196082,-4.32004183743,-2.12368458842,-3.93059437447,-0.447582050312,-5.482764183,-1.94849745456,-6.61720405769,-3.69894861814,25.7699145657
off_to_on,-2.80235395962,-4.67493906999,-2.74450619885,-0.097809568757,-1.37743766239,-2.83531539759,-2.40838008913,-3.67888508043,-0.7102634189,-5.94958623419,-2.78804210339,-7.10758404875,-4.55648460485,33.7656269265
off_to_on,-4.01426049832,-5.94482604617,-2.85871516404,-0.310771326189,-1.59020983633,-0.933649266406,-2.20066672433,-2.61057868311,-0.843098106903,-5.23741938526,-3.10471220927,-6.33582687724,-4.50756683243,31.7349640236
off_to_on,-4.51780081701,-5.99145598937,-2.56701398529,-0.576723813063,-1.43133126454,1.05866944914,-1.46813038399,-0.948401435785,-0.828144545949,-3.57955997659,-2.88356895818,-4.54651452243,-3.63098270302,19.1735374318
off_to_on,-4.1361527291,-4.79363950342,-1.88966933974,-0.780932077704,-0.947480524553,2.8016748319,-0.33348115086,0.912888040042,-0.677429337386,-1.39984372219,-2.20370206425,-2.12771163231,-2.17371186512,-0.487125784698
off_to_on,-2.88372087783,-2.61021595213,-0.904130240127,-0.807773267175,-0.272632438314,4.00297385654,0.958871594723,2.52347823083,-0.427381779567,0.815747474512,-1.20460621174,0.485639430621,-0.466921347788,-20.9445163644
off_to_on,-0.970639865381,0.0857664462131,0.262321248493,-0.587134809152,0.418769493916,4.4734535524,2.11574039829,3.51434561385,-0.128127031587,2.6496236224,-0.050145942973,2.89193008019,1.16722796428,-35.2342436781
off_to_on,1.23925543345,2.72246449828,1.44815020429,-0.127984226781,0.967090790354,4.16373389214,2.8804711787,3.7043658732,0.168728783171,3.8441228766,1.09824596929,4.77180405873,2.48690731277,-38.2785913797
off_to_on,3.30587966881,4.76239700771,2.47870831774,0.473935700514,1.27147050417,3.17110009538,3.10100717864,3.1417944316,0.420201089151,4.32956921419,2.09458444248,5.90593561139,3.36044569045,-28.8255558556
off_to_on,4.80675830938,5.81881376321,3.18962856161,1.05872846998,1.30860965435,1.71398003936,2.75963214529,2.06766019646,0.597540388131,4.18877113575,2.81097816702,6.17318112824,3.75291841008,-10.0375745253
off_to_on,5.42571807476,5.72797072333,3.44956811271,1.44926517691,1.12313816932,0.0800613209236,1.95903245066,0.817522576652,0.686898884895,3.58081615811,3.13855921619,5.54426032738,3.68499387581,11.5247631935
off_to_on,5.01759577515,4.56429724787,3.18033155344,1.50768450401,0.79729055167,-1.43818726345,0.875716429429,-0.299586927461,0.686410127627,2.66005562939,2.99553333522,4.08162082356,3.18935755609,28.1916147416
off_to_on,3.63688335638,2.60193580462,2.37313666712,1.18286635031,0.41468342738,-2.60328255904,-0.297469255004,-1.09888166645,0.602071659839,1.52473638032,2.34623655541,1.94654084135,2.28867391731,33.9392690535
off_to_on,1.52671669059,0.239619780301,1.09969624772,0.532653049563,0.0336049566883,-3.2724521437,-1.39681658074,-1.55848886463,0.44472812683,0.214740183103,1.22720565208,-0.595158607643,1.00716250206,26.6194540138
off_to_on,-0.92737739077,-2.08749545787,-0.484205230491,-0.287468460981,-0.320478619167,-3.40890454544,-2.3065640365,-1.78752882678,0.229370886499,-1.24462599972,-0.230919304442,-3.18241394196,-0.589673941106,8.84117325972
off_to_on,-3.26867785222,-3.9868563221,-2.14625311479,-1.06663421049,-0.64287876287,-3.06568681667,-2.95014487806,-1.9405723754,-0.0235697118854,-2.77700566839,-1.79979352335,-5.39459866852,-2.34855519301,-12.846057313
off_to_on,-5.05204540689,-5.16407503837,-3.60032682258,-1.59906893305,-0.926809703575,-2.35179925943,-3.26625306732,-2.11718905886,-0.286562399296,-4.2031384986,-3.17892014428,-6.81608402232,-4.00396658961,-30.2155374941
off_to_on,-5.92444881096,-5.45132568409,-4.54690364847,-1.74397152699,-1.14327000519,-1.3949531994,-3.18915184947,-2.29167079322,-0.525046305227,-5.23519569712,-4.05217602083,-7.12018031365,-5.19964188339,-36.2994450274
off_to_on,-5.69078432059,-4.81385181773,-4.72947406008,-1.4661680539,-1.2359739663,-0.314526959852,-2.65037482942,-2.30624474179,-0.700775753796,-5.53262247604,-4.16526431654,-6.15265309833,-5.56356124878,-27.969371136
off_to_on,-4.35491381217,-3.34394159874,-3.9990869892,-0.845088195566,-1.13669279578,0.787653616358,-1.60814707213,-1.93539088627,-0.778593161725,-4.8097603331,-3.40372753222,-3.99063750771,-4.82179231,-7.2379247319
off_to_on,-2.12876699391,-1.24990047855,-2.37269128722,-0.0497922400891,-0.796667431933,1.81972307908,-0.0958821919073,-0.998967368735,-0.735146247482,-2.96176084274,-1.84661045803,-0.956354448257,-2.91662725057,19.2120479129
off_to_on,0.594164363211,1.15851682612,-0.0669080343209,0.711508841286,-0.221359524368,2.6842928945,1.73166962943,0.520662090466,-0.566862587852,-0.162026289978,0.225445613459,2.42432932561,-0.085089679176,42.1568003417
off_to_on,3.30022101081,3.49345746912,2.5101369112,1.25127195102,0.50764732488,3.26797202023,3.58082900879,2.40826220361,-0.294254299362,3.11253833429,2.37731894066,5.51410521592,3.14009728118,52.9303843449
off_to_on,5.44559837613,5.32964583014,4.81884280509,1.45332188498,1.2365530795,3.44710206396,5.04999064411,4.22914212414,0.0394970248367,6.15254041571,4.11512737338,7.68920062049,6.02393896023,46.4579401648
off_to_on,6.56237647134,6.26810672163,6.29671966348,1.29968190736,1.77298239545,3.11401253025,5.71337137135,5.43413157592,0.3760115786,8.1768687714,5.00812507052,8.47025162578,7.80365384883,23.1916159422
off_to_on,6.36194848153,6.01967805905,6.49627757741,0.867024082418,1.94170848972,2.21848114499,5.24119478384,5.5293521348,0.653634399431,8.54496822714,4.80424604634,7.6302030147,7.90124640234,-10.7320350856
off_to_on,4.813542125,4.4928615162,5.21918299111,0.296089304906,1.64507790419,0.81043953724,3.52236649659,4.25677255377,0.820737039086,6.96028665855,3.50605512692,5.25524307586,6.11252404754,-45.213254992
off_to_on,2.17623266108,1.86023954218,2.60730087403,-0.254408989634,0.906784763155,-0.934166563355,0.74787538869,1.72202981479,0.846850342982,3.6002962164,1.38330581908,1.74465749194,2.71068609974,-69.2713722023
off_to_on,-1.03060266297,-1.4253961728,-0.843832981556,-0.653991297671,-0.118665016125,-2.72000582415,-2.58081165847,-1.58134494486,0.728751754373,-0.875238870896,-1.08460720556,-2.25236057456,-1.57734292537,-74.5203471804
off_to_on,-4.12111408983,-4.68646444413,-4.36666801518,-0.832694854405,-1.17798833959,-4.17832261702,-5.73477869555,-4.87068391829,0.490179705117,-5.45310552162,-3.32327935984,-5.95304718108,-5.72817709231,-57.9326821452
off_to_on,-6.38779870429,-7.15076146275,-7.09038253217,-0.791192931341,-1.98602071636,-4.94646484114,-7.92118197735,-7.27515141094,0.175705996849,-9.0076714625,-4.80553487857,-8.5908704578,-8.6785319582,-23.0045710549
off_to_on,-7.26822485429,-8.13545461316,-8.26117945773,-0.588446590025,-2.30843167421,-4.76284844625,-8.4893481702,-8.08278805473,-0.159179076777,-10.593716027,-5.18358723169,-9.57236688994,-9.61365504604,21.0661066652
do_nothing,-6.49387383133,-7.24140604099,-7.4577901841,-0.313823090986,-2.03467211108,-3.55134955801,-7.12379635542,-6.95912635543,-0.458997640728,-9.7111887279,-4.37592286653,-8.6113922125,-8.20558073409,61.9598187514
do_nothing,-4.18002015315,-4.5017389223,-4.73942231293,-0.0547794687767,-1.21737526605,-1.46871184747,-3.96648743183,-4.06818218283,-0.677686989864,-6.46518701964,-2.58610608824,-5.8121404999,-4.72879618434,87.8037541479
do_nothing,-0.825882989288,-0.432262724273,-0.675445601809,0.128817226647,-0.0642447300172,1.10365242842,0.373938194343,-0.0544372326918,-0.784876063857,-1.57030851816,-0.249291294023,-1.6782075523,-0.01311522086,90.6613922066
do_nothing,2.78491730591,4.04706150351,3.76473689267,0.216440720604,1.11683426646,3.62795219616,4.93881797299,4.11393322434,-0.768638656866,3.80965979534,2.07842138596,2.96356719313,4.76047654767,68.9072021106
do_nothing,5.76691957933,7.81540504517,7.44403376091,0.22324920271,2.00393807835,5.52628227272,8.63971971932,7.39812383255,-0.635288729463,8.34967644684,3.85799422954,7.11919485061,8.36899172846,27.7916528213
do_nothing,7.35647607283,9.83602158517,9.3566178732,0.185116234568,2.35296920482,6.31843514851,10.529159676,8.96622355211,-0.407190429098,10.9048412668,4.69693368104,9.83890741513,9.87712715079,-21.9586590082
do_nothing,7.11859086019,9.44925780055,8.91299110524,0.139807123811,2.06773441834,5.74700955868,10.0514256954,8.41599477292,-0.119386545058,10.8138278058,4.43805899537,10.4412633494,8.89450593601,-67.0894998766
do_nothing,5.07830674123,6.58876557617,6.12790157934,0.111948792188,1.22737991873,3.85665729396,7.20502948009,5.88029749491,0.184639974852,8.08092270949,3.18730872891,8.69667590786,5.68626916802,-95.4649281949
do_nothing,1.73448782564,1.84990584979,1.65003224565,0.106761647303,0.0633755835478,1.00428946876,2.56940670175,1.98747810549,0.458175569943,3.38474446649,1.27679169309,4.9185980608,1.10375834013,-99.3812666347
do_nothing,-2.05569067263,-3.62343927711,-3.38531564969,0.1133231855,-1.10655324647,-2.20650112838,-2.81662858147,-2.30889078079,0.65758407953,-2.09173820527,-0.824378991663,-0.0729004420344,-3.64666335002,-77.6380105467
do_nothing,-5.29673542055,-8.41627048825,-7.64841357248,0.114207882646,-1.96758348093,-5.05478886936,-7.6979016635,-5.98028061459,0.749375895428,-6.96649810721,-2.62692082109,-5.12068477373,-7.33205968272,-35.8225666997
do_nothing,-7.12256910264,-11.2163943245,-9.97557616208,0.0962061373548,-2.29393679392,-6.86706337403,-10.9076936617,-8.18293251583,0.716945787744,-10.0182545657,-3.73631674077,-9.00235719709,-9.02610084033,15.2306775828
do_nothing,-7.0380070278,-11.1834241956,-9.69730477162,0.0571298350617,-2.00777695551,-7.17913846779,-11.6572109976,-8.45782288784,0.565248182072,-10.5044718509,-3.93884788599,-10.7405848005,-8.35340436348,62.3519409954
do_nothing,-5.06372822158,-8.20595037835,-6.83839931739,0.00608683207807,-1.195539948,-5.856107606,-9.73537797937,-6.82239611259,0.321584870841,-8.35207312982,-3.24051465685,-9.86986665548,-5.57762856215,93.5110970041
do_nothing,-1.73947921238,-2.96639352102,-2.12806639236,-0.0421355994956,-0.0792280688246,-3.1397075309,-5.56707448007,-3.73819674156,0.0313685953831,-4.16975444651,-1.85293759992,-6.58171309842,-1.51140184346,100.925847297
do_nothing,2.01993096986,3.21478113697,3.18841228453,-0.0752571667713,1.04707601411,0.391519569172,-0.114086900324,0.0274101093613,-0.250900352888,0.920742312855,-0.132928619122,-1.69836600949,2.72258315635,82.9993670359
do_nothing,5.17806310001,8.72045160664,7.6870760911,-0.089952194034,1.89633471459,3.9438200211,5.35669140859,3.60153919076,-0.473582832807,5.58782293781,1.50755306275,3.52863195035,6.00814170308,44.6148488981
do_nothing,6.8684174724,12.0730101982,10.1576871471,-0.0932886227779,2.26137037549,6.68653703188,9.57947874547,6.21312375746,-0.599660684815,8.64478404297,2.69884064578,7.7472591415,7.53837770474,-4.24522039377
do_nothing,6.63976297379,12.3435826378,9.9393971336,-0.0984014537046,2.06290397536,7.94746501242,11.5933707591,7.35704580752,-0.614876272916,9.35977430638,3.19594089983,9.87258923365,7.01998978551,-51.1547983379
do_nothing,4.58293410411,9.41680473666,7.10316493524,-0.116464243881,1.36248855533,7.37951962092,10.9681665303,6.88184384761,-0.529694078969,7.63782550112,2.92803823856,9.38804750359,4.72558526793,-84.4595472226
do_nothing,1.30108865353,4.0328840487,2.42844105527,-0.148883262861,0.340011859549,5.05737676081,7.89746845778,4.99059832208,-0.374398260647,4.02782605185,2.00550352118,6.49030417154,1.3861580563,-96.2131300189
do_nothing,-2.26815380053,-2.4080839213,-2.81854021851,-0.183713113429,-0.755631983013,1.47720742259,3.13863500761,2.16615127802,-0.188900182273,-0.443982326604,0.684680211006,2.03144954211,-2.03787732291,-84.0899738153
do_nothing,-5.12584882998,-8.22589053929,-7.2398743533,-0.198535828107,-1.66847106532,-2.54550891102,-2.18192817966,-0.953217885965,-0.0106603941273,-4.56470089423,-0.699785624678,-2.72792957731,-4.63558906622,-51.8111957279
do_nothing,-6.49869672061,-11.9168853678,-9.69142721123,-0.169205576768,-2.19437950522,-6.06055760727,-6.84635389492,-3.71551118703,0.135187551808,-7.26704086606,-1.81817026246,-6.48331525935,-5.79216131037,-8.0138139679
do_nothing,-6.05467668957,-12.5581716503,-9.58834190789,-0.0811558911307,-2.22393130234,-8.2089486441,-9.83478393309,-5.58419821508,0.240214197964,-7.91079971761,-2.42429107598,-8.25992423101,-5.33498235304,36.1029894633
do_nothing,-3.98460494776,-10.0458901609,-7.04588760733,0.0614320632096,-1.76128307397,-8.43647855458,-10.5552328444,-6.23267277478,0.310315247657,-6.43751761338,-2.41074796982,-7.68316520954,-3.5441992295,69.7106835522
do_nothing,-0.928440403424,-5.10332966604,-2.82094090098,0.232759450076,-0.917298031204,-6.64097616861,-8.96014919011,-5.59168052446,0.357890547342,-3.35970022057,-1.82786727002,-5.0651639746,-1.03449596145,85.0826573895
do_nothing,2.22726089336,0.937999676127,1.921724809,0.390686465441,0.119330365151,-3.21293160299,-5.52683873285,-3.84682870164,0.392031334773,0.406497674885,-0.862510863345,-1.28401525713,1.44789920882,79.4151143107
do_nothing,4.61577230228,6.51602743698,5.94440186591,0.488835202779,1.1252325838,1.0458331572,-1.11428344162,-1.39089191494,0.411020236146,3.81241540756,0.216885049531,2.50267438078,3.24718712935,55.2893898237
do_nothing,5.63801860127,10.2627800052,8.27278414215,0.491446846789,1.89011529031,5.11017800202,3.26072443286,1.25868513873,0.40062694514,5.97155806852,1.13393304769,5.21701476323,3.97252809188,19.7058911604
do_nothing,5.11800550036,11.3550774232,8.43859399149,0.385706618912,2.25943394946,7.98254695289,6.66763407172,3.56247594914,0.339423825536,6.39377449401,1.67658392348,6.17883602692,3.57812782502,-17.9886981207
do_nothing,3.32361287639,9.69702569038,6.56613695342,0.18707428745,2.16395135521,8.94439178531,8.46513963151,5.0643836747,0.209460752012,5.09556923461,1.74857803314,5.28452020065,2.33414076934,-48.6649732749
do_nothing,0.854198643655,5.89334203444,3.28974996754,-0.0642977481486,1.63100956053,7.74286402256,8.41725611978,5.48074712116,0.00822555600745,2.56151189258,1.3865175168,2.99626905247,0.707979259044,-65.735942987
do_nothing,-1.56211449911,1.03519655739,-0.460864030442,-0.314723082762,0.775960342506,4.66209176269,6.7028510302,4.75582296166,-0.24314927015,-0.424070674011,0.738943628354,0.154345175516,-0.798773324935,-66.6145529685
do_nothing,-3.29273597036,-3.62714520809,-3.73498494835,-0.511705359481,-0.223951044508,0.45734032905,3.82822146576,3.07120808272,-0.499521387921,-3.01911810632,0.0148899612017,-2.31806980784,-1.80314762709,-52.9561670151
do_nothing,-3.97525240764,-7.02346437143,-5.81148224668,-0.617157915212,-1.16749216364,-3.83358343747,0.476125479543,0.805366911262,-0.700674563938,-4.56490504346,-0.581689074052,-3.71546583538,-2.13703006307,-29.7147364154
do_nothing,-3.59186407236,-8.51817610875,-6.35727565422,-0.614975509151,-1.87099116183,-7.15395592855,-2.66312410339,-1.54966979407,-0.787604587559,-4.75591821298,-0.911259415601,-3.75693620838,-1.86304901961,-3.39439618231
do_nothing,-2.42903126769,-8.01760046609,-5.45956133472,-0.511278465765,-2.20466066044,-8.69786917978,-5.03469175646,-3.49677297831,-0.721248912288,-3.6936189069,-0.933841131049,-2.63642611008,-1.21448325242,19.902824544
do_nothing,-0.946313630102,-5.91679130028,-3.53898220898,-0.328581988134,-2.11610519634,-8.11450133483,-6.30636620546,-4.6425686295,-0.497385208277,-1.81678810122,-0.710038298554,-0.909376764397,-0.487963607747,36.0154324729
do_nothing,0.393534593899,-2.92177424703,-1.18554897352,-0.0973061152121,-1.63651251976,-5.59248771824,-6.3901286331,-4.78084639366,-0.152236696614,0.261018840912,-0.369325837392,0.734895436378,0.0693864009255,43.4152764556
do_nothing,1.27251305896,0.183984968897,1.02321490046,0.151449265363,-0.869227628342,-1.80240031826,-5.40825761407,-3.93064982866,0.243867443546,1.95008736604,-0.0577220817743,1.7287945185,0.33883055762,42.9445530791
do_nothing,1.59537701042,2.7521459235,2.6656261042,0.389238301007,0.0354054720797,2.28591628378,-3.62720479858,-2.32083955677,0.603541132516,2.85534251116,0.116359147528,1.8183479627,0.350748296798,36.8297502742
do_nothing,1.47819072233,4.40167535193,3.54515359265,0.589545531309,0.912068470664,5.66036105952,-1.38556583571,-0.327011988448,0.845242769836,2.86890921568,0.119039894376,1.12683138564,0.245614086731,27.4474196597
do_nothing,1.16136568747,5.0456126103,3.6795889911,0.725286200793,1.6115754272,7.52752723466,0.964008613674,1.62106686417,0.915099050877,2.16268646464,-0.00199617605895,0.0744789176697,0.195249091932,16.3714792226
do_nothing,0.887385747393,4.82563424424,3.23119344968,0.768054505222,2.02461001036,7.50749560914,3.09132450052,3.13663705191,0.800953740392,1.09304851903,-0.142251795437,-0.808622965557,0.317601599321,4.08040517068
do_nothing,0.793468533266,3.99634678603,2.41487413726,0.691997585047,2.09464600298,5.71233551706,4.70825657126,3.95361734251,0.534427918209,0.0575203812193,-0.187255966422,-1.10183546353,0.618950871896,-9.59700569919
do_nothing,0.86036092839,2.81144829005,1.42188394522,0.482816209701,1.82012036859,2.69170627217,5.58337143805,3.96830301415,0.180661248209,-0.643959859588,-0.0636334187274,-0.66161795813,0.985772880006,-24.5511685866
do_nothing,0.9344546856,1.45389883279,0.383210523944,0.149266092501,1.24865635813,-0.733881972973,5.56285703501,3.24025182527,-0.180662326567,-0.89629177009,0.225262934615,0.32461464816,1.22910800161,-39.4639928215
do_nothing,0.810888149071,0.0276988713701,-0.623713490221,-0.267916541495,0.467147085695,-3.70155576441,4.60129415734,1.9590724054,-0.476774371203,-0.779429815994,0.593451002898,1.41655850847,1.16423698753,-51.4072335791
do_nothing,0.341457795698,-1.39965998431,-1.54046112684,-0.695235579005,-0.40935909018,-5.53119014637,2.79475672404,0.391547923467,-0.659095598716,-0.504972828801,0.899662934873,2.09933792826,0.694953191834,-56.3021892646
do_nothing,-0.478202860825,-2.73623309765,-2.29104640797,-1.0373508428,-1.24910561056,-5.88652182512,0.399833809567,-1.1746402537,-0.711480804528,-0.308718669841,0.999036898699,1.99313003835,-0.130546633823,-50.2246638576
do_nothing,-1.47936873357,-3.82437614334,-2.76733105378,-1.19917380842,-1.91658375747,-4.8329835157,-2.17977421057,-2.47806557887,-0.64796518811,-0.343131942686,0.800718609355,1.01388136275,-1.11540074316,-31.1538612916
do_nothing,-2.36341621196,-4.44670384182,-2.84796648832,-1.1139290505,-2.28892462859,-2.78413889794,-4.45032588071,-3.31597557129,-0.502197661545,-0.611531160418,0.309855010909,-0.576583035406,-1.96641472753,-0.497667504958
do_nothing,-2.80367861332,-4.38415033179,-2.44514522143,-0.768486495403,-2.27642964565,-0.360043494086,-5.92552961904,-3.5630687966,-0.313362853863,-0.968435398302,-0.36279283776,-2.25156292205,-2.38751296755,36.3011856821
do_nothing,-2.56891661659,-3.50602196255,-1.5587271943,-0.216590473593,-1.84502430199,1.79646926061,-6.24438379169,-3.18132245926,-0.11407459216,-1.18456996698,-1.02927256037,-3.40351276266,-2.18337554921,70.5261608623
do_nothing,-1.62187444297,-1.85476327431,-0.31139373533,0.426614071621,-1.03504322601,3.19158809495,-5.27676896409,-2.22489286648,0.0756776347222,-1.05011507187,-1.48289125747,-3.56482129948,-1.33729069547,92.3060548948
do_nothing,-0.154277687632,0.314053492336,1.05605675224,1.00975472019,0.0313372022446,3.59432773323,-3.18168437963,-0.840177110429,0.247293808263,-0.474995084538,-1.56737258972,-2.58510355744,-0.0345452766936,93.567920375
do_nothing,1.45795673178,2.56194743859,2.23532839944,1.38443970852,1.1609902141,3.06653863946,-0.392962812026,0.743387062818,0.396932372265,0.454282918675,-1.23264180619,-0.699946078048,1.37997097096,70.913987169
do_nothing,2.76676079328,4.36805725059,2.93479303167,1.44745214237,2.12194983233,1.90914670245,2.47239035714,2.23819737229,0.517549448246,1.48579240611,-0.556927668018,1.53530774961,2.49954107638,27.4137444782
do_nothing,3.39404111216,5.27289838113,2.97008607204,1.17283162794,2.6930209199,0.548136464507,4.76361059694,3.34291020729,0.594062166401,2.28052970223,0.273906007646,3.42509394822,2.97946718874,-27.4451345014
do_nothing,3.1552098832,5.01957391805,2.32893489923,0.623026216041,2.72010348427,-0.60154314139,5.96339839175,3.8033526363,0.604574441692,2.53155127515,1.02401807893,4.3646678064,2.64794543043,-79.8564303531
do_nothing,2.12123583872,3.64384241516,1.18497536507,-0.0655891588564,2.16364079273,-1.25347297391,5.82436119989,3.47802429289,0.527820863599,2.08115705031,1.48319903946,4.04276379616,1.56774596154,-115.381464485
do_nothing,0.597376523054,1.47915908902,-0.147863624839,-0.719483546257,1.12136136618,-1.31718141544,4.43296862598,2.38946351083,0.354069464247,0.992350635841,1.53457980945,2.54619784493,0.0271503322629,-123.183120622
do_nothing,-0.97447571282,-0.929694026958,-1.30807645613,-1.17638023573,-0.184259062788,-0.901166995641,2.18033654832,0.741703160075,0.0948664229818,-0.45419321513,1.19085642468,0.331225596716,-1.53943101649,-99.5008790748
do_nothing,-2.15664377999,-2.97998748687,-1.99692930355,-1.33062256098,-1.45465009805,-0.256731373475,-0.352168006392,-1.10933579001,-0.213014327928,-1.84050206657,0.586213244141,-1.92726897746,-2.67843341825,-49.2110841511
do_nothing,-2.65202747883,-4.18381435295,-2.06980659742,-1.16152439944,-2.38934979122,0.315928136652,-2.55764524619,-2.73243375417,-0.51216985108,-2.74413615074,-0.0732882013123,-3.55607169382,-3.05346498259,15.1377167595
do_nothing,-2.39052935214,-4.30529356636,-1.57755469256,-0.736061494298,-2.7659313535,0.569080925307,-3.96799152495,-3.72870055073,-0.737358998196,-2.87896685309,-0.583212420249,-4.09820045176,-2.54903718726,76.6466513203
do_nothing,-1.53804092139,-3.41856346538,-0.743484949663,-0.185469739677,-2.50216116057,0.386235014098,-4.36790283085,-3.84143007671,-0.832960356369,-2.19507366245,-0.81174816375,-3.45040165445,-1.30914048015,118.817325953
do_nothing,-0.427578714032,-1.86910692402,0.11636534716,0.336337915203,-1.68065128566,-0.183330290535,-3.82596235813,-3.0347360911,-0.769556879034,-0.901786935079,-0.742489978406,-1.88047866053,0.302235742546,130.314340519
do_nothing,0.561255910916,-0.152997754704,0.702596641067,0.698955507051,-0.526813030656,-0.942302250485,-2.63825564059,-1.51387036163,-0.554039843896,0.596250429929,-0.473378515126,0.0766221536989,1.80767791149,108.27692487
do_nothing,1.13151487178,1.24448056654,0.83409161054,0.831589923304,0.654821032023,-1.60848530696,-1.20896631049,0.323595984013,-0.229581611549,1.83014865331,-0.172190172339,1.80421001494,2.75838186184,59.1431446945
do_nothing,1.16244583572,1.99691285169,0.507275805319,0.738193378767,1.5674530407,-1.90422456643,0.0877313393575,1.99512641502,0.134870170174,2.42144887131,-0.00517654937923,2.80536866681,2.86892507251,-3.28207161307
do_nothing,0.73696820836,2.02361681254,-0.107012810786,0.488023571022,2.00567260514,-1.64620170257,1.01633672946,3.06900147463,0.462452867486,2.20794675436,-0.0658979781587,2.8530262645,2.1039953096,-61.9208609221
do_nothing,0.0967909454399,1.48954801783,-0.727535771758,0.18628256062,1.91000061658,-0.809872933259,1.52442248996,3.28772158183,0.688080104919,1.29730773553,-0.331957091306,2.04189559012,0.690663556215,-101.407864443
do_nothing,-0.45573918577,0.722866471742,-1.06514609898,-0.0641473145192,1.37547172754,0.450339835565,1.71332627731,2.64052578145,0.773955723008,0.0293759417271,-0.667670910636,0.731268803644,-0.947812097762,-112.429438346
do_nothing,-0.672218985661,0.0826936690548,-0.928299209793,-0.196484074557,0.612241949805,1.83224623496,1.75363242934,1.36168022178,0.716471374082,-1.14075536759,-0.87394826871,-0.594949538912,-2.31707243896,-94.1072601862
do_nothing,-0.448177684783,-0.174572261238,-0.29531034475,-0.19825777092,-0.128068617403,2.96182475502,1.78403458408,-0.145451686572,0.543065732859,-1.79949367513,-0.768698901983,-1.49841583781,-2.99841892404,-53.7624490069
do_nothing,0.142214082026,0.0165546757684,0.671348186085,-0.108861466525,-0.635338500792,3.49479883822,1.83695902878,-1.43466519974,0.300974293885,-1.71786179071,-0.268559250283,-1.72757011929,-2.77364197718,-4.24184304822
do_nothing,0.876753979435,0.517151205684,1.67360752638,0.00119596318384,-0.805418109714,3.21683340662,1.82211781937,-2.15327946861,0.0422832612821,-0.931755511553,0.559589573003,-1.28476732153,-1.69097997263,40.247836677
do_nothing,1.46788726327,1.04687274649,2.37294942168,0.0607200872922,-0.664983993816,2.11424267096,1.57471011032,-2.14526258764,-0.189522830856,0.268700294481,1.49962556984,-0.402618978506,-0.0528847388554,68.4194280658
do_nothing,1.66656983892,1.2980456681,2.50053909806,0.0264137318654,-0.349587631127,0.393579227538,0.947780584872,-1.48899074123,-0.367445178879,1.43780516085,2.24413157472,0.555098521069,1.67056518675,74.9522054966
do_nothing,1.35038368381,1.05809688698,1.94628032948,-0.100625698891,-0.0441150066667,-1.55865297054,-0.0910699050749,-0.459322554776,-0.481695393825,2.12793032787,2.4932013977,1.22828021114,2.97700226459,61.4316276316
do_nothing,0.566098336476,0.295814690079,0.798325729236,-0.275887578904,0.0920155217167,-3.26868759288,-1.40207306074,0.571364057266,-0.534513477216,2.04615224406,2.06215477711,1.38259481223,3.47631546318,35.0447330254
do_nothing,-0.485981859615,-0.818989175944,-0.678700331278,-0.428790036882,-0.0125785185461,-4.29781760109,-2.68436384764,1.25888111203,-0.532438679276,1.16051502743,0.96082806936,0.978920606642,3.0026953929,5.63868259217
do_nothing,-1.51791762965,-1.96839832579,-2.11856324929,-0.489477233093,-0.313755485854,-4.36170146658,-3.55885033087,1.39764190225,-0.479996511437,-0.280672922566,-0.585431322913,0.171638637627,1.66246545225,-17.7501137003
do_nothing,-2.24563892818,-2.79203119987,-3.15674053277,-0.415119762379,-0.66943292228,-3.41289041756,-3.69690223138,0.980249307717,-0.377711450013,-1.82394143746,-2.18471577969,-0.756919044615,-0.195070819313,-29.6927196243
do_nothing,-2.47431108539,-3.00751976736,-3.52992841357,-0.206396557672,-0.895739427176,-1.66150765709,-2.9484621129,0.188944149656,-0.225141784136,-2.95594122898,-3.38602030383,-1.49783561281,-2.07438658085,-29.6078534775
do_nothing,-2.15019083357,-2.50389787686,-3.142588935,0.0912807970523,-0.841011539968,0.474339386602,-1.41980048331,-0.67505132425,-0.0271994254808,-3.27123407205,-3.81359972663,-1.8157815779,-3.46985302927,-21.1694920191
do_nothing,-1.36512314242,-1.37685861298,-2.08358110843,0.401669097071,-0.450114685288,2.47671363465,0.533126176448,-1.29788922808,0.19963353918,-2.60748293248,-3.28627540083,-1.61565074412,-4.00271970012,-10.2708301658
do_nothing,-0.317051952724,0.103758122084,-0.592488789056,0.641401457974,0.205284503247,3.86522786166,2.40007897513,-1.45817257456,0.42477392929,-1.10384359159,-1.88302216289,-0.95846164539,-3.521381862,-2.41924302832
do_nothing,0.755588569426,1.58003004992,1.00961338405,0.745187519911,0.942813603206,4.32475471758,3.67216344281,-1.09616199633,0.606924936422,0.836265552051,0.0677558397165,-0.0283672419057,-2.13875982958,-0.579036985799
do_nothing,1.64096418917,2.71370031442,2.40140021861,0.684282979767,1.52748018125,3.78652039011,4.00535724457,-0.326412144509,0.7032485891,2.66565852137,2.07409607492,0.931675808315,-0.198774782411,-4.24276060816
do_nothing,2.20052953168,3.27837980107,3.33077297987,0.47290936609,1.75200806595,2.43899689082,3.33429102923,0.606839663695,0.681737494691,3.85821866863,3.61663543787,1.69078251918,1.81660143388,-10.0009302086
do_nothing,2.38385182562,3.20726074747,3.65627376027,0.161754474235,1.51120783922,0.665988684101,1.89446427214,1.41325630942,0.532631044322,4.0658262945,4.29430512988,2.0853228322,3.41290760438,-13.2935399773
do_nothing,2.21357230877,2.58559673102,3.35574788128,-0.178039010154,0.843698831662,-1.06855480725,0.142884611746,1.84919397948,0.274669539827,3.21901094457,3.93587628189,2.04600981405,4.20733374796,-10.5846990451
do_nothing,1.75356593273,1.5980339848,2.50864517802,-0.474382537329,-0.074602383432,-2.35328008453,-1.39643771802,1.78930913646,-0.046497220234,1.54219967383,2.64453163405,1.59663727964,4.01972904605,-1.06395381887
do_nothing,1.0778505274,0.456345782889,1.26492756396,-0.671034838718,-0.984028085222,-2.93912639537,-2.30804423273,1.25615492148,-0.367869960794,-0.517842186102,0.763609396338,0.833535841144,2.90928532702,12.8131153132
do_nothing,0.254411394466,-0.662432530177,-0.186203220802,-0.737436952634,-1.62400759433,-2.7935491412,-2.4191538159,0.402562385706,-0.624078436073,-2.42493305778,-1.22417269098,-0.101883865377,1.15094977261,26.164019923
do_nothing,-0.651222494779,-1.64525155596,-1.63975797478,-0.670457585641,-1.81707826392,-2.08543303609,-1.84435416016,-0.542655201901,-0.763403236553,-3.70495977043,-2.83213213638,-1.04800712896,-0.838847192606,33.5716855113
do_nothing,-1.55880262927,-2.43383862634,-2.89022959749,-0.489817269698,-1.5253539199,-1.10967929762,-0.925295296121,-1.34468917226,-0.760128519041,-4.07027935082,-3.69885333798,-1.84223131088,-2.6058115135,31.2886018382
do_nothing,-2.35652531042,-2.98917153327,-3.74453093943,-0.230547294062,-0.860241998804,-0.179794004526,-0.0885162496443,-1.82527180917,-0.619753462021,-3.48299463874,-3.67447264677,-2.33742604088,-3.76406328423,18.8831132734
do_nothing,-2.89960493613,-3.25379143018,-4.0402320377,0.0643127576168,-0.0424109680383,0.473885921644,0.324835613036,-1.90046624082,-0.375929502647,-2.14429960798,-2.84236740137,-2.42073300766,-4.08006581784,-0.336835789044
do_nothing,-3.0331273246,-3.13702985598,-3.67316518178,0.349099129174,0.673787865364,0.766498311251,0.192682335961,-1.5871212251,-0.0805770187782,-0.42034672256,-1.47535077817,-2.03703447976,-3.51666656455,-20.3271510255
do_nothing,-2.63693418661,-2.53743667898,-2.63114964378,0.579263659356,1.08509767643,0.763059925524,-0.342407459729,-0.982458451153,0.209429837632,1.26728639857,0.0550608941256,-1.21324875097,-2.23043994468,-34.400953225
do_nothing,-1.67878947037,-1.39845405866,-1.02296683382,0.715064544326,1.10413651567,0.627904519884,-0.934349145279,-0.228643350681,0.444953650133,2.55153933538,1.38561584642,-0.0735669139688,-0.5265791215,-37.6538674759
do_nothing,-0.255096510872,0.224770283972,0.912321442477,0.726800591037,0.782351696426,0.541705113096,-1.17939263587,0.524137715796,0.593325153574,3.20002129158,2.25227968806,1.16634245461,1.21556442098,-28.82159594
do_nothing,1.40071445898,2.11968540286,2.82840241724,0.60184742799,0.284216711438,0.619454554247,-0.79154161751,1.14610861411,0.641507669984,3.14862662245,2.54146307792,2.23402016398,2.62814230781,-10.8621122226
do_nothing,2.95295483763,3.9210428179,4.33108350631,0.351772977778,-0.177143747519,0.861025879583,0.260652814847,1.54408907274,0.594101052503,2.48835214596,2.29271605043,2.86192014058,3.43275961989,9.98799531038
do_nothing,4.03799340025,5.17910467325,5.06534519952,0.0162508180344,-0.419409645384,1.15246554589,1.71161217717,1.66738617872,0.468137722147,1.41863172221,1.65986856803,2.86233972785,3.49488029047,26.377134888
do_nothing,4.35974745705,5.48029058634,4.80929375827,-0.339679094028,-0.357230886958,1.31617804476,3.07222721486,1.50808071613,0.287194824781,0.187079671315,0.849056508023,2.1927264427,2.84470976054,32.4636867213
do_nothing,3.77834678538,4.58594464812,3.54748592831,-0.636831221953,-0.0318644950126,1.1892274426,3.79764370453,1.09951422286,0.0768615355154,-0.965853815614,0.0560055213107,0.986868820961,1.66188767367,26.0605947264
do_nothing,2.36331995992,2.54185876813,1.49806920609,-0.800394730505,0.405753835135,0.69825500821,3.4909574431,0.513538802156,-0.137599763577,-1.84602540951,-0.578929978002,-0.464709207085,0.22874899298,9.51306373233
do_nothing,0.391767887253,-0.285484976036,-0.920699245049,-0.781274389121,0.752017697723,-0.0989972349505,2.06829765879,-0.146109843258,-0.33187969307,-2.32626184793,-0.98873145849,-1.78621037894,-1.13678043584,-11.036370246
do_nothing,-1.71179180383,-3.26983860296,-3.18160554983,-0.573583330355,0.827226885101,-1.02250598446,-0.178222360526,-0.757848459771,-0.482866401112,-2.35301003028,-1.17209525078,-2.6225603521,-2.15346820817,-27.7702336755
do_nothing,-3.47913436076,-5.67601017019,-4.77609329405,-0.221650239741,0.544540880344,-1.82651256139,-2.64838438693,-1.2048624828,-0.569877524645,-1.94550322005,-1.16974464022,-2.7482219566,-2.63795132681,-33.9821175393
do_nothing,-4.51685998686,-6.86151166149,-5.34412744954,0.187504005379,-0.0530295287766,-2.28266899796,-4.61481096273,-1.40277019359,-0.577512050173,-1.19146018566,-1.03729101592,-2.14263297414,-2.54086320581,-26.5531850082
do_nothing,-4.60589875574,-6.46887785864,-4.76910256868,0.545763068417,-0.800702704011,-2.25836325503,-5.45784461121,-1.32415228333,-0.499624220773,-0.238595085291,-0.825089102118,-1.00421910038,-1.94959507296,-7.23591115118
do_nothing,-3.75362851161,-4.54643726204,-3.20921863586,0.754191813455,-1.46261605712,-1.76071579796,-4.87412947207,-1.00991660505,-0.342947540365,0.722411126612,-0.56987344813,0.306119185118,-1.05732644877,17.7384221684
do_nothing,-2.184575852,-1.55432690577,-1.05477193252,0.753022507011,-1.8081718655,-0.930122204674,-2.98587675068,-0.560144397818,-0.128556032951,1.4876733916,-0.296700266909,1.37740926085,-0.106523293668,39.6392569981
do_nothing,-0.274156956312,1.75263623298,1.17724132112,0.541608258521,-1.68858626139,0.0131512785441,-0.311173219227,-0.103963539051,0.110159217679,1.88220026,-0.0255561821113,1.8819649743,0.677916695353,50.1652594505
do_nothing,1.55342621605,4.53406737835,2.98089611637,0.181158250373,-1.0884020429,0.847632782334,2.39642531158,0.243325007953,0.333162323673,1.80666569007,0.22362140287,1.68544396518,1.14741453376,44.3468773362
do_nothing,2.93244382257,6.10293796431,3.99143781549,-0.221700877437,-0.135326797204,1.42335049377,4.38539802214,0.420878260376,0.501891716634,1.27478185776,0.431126954743,0.89500875819,1.26367688944,22.4382877991
do_nothing,3.63765905067,6.12054322314,4.0703509641,-0.546254174786,0.934399971799,1.70031805185,5.14058448216,0.444261337097,0.587610851987,0.425355704758,0.582320813604,-0.173520785407,1.09802489805,-9.86481814493
do_nothing,3.6203664525,4.6861747626,3.32235742058,-0.694504433079,1.84360523467,1.73891802251,4.53563040768,0.397647006276,0.577542512886,-0.501997929251,0.673161267374,-1.10151061936,0.796494191259,-43.0005745751
do_nothing,2.99314006551,2.29314214649,2.04264295474,-0.621847212099,2.35320387626,1.64844313416,2.85402137652,0.396080216094,0.477002885272,-1.22748583525,0.711616073077,-1.51275691066,0.521897377627,-66.4411573017
do_nothing,1.97393818256,-0.334275645874,0.614062408031,-0.351619900573,2.32840354622,1.51786267612,0.675377704506,0.530144580302,0.307067166345,-1.51440952053,0.712256221711,-1.20952907966,0.391905729882,-72.0127234372
do_nothing,0.811514334852,-2.4697284242,-0.611279077254,0.0314754979083,1.772975103,1.36098643527,-1.32968792362,0.814439244762,0.0987581749604,-1.25022776238,0.685382663109,-0.252025214354,0.434316078675,-56.5844107506
do_nothing,-0.28261199616,-3.60505419135,-1.40844661009,0.407306728103,0.823285292968,1.10292214669,-2.6224130134,1.16263510192,-0.114208497139,-0.496921161107,0.625935221488,1.0485414534,0.575829022459,-23.2659695118
do_nothing,-1.17557032195,-3.59088415467,-1.72547495562,0.65753863547,-0.293559774562,0.617672388163,-2.95903995412,1.40397949921,-0.301851628826,0.511286833009,0.509051131459,2.22455321599,0.669933268497,19.2847294522
do_nothing,-1.81923264218,-2.6538187048,-1.66789981301,0.702386182441,-1.32279952009,-0.195651800383,-2.44081108614,1.34105687444,-0.441874799138,1.42910399578,0.297301709538,2.80577509037,0.556052313475,59.2591775683
do_nothing,-2.22550824924,-1.28830257845,-1.43216389059,0.525265571375,-2.04677945834,-1.32927553788,-1.43962203361,0.831651787935,-0.520677795779,1.90635661745,-0.0402663416486,2.48271669731,0.130379558994,85.093464201
do_nothing,-2.4258360726,-0.0636822955125,-1.21466665918,0.177649552765,-2.33340739589,-2.61429545622,-0.43312592191,-0.134695747814,-0.532198342665,1.70769639157,-0.503215700674,1.22502698754,-0.5969734959,88.8533839913
do_nothing,-2.43415947915,0.58473887522,-1.13024353399,-0.23716802554,-2.15719667316,-3.72948514481,0.185621649412,-1.39698840113,-0.476105478471,0.806011100685,-1.03938338171,-0.686410199965,-1.48124004425,68.6089377945
do_nothing,-2.22964596111,0.5072733628,-1.16915457805,-0.595971744186,-1.59117717858,-4.27995477493,0.252311601126,-2.64152216061,-0.356830265578,-0.58531043095,-1.5402256526,-2.72775501545,-2.27050397949,29.1031095997
do_nothing,-1.76651790775,-0.118497382182,-1.20710342442,-0.792932340139,-0.776560040332,-3.92678081741,-0.122424056306,-3.48123415997,-0.184136287986,-2.05835798243,-1.85877297376,-4.28250308111,-2.677260882,-19.4761614239
do_nothing,-1.00698255289,-0.869461695237,-1.06354591114,-0.770663493877,0.11778933501,-2.52566089787,-0.618100237859,-3.57532158055,0.0252247954152,-3.12667539483,-1.8491551081,-4.82846497887,-2.47385832971,-64.2634249631
do_nothing,0.0364937488234,-1.25176294957,-0.58622998623,-0.535740777789,0.93345360933,-0.2232982308,-0.851784116543,-2.75153237602,0.24620786557,-3.37836828153,-1.41762787463,-4.10348826375,-1.58125264113,-93.2328342589
do_nothing,1.26799623832,-0.904952684988,0.269586631003,-0.154627974597,1.54902812572,2.53068852405,-0.548438525329,-1.0883755232,0.446265676234,-2.61827633945,-0.568458348661,-2.19782908547,-0.119787936244,-98.4784559687
do_nothing,2.50046047353,0.239314364758,1.39731212512,0.267777318227,1.89174090044,5.07287547785,0.332676696146,1.07562200899,0.589408632569,-0.951284139772,0.573153398022,0.456525661336,1.59935579401,-78.3566477989
do_nothing,3.48178346343,1.90374328922,2.54878096096,0.619546484983,1.93626871806,6.69861979381,1.56469324727,3.21603000548,0.643410078293,1.22475080362,1.77356686551,3.19762869855,3.14538079033,-37.9215624186
do_nothing,3.9515944111,3.54032029884,3.39757152675,0.813088106624,1.69632644258,6.86977448,2.72618386736,4.76262703675,0.588519321109,3.3199983949,2.7403774043,5.31370687709,4.08454700767,12.4379056578
do_nothing,3.71441374651,4.5117500068,3.63742336501,0.80726207001,1.21504980128,5.39285907784,3.35351173436,5.26460331168,0.42495042015,4.72051163683,3.19840849196,6.23869151896,4.10880691561,59.7649327019
do_nothing,2.70781853199,4.31900667232,3.08478711596,0.614605517405,0.558027048129,2.50777041121,3.11571280959,4.52922661397,0.176262831796,4.97283135034,2.97092797627,5.70650732354,3.13661646592,91.9457311748
do_nothing,1.04353757248,2.79637315746,1.75206956871,0.293057596838,-0.190580893924,-1.14757104252,1.94691108109,2.68876470166,-0.11328118025,3.92781553337,2.04101901121,3.8209945598,1.3525452433,100.853449673
do_nothing,-0.994430549047,0.203978645373,-0.133503920377,-0.0737201486807,-0.931361687684,-4.69309426928,0.0871750074368,0.172402566398,-0.38746781788,1.79734918062,0.572173745981,1.02422968631,-0.830049330387,84.4063262309
do_nothing,-2.99917178936,-2.81918942201,-2.17402055974,-0.400418400176,-1.55613055156,-7.24084547073,-1.98355604517,-2.40980871432,-0.591007826797,-0.895861453241,-1.12144870937,-2.02416329297,-2.87544406753,47.0245039414
do_nothing,-4.52872628331,-5.43242903655,-3.89732398887,-0.621167870946,-1.96021132727,-8.13940417337,-3.6950933059,-4.43556373454,-0.683002090775,-3.46176998937,-2.64948782782,-4.61957242388,-4.27123794694,-1.6021355691
do_nothing,-5.2118701107,-6.84702083784,-4.8790578315,-0.702240582551,-2.06034838383,-7.15546366841,-4.56733392375,-5.43938103642,-0.647033678218,-5.23670904093,-3.6448774145,-6.18746264412,-4.6703387605,-49.0835464307
do_nothing,-4.84476717742,-6.57581102934,-4.85575204305,-0.644344637733,-1.81476108857,-4.53808609227,-4.3588516488,-5.23078005013,-0.494833006911,-5.76863368994,-3.8603614295,-6.41445126993,-3.98655222447,-83.5466560261
do_nothing,-3.45222285522,-4.59742628012,-3.79699211549,-0.475956296164,-1.23947949368,-0.946964272243,-3.13439650561,-3.9279416366,-0.262435926942,-4.93835454721,-3.23430882515,-5.30481824866,-2.41497074324,-96.6564824106
do_nothing,-1.29530527478,-1.38020980887,-1.91671136584,-0.241512138522,-0.414747916722,2.73248539987,-1.23223219987,-1.90164292506,-0.000118014583822,-2.98208692351,-1.90700899815,-3.15497730182,-0.371565234395,-85.6639656976
do_nothing,1.17954874242,2.24434484244,0.378827243058,0.0110473902924,0.52273994559,5.63065153927,0.852041377563,0.346734702437,0.240685951941,-0.412117192581,-0.183300314586,-0.461202891827,1.62857457442,-53.969385498
do_nothing,3.43960113813,5.32058342403,2.59113617727,0.239858134624,1.40226174729,7.12005305413,2.62065882695,2.32978745996,0.419456432702,2.1360483443,1.5469030121,2.20831360864,3.11620042676,-10.0856356402
do_nothing,4.98966213073,7.04602620369,4.2498665291,0.414254080352,2.05230763625,6.96218668589,3.71312416907,3.69429940988,0.514208558623,4.08038842093,2.90685573643,4.34100398467,3.79165712023,34.6931843306
do_nothing,5.49004414821,7.00104997685,5.02144673093,0.515851918865,2.33731093998,5.33776921724,3.98542965106,4.28293392105,0.5229262785,5.03888383075,3.62241990169,5.57678451144,3.59116250627,69.2760580184
do_nothing,4.83856894697,5.26079932712,4.77900102054,0.537294879709,2.18899229965,2.76045642264,3.51025019443,4.1270399665,0.459292154997,4.90509297915,3.57937343502,5.7572428273,2.67901951214,85.6083238058
do_nothing,3.19519981649,2.35739910783,3.6186270441,0.480535543882,1.62433682808,-0.0910274362039,2.50977139727,3.38564266133,0.345075569035,3.83770737069,2.83619289977,4.92571729991,1.37359843414,80.606183531
do_nothing,0.942408005693,-0.89173926497,1.82229597035,0.355779097588,0.745300657099,-2.56594945508,1.2561435183,2.26320011803,0.202416969881,2.17775672842,1.59361071407,3.28953923716,0.035831052101,56.704326109
do_nothing,-1.40893433534,-3.63218096182,-0.218628610926,0.181049022971,-0.280277750775,-4.20133496749,-0.0177970770534,0.94208659158,0.0488359556972,0.328978463308,0.134171111049,1.16215719035,-1.04064915985,20.9200658293
do_nothing,-3.34399878649,-5.21796295199,-2.09669697787,-0.0185706922283,-1.25259491141,-4.80647419523,-1.16490020324,-0.44552947418,-0.103681551983,-1.35529965726,-1.24843455715,-1.09768316051,-1.70194884958,-17.2494356927
do_nothing,-4.46662569776,-5.37915359231,-3.47440543195,-0.213154405046,-1.98119649463,-4.45839497704,-2.117019151,-1.8024530556,-0.246068723122,-2.64340048589,-2.31076654231,-3.13826711443,-1.94868692397,-48.463966835
do_nothing,-4.58860924722,-4.26447595188,-4.14392406661,-0.372147808148,-2.32460720039,-3.42407923659,-2.84009490887,-3.0251398313,-0.368145084948,-3.43914395586,-2.89845020804,-4.65488371383,-1.89468404829,-65.9507054852
do_nothing,-3.76337144258,-2.35411987423,-4.05088063697,-0.470027786431,-2.2196478132,-2.04614179584,-3.28259811935,-3.96628496154,-0.455853517786,-3.74638433844,-2.9582455785,-5.4195207106,-1.69133707655,-67.0261284883
do_nothing,-2.25711037661,-0.279602646757,-3.28300632886,-0.491862599794,-1.69415104871,-0.634817879446,-3.35049667867,-4.43008430814,-0.491827042892,-3.61055129132,-2.52779133439,-5.3044204,-1.45072023706,-53.3596204644
do_nothing,-0.467650947074,1.38485634088,-2.03282422742,-0.436836611434,-0.860420476929,0.60012937232,-2.92783109571,-4.21396988642,-0.459774978968,-3.0696203657,-1.71253785165,-4.30154587443,-1.19890961235,-30.0035744843
do_nothing,1.18475934809,2.29004100731,-0.547832198501,-0.318278003548,0.109099210811,1.56368675856,-1.93844385901,-3.18795276249,-0.351315168138,-2.13907594698,-0.659797727367,-2.53542087989,-0.877490675003,-3.58657842201
