label,COUNTER,INTERPOLATED,AF3,F7,F3,FC5,T7,P7,O1,O2,P8,T8,FC6,F4,F8,AF4,RAW_CQ,GYROX,GYROY,MARKER,SYNC,TIME_STAMP_s,TIME_STAMP_ms,CQ_AF3,CQ_F7,CQ_F3,CQ_FC5,CQ_T7,CQ_P7,CQ_O1,CQ_O2,CQ_P8,CQ_T8,CQ_FC6,CQ_F4,CQ_F8,CQ_AF4,CQ_CMS,CQ_DRL
off_to_on,0.423795361814,-0.00931099884417,0.991085923521,-0.919875742852,-0.900401571274,3.09442883004,-2.3283469169,-2.74274363555,-0.731397499496,-0.382027207947,0.128265968958,-0.356761497164,1.38325083473,-17.2975980363
off_to_on,2.25536813417,2.20896942745,3.03190297847,-1.28983934062,-0.268738416837,7.91895667399,0.444062319569,-1.83340316914,-0.87058859974,0.527018741711,0.312178209871,1.21563218941,1.85204522258,-48.2378295195
off_to_on,3.15600130425,3.45395891455,3.93030367603,-1.41444951532,0.170108113799,10.3475423694,2.95930778128,-0.640605240089,-0.914228464048,0.870694005686,0.227479420482,2.04508655956,1.52028268492,-65.8128487858
off_to_on,2.81420552053,3.29388088454,3.367847502,-1.25068263624,0.268541421183,9.6063487533,4.45371957752,0.372371656944,-0.855455233182,0.509854544233,-0.151680066291,1.84445332011,0.461494544497,-67.297473732
off_to_on,1.36585740829,1.80692562579,1.53851499067,-0.82020887895,0.0417815732292,5.91260126036,4.49830365743,0.868118493473,-0.68885702305,-0.400281382219,-0.724451074423,0.723905436761,-0.977377915213,-54.1725371112
off_to_on,-0.655900148594,-0.446512994046,-0.918107609877,-0.206993555766,-0.344508637595,0.410770388197,3.13120171697,0.751110821153,-0.416878965088,-1.46845895179,-1.29222270065,-0.855802646443,-2.28900968217,-31.2333681137
off_to_on,-2.50796319934,-2.62020841666,-3.13628516787,0.460771951464,-0.644975781319,-5.18834644124,0.841021566923,0.191313296047,-0.0582992013606,-2.20895626197,-1.62356825028,-2.25138831683,-2.97624111812,-4.88682034551
off_to_on,-3.49709517716,-3.8806693936,-4.32130994232,1.04014050357,-0.637446776163,-9.15039783766,-1.59534215884,-0.452537920264,0.345930451789,-2.21853938858,-1.53449665363,-2.86772215449,-2.72361291811,18.7755619199
off_to_on,-3.22325919257,-3.70542191219,-4.02328728889,1.40692335465,-0.219545227428,-10.2670861116,-3.36924988532,-0.782035089724,0.733704774645,-1.32974167432,-0.9579301731,-2.37250961349,-1.51286603929,35.5167535239
off_to_on,-1.7233867669,-2.07721305879,-2.2946279438,1.48475901073,0.537748517939,-8.23508281553,-3.90799939428,-0.526087179293,1.03146882322,0.310945091247,0.0208317631118,-0.822649545604,0.356416220575,43.6718603135
off_to_on,0.533503288961,0.495229464528,0.322040212201,1.26240262818,1.40146741801,-3.74254610795,-3.06503269957,0.336395922802,1.17099869913,2.26757819753,1.17571881156,1.34017238927,2.34914580042,43.9244548603
off_to_on,2.79859842991,3.1403935638,2.97143440795,0.79502634893,2.05163786913,1.76272446442,-1.16808740299,1.54595453215,1.1085365269,3.93717541769,2.19720592369,3.42386692765,3.85506464684,38.3611442519
off_to_on,4.29215355323,4.91824647025,4.76891347549,0.189539169404,2.19521581212,6.5455451806,1.09290030238,2.64002989447,0.84000854709,4.73422036531,2.7797173476,4.70717111078,4.37722732998,29.2669856893
off_to_on,4.4658055546,5.14647960959,5.09463831942,-0.42193246177,1.67918382587,9.14040747357,2.90254151747,3.11548546552,0.406757963527,4.28123652649,2.71372174797,4.67668665047,3.6899010404,18.1842663168
off_to_on,3.19090599996,3.64679691386,3.80069583684,-0.913351646843,0.561659522246,8.81186700729,3.60263948975,2.62117213898,-0.110985104984,2.54606353142,1.9548277042,3.20377052946,1.91674084366,5.61300724165
off_to_on,0.810201732473,0.824709695952,1.26298004031,-1.19288904459,-0.88687739668,5.77083882597,2.92455016653,1.1117206676,-0.611751442803,-0.118958236371,0.648154322548,0.60443724065,-0.495222998924,-8.56162462173
off_to_on,-1.96451401347,-2.44821831566,-1.73834443686,-1.22111278672,-2.25658011749,1.08141263287,1.09013924937,-1.09616562269,-0.996791290282,-3.05241292324,-0.901176657579,-2.43793351127,-2.89844056773,-24.1590215879
off_to_on,-4.27556777256,-5.11377528895,-4.26930458712,-1.01546881801,-3.1239725228,-3.7049522408,-1.25641129632,-3.3922865419,-1.19344393071,-5.45657149034,-2.30500438034,-5.0648830639,-4.6281471064,-39.7886044192
off_to_on,-5.39100792082,-6.2765827308,-5.54062936121,-0.64104030402,-3.18984116362,-7.06268554061,-3.26613603474,-5.05127948801,-1.17123204763,-6.62071486074,-3.19605461844,-6.4929111705,-5.19213196358,-52.4504129949
off_to_on,-4.93715444381,-5.50684433507,-5.1570791333,-0.19107196485,-2.38309371315,-7.98226077463,-4.18010634517,-5.46639146393,-0.946411949248,-6.13166803416,-3.32989674668,-6.24679285316,-4.41176822944,-57.9886369836
off_to_on,-3.01805557063,-2.99368331821,-3.23815755488,0.236967038066,-0.894523755792,-6.2783907102,-3.60083693155,-4.36217570814,-0.574441430109,-4.00959630875,-2.65575369265,-4.30700177979,-2.47409467941,-52.3898010797
off_to_on,-0.184881502269,0.504539357803,-0.374050691789,0.563454038447,0.87292180505,-2.62109520024,-1.64513602088,-1.91275170422,-0.133536476286,-0.72649712409,-1.33516913758,-1.12772067164,0.118981613685,-33.5335687688
off_to_on,2.73350550032,3.89889286837,2.56548014436,0.741660057599,2.42315276281,1.71215732992,1.07797801369,1.27938740931,0.295099856037,2.90291514182,0.298032608519,2.48016406873,2.68873662991,-2.73465695534
off_to_on,4.8839694525,6.12007856437,4.70496188124,0.763014215055,3.31776165668,5.27362854449,3.66132614483,4.34431097704,0.644429121439,5.93196218611,1.82640228626,5.56785967529,4.56505188343,34.6206225739
off_to_on,5.6464900444,6.46497883775,5.43119768262,0.652662481419,3.31027012623,6.92294230066,5.20285531818,6.3991927636,0.871817236523,7.53839288202,2.86191935551,7.30746272304,5.26703282113,69.8002691553
off_to_on,4.81619286476,4.82512798526,4.57170268021,0.457847301126,2.42054006598,6.18784258424,5.11608070654,6.81783535731,0.960980831065,7.25540839039,3.1517742925,7.21844430199,4.62929578198,92.8203319059
off_to_on,2.65618887538,1.72173296864,2.43139028393,0.233083725901,0.925616692905,3.39430868587,3.34084379052,5.42929499222,0.917253090769,5.11113236477,2.6467542347,5.29945375866,2.84065381108,95.3967935837
off_to_on,-0.19119626945,-1.86394196584,-0.317966331676,0.0263061395914,-0.729395603481,-0.4682571373,0.379773447189,2.58067329388,0.7597419077,1.63426898105,1.51241953339,2.03007007998,0.386782793134,73.8542776379
off_to_on,-2.90346641516,-4.80830803156,-2.85470638399,-0.130756991159,-2.07087031161,-4.09312474973,-2.85546579088,-0.958185628407,0.514240674464,-2.27947622737,0.0795457879283,-1.75676157161,-2.08522714354,30.9802553452
off_to_on,-4.72355659816,-6.20626989441,-4.4588426332,-0.226330624196,-2.74114351319,-6.29290164387,-5.33887867307,-4.21984358312,0.209429996254,-5.60607789216,-1.2520668628,-5.09577829556,-3.94192341182,-23.9460926475
off_to_on,-5.17679808419,-5.65687878529,-4.71958089452,-0.266569787774,-2.60179939843,-6.38115476706,-6.26749036486,-6.32432637577,-0.123321377055,-7.47190896359,-2.12852192388,-7.14349439562,-4.73008259307,-77.1828746415
off_to_on,-4.19601811591,-3.38173970965,-3.63837860143,-0.269294808946,-1.76414144385,-4.37715436075,-5.32741438735,-6.73511499301,-0.448356900149,-7.39440657697,-2.34183285824,-7.39709964525,-4.29045246547,-114.172703747
off_to_on,-2.12209367727,-0.140450682657,-1.60300630867,-0.25580574786,-0.539836324989,-0.974526062055,-2.79831286168,-5.40698712195,-0.725196097292,-5.41586004152,-1.88553479547,-5.82055479062,-2.78973563297,-123.786809325
off_to_on,0.413918541456,3.02533205741,0.750856314614,-0.243188108928,0.669048363837,2.70617543422,0.539140318242,-2.78206652797,-0.911491796099,-2.09100838895,-0.949542045411,-2.84606344398,-0.664700559721,-101.862072054
off_to_on,2.68615516919,5.13197603802,2.74096696487,-0.239037483309,1.50232961124,5.49182677586,3.66088247244,0.360485258533,-0.970188332679,1.66922562404,0.143843104928,0.747166955932,1.5038773866,-52.8613498536
off_to_on,4.08538708165,5.56527235682,3.83807522151,-0.239700268371,1.75231191808,6.53197306437,5.6340263709,3.14935441159,-0.879336273369,4.85379361721,1.04292180294,4.04240218492,3.1513066722,10.9805660014
off_to_on,4.28413272814,4.26267586621,3.804821622,-0.232193460322,1.41781114754,5.55464543297,5.91468725113,4.8803928915,-0.641232895236,6.63388318917,1.47666439831,6.22586274186,3.87875006681,72.8906218521
off_to_on,3.31063392139,1.71122719017,2.7384370266,-0.199119545486,0.687074991372,2.92683723696,4.50941377254,5.20881946551,-0.287054962287,6.59006966853,1.33759722156,6.79390617032,3.55235843653,116.270319334
off_to_on,1.51648997954,-1.23167181423,1.01366023305,-0.12525203658,-0.140561778303,-0.489758927965,1.94902405682,4.21804704122,0.125767606751,4.81890644644,0.711618124226,5.67287225902,2.32643516432,129.483651142
off_to_on,-0.545279754095,-3.62940504578,-0.847791438857,-0.00409759775683,-0.764477015044,-3.63124411207,-0.91073507739,2.35161530765,0.523866403873,1.88940747078,-0.15451563254,3.22215156819,0.586955246936,109.25119329
off_to_on,-2.29025729493,-4.76950453919,-2.33597284355,0.157319548299,-0.985209237865,-5.57168108756,-3.18780217239,0.239971666496,0.833663684428,-1.33535707397,-0.937489701755,0.123131101321,-1.16600198717,61.5893817893
off_to_on,-3.26849550245,-4.37941764937,-3.0911797388,0.336928076645,-0.765319029242,-5.80107348211,-4.2653859602,-1.51369948106,0.998194066631,-3.95623601864,-1.34630517239,-2.81257329381,-2.4617785368,-0.00859399248853
off_to_on,-3.27926231389,-2.68803331328,-2.98518012696,0.500191816945,-0.230417656524,-4.35755821823,-3.97601876952,-2.51521544755,0.990107043483,-5.29716776688,-1.2203626734,-4.86119534785,-2.98723142293,-58.5899840244
off_to_on,-2.40612169461,-0.320437488748,-2.12932523263,0.606748396544,0.386456382651,-1.78137948277,-2.61889271959,-2.67151415332,0.817060279641,-5.08829709675,-0.584605796805,-5.57126181176,-2.66373937432,-98.709248662
off_to_on,-0.968969356483,1.9305669908,-0.816664558299,0.619985724921,0.834665615656,1.08367278654,-0.812691285693,-2.17078824104,0.518149391681,-3.52068264696,0.356706671664,-4.86569610519,-1.65340604205,-110.809549798
off_to_on,0.586332971377,3.37363155793,0.57705294152,0.517461441335,0.936978589262,3.36953668524,0.754901981538,-1.36872996488,0.15287656371,-1.16095091308,1.28608909311,-3.03747325001,-0.296079748656,-93.6928477155
off_to_on,1.8240191031,3.63674818105,1.7006639301,0.299473488194,0.650063155854,4.45162599722,1.58464729376,-0.630611736464,-0.213602820132,1.24220528827,1.87754886063,-0.645426456703,1.00088015014,-54.3844811524
off_to_on,2.43930073813,2.7639959868,2.31307153959,-0.00686610486174,0.0749979311227,4.12270225382,1.53477173479,-0.190942395819,-0.524385404644,2.99526306772,1.90572191715,1.65533669428,1.88499040142,-5.54075340032
off_to_on,2.33107882984,1.16608106197,2.32771153206,-0.349892002306,-0.583341292005,2.62539048593,0.842358700962,-0.0814680265363,-0.740115215918,3.66512384786,1.3233615064,3.2969920131,2.15596796039,38.6793990757
off_to_on,1.61012421444,-0.549251535144,1.81121217296,-0.662335814626,-1.09139560977,0.542968279147,-0.00476056922194,-0.149346857693,-0.841958487817,3.18982891711,0.281195881565,3.94377323261,1.81017211528,66.9082589509
off_to_on,0.546241862147,-1.80119329469,0.944550958544,-0.875496775027,-1.26885025959,-1.40812055835,-0.490615890835,-0.151767727473,-0.828985392627,1.86500619115,-0.91701178852,3.55944357945,1.02208503739,73.6721090044
off_to_on,-0.524897063371,-2.23347806839,-0.0367547818308,-0.93550261559,-1.04882397499,-2.6132846762,-0.298123894042,0.115522268174,-0.712544966758,0.217643194628,-1.90997699022,2.38398735852,0.0730156580253,60.4040704142
off_to_on,-1.30477422334,-1.8185790114,-0.90485795152,-0.817565944755,-0.496847363304,-2.74789693326,0.549884078515,0.709890752523,-0.510808223926,-1.18517571489,-2.39391495683,0.833894153841,-0.746583098336,34.2010490444
off_to_on,-1.61417881852,-0.837850912878,-1.48898070049,-0.534260554163,0.215552465149,-1.86325209601,1.69176670121,1.49834620083,-0.245826270967,-1.92592418517,-2.21939803272,-0.637620885341,-1.2278341707,4.90985424785
off_to_on,-1.4324166577,0.247678112702,-1.70327885442,-0.135133356618,0.871045504432,-0.349667295373,2.57072965405,2.19718330694,0.0563513379357,-1.86187878049,-1.43830826231,-1.67463364601,-1.29818468526,-18.3581993946
off_to_on,-0.885841698238,0.983154989126,-1.5514627509,0.302845161712,1.27810095856,1.20554037261,2.66554566542,2.48001779956,0.36388748517,-1.14783888337,-0.285692356624,-2.10638279924,-1.02504249129,-30.0720273065
off_to_on,-0.193499155306,1.09208966802,-1.11197898328,0.69199441424,1.32935210169,2.21675190089,1.71805995522,2.11246111662,0.63827116968,-0.154742874114,0.897039332895,-1.96654481431,-0.571561970947,-29.5810133923
off_to_on,0.41020345983,0.572782993558,-0.510625915553,0.953736450434,1.02849264773,2.29237474113,-0.133108963491,1.06077663541,0.836783580901,0.681798034208,1.77170105535,-1.44544480256,-0.124286927371,-20.5690925685
off_to_on,0.750451663883,-0.313054320224,0.11178695655,1.03645512253,0.479684569559,1.3623612749,-2.36875862108,-0.468981574542,0.919339645615,1.02648039576,2.1091919523,-0.798579814731,0.178862412448,-9.03183096922
off_to_on,0.761714508524,-1.15117143315,0.629965678763,0.926787600843,-0.1533001226,-0.296267280413,-4.25479297631,-2.07921578936,0.858574152733,0.764039920995,1.85684050996,-0.24736280263,0.293583059409,-0.644810894432
off_to_on,0.498459655684,-1.54090943509,0.957642093904,0.651513121679,-0.701496339512,-2.14211775865,-5.09982156713,-3.30188216275,0.650077268402,0.0331992075458,1.14590815746,0.0925346656181,0.271986740864,1.45046888854
off_to_on,0.106025131275,-1.25360574691,1.0606193951,0.26980988617,-1.03934906751,-3.53498019668,-4.51080365141,-3.750830643,0.318796510307,-0.834039727077,0.238462588448,0.232593656423,0.224804566621,-2.35903210926
off_to_on,-0.236727899801,-0.324808777479,0.957721242643,-0.141702740598,-1.11260732577,-3.93530422802,-2.55144423438,-3.25201153339,-0.0817009281747,-1.44297164934,-0.566643554082,0.279853448021,0.260357741329,-8.67824349755
off_to_on,-0.382978680307,0.952694274692,0.710008677479,-0.506842660671,-0.939885559967,-3.07915544585,0.257662862558,-1.90588433167,-0.478297418745,-1.48796977156,-1.03548905833,0.36924572522,0.426482749765,-12.841617956
off_to_on,-0.269875438391,2.13137884506,0.40085003186,-0.765828081616,-0.592388420602,-1.0769280744,3.10070010976,-0.0604754136442,-0.79408304098,-0.870706912953,-1.07346317367,0.589281612868,0.680189184962,-11.1153408833
off_to_on,0.0599604342826,2.7689486829,0.111601796478,-0.885413909768,-0.163331923636,1.59501692136,5.13436789437,1.79501829958,-0.966650034484,0.256745434487,-0.747577895718,0.931601511576,0.898702101703,-2.4581789603
off_to_on,0.473904975976,2.58776732391,-0.100836661687,-0.861334151289,0.259841535087,4.21112974157,5.76695162982,3.17895520768,-0.963559760612,1.53824065612,-0.250700837551,1.28460540229,0.928900390809,10.8676917755
off_to_on,0.796205771606,1.57699544445,-0.218234104897,-0.713637441302,0.611276039617,5.99282678364,4.84978613231,3.7579000265,-0.790227329178,2.5322423634,0.177802275914,1.47383725604,0.656354050453,24.0797790769
off_to_on,0.870517327341,0.00204058443909,-0.26243273431,-0.477542215924,0.848541909398,6.33171185271,2.71440092911,3.43378753769,-0.487752383327,2.86134763182,0.345437094117,1.33363305499,0.0663156515082,31.7449506012
off_to_on,0.617319990887,-1.68075203896,-0.282922882402,-0.193405400368,0.945508423328,4.97777089554,0.0451525842887,2.35291933417,-0.12140803026,2.34170745057,0.179942745347,0.78243566523,-0.729271240358,30.0007402854
off_to_on,0.0670938082379,-2.97312327867,-0.334000203684,0.10096741789,0.884946867361,2.137303811,-2.36317632839,0.8403545352,0.236538437023,1.04960634787,-0.243718529112,-0.127559041332,-1.51276951024,18.2501497177
off_to_on,-0.642114241842,-3.49537648626,-0.448834353622,0.373920148385,0.658401041272,-1.55220015178,-3.87276569078,-0.711656628415,0.524312153119,-0.695347666644,-0.732184170674,-1.20668587198,-2.02599317833,-0.35444580333
off_to_on,-1.302703588,-3.10379726831,-0.619679092712,0.599674259794,0.275554845123,-5.17027702323,-4.19858207578,-1.95960234776,0.703239492788,-2.42303919025,-1.04763769606,-2.17386920658,-2.05840765666,-19.8660734819
off_to_on,-1.69971092033,-1.92732200665,-0.792349475881,0.756089576036,-0.221504471684,-7.75018037995,-3.46565165066,-2.69058348494,0.762236280296,-3.65031930118,-1.00000108801,-2.73856926841,-1.52725998041,-33.6169282195
off_to_on,-1.6780148401,-0.314966971545,-0.878957801066,0.823092601553,-0.748679665403,-8.54247909729,-2.11477281532,-2.84865919433,0.713898234666,-4.01949424218,-0.523937805943,-2.69200361126,-0.519699684801,-36.6585182869
off_to_on,-1.19367700443,1.2836736126,-0.786820354965,0.783905111352,-1.18484648771,-7.23285865742,-0.701208011442,-2.50739442865,0.584797922409,-3.39671523754,0.287450797151,-1.97766530673,0.720715139675,-27.6599375503
off_to_on,-0.333364434225,2.46107746078,-0.455346974236,0.62967142892,-1.39642599056,-4.05037674309,0.330029724785,-1.81027847954,0.404337349401,-1.90437716926,1.20511598613,-0.718044530406,1.86147732612,-9.53770273988
off_to_on,0.704433328418,2.96876577533,0.111240625833,0.366136469034,-1.27794890042,0.269783773784,0.802864721993,-0.909667016229,0.196512185267,0.116661700732,1.93588761033,0.811131730854,2.58162000457,11.4547908969
off_to_on,1.66108881901,2.77207074117,0.827719090863,0.0194792028849,-0.796248625561,4.66526138807,0.842690145327,0.0699132284618,-0.0227167345639,2.19875483114,2.21949856771,2.25109925346,2.67202450268,27.8876687489
off_to_on,2.28734346278,2.03046981462,1.53652536201,-0.362047701741,-0.0209557456058,8.02256346423,0.775230148967,1.03386537308,-0.242370352429,3.86386126459,1.9178338144,3.25330368213,2.10166107857,33.8092476322
off_to_on,2.41056194941,1.0181527731,2.04226692444,-0.71307803428,0.874404615685,9.47579310477,0.939261996472,1.89375076633,-0.450162595326,4.73307027913,1.06601669324,3.56848953289,1.02721532699,26.9424722773
off_to_on,1.98081783276,0.0191320962414,2.16460930527,-0.962983194443,1.64787081509,8.644266311,1.49630171035,2.53997907503,-0.626835446253,4.60461970357,-0.132083949129,3.10741872186,-0.257060299588,9.6160795595
off_to_on,1.08360275276,-0.763079719421,1.79517297633,-1.05231986471,2.05528572427,5.74015646349,2.32212257767,2.83533822074,-0.744725393199,3.48796404502,-1.36260295726,1.95899684858,-1.41191471824,-11.9376774059
off_to_on,-0.083089888588,-1.25062250824,0.941144826182,-0.949463368065,1.92883493567,1.51313853377,3.03183676824,2.64312757339,-0.772351106899,1.59380229214,-2.29536198936,0.364620532034,-2.15643493462,-29.7092168727
off_to_on,-1.25952705437,-1.480746543,-0.259377699992,-0.662212154454,1.24194187866,-2.9542424268,3.13497484026,1.88497298761,-0.684148407368,-0.711411342203,-2.68200336064,-1.34082566682,-2.34750752275,-36.7404746231
off_to_on,-2.18795870304,-1.55156113352,-1.55807813049,-0.240085559557,0.135905912015,-6.54290816505,2.26134818865,0.605065482347,-0.472028345354,-2.97444874581,-2.42735928014,-2.80402834062,-2.0100288005,-29.6714884685
off_to_on,-2.67210192898,-1.55226006738,-2.65072584766,0.234456499106,-1.10573199295,-8.40025157518,0.364928761688,-0.991697543042,-0.154188292583,-4.73615053541,-1.61245662363,-3.72611714815,-1.31050723924,-10.0991805897
off_to_on,-2.61790197388,-1.50998623886,-3.25247353514,0.664310361239,-2.13222924617,-8.16250620172,-2.18418038984,-2.55512125265,0.222896316146,-5.61412529847,-0.463920982492,-3.91901146301,-0.486814980554,15.7600334065
off_to_on,-2.04750067427,-1.37629343138,-3.1744432989,0.960903942127,-2.62967154394,-6.03329929203,-4.67006557921,-3.66740619769,0.591252374023,-5.37776197316,0.718092340455,-3.33718340022,0.23828058346,39.033362703
off_to_on,-1.08614781646,-1.05798069723,-2.38023771021,1.06584795609,-2.42169532826,-2.69861634577,-6.25190879548,-3.96619747174,0.875914411439,-4.00461589393,1.64878231955,-2.08280356375,0.727836345285,51.1486206985
off_to_on,0.0714592559105,-0.477492034179,-1.00552587105,0.964864219547,-1.53313469432,0.892227517526,-6.26267447025,-3.27376488198,1.01331204863,-1.70543943532,2.1359618401,-0.386354621409,0.961259609364,46.8018698926
off_to_on,1.20500174587,0.364985318365,0.666543875278,0.689975413187,-0.193055783544,3.8101042176,-4.47668021048,-1.6839913158,0.968129555433,1.09420701984,2.12297204223,1.43315378412,1.01649606085,25.9315133834
off_to_on,2.11165413397,1.35695151536,2.26930798474,0.309442536248,1.22727966774,5.40667168448,-1.24129117995,0.431801985095,0.743471866402,3.82212664727,1.68724648708,3.02322295734,1.01451738623,-5.98860676168
off_to_on,2.64002889227,2.28498807407,3.44008672951,-0.0913677011106,2.32425840511,5.47432786276,2.58739826681,2.51320013888,0.381157870385,5.87249301377,0.999524075211,4.06168268183,1.05090367145,-39.476305485
off_to_on,2.71044535975,2.89197558957,3.90855773257,-0.432324792838,2.7854290978,4.26174650811,5.89519137518,3.97233842601,-0.0480002586616,6.7442221654,0.260834031881,4.32050459819,1.14359340996,-63.9305795306
off_to_on,2.32096116891,2.9610740626,3.56279353103,-0.657446944112,2.48665603121,2.34829136324,7.66740759537,4.37874843383,-0.461034981434,6.17246339616,-0.360201155463,3.71814006674,1.21881554685,-70.9769141964
off_to_on,1.54138472512,2.39568778439,2.475701876,-0.745113468654,1.53049540777,0.425408951712,7.33103103223,3.60444261943,-0.781869139098,4.21569448183,-0.769737804122,2.34757839468,1.1416622791,-57.2063653957
off_to_on,0.498667003442,1.26483159081,0.885382760118,-0.707337326668,0.212333699685,-0.938898959467,4.95935569817,1.87594597838,-0.957304255501,1.26724105539,-0.959704903826,0.469340385234,0.779722710286,-25.432006259
off_to_on,-0.643070470593,-0.204552835604,-0.864580630603,-0.579503629303,-1.07511134709,-1.47410439216,1.26236433171,-0.289911423939,-0.966013538845,-2.0217600783,-0.98813373649,-1.53493144202,0.0745690184918,15.9506582795
off_to_on,-1.70536921092,-1.68737140748,-2.40825797057,-0.404989721583,-1.96740443465,-1.26492197856,-2.63926846147,-2.2491610396,-0.819051207074,-4.89526824716,-0.939869386186,-3.24252789792,-0.908155707472,55.3231160284
off_to_on,-2.51926644757,-2.8521071445,-3.44159632054,-0.220440831007,-2.24218614369,-0.679337793788,-5.58140050451,-3.43931014788,-0.553045008901,-6.68334709766,-0.8842322319,-4.28665863449,-1.97221349103,81.217879697
off_to_on,-2.94838025197,-3.45284858739,-3.78617197689,-0.0467574908852,-1.88315408003,-0.198183258714,-6.73820132346,-3.56165143083,-0.219180713111,-6.97802118589,-0.845492029644,-4.44583146622,-2.83438456397,85.6962438555
off_to_on,-2.90913477594,-3.39051523987,-3.41775788954,0.111629193836,-1.07339475976,-0.210644661552,-5.88537590894,-2.67287823123,0.128270788598,-5.74143593473,-0.795929139344,-3.70006007814,-3.20644230601,66.7250115886
off_to_on,-2.38555617769,-2.7244832931,-2.45568054752,0.259923729962,-0.121750054195,-0.850509414959,-3.45337648822,-1.15286921341,0.440852772343,-3.31200871086,-0.672380090442,-2.23575245904,-2.88931412233,28.8549882084
off_to_on,-1.43600090939,-1.63492514405,-1.12009724285,0.40221175166,0.650778202435,-1.93242734588,-0.354179706801,0.440141209351,0.680851048663,-0.305056645669,-0.408769169564,-0.395587584022,-1.84797407491,-17.9883585408
off_to_on,-0.189797774474,-0.354471705771,0.32747525879,0.531869231582,1.02374355903,-3.01159607587,2.35358433849,1.57447541144,0.822654334691,2.56219034391,0.0280270903695,1.41318760271,-0.241249012082,-61.2410998397
off_to_on,1.16692971023,0.901982844966,1.64220111479,0.627681196375,0.948913783688,-3.54650929805,3.83872139217,1.934760721,0.852181250425,4.66680475987,0.612177417949,2.82477318084,1.60487313094,-89.1720701814
off_to_on,2.41535121851,1.9823905514,2.63744729373,0.657901817459,0.555766102452,-3.10776589766,3.77552929378,1.52620476228,0.766238266045,5.63665812565,1.25217849277,3.6026754564,3.27383273432,-94.1058971955
off_to_on,3.33542660297,2.80367457409,3.20233041693,0.591265061354,0.0899059880237,-1.55893063835,2.42736763743,0.654566307432,0.572923084247,5.42047245601,1.80640340425,3.6829135884,4.3629780784,-74.5072539184
off_to_on,3.74106835552,3.32363844693,3.29709388173,0.41103183761,-0.191833545785,0.856167156982,0.51013230108,-0.210208091077,0.292900511377,4.25506369134,2.11703019244,3.16166190648,4.58610787667,-35.373727149
off_to_on,3.51440638394,3.49971930233,2.93560717375,0.126643716426,-0.129667334821,3.55436908147,-1.10809515939,-0.633965243929,-0.0397905928742,2.54918500633,2.05320709833,2.23622444737,3.84608243813,13.1372267672
off_to_on,2.63409783282,3.26233386182,2.16729295498,-0.221955233639,0.269111038163,5.77398884457,-1.75450861476,-0.403672499022,-0.379204589867,0.731524410571,1.55188850677,1.12487950691,2.25962279135,58.4413179546
off_to_on,1.19237852093,2.52423722963,1.06832865462,-0.569900573913,0.826258107778,6.80642930267,-1.21298996338,0.376195765206,-0.67252900662,-0.879535500219,0.645417252763,-0.00198470410708,0.130783109551,88.8617775416
off_to_on,-0.60429521245,1.22996782217,-0.254852941144,-0.842047240583,1.25842062475,6.22483532243,0.199946922512,1.31758611377,-0.86868280266,-2.1386514259,-0.531942187204,-1.05298759226,-2.11678914217,96.669246114
off_to_on,-2.45516370647,-0.572018400986,-1.65505361608,-0.972568422806,1.2899203951,4.03542898442,1.77278936037,1.90435586587,-0.928867558678,-3.05227673776,-1.76168062146,-1.99958146409,-4.02985458687,80.0356783097
off_to_on,-4.00734857651,-2.66827266497,-2.93827364259,-0.923502159733,0.771065709942,0.700916536417,2.69624951105,1.71196104755,-0.836269831816,-3.69229381265,-2.78095045634,-2.82441425829,-5.21663023145,43.4178823021
off_to_on,-4.91778133731,-4.66738972337,-3.8747209918,-0.696361435455,-0.243348024179,-2.97441521865,2.40421713742,0.605722696427,-0.601852241957,-4.09072488575,-3.33788291537,-3.46315509822,-5.42117389768,-3.69197585256
off_to_on,-4.92665517901,-6.05923383262,-4.23428580826,-0.333064063292,-1.48798193094,-6.06471030504,0.824521134914,-1.16408937456,-0.264030489273,-4.16984855367,-3.25160472067,-3.77393012491,-4.57003380788,-49.2878719684
off_to_on,-3.92827793501,-6.3443873783,-3.84384844304,0.0941528137961,-2.5607422575,-7.78156262919,-1.56141145344,-3.01621615896,0.118239633861,-3.74700408531,-2.46390253851,-3.55863693873,-2.78682116223,-81.964350787
off_to_on,-2.0211701778,-5.20170024398,-2.65237371515,0.500684739701,-3.05480148734,-7.69410916862,-3.87879896768,-4.23166826908,0.477444444773,-2.62041586378,-1.06935788277,-2.63826053517,-0.375120739528,-93.809259815
off_to_on,0.480630397213,-2.63924592087,-0.781553183079,0.809876024411,-2.7048134796,-5.84492313007,-5.1841056879,-4.22161892617,0.751487959506,-0.704325868483,0.686524592016,-0.95816481283,2.22736778865,-82.336112136
off_to_on,3.08725706667,0.930914559336,1.46123675415,0.969757176377,-1.49574715551,-2.72912826211,-4.83369243628,-2.77205281351,0.896023073866,1.8457821522,2.44590363467,1.32002643871,4.51910637575,-50.9806965169
off_to_on,5.22440106658,4.73660546271,3.62295133286,0.961815670173,0.306671825712,0.853821023684,-2.75589254645,-0.169510874026,0.892113072104,4.58167820713,3.81030098698,3.78677720633,6.02279896681,-8.06699154944
off_to_on,6.36218663152,7.81482427146,5.1977292531,0.800324692017,2.21940046802,4.02826149331,0.481508709352,2.84913198819,0.747733609599,6.82613828856,4.43251283888,5.843941628,6.38052654273,35.4537516995
off_to_on,6.15312891981,9.26995677844,5.75402203986,0.5239185669,3.68294213754,6.08065302536,3.84218461987,5.3176481341,0.493505211391,7.85092831543,4.1080006252,6.85409744032,5.4398199314,68.8728114257
off_to_on,4.5422886047,8.54845843835,5.06229647416,0.183364126221,4.23582232803,6.63827165155,6.17559980932,6.36318237886,0.174596353131,7.12039353248,2.84144063845,6.34249358344,3.31037291457,84.4370286936
off_to_on,1.81412697786,5.64260334866,3.18366659332,-0.16993438743,3.66576020597,5.73959299405,6.62947381255,5.52003688584,-0.158551301234,4.51792055325,0.866916656664,4.18675366242,0.371359392606,79.1969346375
off_to_on,-1.44657842464,1.14948342272,0.486488737891,-0.491342318933,2.08665275531,3.78280491834,4.96981582874,2.92075168924,-0.458305825906,0.466745973092,-1.39002511923,0.723019440082,-2.78350276712,55.5291773008
off_to_on,-4.48015899377,-3.84844643803,-2.42339695818,-0.745318672706,-0.0860209825319,1.37646546402,1.68802560645,-0.710918376471,-0.685401707516,-4.1158053421,-3.4052639549,-3.28313065294,-5.46178681082,20.2423106739
off_to_on,-6.5383152252,-8.05982057293,-4.84739178058,-0.904154976637,-2.25557158334,-0.855405460411,-2.15018274933,-4.27301164233,-0.811908269878,-8.03785913972,-4.6843426199,-6.81121441526,-7.02951921541,-17.4352023214
off_to_on,-7.08407462896,-10.343763944,-6.17759916691,-0.946179457624,-3.82273773185,-2.45093061364,-5.26581552357,-6.63900176923,-0.82249187166,-10.1714975156,-4.89365944922,-8.86583376721,-7.07352687758,-48.3863433679
off_to_on,-5.9486785324,-10.0461651415,-6.06723700686,-0.856423183333,-4.36565643725,-3.21742729507,-6.61182690524,-7.03412856535,-0.715094480947,-9.80738989867,-3.95766588499,-8.78066741346,-5.52438718519,-65.9344814419
off_to_on,-3.39575302046,-7.20741142134,-4.53601945271,-0.631101180791,-3.7637232709,-3.24056101301,-5.74385212801,-5.30422409048,-0.501657389042,-6.90740694668,-2.09141808281,-6.44825208954,-2.69990248555,-67.336475085
off_to_on,-0.0667102719893,-2.57128104549,-1.9750631297,-0.284737909491,-2.22649685816,-2.80155276273,-2.98213938902,-1.98061743759,-0.208607751914,-2.16251323665,0.245698911943,-2.39349827873,0.75263182856,-54.0787527317
off_to_on,3.18449915961,2.61558427967,0.955026570468,0.143505332289,-0.220158404786,-2.23817964754,0.696122357165,1.88630839226,0.123983651191,3.17691345894,2.46677589926,2.34508428059,4.00894752395,-30.9868105575
off_to_on,5.52451348363,6.95843832822,3.50629217485,0.588662381403,1.68251266536,-1.80214480302,3.99847568374,5.07192981865,0.445887073297,7.65607428833,4.01456459178,6.5006268423,6.27896201244,-4.51314803694
off_to_on,6.37498102335,9.31785138731,5.05302104779,0.967272764296,2.97843664889,-1.56421326301,5.77276382601,6.58423944413,0.703562381963,10.049097264,4.51478353316,8.94676905562,7.01901864898,19.2055561198
off_to_on,5.57744036415,9.13833972288,5.2656513343,1.19366063401,3.3795721755,-1.40011591939,5.41464500643,5.99306509414,0.84983728602,9.73275188532,3.8801009689,9.03533167556,6.08273763933,35.904601916
off_to_on,3.43604198201,6.60021610614,4.19543118621,1.20200319223,2.88228941028,-1.06092077912,3.08134171708,3.56761909308,0.85444782658,6.8774872436,2.33240706792,6.79346025833,3.76284457973,43.9203558273
off_to_on,0.621740875785,2.54744148691,2.2435476154,0.967906563429,1.7426468828,-0.301120593974,-0.365313639276,0.174572310345,0.712495977617,2.39021665004,0.334955540697,2.91368663845,0.707625923931,43.9681072543
off_to_on,-2.03499020935,-1.78495971112,0.0250075782542,0.52201002558,0.371431563419,0.983792093223,-3.6667875551,-3.02745302596,0.447871648067,-2.3753200028,-1.54635212262,-1.46289072098,-2.26589714122,38.1873798617
off_to_on,-3.79930497889,-5.15654685325,-1.82847204102,-0.0504103079504,-0.811146520623,2.66371537341,-5.61713596688,-4.98956962092,0.109815089405,-6.04700651653,-2.81070176912,-5.10164399845,-4.40681924818,28.920491265
off_to_on,-4.25421415711,-6.69703203283,-2.86239441498,-0.625971073318,-1.50987721176,4.36460073508,-5.49349464242,-5.12938281931,-0.237222812392,-7.66087710009,-3.16745259471,-7.05245231054,-5.24148980941,17.7528873505
off_to_on,-3.41809718949,-6.15293601494,-2.92728471175,-1.07278627017,-1.63361993887,5.55598468116,-3.31439564023,-3.51808223288,-0.528085989418,-6.94537309365,-2.61350603472,-6.92747481406,-4.6957033007,5.20021638702
off_to_on,-1.71889881031,-3.92966230473,-2.19984039824,-1.28535170518,-1.29638851648,5.71437216834,0.165755589017,-0.833945057572,-0.71186539549,-4.37138893342,-1.41925487848,-4.98933890773,-3.09084710308,-8.86793624198
off_to_on,0.166415131159,-0.921120027948,-1.0932925648,-1.21437492211,-0.746522664058,4.5128539964,3.7233859325,1.89807497398,-0.763021662693,-0.956233431913,-0.028846079821,-2.02510509717,-1.01783322348,-24.3105681994
off_to_on,1.5530094751,1.81111753635,-0.0909054374558,-0.881971059059,-0.255186074956,1.9735352462,6.09799851524,3.68461900549,-0.685479403847,2.10632161336,1.0916302793,0.945490525468,0.867272140991,-39.7855929032
off_to_on,1.9875662054,3.39858132902,0.436919222774,-0.376695269824,-0.00822490054314,-1.47417443398,6.43596698367,3.92237303256,-0.508692605338,3.85904853303,1.6074540801,3.02301364555,2.0564872214,-52.3331468942
off_to_on,1.4029643127,3.4450457329,0.365964093833,0.1709400453,-0.0416797477349,-5.06038776458,4.58886272528,2.60722117206,-0.277256178696,3.89373926705,1.41935064594,3.71895918546,2.34064753352,-57.8161744002
off_to_on,0.133531878918,2.13252556708,-0.146146727094,0.625502047972,-0.24287573578,-7.85933996518,1.16224124359,0.319746212036,-0.0376823093676,2.45722474739,0.684475662624,3.08512891076,1.84885246101,-52.2147016241
off_to_on,-1.21576859411,0.123292538263,-0.734682549514,0.884973053631,-0.413181148684,-9.04533963252,-2.69970472632,-2.00521826709,0.173267147012,0.319648308934,-0.251174410213,1.64244608613,0.967307748967,-33.3828989432
off_to_on,-2.00116967595,-1.70249343384,-0.985103426263,0.908415553037,-0.364950673237,-8.14643112243,-5.71455969975,-3.43813433996,0.335085173129,-1.54129236231,-0.984162874939,0.142947534863,0.170815403506,-2.60458229054
off_to_on,-1.79072841921,-2.57793609396,-0.613855781215,0.724251860542,-0.0125617288086,-5.21642996426,-6.9037809536,-3.40924465233,0.443309312905,-2.32137963083,-1.20231269436,-0.741235698281,-0.169239018628,34.7550305172
off_to_on,-0.542567961032,-2.13134358139,0.396716155545,0.416694569967,0.57966237471,-0.865205320823,-5.92069832258,-1.92578830041,0.503609586763,-1.69556253111,-0.798498998661,-0.682888052117,0.071065648487,69.9647178904
off_to_on,1.35708975098,-0.519743179971,1.76372409174,0.0950653225287,1.21273552128,3.87317922636,-3.1518524329,0.429552188773,0.523301534181,0.0633056149033,0.0902635298019,0.181392286935,0.725306614614,93.0196746998
off_to_on,3.21543286229,1.63200039285,2.98804695679,-0.143550477231,1.62678779625,7.80588076175,0.438415860498,2.71939336428,0.504275267735,2.19496006855,1.13196306464,1.32233818044,1.4104734108,95.602098972
off_to_on,4.2762842298,3.46339525804,3.53223666042,-0.245640858458,1.60550715541,9.9084648467,3.65864866184,4.01021670341,0.440611783816,3.74925759568,1.91946799941,2.05039332037,1.68918281765,74.0053948895
off_to_on,4.00154611136,4.19812445703,3.03006377878,-0.216020167564,1.07070668358,9.61879773719,5.50706031495,3.73506536587,0.322120847943,3.95958952998,2.11871941529,1.81823696702,1.2585389558,31.0045397072
off_to_on,2.28998338116,3.43664824573,1.45035513076,-0.111187646201,0.129078105413,7.00781665167,5.50525737399,1.92342764647,0.142456008312,2.55264079589,1.59275140809,0.474001946821,0.0927080157935,-24.1049495231
off_to_on,-0.449347539962,1.31627193743,-0.84984750294,-0.0139725743943,-0.949692417441,2.77106235746,3.83360018953,-0.791052155396,-0.0916589573531,-0.122392541797,0.457421493076,-1.63755782693,-1.51784887176,-77.5366648904
off_to_on,-3.40312954065,-1.51997543754,-3.21088698444,0.00122752363215,-1.81882493455,-1.96221299708,1.22736230567,-3.39289797253,-0.354373536898,-3.19641646569,-0.951362413348,-3.77241636099,-3.05003134802,-114.672698111
off_to_on,-5.61063738805,-4.13676529114,-4.87382300077,-0.100112501575,-2.1753171213,-5.94937237116,-1.31988669122,-4.85923010311,-0.601243657181,-5.58132684601,-2.18808361581,-5.05415311853,-3.92845541632,-124.327803066
off_to_on,-6.28776101864,-5.62863888002,-5.23640617625,-0.296212328574,-1.87244261051,-8.18957798097,-2.93100167245,-4.54987353684,-0.777491466234,-6.36232055203,-2.84763008806,-4.81472153965,-3.73906638169,-102.307464198
off_to_on,-5.10716096763,-5.43834813471,-4.07374892101,-0.514028422316,-0.981880146869,-8.20621341212,-3.15852901554,-2.46755865782,-0.832227376579,-5.13977682923,-2.70290982127,-2.88094053256,-2.39773835559,-53.0825238857
off_to_on,-2.33447487974,-3.55925648853,-1.64331144308,-0.654608289952,0.219654851759,-6.16969057045,-2.12357440512,0.712946088665,-0.734412338125,-2.1951212215,-1.78247903519,0.306685233588,-0.209199872745,11.0630099817
off_to_on,1.23278910848,-0.549599635055,1.36953997783,-0.630199893745,1.33781513342,-2.82278377879,-0.434669539159,3.86521773239,-0.485257115173,1.58293679432,-0.361628396812,3.79823516131,2.2106068607,73.2777789292
off_to_on,4.50994706631,2.64814602683,4.0552475993,-0.400024434591,1.99373115605,0.767211870996,1.07631180648,5.80809573081,-0.122507658368,4.98984317964,1.12942984448,6.4362338845,4.12691341328,116.878677969
off_to_on,6.47532102088,5.02148628948,5.57018112284,0.00838780490328,1.95706099666,3.54983021433,1.69676590136,5.73925284578,0.285543542537,6.91398508963,2.24796745897,7.25503657074,4.92927318681,130.164988359
off_to_on,6.50892406031,5.82765411445,5.41747538278,0.500771302395,1.23171865585,4.81638097992,1.12250213931,3.54806891083,0.655237519509,6.71956512231,2.68238556029,5.83717771547,4.34132561542,109.833397305
off_to_on,4.6036343664,4.84175633141,3.62229703431,0.94133424494,0.0623540278262,4.40399216261,-0.416772362595,-0.110226341966,0.907844972331,4.46840917063,2.3481925442,2.49562743701,2.52264381978,61.9257975037
off_to_on,1.374284044,2.42804296591,0.738185648753,1.19410050769,-1.1432724272,2.71419144765,-2.24326628479,-4.01415882628,0.989186481221,0.901922355762,1.40494906109,-1.79158010559,0.0246222120576,0.00320779517746
off_to_on,-2.14166343117,-0.589450317997,-2.32288195882,1.16703224864,-1.95142870578,0.543194943192,-3.49603885461,-6.78676820247,0.88293052226,-2.81107172956,0.190980961691,-5.68189029137,-2.38693538397,-58.8918187713
off_to_on,-4.82652246588,-3.21104156645,-4.58388103093,0.844186942013,-2.05298956494,-1.21584275444,-3.47535499384,-7.37755043511,0.613873644849,-5.47241044595,-0.89870916754,-7.90736477248,-3.98292288689,-99.229229109
off_to_on,-5.85253851944,-4.6012181907,-5.32327726138,0.294789805512,-1.3755497903,-1.89524370749,-1.93631707532,-5.44659630106,0.240588643073,-6.25940044262,-1.54696998074,-7.70388833103,-4.30978711479,-111.398250545
off_to_on,-4.95387536846,-4.36665680693,-4.31513351233,-0.344416557069,-0.117286366827,-1.28831182132,0.780701220035,-1.51247618843,-0.160005021977,-4.99568513831,-1.6143817684,-5.08145591028,-3.33403749664,-94.1926840839
off_to_on,-2.50758079982,-2.67769342368,-1.90670778408,-0.908361236358,1.31110024018,0.283661875742,3.83611679457,3.19438668048,-0.511379710294,-2.19576528149,-1.17144785482,-0.838702194853,-1.44318377919,-54.6759121123
off_to_on,0.603796147888,-0.193990837746,1.09443979272,-1.25202304482,2.41878286554,2.09613242189,6.16798172097,7.12897232554,-0.754092795091,1.1287867256,-0.455390127692,3.68806724529,0.695857654935,-5.57442594688
off_to_on,3.29995695317,2.17634030645,3.68742235931,-1.29258606026,2.79828679068,3.29409586632,6.86379526529,8.94737659777,-0.856212859476,3.82967000159,0.228966603859,7.05940225539,2.37008034296,38.8740088561
off_to_on,4.674230434,3.59756002342,5.01011691472,-1.03205031351,2.26556213483,3.21690108993,5.49562570898,7.96559874629,-0.815605143726,5.01983769268,0.625563712267,8.20486275611,3.06308871086,67.2391665052
off_to_on,4.30024755645,3.5942320622,4.62492260852,-0.553494700891,0.929301496699,1.65963915281,2.29815045028,4.4034571588,-0.654879419696,4.36953455787,0.617625885858,6.77324608534,2.62271840198,74.0193983549
off_to_on,2.36878807857,2.20710689538,2.66226734674,0.00709944895258,-0.834677004577,-1.02354047131,-1.87654860366,-0.671926131595,-0.411874699637,2.1997081013,0.260647562195,3.24298789789,1.29694417325,60.6604257404
off_to_on,-0.390533673604,-0.0341225406337,-0.225759916873,0.503630738451,-2.49677892788,-4.01460129611,-5.81587168296,-5.68629200225,-0.129374816619,-0.654139458723,-0.251237689484,-1.24283344972,-0.370993658694,34.3046870755
off_to_on,-2.97280953569,-2.30728597347,-3.0848446453,0.822975997912,-3.53849774953,-6.29655956231,-8.33012402914,-9.0685147722,0.152825633244,-3.15296013707,-0.669529403593,-5.25838323564,-1.7472880365,4.85962805373
off_to_on,-4.45248079662,-3.79084352288,-4.97581305728,0.914582248145,-3.61564996014,-6.9994639054,-8.63374304698,-9.7597805008,0.401975425269,-4.42512347258,-0.792136209445,-7.56242237459,-2.33664341092,-18.5091921872
off_to_on,-4.30437949462,-3.94923437897,-5.28259943514,0.797854929541,-2.66755709882,-5.708913758,-6.5969218533,-7.55173359024,0.592893147041,-4.06467992223,-0.541792422985,-7.49309983441,-1.95351462928,-30.2405822028
off_to_on,-2.57998775003,-2.71168505613,-3.90826281628,0.546547162649,-0.937679299662,-2.62979915325,-2.78533553903,-3.14297057149,0.706720295538,-2.2543044766,0.00670819065774,-5.16043089259,-0.776209563904,-29.686244091
off_to_on,0.119866454132,-0.485821768455,-1.29613895891,0.257219054175,1.09985830305,1.45348267396,1.72186304278,2.10039588226,0.730057904915,0.323902564055,0.658740375387,-1.3789484014,0.731669352153,-20.5615296165
off_to_on,2.86238448764,1.99307671058,1.72649540343,0.0139146102247,2.88322331811,5.40984165794,5.6714389235,6.59468236925,0.655966611538,2.74967363097,1.17687921103,2.62696265528,1.99965689492,-8.90950351757
off_to_on,4.7104671219,3.91913485189,4.22509832537,-0.138212347482,3.92922791755,8.11100865761,8.0182192318,9.04499255408,0.486923054995,4.19785002187,1.37155121174,5.63662330538,2.56078863113,-0.451712702233
off_to_on,5.04401624268,4.6864740542,5.45908165671,-0.201578630872,3.97102925692,8.78189553813,8.22544591996,8.83926223146,0.238380299966,4.2218051004,1.17012600016,6.82139194816,2.21652020308,1.6418181887
off_to_on,3.76328823539,4.07989733545,5.10703352527,-0.215407430865,3.02612551007,7.23640406219,6.39126611708,6.20448256869,-0.0592620209476,2.8881599948,0.638963247634,5.97930553238,1.09797131607,-2.24412346241
off_to_on,1.30712742215,2.32453692864,3.34517878269,-0.231146839447,1.37729515142,3.92327394076,3.17129429213,2.08423320173,-0.362309154355,0.721950683768,-0.0478472267091,3.54712517752,-0.394762833731,-8.69086540969
off_to_on,-1.51405643472,-0.0142460005481,0.761097601275,-0.284741667646,-0.522756606516,-0.228271962266,-0.463868943778,-2.20773743633,-0.6199261889,-1.50797991175,-0.678322146575,0.401498596282,-1.74800437691,-12.9926351815
off_to_on,-3.8055423616,-2.23658906121,-1.85871858152,-0.377307831271,-2.18914799173,-4.10605868692,-3.54541559204,-5.43005022127,-0.78397293027,-3.07674999362,-1.08178850788,-2.46691180993,-2.52341399514,-11.3727294816
off_to_on,-4.89077811957,-3.74117911918,-3.78847200258,-0.472199220954,-3.24021685487,-6.75277346302,-5.38884474049,-6.79854332045,-0.820103725751,-3.55518286706,-1.18583044106,-4.28416454431,-2.50922872338,-2.7580716572
off_to_on,-4.52293935854,-4.2032463954,-4.57998332504,-0.509835800471,-3.49005837195,-7.63222076448,-5.75407334174,-6.18805181039,-0.71688533295,-2.93520481686,-1.02968240364,-4.71401548074,-1.7796047506,10.6009902812
off_to_on,-2.93635710104,-3.64106170087,-4.16820532459,-0.434496300141,-2.97466191103,-6.74220583691,-4.84419000288,-4.09641597795,-0.489979463107,-1.59035674378,-0.731424032171,-3.90276488414,-0.644738718819,23.9119593819
off_to_on,-0.729000751682,-2.3592495033,-2.8404676652,-0.222298772025,-1.91127446536,-4.54932168467,-3.16272260643,-1.40221742699,-0.179798035513,-0.096972718578,-0.425599449921,-2.35069978751,0.483340337184,31.7149183477
off_to_on,1.37173308059,-0.803094112957,-1.09424368028,0.101273789366,-0.611813565949,-1.78372114947,-1.29628473217,0.981828127812,0.15699295181,1.00667917442,-0.199865232109,-0.676128070343,1.25315849854,30.1131910123
off_to_on,2.76834233901,0.612305967627,0.554634357394,0.462294849648,0.61657623658,0.822309357777,0.291345480511,2.42774187089,0.4598612027,1.42591261069,-0.0590545675026,0.62783184278,1.49969270731,18.4781495913
off_to_on,3.18217551346,1.63103128875,1.73957516941,0.758879740652,1.55077546649,2.75534749653,1.38125786423,2.77054774901,0.677287133083,1.20072300803,0.0672935638664,1.34975727952,1.28610529987,-0.0594941529022
off_to_on,2.70822331778,2.19953359471,2.32922484148,0.894784353298,2.08894550063,3.8280993396,2.00420611632,2.29246834471,0.77671847425,0.651957342598,0.277276576451,1.57781428024,0.848996238212,-19.5614478773
off_to_on,1.72601433318,2.41884061118,2.4110224125,0.814256199082,2.2414718179,4.14872828824,2.34318072563,1.53564999031,0.749263923521,0.211209008477,0.630536779472,1.58687185157,0.474288892288,-33.3567695302
off_to_on,0.712108212005,2.43880220868,2.19317130964,0.525137725502,2.08823338168,3.98319540111,2.58758507738,1.02987509695,0.608540025047,0.209478402234,1.09493660469,1.65583767196,0.358664818449,-36.48566579
off_to_on,0.0349894265017,2.34962327876,1.87628506593,0.100927829096,1.72519210165,3.58130203544,2.80786601252,1.0499505063,0.384862713383,0.715168594732,1.53348325192,1.90193306183,0.516600154285,-27.6016955129
off_to_on,-0.184351834418,2.12361197335,1.55376009205,-0.340156848136,1.22384480041,3.04652128367,2.9061485955,1.50061105684,0.11715936559,1.49084905651,1.74302028259,2.20748574587,0.773536454135,-9.60419358534
off_to_on,-0.09317722577,1.63488018764,1.18310657493,-0.672715216405,0.618465770529,2.30597219164,2.66327939022,1.97255003279,-0.154794333302,2.08903315176,1.53409379926,2.27231392106,0.849379646181,11.2713655111
off_to_on,-0.00650022756887,0.74769974668,0.636845014366,-0.805553626723,-0.0776796067713,1.19035013101,1.86034439665,1.94320293068,-0.395917954743,2.04958865304,0.822080154293,1.76886652725,0.49797862327,27.6135771529
off_to_on,-0.232860937027,-0.568807511351,-0.194532901024,-0.712309501792,-0.83912297549,-0.416437212386,0.420181546643,1.03734990548,-0.578530155053,1.11827654633,-0.308620213554,0.531122625858,-0.356854694475,33.4887272863
off_to_on,-0.903867581399,-2.15679311423,-1.29862428999,-0.440073949984,-1.59732517516,-2.43112911997,-1.49557566907,-0.76208976769,-0.682866965137,-0.605383259741,-1.59857034241,-1.3090765939,-1.5493669003,26.6341508041
off_to_on,-1.88302718811,-3.66366913091,-2.48863689285,-0.0923892077191,-2.23036665097,-4.50367122504,-3.4820347356,-3.04420162272,-0.696817685451,-2.65725981695,-2.67628286601,-3.30565977371,-2.70062247246,9.38441312216
off_to_on,-2.79643443037,-4.62956004545,-3.43338453796,0.207829271841,-2.58247805589,-6.07324780523,-4.99108048801,-5.07779147597,-0.616229203685,-4.34835300237,-3.17438889515,-4.82133499133,-3.34469373094,-12.0361635374
off_to_on,-3.17718380003,-4.64357129609,-3.76532837188,0.362460982771,-2.50967536221,-6.54129517561,-5.5059218248,-6.06366897139,-0.44635352506,-5.0089274609,-2.86053046747,-5.25138949593,-3.10843950851,-29.6423810476
off_to_on,-2.66722834819,-3.51175385505,-3.22736047171,0.333527496017,-1.93589602707,-5.50322310584,-4.72879967003,-5.44032480666,-0.203904123833,-4.24734991311,-1.73508414223,-4.26504883615,-1.87620487085,-36.5146410077
off_to_on,-1.1942400313,-1.3688781581,-1.79924318718,0.156599824233,-0.89803253847,-2.94943204297,-2.7119042729,-3.127439937,0.0817190069177,-2.12409793392,-0.0561778191054,-1.96834936887,0.127839240931,-29.3370659336
off_to_on,0.952307868801,1.31737805083,0.251448215507,-0.0731800949509,0.439455482376,0.65062855718,0.120735779405,0.38928381381,0.369720933474,0.830193730578,1.7234767611,1.0823387693,2.37890713215,-9.74315970769
off_to_on,3.18415133001,3.86279259928,2.42220333159,-0.238000567217,1.80985354216,4.42959761459,3.07496073077,4.17261136875,0.612806200541,3.7672269627,3.09190164738,4.03258044822,4.20672926635,16.0354731153
off_to_on,4.80064528186,5.57048084295,4.12096164485,-0.244136277296,2.90517048221,7.35702900812,5.38254811366,7.11594916473,0.76549280273,5.79500323202,3.64185517459,6.00121472325,5.01623578905,39.1416611373
off_to_on,5.23333748676,5.95365269705,4.85572068813,-0.0613735292164,3.45584468357,8.55706475403,6.42853583333,8.29952465309,0.794194997713,6.27754566292,3.2072388244,6.37653445023,4.49607118281,51.0499055853
off_to_on,4.25801142816,4.89784849173,4.40056965208,0.260056857266,3.30522033077,7.60201801855,5.93507294423,7.29799391293,0.686349360506,5.05299430372,1.92290858056,5.03006606099,2.73833117851,46.5230525501
off_to_on,2.09263824483,2.70251629491,2.87651290645,0.602549588978,2.45593129332,4.6768491366,4.04177081235,4.33194116121,0.455652556186,2.49086696235,0.184413031486,2.3680642195,0.222934788851,25.5660563102
off_to_on,-0.659410524395,-0.0154174468786,0.715551722728,0.82100176984,1.07403813313,0.55028721972,1.25798506949,0.209384106881,0.141311657781,-0.63284626982,-1.48081460367,-0.801033978755,-2.33163889791,-6.30477722034
off_to_on,-3.20408952843,-2.52289000503,-1.48064695554,0.796300806121,-0.550096205179,-3.64581205891,-1.69430798174,-3.92374202682,-0.19913789409,-3.39797916729,-2.58739678538,-3.53761914766,-4.20073872122,-39.6080501686
off_to_on,-4.82046035798,-4.20504092925,-3.13694339411,0.483573478565,-2.07223665515,-6.75990547009,-4.09286249271,-6.93935652493,-0.501949545178,-5.04546313645,-2.85073568259,-5.08368348089,-4.88765813622,-63.7934032947
off_to_on,-5.09805178507,-4.74860898831,-3.88488448179,-0.0627584234666,-3.17555886734,-7.97374473566,-5.41304457708,-8.06924551786,-0.711153131039,-5.21658179413,-2.27479859086,-5.10526333351,-4.27697054044,-70.5763821549
off_to_on,-4.06175551788,-4.2102628155,-3.66254455157,-0.697691546915,-3.64077930963,-7.04697616109,-5.45067856095,-7.12071902764,-0.790702999198,-4.04306989237,-1.13820335142,-3.77887336921,-2.65398569151,-56.651118082
off_to_on,-2.14037726732,-2.95007821707,-2.70095348971,-1.22721855226,-3.38840145981,-4.37251287819,-4.33864269121,-4.49991471773,-0.731590001355,-2.0613380538,0.115659062565,-1.69467050378,-0.586356197674,-24.9114978807
off_to_on,0.00612373824653,-1.46219436212,-1.40775362058,-1.47020334864,-2.48597646154,-0.827492734289,-2.46399694731,-1.04493974445,-0.552224432299,0.010354768873,1.04394611134,0.382576564347,1.28569165066,16.2212274795
off_to_on,1.73262438114,-0.173720582934,-0.197917037048,-1.32025776296,-1.12354662596,2.52483273992,-0.324908418018,2.26416182726,-0.292384561666,1.54313445008,1.36440507737,1.80133174633,2.47129656169,55.1761208996
off_to_on,2.63331239013,0.706317491731,0.65946155819,-0.786379843415,0.432113801645,4.77698105138,1.61777282852,4.61330388603,-0.00283282654727,2.21316492786,1.05143733012,2.25019562964,2.7812376692,80.6017217744
off_to_on,2.66004676413,1.22836958471,1.11778531422,0.00248897192221,1.89116042792,5.44598896765,3.04518959098,5.57569222561,0.266253462526,2.08240451168,0.33325355665,1.8398355753,2.35713232301,84.7142579595
off_to_on,2.09309070417,1.62102248638,1.32538962851,0.832092918289,2.99085730678,4.58237508618,3.81553526644,5.1802522653,0.474905279115,1.51996864976,-0.407908766373,1.01370919924,1.5726329785,65.627041959
off_to_on,1.38192575532,2.1263159024,1.51038491522,1.46661845874,3.53547264562,2.6928248147,3.93397938481,3.8204313645,0.598899750103,1.00310956397,-0.794112331875,0.328814018074,0.851506513309,27.9777852935
off_to_on,0.925887492319,2.82807129141,1.83206276257,1.72143198373,3.42369045671,0.517412263944,3.48689460741,2.05478241075,0.630626376575,0.884194159359,-0.607880706089,0.19859605108,0.479241181292,-18.3188072875
off_to_on,0.888433615264,3.55532205173,2.26833039727,1.52117237186,2.66383272495,-1.24833410667,2.57964995445,0.385752604223,0.576223408879,1.22271148094,0.114199569017,0.704569001863,0.486083524974,-60.8177066257
off_to_on,1.12497644821,3.91379084175,2.5947315492,0.924013607093,1.3769580568,-2.18225279456,1.30885110732,-0.897047358457,0.450897764813,1.75417636899,1.08770290757,1.55530362955,0.649525133989,-87.9908571915
off_to_on,1.25732491816,3.44479157582,2.47224967293,0.103880121874,-0.213965113023,-2.23647075067,-0.222096248937,-1.75632184376,0.274469906223,2.01131211559,1.88612492779,2.21189315428,0.614828424043,-92.3958741744
off_to_on,0.866120635754,1.85385708071,1.61324095198,-0.703766391083,-1.81194270166,-1.68543802155,-1.86058236492,-2.32877927201,0.0685197403564,1.54925379846,2.1078071503,2.13094771829,0.0826682716191,-72.6900464849
off_to_on,-0.279156691476,-0.785723425158,-0.0429710473102,-1.27492348804,-3.09272058063,-0.956563424023,-3.36910457291,-2.77797635513,-0.144600364243,0.181047807779,1.54136072876,1.02643527566,-1.01677925013,-33.9581835419
off_to_on,-2.05357182736,-3.94969349129,-2.22470839604,-1.46505551519,-3.7674851482,-0.422451253873,-4.43050089001,-3.15415427908,-0.341676799054,-1.87891533333,0.265788573983,-0.95965192294,-2.44150203279,13.6988281225
off_to_on,-3.95408078791,-6.75594539746,-4.35111776834,-1.25019616228,-3.65143853731,-0.243848054886,-4.71139612409,-3.33077381883,-0.498821577504,-4.03315495008,-1.35562053038,-3.25534880221,-3.69060210292,57.8941947564
off_to_on,-5.24648385644,-8.22382854494,-5.69433536601,-0.728419747158,-2.72157960674,-0.326174497886,-3.97319954338,-3.05130269717,-0.593129255047,-5.48817093113,-2.78977608274,-5.03835338012,-4.18196846772,87.2428485443
off_to_on,-5.23856003543,-7.62081971904,-5.63424733277,-0.082314729161,-1.14441582076,-0.401473506138,-2.19278003128,-2.06879918954,-0.606209403259,-5.54890399203,-3.51828944675,-5.53771047261,-3.49147931814,94.3219416984
off_to_on,-3.57973249003,-4.77349767628,-3.91601972487,0.483958505712,0.741676247711,-0.193038852467,0.359199019383,-0.316267471333,-0.528927304289,-3.91137087967,-3.22643397186,-4.34599671976,-1.56042899404,77.5349757408
off_to_on,-0.467430210581,-0.219341364952,-0.808920378144,0.811315527525,2.49381767192,0.415610755947,3.12759086626,1.97342488239,-0.365795827847,-0.836919697234,-1.92742965739,-1.61982408552,1.21670643347,41.4221556958
off_to_on,3.33363683645,4.87705834137,2.9077896502,0.833793633733,3.67083108017,1.28770076052,5.38773208108,4.26411472397,-0.137152904249,2.87063669593,0.0252819797077,1.91718820367,4.0714723131,-4.62235282034
off_to_on,6.68812568825,9.0395116307,6.14753967168,0.59270102538,3.95263836222,2.06376810717,6.44498182662,5.85073385422,0.122297827051,6.09331845352,2.04554970385,5.18381752906,6.09324143274,-48.8530691749
off_to_on,8.45044061851,10.9379864674,7.85364542874,0.213644714644,3.23856290438,2.30952349401,5.86126138206,6.09558455277,0.368935877199,7.76347178667,3.50650588889,7.09809129389,6.53930277816,-80.2200229768
off_to_on,7.86973811165,9.83978362151,7.36186722734,-0.143934235812,1.69191700763,1.72167111978,3.63185463234,4.6834827071,0.558692671095,7.23973066646,3.95081052506,6.95810244809,5.11378400304,-91.1635782777
off_to_on,4.89399474109,5.89593874174,4.66050028891,-0.345931488188,-0.288767105304,0.302586751505,0.243195834498,1.79557743601,0.656476511365,4.55816561034,3.24551940262,4.70871861437,2.11023554564,-79.4468737448
off_to_on,0.253914533215,0.151805069783,0.447269278846,-0.33031860507,-2.17024254287,-1.57836235279,-3.42361522157,-1.87682110181,0.644029888132,0.46084396377,1.62695196735,0.992332807156,-1.64339122961,-48.5801435272
off_to_on,-4.72035376271,-5.73946583655,-4.0520106536,-0.125438246172,-3.43201598895,-3.27679892353,-6.32837886918,-5.30283538788,0.524048263599,-3.81979076722,-0.380393904133,-3.04320768452,-5.02980234171,-6.76383287544
off_to_on,-8.50305250828,-10.0195703134,-7.45563216689,0.165531175008,-3.71873953588,-4.09669463401,-7.58137674548,-7.42351765797,0.319443526926,-6.95522892792,-2.14238423957,-6.11932682187,-7.0006709384,35.3384291195
off_to_on,-9.86883461224,-11.3841115926,-8.67163917342,0.407084893677,-2.95058414143,-3.56615472366,-6.73065461457,-7.50430179833,0.0680319182541,-7.96200570821,-3.12852401057,-7.25659119684,-6.92733851853,67.3888824744
off_to_on,-8.31316923672,-9.41215332131,-7.26773072233,0.484543573002,-1.3548437974,-1.65803851503,-3.93058205593,-5.4055985895,-0.185804861984,-6.5368424011,-3.08550489854,-6.10960406049,-4.82112100944,81.9849750071
off_to_on,-4.24824272695,-4.7179413479,-3.6358212956,0.348127097702,0.594990239087,1.13920951593,0.0715878890112,-1.66982411419,-0.400205245706,-3.16644762047,-2.11141584255,-3.08790504164,-1.34263106708,76.4114812406
off_to_on,1.10194157257,1.23326661539,1.11238129418,0.0320116613369,2.31753438391,3.94335998326,4.1376000803,2.6173775444,-0.543391514031,1.03053862931,-0.606904977319,0.781859311359,2.40827930627,53.1025106547
off_to_on,6.08149967937,6.59053525292,5.49187241968,-0.358121983119,3.29856426874,5.76337872216,7.07283340297,6.15616227398,-0.598135139875,4.6784861183,0.876564602599,4.20616356874,5.25353576535,18.739116448
off_to_on,9.13585254534,9.71258311675,8.12213994637,-0.683945051964,3.24883435285,5.85258161613,7.99166916249,7.8476257584,-0.562627412772,6.60878176855,1.83524678766,6.0657376559,6.32648006472,-17.7181387179
off_to_on,9.32059384159,9.69578268697,8.1779665053,-0.825122318209,2.19448067472,4.00203130085,6.59747840897,7.15663917913,-0.448325053966,6.252608362,1.98701412932,5.79393298855,5.35642862555,-47.478603514
off_to_on,6.61347986916,6.65844776158,5.66130276693,-0.723091605353,0.470153592555,0.660348947509,3.28518924317,4.29739858525,-0.276034677417,3.82616136348,1.35974363661,3.56103610911,2.75018378748,-64.1571731934
off_to_on,1.92204889394,1.68660089573,1.40118191747,-0.402158825593,-1.38432920684,-3.17582000664,-0.970344677496,0.174401064632,-0.0716368993848,0.244268090347,0.265408918336,0.202106116275,-0.55700536935,-65.1908684523
off_to_on,-3.21753297566,-3.53916231533,-3.21970390088,0.0393826708135,-2.7919723546,-6.27443316505,-4.90829341504,-3.9058876106,0.137527214928,-3.20647692529,-0.827197960921,-3.08355997763,-3.42825266244,-52.0966382285
off_to_on,-7.14940738211,-7.30826636438,-6.72034855944,0.464367047604,-3.31824978698,-7.58144467472,-7.36687134552,-6.65864701229,0.325243705285,-5.31971163283,-1.47212710305,-5.15347602085,-4.91523659397,-29.5892060233
off_to_on,-8.64283491082,-8.44480132079,-8.00558948139,0.74489824622,-2.80535380912,-6.59123124431,-7.63801608947,-7.23832839958,0.468244823086,-5.3876990701,-1.41178613899,-5.31498542072,-4.57631673439,-3.91736494482
off_to_on,-7.28932944373,-6.68270551676,-6.71686167576,0.80584905867,-1.41854178608,-3.54023744201,-5.67963036044,-5.51017960613,0.547831382848,-3.44015352445,-0.668674639049,-3.55405770717,-2.61375911622,19.0090621963
off_to_on,-3.62015197874,-2.72867579914,-3.33388599726,0.648137356492,0.409458969289,0.650747663374,-2.11918137344,-2.08502180496,0.551764091201,-0.221758851621,0.468051233633,-0.523845646569,0.214124085715,35.1079578123
off_to_on,1.09121546894,2.00208627501,1.00257765789,0.343968022897,2.11706537132,4.67216954181,1.95025717003,1.89269893484,0.476445230407,3.08076556669,1.55371767289,2.69726045392,2.87085716808,42.809806469
off_to_on,5.26932900073,5.88079771974,4.88181521642,0.00671938179049,3.19003690482,7.26028360876,5.31403985891,5.12978323824,0.328863311357,5.26324795985,2.15437623573,4.98798411172,4.40899723741,42.8258707807
off_to_on,7.56623922754,7.61784989436,7.09186092064,-0.252555917978,3.31851028442,7.62055690497,7.00893485216,6.61049319106,0.12740280968,5.52931386262,2.00674965626,5.57024100219,4.29692385535,37.2169700863
off_to_on,7.29958408202,6.68501906276,7.00659986408,-0.365381655042,2.48558151197,5.69175684341,6.60708202821,5.92057694038,-0.0993611957551,3.76701221432,1.11435322787,4.26510286681,2.59270779237,28.2161100818
off_to_on,4.65436751917,3.46816261081,4.76425402544,-0.327860115137,0.961585629699,2.15795094507,4.3244779888,3.36303252875,-0.316310463134,0.581841156193,-0.253248606592,1.53463342091,-0.0911067980469,17.3150115855
off_to_on,0.588050039953,-0.892766467882,1.18523501078,-0.196664163217,-0.79049583289,-1.79523726188,0.926242452293,-0.167333659485,-0.487549684006,-2.92180380559,-1.65546982097,-1.69674821797,-2.81336806494,4.98212629535
off_to_on,-3.51842295334,-4.91166906915,-2.53201857643,-0.0613231999096,-2.26458090822,-4.89301158043,-2.53321343245,-3.50073647076,-0.583191740274,-5.53031434275,-2.63389687844,-4.3707108436,-4.6364361334,-8.90796684615
off_to_on,-6.33589769346,-7.26520004304,-5.2243588271,-0.00418181354195,-3.06580727213,-6.20584932698,-5.04583039492,-5.58734188578,-0.58555978387,-6.34267410215,-2.86809927004,-5.65354201231,-4.94597083658,-24.1761199565
off_to_on,-7.02265808941,-7.22661545959,-6.14111635241,-0.064071467035,-3.02044126257,-5.4528571496,-5.95192192686,-5.83439080943,-0.493183407093,-5.07680341548,-2.27965755733,-5.20024559121,-3.6484788776,-39.4423053096
off_to_on,-5.47504330458,-4.88115425957,-5.15920804356,-0.218233463279,-2.20943168172,-3.06949327698,-5.1154429715,-4.27456221861,-0.321465577929,-2.15632857433,-1.05051180057,-3.23893597306,-1.18369414196,-51.7408613518
off_to_on,-2.31763298152,-1.06019163838,-2.77262056477,-0.389940583005,-0.920621352482,-0.0210110435309,-2.92519885634,-1.51697589956,-0.0997659171584,1.44729551877,0.446622043342,-0.4575601537,1.64396365919,-56.9768579885
off_to_on,1.34933140246,2.96976254832,0.125499872927,-0.479268300722,0.45831653425,2.56533017468,-0.133504154087,1.49104580469,0.134397959352,4.55645688424,1.77714067559,2.2550525843,3.9479339081,-51.212100308
off_to_on,4.3450499061,5.94526199693,2.57856428101,-0.405351025808,1.56625244391,3.81222177062,2.40453910206,3.79964457247,0.342595618211,6.18965619361,2.58509831595,4.11433946948,5.05307499088,-32.3919873823
off_to_on,5.80205770481,7.01621440785,3.89451536011,-0.143696369484,2.17123639159,3.39812022037,4.00026803146,4.76891765558,0.492453682262,5.88375577261,2.69683442833,4.68269435597,4.69938967599,-1.86031080703
off_to_on,5.42428965495,5.99162409112,3.85125225346,0.256425162389,2.21828080969,1.64840992585,4.32243348987,4.25247171262,0.562852130708,3.82794758106,2.1555890321,3.97124417873,3.09272197168,35.0237425336
off_to_on,3.53062858224,3.3489876809,2.71613429575,0.682313290827,1.81301608833,-0.615754111594,3.45578512647,2.59762336321,0.546468633634,0.770414077364,1.18184620951,2.37853048289,0.79698512545,69.6146361679
off_to_on,0.885707739861,0.0215501124029,1.08776356009,0.993393938751,1.1553082655,-2.40893357486,1.82141217659,0.475781336916,0.449570563402,-2.26081375794,0.0808649934241,0.504131979903,-1.48162000923,92.0575494657
off_to_on,-1.60536058809,-2.94669047433,-0.367154188738,1.06990379245,0.453310629461,-2.96589333899,-0.000516586959061,-1.38398840265,0.289622929539,-4.3182460394,-0.864371592275,-1.08291010721,-3.13402143347,94.207359307
off_to_on,-3.21896528265,-4.74918456891,-1.17492228071,0.857312295362,-0.14771090407,-2.03449821611,-1.47603946718,-2.45526166268,0.0916426387407,-4.84807631954,-1.47526782567,-2.03181501724,-3.82598853093,72.4978832725
off_to_on,-3.63550419368,-5.04830390491,-1.21460917273,0.390121100004,-0.596737833131,0.0310566934818,-2.27849741492,-2.57451956154,-0.115775080895,-3.84977150642,-1.70882877627,-2.28959701776,-3.55897001392,29.7626722799
off_to_on,-2.99154123692,-4.02125590817,-0.721851640336,-0.214255678701,-0.921688520467,2.40876639875,-2.35586243918,-1.95043050533,-0.304118446876,-1.8345200343,-1.6342041374,-2.05514996381,-2.60688826711,-24.7522261854
off_to_on,-1.75910140528,-2.22360901266,-0.145583193389,-0.790257658247,-1.18020802258,4.1244256348,-1.89281757307,-1.0307289002,-0.448055879833,0.392033991837,-1.37243306671,-1.64071981948,-1.36834293554,-77.4100664782
off_to_on,-0.514364386666,-0.338975650392,0.0760404409906,-1.17607583815,-1.40269301605,4.42447839718,-1.1949697127,-0.288585592744,-0.528007520598,2.03649495412,-1.02993606525,-1.3073033177,-0.201350097866,-113.80162935
off_to_on,0.304847055567,1.0813517772,-0.275307560807,-1.26498326558,-1.55574555828,3.06647271619,-0.548172555707,-0.0178211078629,-0.532307852249,2.60002114735,-0.655564856475,-1.14570971373,0.692842851388,-122.947219757
off_to_on,0.55644516029,1.7909439869,-1.09106420521,-1.03853209327,-1.54448475444,0.419736893646,-0.109885857311,-0.218555272073,-0.458932226608,2.0365512923,-0.23797443827,-1.05123743477,1.29704638092,-100.791521412
off_to_on,0.410048797101,1.87730842194,-1.97474195495,-0.570448954313,-1.25467464808,-2.65960477029,0.128196817933,-0.616030969921,-0.316506934818,0.736371895645,0.259296630769,-0.79796013414,1.7173398806,-51.8348241113
off_to_on,0.225226006618,1.65214993568,-2.4112496912,-0.000393111712098,-0.617556559871,-5.13154621822,0.29839645052,-0.801075002188,-0.124129966398,-0.650476500006,0.845052340761,-0.175947232936,2.07247512636,11.728144251
off_to_on,0.351448132389,1.46180441069,-1.99785292148,0.512745938659,0.331066127057,-6.14074357807,0.560758718126,-0.432062385333,0.0904520522797,-1.47929509773,1.45816483133,0.871556405213,2.39093660858,73.225323727
off_to_on,0.93915205208,1.50461263917,-0.642237561485,0.841434927938,1.4258332434,-5.31635878525,0.997897239902,0.586167158147,0.294477137171,-1.36351842182,1.95964754333,2.17382303325,2.56690998845,116.185850615
off_to_on,1.84447564255,1.73379779252,1.35553635786,0.926542054892,2.39742393599,-2.89661801203,1.54873879812,2.0221970299,0.455284673745,-0.322547617203,2.16794678969,3.3580747739,2.39816863863,129.087542178
off_to_on,2.67019289876,1.88505104088,3.37632358664,0.788819079744,2.94596448738,0.362374223411,2.01186156767,3.37411878756,0.546058776045,1.22695826322,1.92696032203,3.97050772995,1.6909009375,108.717599894
off_to_on,2.92854107073,1.61421976962,4.68959617886,0.512365938876,2.84002417839,3.45489096376,2.11994609193,4.046030323,0.550981370935,2.62983318235,1.18059292551,3.64913560275,0.384836989088,61.0960065621
off_to_on,2.26066377766,0.683981172016,4.72177288367,0.207773526591,2.00688718449,5.46965322419,1.65709496254,3.58137761297,0.468550229282,3.24087822564,0.0222368163436,2.28205877817,-1.35997584735,-0.337699884187
off_to_on,0.622369762441,-0.882556181467,3.28564286222,-0.0303618684498,0.579982511473,5.88502778715,0.571942396754,1.86524191349,0.312171283883,2.67205681862,-1.30504557225,0.0878984494334,-3.16049960536,-58.7171767244
off_to_on,-1.64335728234,-2.75088513266,0.682762356589,-0.155515437531,-1.1177288143,4.71373898184,-0.961180082056,-0.783947696216,0.107782962592,0.949773317392,-2.46421282368,-2.41728221111,-4.50496708128,-98.6823804893
off_to_on,-3.88424906178,-4.35570330445,-2.3647151665,-0.179532804659,-2.65424717465,2.4548304547,-2.56286931845,-3.67460190223,-0.110983946188,-1.47310221458,-3.1211419838,-4.56084935278,-4.91702886247,-110.73026566
off_to_on,-5.34637197954,-5.08939754783,-4.93490855445,-0.158569266223,-3.61042024663,-0.117227476196,-3.75104890492,-5.94121613101,-0.308999398807,-3.85436158883,-3.05139422405,-5.71700943638,-4.13191012031,-93.6675804212
off_to_on,-5.43970830275,-4.5306453489,-6.20623214637,-0.161591887088,-3.70542936078,-2.23887586004,-4.09426218857,-6.81930905771,-0.455786408761,-5.40152708539,-2.21993574843,-5.50450368259,-2.21755560258,-54.4771411304
off_to_on,-3.96510873651,-2.62688152494,-5.73344484175,-0.234970908759,-2.88539318971,-3.4099058179,-3.36447830931,-5.90402145499,-0.530355674714,-5.532288081,-0.804778940284,-3.91201091809,0.409491194121,-5.74472894428
off_to_on,-1.21706296072,0.241415315325,-3.60382771493,-0.377922613998,-1.34569084544,-3.52295286895,-1.63547452799,-3.3037614728,-0.523897583478,-4.07054659748,0.845864552301,-1.30985942191,3.08691245065,38.4399104441
off_to_on,2.08026069946,3.34509588964,-0.418881731027,-0.539034451419,0.521223700822,-2.833836196,0.710604995216,0.365488480493,-0.440121295728,-1.31560053948,2.31067719443,1.65442976231,5.09843546802,66.7485527184
off_to_on,4.98707498643,5.81646515289,2.89274499571,-0.635606193707,2.23671613049,-1.80009068807,3.07592412715,4.14667888801,-0.293596025582,2.0354985578,3.21585240232,4.24091516632,5.89174460084,73.7002915599
off_to_on,6.64183255796,6.91677795718,5.3676876464,-0.588378806921,3.37107393152,-0.86420336818,4.81317024656,7.01735491519,-0.106794783062,5.08564024265,3.34078444002,5.82215081939,5.24892372651,60.6749406334
off_to_on,6.53590747209,6.27167320291,6.30745177675,-0.35793205766,3.66119149448,-0.274259984108,5.41474308807,8.18758044704,0.0934038492671,6.99292565886,2.67597337245,6.04538149859,3.35181695352,34.6878837914
off_to_on,4.67657437159,3.99575070382,5.48675769603,0.0319602611638,3.07582841572,-0.0129614737005,4.66609320101,7.32737338144,0.279185737981,7.2068083153,1.41689014064,4.90745682175,0.721314126507,5.50501377364
off_to_on,1.58458467897,0.665432560658,3.20572407186,0.494022741957,1.81118685063,0.143506307805,2.71535832304,4.6554726611,0.424961999037,5.61828783408,-0.101035647565,2.7291219888,-1.94675859354,-17.8132255887
off_to_on,-1.87052905678,-2.8495794447,0.175352223668,0.901593345127,0.222127656176,0.471501434051,0.037740857028,0.866943061281,0.510172621858,2.58613074612,-1.50258760217,0.0474876596838,-3.99178121539,-29.7370044581
off_to_on,-4.73991572471,-5.63983156142,-2.71861753095,1.12924898613,-1.28598817375,1.12544443638,-2.69421212231,-3.0720901245,0.52175045989,-1.16171200626,-2.47496948176,-2.53257930232,-4.97385267106,-29.564636015
off_to_on,-6.27919364087,-7.01290466845,-4.69082952169,1.09560606098,-2.36947331399,2.02481929265,-4.79484893906,-6.19527491603,0.456145646888,-4.71849796827,-2.8413200418,-4.48187821827,-4.77623038916,-20.8918796997
off_to_on,-6.15531196551,-6.67486622712,-5.28023081287,0.792838116981,-2.8289455353,2.85702084885,-5.74938443338,-7.78982166256,0.320595340376,-7.22662527908,-2.58725729843,-5.44918518998,-3.59852881946,-9.61700361244
off_to_on,-4.51540694216,-4.78660059225,-4.45591421827,0.292070360296,-2.64137660988,3.19950774027,-5.34502533349,-7.56223513215,0.13315687116,-8.08422788168,-1.8394210564,-5.30637807523,-1.8541105243,-1.34036962297
off_to_on,-1.9056685726,-1.88815178877,-2.58210954565,-0.27755295612,-1.93869923521,2.71179130093,-3.71471023332,-5.67752455592,-0.0789570892681,-7.08232926005,-0.810457334621,-4.14066080272,-0.0170867444543,0.825809131415
off_to_on,0.921882138967,1.27438135931,-0.267676896754,-0.76889818436,-0.947304276263,1.31495484129,-1.28624113844,-2.67452297386,-0.282929621857,-4.44533180985,0.266745111913,-2.21131486865,1.52268948331,-2.75674877423
off_to_on,3.2434841449,3.95877084638,1.83936025614,-1.06200722913,0.0868255251087,-0.722334331895,1.34285496484,0.704450095956,-0.445485557171,-0.771808635812,1.19367152924,0.10908622299,2.54793571515,-8.76346027134
off_to_on,4.56097351701,5.60918374101,3.24056507447,-1.09886682764,0.96187568669,-2.83680556906,3.56500950811,3.71197217115,-0.538803607197,3.10593820652,1.8363842304,2.39538016908,3.02395638952,-12.6208580024
off_to_on,4.70530069396,5.96453167579,3.70196170775,-0.896348677387,1.55553865196,-4.35205564254,4.9110516304,5.76526109039,-0.545969433915,6.31007065846,2.12999101454,4.22835006647,3.04158269463,-10.6790428174
off_to_on,3.8270519374,5.07566447845,3.27030699361,-0.534031098076,1.82768246496,-4.72402761727,5.1493932842,6.54856368371,-0.464661018843,8.11250801592,2.06608405745,5.25337862232,2.7294721865,-1.94676803107
off_to_on,2.29493560121,3.24456523949,2.2028594822,-0.122696602543,1.79866867985,-3.75615434075,4.31575417037,6.03592898781,-0.308061861712,8.09702720324,1.67607220986,5.24080106777,2.18019521666,11.3110821157
off_to_on,0.550984361018,0.918719962975,0.850162542543,0.234077520574,1.51899496568,-1.69695390117,2.6745728915,4.44686875658,-0.102630446221,6.25473862822,1.02071031134,4.14218482774,1.42308878123,24.3536039767
off_to_on,-1.02204028597,-1.42144966404,-0.459532751405,0.471059115424,1.04581920773,0.824703279482,0.631382629196,2.16257398346,0.116862473597,2.9917950277,0.188741655342,2.12737661963,0.451814226094,31.8160267077
off_to_on,-2.17989814002,-3.35335888666,-1.49582518086,0.574667501473,0.435221036665,3.00956316558,-1.37453457158,-0.367154280442,0.313922526019,-0.955263241753,-0.700500249432,-0.417772339182,-0.712808510597,29.9056457456
off_to_on,-2.82908823644,-4.56894696684,-2.1464162971,0.575319415911,-0.250737107574,4.16878494961,-2.96765359872,-2.70411666911,0.457049098814,-4.68213571714,-1.50023830084,-2.94847997744,-1.96184493226,18.0725298794
off_to_on,-2.98668925372,-4.90034985204,-2.3918742127,0.523974467628,-0.931441558914,3.97117972486,-3.90228886183,-4.47968545449,0.525112972136,-7.32457192848,-2.05347940231,-4.87338098754,-3.07673915683,-0.521064488406
off_to_on,-2.72034307127,-4.32555295261,-2.26134229684,0.463941039632,-1.50218214064,2.56238960747,-4.08806195231,-5.43217402293,0.510351116332,-8.26499625756,-2.22580931503,-5.70164130304,-3.76768521057,-19.9557031825
off_to_on,-2.10224485749,-2.96369192715,-1.79784740085,0.410278409623,-1.84494590254,0.508385609469,-3.57789894652,-5.4301563977,0.418606422101,-7.28735772878,-1.94606380089,-5.18565865998,-3.76486369436,-33.615038401
off_to_on,-1.19712846238,-1.06214276378,-1.05042170205,0.3453902412,-1.85669207769,-1.41790284287,-2.53040068976,-4.48638958562,0.267134365497,-4.63793766045,-1.24012179715,-3.41265185158,-2.92954008332,-36.6040930706
off_to_on,-0.0827531247908,1.030193696,-0.0917550578461,0.232240243445,-1.48676984274,-2.52747704839,-1.16176905381,-2.76111871499,0.0808041178246,-0.970806220828,-0.241884028967,-0.807558490289,-1.33885492991,-27.6255311525
off_to_on,1.11734920418,2.91121038109,0.956175472068,0.038962663731,-0.768619849717,-2.47334510419,0.299241037646,-0.548328326707,-0.112289870648,2.81380661135,0.82845210962,1.96534395241,0.695951890121,-9.59546847895
off_to_on,2.21656142281,4.19745130019,1.91230265176,-0.236405032926,0.169561068406,-1.37661604339,1.64485313557,1.76204261178,-0.284923480433,5.79947857876,1.71724645042,4.18125822707,2.69470725317,11.2679639011
off_to_on,2.98398320428,4.60957739777,2.55960022325,-0.55271556624,1.12428727971,0.228830752525,2.70769624679,3.74738146605,-0.414010499611,7.29114970893,2.20731786027,5.26326497955,4.14161696395,27.5923560916
off_to_on,3.20194356767,4.04945498898,2.70173875983,-0.831191159058,1.86471379513,1.61289288795,3.36835879644,5.03297022044,-0.482896370356,6.99395297165,2.182470517,4.95462010285,4.64351192207,33.4839071946
off_to_on,2.74404579857,2.64149759995,2.2352411091,-0.97914636198,2.19615824795,2.14392706374,3.55591150517,5.37219376337,-0.482803269633,5.08135161231,1.66390674151,3.39674695357,4.05742855516,26.7006950199
off_to_on,1.6417546748,0.716730024593,1.20727730153,-0.923809493226,2.01916549299,1.54691034591,3.24648407781,4.70431981779,-0.413617664296,2.13194532117,0.80431405597,1.08358974946,2.54065570825,9.56765379982
off_to_on,0.107419016656,-1.26515826333,-0.169722155609,-0.64339178621,1.36393585132,0.0229393020823,2.46339798915,3.17131648265,-0.284090402888,-1.04635930098,-0.15998173314,-1.29586648436,0.503464849927,-11.7287927503
off_to_on,-1.50393484313,-2.8382507317,-1.5610010627,-0.182803798459,0.387244393392,-1.81957656115,1.27979097882,1.08626103618,-0.111318992166,-3.65126017495,-0.98312180441,-3.07610432066,-1.51995639127,-29.2551636189
off_to_on,-2.78816746771,-3.66091244188,-2.60187218109,0.353334524937,-0.668743870865,-3.19887654429,-0.178055908419,-1.13922796297,0.08075281226,-5.10793438989,-1.4844093463,-3.82140755529,-3.03691473497,-36.1364383884
off_to_on,-3.41203687701,-3.61089841379,-3.01024938336,0.829419941788,-1.54351326,-3.47062881501,-1.73067369433,-3.08807714843,0.264036382426,-5.2103710772,-1.59737249851,-3.44999225126,-3.73963564297,-29.075039263
off_to_on,-3.21793780077,-2.81078882908,-2.67917214341,1.12011135367,-2.03010637444,-2.39507133731,-3.15371804092,-4.4248896098,0.410160470067,-4.14160700277,-1.37642999295,-2.23442752125,-3.57765102189,-9.68673683975
off_to_on,-2.27488235543,-1.57291272989,-1.71399781742,1.14988601478,-2.02946539531,-0.254123056826,-4.19918866676,-4.95408111394,0.495056670187,-2.37288105715,-0.960470402567,-0.680940729557,-2.73794269665,15.8470835973
off_to_on,-0.855848861851,-0.282424181226,-0.398301541202,0.916931657122,-1.57106814049,2.2321741778,-4.63160566742,-4.63746193283,0.503444307035,-0.482082394602,-0.50920193412,0.666083822064,-1.54708580951,38.7362754105
off_to_on,0.651364187496,0.738649426937,0.900785044488,0.492849880958,-0.795380305372,4.16379186424,-4.27675091468,-3.57449471218,0.432185621654,1.04215332199,-0.138596447695,1.42110287978,-0.338678463931,50.51708986
off_to_on,1.86782361287,1.33491086382,1.85360202498,-0.00168923872165,0.0936564539368,4.79884416476,-3.07491773469,-1.96045269389,0.291575811891,1.94208893961,0.118198102207,1.48277890691,0.659522193151,45.9884347968
off_to_on,2.53703101241,1.54858743736,2.27056467049,-0.436562407217,0.888729170411,3.84349877705,-1.12526960021,-0.0420417912943,0.104040064592,2.23205749699,0.308768791001,1.04236273518,1.37544263231,25.1542253325
off_to_on,2.58833930786,1.5661225795,2.14852302401,-0.712928766151,1.43198789108,1.58045181965,1.29495939032,1.91473184412,-0.0996702844725,2.13189647655,0.519835776009,0.47503165336,1.86487584484,-6.50590557852
off_to_on,2.1303911784,1.60296936379,1.64526584465,-0.790839464248,1.64541661044,-1.218289432,3.75097175101,3.6409196905,-0.286043909993,1.9265010279,0.814996555738,0.159854159803,2.22571833431,-39.5694599052
off_to_on,1.38250070543,1.77626981681,0.995346737177,-0.694650926895,1.5331607848,-3.56727078677,5.71772355524,4.87371369335,-0.424931713749,1.81317161753,1.18059771728,0.302565318865,2.49961548953,-63.5471378776
off_to_on,0.575979306727,2.02308242453,0.404156607186,-0.495617735084,1.16080022987,-4.6320642221,6.68865569276,5.37330073191,-0.494880245097,1.80218621872,1.50669756162,0.835135727612,2.61226657239,-70.19849425
off_to_on,-0.131994996904,2.10601150523,-0.0340517709984,-0.279522116372,0.623946324987,-4.04575483218,6.30576137731,4.95965370989,-0.486563517688,1.71388270031,1.61661432188,1.43651147542,2.38674820622,-56.2331289058
off_to_on,-0.696631539061,1.71322146209,-0.358739819545,-0.11249108613,0.0201134671302,-2.05554838656,4.47863907923,3.5694992621,-0.403721813996,1.27556845756,1.33827182849,1.67061499123,1.63097918772,-24.531719141
off_to_on,-1.16274569575,0.618791215024,-0.696444405901,-0.018287047454,-0.566571561941,0.560825531941,1.45533883644,1.31767569315,-0.261653999023,0.279010703348,0.591353095819,1.18909707786,0.264486493171,16.5160311036
off_to_on,-1.59564253651,-1.1613585259,-1.16590606566,0.0246369677761,-1.06626051298,2.78312165054,-2.18597700793,-1.46534297673,-0.0838638999388,-1.26910365496,-0.545878275037,-0.0834057906715,-1.57360254977,55.3731533923
off_to_on,-2.00207949298,-3.28950828781,-1.7790859191,0.0661407576462,-1.41614449334,3.73666422098,-5.63776672883,-4.24960904155,0.102224822644,-3.07356164589,-1.8224519984,-1.86203607126,-3.49293132686,80.7099837647
off_to_on,-2.28370182594,-5.15140463869,-2.38740037558,0.155315277999,-1.55540873061,3.03517696137,-8.04363053098,-6.3928204353,0.269557090469,-4.59745635765,-2.86824935039,-3.55896935515,-4.92826811848,84.745210629
off_to_on,-2.25231483732,-6.03075520425,-2.70640743913,0.31197631612,-1.43110252017,0.946008283553,-8.71924725537,-7.2913585355,0.395046196813,-5.22703841906,-3.30499096225,-4.47686232093,-5.31273000287,65.5783981936
off_to_on,-1.70897542255,-5.3645850952,-2.42007328946,0.511100282416,-1.01706296685,-1.6911868163,-7.35541694503,-6.56028552838,0.46214843329,-4.50325234635,-2.88051141076,-4.0749410059,-4.2935574208,27.829164356
off_to_on,-0.55816513818,-2.99163468898,-1.32992279981,0.687309165309,-0.339463800602,-3.77000985275,-4.14143438353,-4.18690486441,0.462396498952,-2.33576829571,-1.57901855198,-2.20983369507,-1.91019851817,-18.5950194465
off_to_on,1.09264123624,0.703744182724,0.510458823192,0.758364395258,0.503912349997,-4.33931131999,0.237380560065,-0.599373924453,0.396047590774,0.887526158698,0.336460040824,0.745682320983,1.34198125191,-61.2340584899
off_to_on,2.89897769841,4.82295015324,2.73762846311,0.658806906422,1.34453718271,-2.98615660572,4.74183969259,3.38955138447,0.271995129202,4.35209468665,2.37303760631,3.96461548587,4.60459991417,-88.5208122102
off_to_on,4.34112859117,8.17382849063,4.73628959245,0.370475449835,1.97221533886,-0.0333014455944,8.2338160016,6.76682201605,0.106966017583,7.03111285056,3.94124776442,6.40376505592,6.89330511045,-92.9600559426
off_to_on,4.87544775496,9.62670486483,5.81056872001,-0.0625881827004,2.18961538346,3.5315244997,9.78003264993,8.59083677624,-0.0761062351386,8.00407480492,4.53489873421,7.14720652147,7.41088787413,-73.1621285822
off_to_on,4.13066604411,8.49657341062,5.42050651433,-0.54163436753,1.87766614558,6.38085272159,8.91992772432,8.27436787399,-0.250662118917,6.77732795873,3.90025479899,5.74026493958,5.83299169596,-34.1929823114
off_to_on,2.07947734209,4.82134721959,3.40377382906,-0.941435978057,1.0493980721,7.3191997752,5.81642773814,5.78894216322,-0.390027650421,3.49417286284,2.13664936692,2.39371885171,2.4627180605,13.8212075548
off_to_on,-0.884744749241,-0.57015640036,0.0978999535552,-1.14964547196,-0.130168191237,5.73549529134,1.23767249544,1.71701927528,-0.47153621714,-1.0482764366,-0.309844569974,-2.02412077169,-1.8118916513,58.4216993315
off_to_on,-4.00940726268,-6.24349844283,-3.69495994516,-1.10330836575,-1.37153384912,1.87116318619,-3.63466699614,-2.87867728431,-0.480605552396,-5.59728153512,-2.76418649518,-6.22024319538,-5.75912844207,88.1189921268
off_to_on,-6.37931319125,-10.5569659439,-6.9078138647,-0.809471589383,-2.33361039656,-3.20092521357,-7.52265779336,-6.74189146164,-0.413891603351,-8.80698574104,-4.51899522523,-8.86964303342,-8.17587016102,95.3815280943
off_to_on,-7.19544416703,-12.1576541886,-8.52211739509,-0.342656131622,-2.72319376135,-7.89202580482,-9.40670282707,-8.78572135191,-0.280655884992,-9.65536909102,-5.04982528268,-9.04404100664,-8.27333657355,78.5340585464
off_to_on,-6.04770957163,-10.4195501978,-7.89872528197,0.179533454217,-2.3904104825,-10.6092761036,-8.81407525649,-8.42156819297,-0.101783872262,-7.78135474428,-4.18053428725,-6.53440513331,-5.94763922999,42.0972970678
off_to_on,-3.08714228382,-5.67801880737,-5.01636976217,0.633486204923,-1.38756016264,-10.2938778555,-5.95429993122,-5.74868152867,0.0935782601359,-3.62799148581,-2.14448876066,-1.95498177036,-1.83947000418,-4.48080632749
off_to_on,0.970023170731,0.825299135838,-0.530712102751,0.925882941247,0.0317006140553,-6.80246834125,-1.65826834857,-1.53876381707,0.273192191142,1.66277192411,0.480001474446,3.41415459316,2.84520398506,-49.3351159405
off_to_on,5.02123604591,7.28228573183,4.37829525841,1.01665921342,1.47739831958,-0.998176630404,2.86328851351,2.98637422547,0.407627979905,6.57833291321,2.94131473189,8.00319334968,6.70195896973,-81.2585543792
off_to_on,7.89306790777,11.845361439,8.33423375475,0.921724014911,2.53559446721,5.48601691463,6.3710431048,6.51938423221,0.47560310353,9.68772334126,4.53991856094,10.431122574,8.56639663931,-92.5391369631
off_to_on,8.69810705218,13.1809488074,10.1709779665,0.696598588918,2.8941142705,10.7394842125,7.95291616425,8.06185828356,0.467600686561,10.0766102043,4.83692307832,9.93473817499,7.88198057614,-80.8363573711
off_to_on,7.11963714109,10.876443452,9.29217263196,0.409399197889,2.44140538826,13.164165678,7.2776430774,7.22452407344,0.387056895202,7.62726776684,3.78085381363,6.6104575765,4.8762396331,-49.6379354708
off_to_on,3.52955522609,5.57166010886,5.86814389549,0.115157603913,1.30542415078,11.972809885,4.67086230765,4.33770695353,0.249029539209,3.05457393063,1.71439018134,1.39109738396,0.486824626436,-7.21353522131
off_to_on,-1.10353099872,-1.22808953968,0.804151320711,-0.158009739067,-0.181864509172,7.4361567609,0.99383521086,0.337137916489,0.0768602144112,-2.31293810254,-0.738530049608,-4.23486261378,-3.93847278959,35.6275237608
off_to_on,-5.49194186427,-7.59970928535,-4.51437432957,-0.406209544438,-1.58460590203,0.802859078866,-2.6337675441,-3.53729461795,-0.102256642007,-6.93664217027,-2.86709373279,-8.67164487141,-7.06898660789,68.3628015482
off_to_on,-8.40781853757,-11.7714455699,-8.62319970396,-0.633588640982,-2.49651951696,-6.07795010196,-5.17791052564,-6.13188914112,-0.261781819421,-9.5279083743,-4.08682551755,-10.6901671507,-8.00574588142,83.41542238
do_nothing,-9.04552153497,-12.6374584654,-10.4044049981,-0.831995894774,-2.66504229477,-11.3079438678,-5.99320252377,-6.73264110692,-0.37958710492,-9.42114221556,-4.10532390276,-9.78047052079,-6.54940049581,77.9533853986
do_nothing,-7.25491822184,-10.0618726804,-9.40544953345,-0.967997712593,-2.06627032752,-13.4905337731,-4.99288557332,-5.26973555248,-0.440498500268,-6.74729612678,-2.99190373946,-6.2777634608,-3.23833561895,54.3831275251
do_nothing,-3.57471155515,-4.88552053432,-5.95691139202,-0.985745704163,-0.906976912074,-12.1142715874,-2.63868872972,-2.31146094609,-0.437561848885,-2.36175829976,-1.13495925246,-1.23194372869,0.848568266233,19.4541241797
do_nothing,0.940775893257,1.35654671279,-1.05779293519,-0.827104902065,0.445926876683,-7.66130226623,0.237837380474,1.14387392199,-0.372244068927,2.44058856688,0.893176108321,3.92809991069,4.45246853378,-17.7278704013
do_nothing,5.04276112288,6.909494028,3.93028625835,-0.462150970907,1.58431393537,-1.42373172738,2.71775893925,4.00361999829,-0.253869411821,6.32519794528,2.51646326471,7.82275909839,6.53508772921,-48.1900513085
do_nothing,7.65388847073,10.3127920181,7.68155515353,0.0828439868345,2.18654228388,4.89937380699,4.08593177614,5.43024661492,-0.0985016279361,8.30395638127,3.32226980169,9.50768659731,6.58772616734,-65.376922911
do_nothing,8.16567611595,10.7971802121,9.27471852181,0.713744003666,2.11244252878,9.69095813686,4.03767681196,5.09044625545,0.0726856324673,7.99109139535,3.16562278639,8.70464082948,4.75345630472,-66.6107484519
do_nothing,6.58109557707,8.45284591479,8.42457275434,1.28205423471,1.43616697754,11.8430349267,2.73994741818,3.22761764537,0.235630848236,5.66115194331,2.18454082707,5.82072314277,1.73383804918,-53.37646217
do_nothing,3.46896895488,4.13476801912,5.51726458009,1.62317007181,0.409087087044,11.0061743141,0.736792034284,0.543504892539,0.366259433102,2.10840148077,0.730416472232,1.76954715771,-1.47543789814,-30.4431938712
do_nothing,-0.242390917748,-0.845612644535,1.45306813839,1.608751973,-0.631557222277,7.60986982388,-1.25937742722,-2.06094599972,0.443884163813,-1.63088353034,-0.756502146119,-2.33236230308,-3.921394483,-4.18106958756
do_nothing,-3.5568910786,-5.13158009772,-2.64194382005,1.19553853741,-1.3752508462,2.67455683018,-2.61398992386,-3.79099245132,0.454713534723,-4.59464090087,-1.88254015411,-5.48985109134,-4.98692016211,19.3477359132
do_nothing,-5.69207303858,-7.70261379039,-5.74002765658,0.452034811382,-1.6336818363,-2.50712839146,-2.96969646267,-4.20507999538,0.394784878938,-6.14949033415,-2.40457446318,-7.07567409994,-4.54716339863,35.9191097441
do_nothing,-6.26679360077,-8.1156186495,-7.17487261365,-0.44931477768,-1.38872959902,-6.71663116057,-2.33595665663,-3.32489087242,0.271537962968,-6.1142893214,-2.2752972336,-6.93751109566,-2.94960320509,43.8670232604
do_nothing,-5.34979062238,-6.55036366761,-6.77530104336,-1.27545818958,-0.780566957183,-9.08896531435,-1.04736590646,-1.58169688172,0.103397992067,-4.73404542548,-1.62461107396,-5.35578201686,-0.841615917568,43.8715187932
do_nothing,-3.37273324239,-3.67053411163,-4.84755398189,-1.79986547591,-0.044724763065,-9.26592056111,0.384368205049,0.36969116298,-0.0828578111159,-2.53608314989,-0.692946713215,-2.89083023796,1.08025712296,38.0279907813
do_nothing,-0.953773805123,-0.367614649006,-2.03171084411,-1.87241190209,0.576136069312,-7.40861615518,1.46497948236,1.89443619356,-0.256621235433,-0.133766766389,0.254839054973,-0.186476353304,2.30473053133,28.6528344038
do_nothing,1.30025714013,2.51774828761,0.90879365466,-1.46863415154,0.913191475316,-4.09415559217,1.88703048082,2.58913665708,-0.388999624964,1.95044492415,1.00487776322,2.20166247626,2.6440898056,17.3421240083
do_nothing,2.94843880019,4.40913190263,3.29519156352,-0.700865227215,0.91775347097,-0.143428944958,1.61652902301,2.38984743433,-0.458192718119,3.39037755981,1.43783242634,3.90706686396,2.23884972921,4.65994415654
do_nothing,3.78761438233,5.08945475627,4.68226054317,0.213895584478,0.660070610726,3.56992571502,0.872820295589,1.54778179839,-0.453492434954,4.07295978111,1.53409187292,4.77099351826,1.44356487107,-9.45516761082
do_nothing,3.83705339295,4.67208489291,4.919419063,1.01989615252,0.285976884044,6.29061883298,0.0179308191415,0.493971652499,-0.377023978024,4.04531571446,1.34853565663,4.79961311452,0.65109337691,-24.8023995117
do_nothing,3.26257526725,3.48398286884,4.12696770783,1.50110401717,-0.0483370572536,7.51044237094,-0.596642186154,-0.346773965208,-0.242914605037,3.43357689133,0.971686578195,4.09793720319,0.130119087983,-40.0193719045
do_nothing,2.28294037952,1.91929075684,2.61431795962,1.54641055724,-0.236794628904,7.04547238135,-0.765296906167,-0.718075175906,-0.0742115912509,2.37694885117,0.495007729632,2.81720230408,-0.0616272215598,-52.1837758038
do_nothing,1.09833647404,0.319496768902,0.776721543253,1.18005498367,-0.256577987069,5.05892543421,-0.495987324438,-0.6104090166,0.101619653882,1.00369441138,-0.0080204112363,1.13490344346,-0.0615584056125,-57.2513448938
do_nothing,-0.137633199884,-1.08613228867,-0.99777340304,0.547592204361,-0.163738367178,2.02794450639,0.0112219481011,-0.232206467227,0.257545871637,-0.550959862449,-0.483057367725,-0.736889867516,-0.100528667652,-51.3252318801
do_nothing,-1.30546119869,-2.17723835007,-2.39340922239,-0.137035358417,-0.0565436254292,-1.34635605186,0.461118813962,0.10662149224,0.371167615447,-2.10881228388,-0.884990630591,-2.53747354586,-0.366084505937,-32.3731022776
do_nothing,-2.28912536701,-2.89986563661,-3.20153313323,-0.664506845252,-0.0243083317715,-4.2800721221,0.594056730112,0.145608627354,0.42760265601,-3.42870647805,-1.16779861217,-3.96474772443,-0.893250897595,-1.74117409898
do_nothing,-2.95608780986,-3.22002935156,-3.3329107465,-0.897825673949,-0.104214025056,-6.08051053676,0.297539779685,-0.205007475597,0.420821648659,-4.22916891539,-1.28337528504,-4.71991948448,-1.53108884742,35.2217425131
do_nothing,-3.16810084241,-3.10263502197,-2.81709012849,-0.811752167495,-0.26415121017,-6.31865290683,-0.344746341077,-0.822063897436,0.353598141406,-4.25844004213,-1.19238137398,-4.58492480963,-1.99956197238,69.882284822
do_nothing,-2.82433678553,-2.52617970578,-1.79342142755,-0.491496284403,-0.418038764704,-4.95444215233,-1.08421912934,-1.42184680477,0.236457318311,-3.39054419512,-0.882787005308,-3.50682530045,-2.01236124449,92.389517647
do_nothing,-1.91860237173,-1.52171722779,-0.491492010104,-0.0929329551458,-0.466262832461,-2.37085638064,-1.60518184199,-1.68360811582,0.086023364617,-1.7076000874,-0.386642132615,-1.65251430473,-1.41309827879,94.588905793
do_nothing,-0.580968384885,-0.209855995359,0.804638272275,0.21977009811,-0.343437526207,0.708426571854,-1.64997521087,-1.39208755656,-0.0769734999079,0.473190452348,0.214876849138,0.59780375329,-0.265947476576,72.8936103265
do_nothing,0.92328543322,1.1913922342,1.81082517746,0.335604480795,-0.0527617441021,3.4095829736,-1.12274880166,-0.539675271375,-0.229949754435,2.65242367537,0.803722825637,2.72960534218,1.14025920337,30.1136015551
do_nothing,2.24844336677,2.40216571834,2.30932247672,0.23481537571,0.328109541667,4.96126061944,-0.132350102521,0.65443752107,-0.351003239341,4.27587333546,1.25282946843,4.22885490545,2.38064533388,-24.5201950053
do_nothing,3.06483663114,3.15326137561,2.21054452967,-0.0095600498435,0.672932377489,4.93472837119,1.04114034664,1.81709591548,-0.421705334126,4.89983973449,1.4608750415,4.73170659641,3.04403027637,-77.3676785377
do_nothing,3.16487015955,3.27020854618,1.5876503871,-0.266002608057,0.854561918135,3.39113435156,2.04247844986,2.55791319772,-0.429939582603,4.33841662354,1.38168727597,4.13792768091,2.88666194545,-113.993214459
do_nothing,2.53822356709,2.73509901805,0.665058154812,-0.400576060497,0.795381456661,0.877991132232,2.56305965028,2.6161080632,-0.372336545737,2.73759761778,1.0374420075,2.64582300395,1.92968047888,-123.370771079
do_nothing,1.3840208147,1.69868251676,-0.244538697614,-0.332732816722,0.499956849881,-1.73649747956,2.4431893364,1.95948984457,-0.255692039186,0.543712570869,0.510727844137,0.692292548966,0.460747442772,-101.389323429
do_nothing,0.0500197135338,0.434107964727,-0.840783324132,-0.0692719987227,0.0563033641155,-3.54667575664,1.71861174158,0.796571582061,-0.0967838443497,-1.62959410623,-0.0814597834276,-1.18475130102,-1.06317001435,-52.4991872504
do_nothing,-1.0830690769,-0.752599616158,-0.942428920263,0.296601043874,-0.39534864726,-3.92008547836,0.597527761641,-0.502746648856,0.0797332706576,-3.19415996781,-0.621971079028,-2.51565605827,-2.17665678506,11.1339891601
do_nothing,-1.73130460508,-1.62173055801,-0.560941325625,0.620764157385,-0.71431282498,-2.7283003411,-0.618970071827,-1.54622143216,0.245221379671,-3.77432442982,-1.02343460285,-3.04139535212,-2.57017420536,72.8358506394
do_nothing,-1.80262742263,-2.07000042376,0.0915225083911,0.764645906345,-0.811354641879,-0.411187756775,-1.63966939107,-2.0627303392,0.372100668831,-3.32211010291,-1.2436853751,-2.77924460147,-2.19576081752,116.099530337
do_nothing,-1.41980046359,-2.14378410867,0.671158274618,0.651015272823,-0.680108379652,2.15847786953,-2.26939876145,-1.99336987688,0.439003962073,-2.11856360394,-1.2829662459,-1.98953767158,-1.27407600039,129.340059275
do_nothing,-0.860237821346,-1.99078886672,0.831332416087,0.297518546571,-0.395449097804,3.97340565454,-2.44833525513,-1.49474718913,0.434880017294,-0.659779139575,-1.16696867859,-1.05761249403,-0.200425893049,109.269647354
do_nothing,-0.434150227715,-1.77150564965,0.368243011832,-0.185383350445,-0.079555110396,4.25529280653,-2.23538526031,-0.854797361321,0.361078535925,0.531530835764,-0.925573103838,-0.336608528973,0.613732972729,61.8394599147
do_nothing,-0.347995871571,-1.56985779406,-0.671601190394,-0.632104296174,0.15040362854,2.75591088821,-1.75032880066,-0.35738471805,0.23093080136,1.09973734875,-0.578457562121,-0.0115060755811,0.902255056464,0.443611031105
do_nothing,-0.608474663599,-1.34455797939,-1.96919672214,-0.881821897326,0.231266301619,-0.116850487186,-1.10587403491,-0.153484670676,0.0669630024564,0.982868003389,-0.134963934487,-0.03679656008,0.645680447002,-58.0621579792
do_nothing,-1.00903471909,-0.947005970325,-3.01613843452,-0.838567883741,0.178868366784,-3.40387112001,-0.363129850435,-0.194856922644,-0.103545573684,0.42350343413,0.39168318788,-0.172058792396,0.0723435693351,-98.2909345984
do_nothing,-1.21009684305,-0.203610250967,-3.28499143611,-0.509056961342,0.0778655667851,-5.9062537027,0.468626055728,-0.260990164893,-0.253592588068,-0.141755137868,0.963383891075,-0.101791114797,-0.442253909079,-110.682020527
do_nothing,-0.887023263353,0.968909401118,-2.43351053073,-0.00366502969065,0.0397417776164,-6.60316985642,1.38921632603,-0.0712625969058,-0.360964627863,-0.273746770876,1.50160782297,0.407650564209,-0.539398494512,-93.9677943999
do_nothing,0.109569303053,2.46523459224,-0.470095563549,0.500664385749,0.146042032898,-5.03234023406,2.34540660981,0.562917566306,-0.411387400533,0.269807797525,1.88879862724,1.37736388768,-0.0402712611435,-55.0576097928
do_nothing,1.6462764477,3.95937717355,2.18624045429,0.822823585384,0.401129567582,-1.49537988696,3.18517023981,1.61149287235,-0.399923160224,1.40582210687,1.99211116427,2.56709240851,0.957535732886,-6.48130857571
do_nothing,3.30225945259,4.96651689174,4.78695466022,0.843017839255,0.716314163999,2.99410531836,3.6605619739,2.78440543182,-0.330702125928,2.72358487587,1.70540780792,3.53449354807,2.09212768281,37.6982037573
do_nothing,4.48195856374,4.99103893342,6.46439681145,0.547608021142,0.935522408353,7.01438502877,3.49216412231,3.60436504302,-0.215422029452,3.61837458969,0.996386191002,3.78793260121,2.85955437969,66.1463756717
do_nothing,4.61557011565,3.71659668569,6.51227099192,0.0367291633859,0.895982584014,9.1970846348,2.48034751365,3.5774750375,-0.0711774945315,3.51913373329,-0.0591438813487,2.98110326137,2.80527999103,73.3466118612
do_nothing,3.38123956986,1.17072151283,4.64606393781,-0.508724151793,0.502104205395,8.69294797183,0.623564705271,2.40324628472,0.0819068568087,2.12991184131,-1.27206679607,1.07819411293,1.71547994912,60.6237100802
do_nothing,0.868218762462,-2.20339585663,1.15171693092,-0.889636550969,-0.216931886769,5.48160431182,-1.80743240821,0.143157434603,0.222980639944,-0.405955219324,-2.37174924309,-1.57579294889,-0.264800082297,34.9319504516
do_nothing,-2.38582924196,-5.60969428662,-3.13895506462,-0.958977094755,-1.09181760102,0.414111449793,-4.28184740109,-2.72544441965,0.332663460865,-3.48779097927,-3.07035752156,-4.3147887175,-2.6362819065,5.98302003997
do_nothing,-5.51083396062,-8.09446318051,-7.05382715899,-0.675147242437,-1.85179494035,-5.03382212434,-6.12243303638,-5.40648755632,0.395185356837,-6.20597814102,-3.14314563816,-6.33220688449,-4.68019035349,-17.2001386931
do_nothing,-7.54890508883,-8.82427153738,-9.41451475568,-0.119422943627,-2.20916448152,-9.22133396191,-6.69779782364,-7.0157844126,0.400462975351,-7.61851856863,-2.5007303334,-6.92963257658,-5.68383342485,-29.10356107
do_nothing,-7.7556319798,-7.36246852159,-9.39998711873,0.528997493808,-1.96285976401,-10.8642062397,-5.63695158058,-6.87566001065,0.345917204625,-7.06919830003,-1.22960053868,-5.75400394377,-5.18359766757,-29.0199336775
do_nothing,-5.86104537241,-3.85210562488,-6.82472325731,1.05209475172,-1.08438455695,-9.4457522016,-2.99286169443,-4.77394217098,0.237635119946,-4.44039319125,0.4146197588,-2.94300769002,-3.14250483843,-20.5220343563
do_nothing,-2.19995614825,0.963825199178,-2.23754742881,1.26620581817,0.247547081504,-5.380189372,0.709736854909,-1.0916853931,0.090385539232,-0.249282160874,2.06274672034,0.874924590159,0.00143246189623,-9.4741097536
do_nothing,2.34065673172,5.9057965816,3.19971457666,1.08438507637,1.68155812689,0.1245712547,4.57398396039,3.25707850928,-0.0738961075993,4.45593076741,3.32296703702,4.73407796072,3.4383855258,-1.43809832943
do_nothing,6.551953,9.66743864443,8.02608230515,0.546847236503,2.79172994779,5.45638229576,7.56186935002,7.06850381559,-0.229220849095,8.37848394046,3.88231099812,7.59691913461,6.21390499209,0.510971230745
do_nothing,9.2474716365,11.1847651599,10.8980406378,-0.190634124177,3.2105563685,9.10822878207,8.79377509861,9.20621230484,-0.349878365516,10.3527531394,3.59000681529,8.6530118917,7.51120879063,-3.23337832549
do_nothing,9.61772910137,9.95452369153,10.9840786918,-0.906228709364,2.75362484033,10.1375765815,7.82502735606,8.96068043076,-0.415182644692,9.70444906366,2.49896484414,7.56043752277,6.90054710575,-9.32301112776
do_nothing,7.48432100518,6.20214440934,8.21612061305,-1.38269270389,1.49294073056,8.42698110149,4.80835099427,6.29211416332,-0.413578448317,6.47659847314,0.85372971725,4.55522055963,4.47716501362,-13.1713368084
do_nothing,3.37120877678,0.842783930416,3.31906725974,-1.47569178149,-0.24907074283,4.66881373777,0.482557395292,1.87194140271,-0.345099576326,1.44598417388,-0.971349367116,0.394239814589,0.844216182126,-11.1276720214
do_nothing,-1.633350545,-4.75890249118,-2.39272414649,-1.15767158676,-1.98727258064,0.0928418180289,-4.01881058429,-3.09813003735,-0.221519345066,-4.08078286,-2.56604704471,-3.8522329268,-3.05451958192,-2.21383920694
do_nothing,-6.18546789782,-9.1628757517,-7.39160694714,-0.523810014624,-3.21809622019,-3.95855511954,-7.48691016686,-7.23769233994,-0.0640974550246,-8.63344496729,-3.58430582116,-7.09694654209,-6.20095156772,11.278004503
do_nothing,-9.07232935573,-11.2526091828,-10.3722132008,0.240578403432,-3.57526577472,-6.45639590912,-8.98958232732,-9.40083058947,0.100563649675,-10.9972520287,-3.82394929241,-8.53374691083,-7.78746365601,24.5674283585
do_nothing,-9.55956915915,-10.5413487714,-10.6157935708,0.91927501905,-2.94651606997,-6.96950292121,-8.14673065398,-9.02002020979,0.245574104637,-10.5588739441,-3.26665916795,-7.85112258691,-7.43592735561,32.2430575599
do_nothing,-7.5941372372,-7.29617068303,-8.1760097782,1.33104949701,-1.51242151515,-5.72243759495,-5.24175771061,-6.27115758558,0.348563542329,-7.4754948658,-2.07076980263,-5.30200572361,-5.28900109861,30.4669777517
do_nothing,-3.8027963075,-2.44553785304,-3.83507374679,1.38112184305,0.306658809363,-3.42705199542,-1.1326202947,-2.00788866125,0.395227623663,-2.6182921471,-0.522458892191,-1.61442660709,-1.95206940214,18.655964545
do_nothing,0.709827812069,2.69863888507,1.14992066577,1.08295447407,1.97952041577,-0.967980090881,3.01032253558,2.51172681148,0.381014522215,2.68921933559,1.03880623389,2.22558830331,1.69080915792,-0.0390658990374
do_nothing,4.69792189333,6.81848394563,5.42747649264,0.545615326472,3.02791652687,0.930989522456,6.05712046728,6.0162784843,0.310879541708,7.05572849399,2.29977435535,5.2518635145,4.72788820704,-19.6817704137
do_nothing,7.13998654211,8.95352723372,7.94024058836,-0.0666952442865,3.1726369641,1.93531271828,7.25046609766,7.60326538215,0.197503503573,9.41225987913,3.03823508319,6.77529616147,6.46257314229,-33.6110161635
do_nothing,7.52112899193,8.74390953259,8.2049941926,-0.587960603585,2.41511299608,2.14720380916,6.41373907456,6.99164301539,0.058638702697,9.29259354183,3.15967806086,6.54917380526,6.58029050687,-36.8676236054
do_nothing,5.94933693238,6.48715335361,6.40563555245,-0.898647546925,1.02909495418,1.97121362593,3.97263165568,4.56907381862,-0.0857391133161,6.92603864707,2.70107566744,4.80158209558,5.19833313231,-28.086182964
do_nothing,3.07745031958,3.00106170171,3.28175970504,-0.954342102934,-0.533476432954,1.86807422576,0.789369618091,1.22741609504,-0.215989156995,3.12458460234,1.80573889675,2.13434958481,2.79446116713,-10.1298884279
do_nothing,-0.135592078927,-0.655579403304,-0.140625071723,-0.787821881755,-1.79037651892,2.1077667156,-2.13089351443,-1.95078013696,-0.314877878164,-0.990502293298,0.679487816377,-0.673783128283,0.0451622505316,10.8038946637
do_nothing,-2.74140349685,-3.51180105178,-2.88314708113,-0.486992345084,-2.38181103633,2.62821191932,-3.96220653379,-4.04586520474,-0.369209333585,-4.33123572096,-0.458918456027,-2.89704553542,-2.37242318843,27.3222006872
do_nothing,-4.09266379275,-4.9593593269,-4.3056484557,-0.158760486317,-2.17848820785,3.05902924062,-4.30320785191,-4.57763016364,-0.371150893114,-6.14738173643,-1.42107745644,-4.05748145177,-3.95565312563,33.4721832429
do_nothing,-4.01634757099,-4.89235058942,-4.264876535,0.107541712314,-1.31145216312,2.89969384985,-3.26963171487,-3.61884418201,-0.319313160431,-6.20387287058,-2.07761861798,-4.03135105092,-4.48193039411,26.9299660714
do_nothing,-2.82038248914,-3.67685995418,-3.09995042904,0.264967726367,-0.116647879692,1.77612184908,-1.41143611335,-1.7184992731,-0.219454596237,-4.78721821579,-2.36892462115,-3.04299513865,-4.02303003744,9.9404676919
do_nothing,-1.14093520946,-1.97187622436,-1.46143898475,0.315188282485,0.984636943544,-0.334895555007,0.508506365986,0.327330435939,-0.0845004491272,-2.55323811357,-2.29948683869,-1.55668378193,-2.8755723905,-11.3610276348
do_nothing,0.310176022269,-0.469733496792,-0.051022340756,0.296522732459,1.62795384446,-3.01408007096,1.79228167596,1.76982443798,0.0664868637741,-0.27754894694,-1.9211728488,-0.106566982204,-1.43892936971,-29.0431904445
do_nothing,1.00735514717,0.35233368221,0.635108622508,0.260483319654,1.62302195441,-5.49064838156,2.04395711879,2.16255139063,0.210603554573,1.40318075967,-1.31246295376,0.878958666648,-0.0840444520953,-36.1786682204
do_nothing,0.791697567628,0.38526103049,0.471425288263,0.246907003364,1.00866100032,-6.8932915496,1.28662481809,1.4923844513,0.32455802723,2.17452193681,-0.560389658692,1.20352011272,0.945508028924,-29.3759506096
do_nothing,-0.0903140042144,-0.103421875577,-0.276529206999,0.267231556617,0.0297870298526,-6.57277054354,-0.0748825361775,0.148818656518,0.388769352575,2.09818112983,0.250254351739,0.942612092915,1.57354262775,-10.144383366
do_nothing,-1.1000725922,-0.604298547792,-1.07863459867,0.301593689228,-0.952770104408,-4.37439470316,-1.42497592738,-1.24754679439,0.391266523303,1.52937527583,1.03924587424,0.388563365434,1.86737606627,15.4163608652
do_nothing,-1.62921561122,-0.592664724761,-1.36494384921,0.309830813887,-1.58718400858,-0.751447639062,-2.17558884767,-2.08863354447,0.330428497494,0.937334159343,1.72723450316,-0.0772899368494,1.96662269465,38.5398851908
do_nothing,-1.25017927695,0.236406760319,-0.766456556171,0.251262433041,-1.64779078098,3.33419441126,-1.9844142193,-2.00433980771,0.215779868402,0.699785359277,2.2312398312,-0.139950314751,1.99599714523,50.7111822934
do_nothing,0.0962777456683,1.81183380834,0.71574436786,0.105117848172,-1.10641057099,6.70043588853,-0.876195278675,-0.990709328349,0.0664967361425,0.948025475474,2.46548143345,0.320392245237,1.99702097139,46.6102219144
do_nothing,2.04675262504,3.67037937236,2.67626539124,-0.116429104808,-0.136495090953,8.32735848484,0.772711059195,0.599901220675,-0.0921412047606,1.51830884471,2.35212481448,1.17148517419,1.90516926772,26.0866928627
do_nothing,3.91871014247,5.09408209427,4.42324709922,-0.367691469362,0.948312183884,7.70077953902,2.37639892785,2.19653332795,-0.233573014913,2.02552755199,1.84261798718,2.06611787458,1.58162806966,-5.5198200074
do_nothing,4.94150040026,5.36077435061,5.21280485726,-0.58180268097,1.79840658686,4.99424191472,3.35339741508,3.22034821781,-0.334941970224,2.03043157251,0.945047593927,2.56382846168,0.888186430871,-38.8611078435
do_nothing,4.53859300977,4.02495307048,4.52283203656,-0.691769204125,2.13984272927,1.02191323156,3.33415961232,3.29036483907,-0.38111703672,1.23735101362,-0.251863256415,2.29830758447,-0.223318802744,-63.4202908375
do_nothing,2.56351234997,1.1303897847,2.27209740081,-0.653032520998,1.85757384219,-3.02453965357,2.2885883668,2.35185299715,-0.366922948528,-0.352693616233,-1.56980602334,1.13358726568,-1.64327395638,-70.8212652505
do_nothing,-0.596696165478,-2.72718314976,-1.09521141453,-0.459840299928,1.02574452898,-5.96530180477,0.531038860746,0.685992361684,-0.29726160769,-2.39422407114,-2.75689872907,-0.74784361654,-3.08972263797,-57.5595150212
do_nothing,-4.09552410288,-6.52329511264,-4.69791384681,-0.149823851259,-0.121197628478,-7.01329903704,-1.39476806095,-1.19656830651,-0.185358049652,-4.27945488779,-3.53231221297,-2.8626118411,-4.1618996568,-26.2830183254
do_nothing,-6.86551297087,-9.08919769843,-7.46175764694,0.204929552157,-1.26383891741,-6.01529648917,-2.90596789574,-2.73489757054,-0.0497820219582,-5.32910629703,-3.65369577121,-4.55394921115,-4.45332923593,14.7961276141
do_nothing,-7.95179747154,-9.47659499667,-8.44878185407,0.517660006527,-2.09344845534,-3.47225231905,-3.57606852752,-3.5033074832,0.0889336925559,-5.03066468156,-2.99173108538,-5.19587774482,-3.69294776819,54.1988958649
do_nothing,-6.83547291321,-7.28861829795,-7.17001928447,0.711496803556,-2.39781365783,-0.336953037657,-3.26699625314,-3.33872184483,0.211354112778,-3.2426455663,-1.58951661406,-4.41157588273,-1.86812774304,80.5007180171
do_nothing,-3.63904188269,-2.8654557273,-3.77908245997,0.741268743569,-2.11296482137,2.33422312648,-2.15463227419,-2.37017449205,0.301445604574,-0.290441330985,0.315729026764,-2.23277586686,0.71677508407,85.6848795244
do_nothing,0.860906305553,2.74772390425,0.923108303708,0.605941896946,-1.32926520402,3.74844087111,-0.64495553843,-0.948133232423,0.348027323103,3.0878146507,2.32351406944,0.85979838726,3.47696533599,67.5334233759
do_nothing,5.42963387918,8.0575346715,5.68556987677,0.347990625038,-0.25519888511,3.6318633202,0.782647839211,0.492925030316,0.345531679596,5.93839468284,3.9540199748,4.04041307983,5.68122287003,30.3562376313
do_nothing,8.72778143415,11.5390230837,9.15617229639,0.0400186312678,0.845875648446,2.2864490142,1.74400449331,1.58412675009,0.294317781053,7.37661953446,4.76852595946,6.36610849195,6.65323200918,-16.14568771
do_nothing,9.71814691677,12.0921189777,10.2816269701,-0.237183154975,1.72514505592,0.435336627341,2.06892646544,2.1297489582,0.20068839042,6.87114931449,4.49518002655,7.06458538628,5.98375853603,-59.5443205602
do_nothing,7.99947283479,9.39779813036,8.63724932665,-0.418380793161,2.20467694539,-1.0786504089,1.8303853124,2.13874263778,0.0765690984463,4.43533525949,3.12257169656,5.79313695517,3.6867059595,-88.1075044881
do_nothing,3.95877026644,4.05747602214,4.58178922752,-0.472164074031,2.20853302188,-1.62481863985,1.28019057682,1.77772321752,-0.0613600633849,0.658559006497,0.928626955288,2.7818648172,0.242653627945,-94.0141304381
do_nothing,-1.31311571551,-2.53896687988,-0.817336889239,-0.408151578141,1.76586357464,-1.02205849502,0.722989036147,1.27296819462,-0.193324220579,-3.44096130598,-1.57128391487,-1.19427372162,-3.49618257149,-75.4751413824
do_nothing,-6.3252745339,-8.58893090751,-6.07414205884,-0.27097279735,0.991264268302,0.40471002135,0.382452828261,0.806226375965,-0.29899713162,-6.70384895151,-3.74958007052,-5.01805310172,-6.52363437204,-37.1977466549
do_nothing,-9.62281631168,-12.3918391306,-9.70840481379,-0.123015670291,0.0520953330677,1.96634567934,0.313921329649,0.447679338971,-0.360721087348,-8.17323533139,-5.03393435783,-7.55391889389,-7.96316833088,10.9029804457
do_nothing,-10.2241488273,-12.8507683936,-10.6794738896,-0.0215593645366,-0.867351921207,2.89216547992,0.396951329832,0.150752849442,-0.366857658884,-7.38900739364,-5.06994404003,-7.99710302752,-7.33464494429,56.3651307193
do_nothing,-7.92447745683,-9.80761418456,-8.69857246833,0.00211476700707,-1.59784934505,2.64396494418,0.407782724996,-0.194173202591,-0.314491532476,-4.53940397085,-3.82980772903,-6.13786341221,-4.72021648621,87.4772452366
do_nothing,-3.36922578612,-4.10530744932,-4.32284783278,-0.0455773191282,-2.01024155143,1.14120903778,0.1389432211,-0.675345935978,-0.210702037185,-0.419009285971,-1.63122332273,-2.45226623832,-0.771128668895,96.3276002203
do_nothing,2.1291107111,2.64775900452,1.20070370246,-0.122473169245,-2.03310224386,-1.18848185177,-0.486026710606,-1.28540065176,-0.0718766017151,3.798252804,0.943531871251,2.0174480793,3.45638023611,80.8110228012
do_nothing,6.97779387943,8.54447573683,6.29739780259,-0.166331887287,-1.66335273826,-3.55343741727,-1.35294118278,-1.89344298464,0.0789886543796,6.90441489276,3.20793737933,5.96369363362,6.79466618219,45.0924191816
do_nothing,9.77760099851,11.9378313708,9.52566162306,-0.119555964271,-0.969086381535,-5.08364301039,-2.18051630382,-2.27953821689,0.216513306364,8.01633474567,4.56513775338,8.2068474958,8.30335066339,-1.56024325413
do_nothing,9.73887393473,11.9225975342,9.99811018562,0.0452332746977,-0.0824087233928,-5.15234918514,-2.62141019626,-2.22058630109,0.317755216771,6.83799408339,4.67768690772,8.0594767414,7.55059599989,-47.2373035607
do_nothing,6.91253420997,8.59324886389,7.63614174487,0.308025202479,0.820039166217,-3.61465357174,-2.40290601803,-1.59346421203,0.366517839253,3.74539310255,3.56149107233,5.54557341107,4.74852071336,-80.4812754114
do_nothing,2.16605685309,3.00022167713,3.18211530358,0.599900529204,1.54905991844,-0.874862008389,-1.45158533826,-0.451732894446,0.356160809616,-0.331795633513,1.57501957635,1.40243594899,0.697268325652,-93.2029895153
do_nothing,-3.08634016236,-3.17991480592,-2.03252388533,0.819697713774,1.94339869282,2.24261044271,0.0498105939018,0.959671149523,0.290342927823,-4.19438477651,-0.692795648466,-3.1390048231,-3.44873803953,-82.6719572433
do_nothing,-7.31399129856,-8.1562336192,-6.49027127459,0.865309785396,1.91013863545,4.77234476226,1.70065994293,2.26430115241,0.181682099449,-6.73487132472,-2.60092222248,-6.72872876277,-6.52253400599,-52.0859843474
do_nothing,-9.32658197794,-10.5576151299,-8.93743776892,0.670517989518,1.45348382388,5.93653103617,3.00716308421,3.07195711339,0.0488383647186,-7.26387554191,-3.64524028461,-8.31004225659,-7.68947271131,-9.60202708907
do_nothing,-8.617416753,-9.82510012447,-8.74426144291,0.235234981694,0.681199284288,5.40574407937,3.55083633391,3.11365490495,-0.0871463790743,-5.70250135858,-3.59990814849,-7.44002262453,-6.68848675828,33.8868050839
do_nothing,-5.49115259631,-6.34552198033,-6.06888837585,-0.362188880217,-0.216933868588,3.40051146546,3.13952828284,2.34390094501,-0.206370368316,-2.5849676555,-2.56886647483,-4.41738680794,-3.89557831866,67.6191512202
do_nothing,-0.943333656829,-1.29305292058,-1.78151625792,-0.977200457639,-1.01600409932,0.600949651219,1.88389110579,0.970017871725,-0.292788923393,1.12369897187,-0.934740902769,-0.179128215727,-0.192010628207,83.7093458231
do_nothing,3.66298428016,3.76226053022,2.8202636588,-1.43491342968,-1.51671672745,-2.09887872753,0.168255833765,-0.606284999686,-0.335829877019,4.33259440654,0.774593367457,3.99844357271,3.31805947715,79.0458294887
do_nothing,7.01676196743,7.34851083021,6.41092126853,-1.58068882825,-1.60242593239,-3.90059375632,-1.47665950034,-1.91786220399,-0.330983582937,6.15399907855,2.05596453561,6.89652515538,5.6484251201,55.8648497473
do_nothing,8.24214068189,8.53032697073,8.02561993394,-1.33064146168,-1.27418153118,-4.36350542451,-2.55510890303,-2.58766884479,-0.279680520041,6.15436341787,2.58177302432,7.72126062439,6.22126851556,20.8918322383
do_nothing,7.12983226626,7.15737846422,7.32117774062,-0.705767391585,-0.651148602264,-3.52802535194,-2.77664762615,-2.45577613829,-0.188800860777,4.45397770532,2.28501516311,6.32700035295,5.01739786814,-16.6601312151
do_nothing,4.15429236943,3.85495385618,4.63743491333,0.162877018594,0.0656661738553,-1.86258066874,-2.15322000704,-1.63168642172,-0.0700089137355,1.6532346992,1.35561697492,3.2301576796,2.54463596636,-47.6357627821
do_nothing,0.284567858397,-0.225796835389,0.852431859088,1.06230860981,0.656275908526,-0.061424224524,-0.986926436132,-0.4519436621,0.0611267555372,-1.38077453881,0.155622198462,-0.582048121111,-0.356675356806,-65.296029176
do_nothing,-3.33910655105,-3.80413857208,-2.91123306868,1.75311111754,0.951519562607,1.22597635996,0.247611564645,0.642872781968,0.186443372157,-3.79151168141,-0.912925519486,-3.97783703836,-2.79966738868,-66.84232642
do_nothing,-5.7534056807,-5.87665991934,-5.62930011697,2.03716183813,0.886857904302,1.6312583922,1.0832361589,1.2681080587,0.287150711868,-4.98309854284,-1.54015699806,-6.03162654269,-4.13032091397,-53.7325911731
do_nothing,-6.4351957647,-6.00353959478,-6.66036024463,1.8175369937,0.521694012517,1.18299263832,1.23590379518,1.23418971118,0.346490653016,-4.7676368631,-1.59682238175,-6.28656830091,-4.10942335657,-30.7930892382
do_nothing,-5.40591330664,-4.39059119092,-5.89094263374,1.1317570963,0.0168936391234,0.263768948685,0.710241153756,0.614044401537,0.35279356809,-3.37314284022,-1.15347791743,-4.85123773235,-2.94403189699,-4.49239503718
do_nothing,-3.15989150991,-1.75628710635,-3.71051013585,0.146856835384,-0.422638546724,-0.568888440144,-0.205264464371,-0.286621844118,0.302297006533,-1.32374380688,-0.430738736958,-2.31188973797,-1.16942475835,19.0231080497
do_nothing,-0.45761129454,0.9549351248,-0.841730920579,-0.883870378201,-0.621135815885,-0.82440899905,-1.05281568107,-1.04637941601,0.200905549121,0.755642875513,0.295191393744,0.496457075095,0.566490400642,35.5031832913
do_nothing,1.93537202737,2.90477533771,1.90572819521,-1.69070146687,-0.495666806729,-0.288423529488,-1.38770228505,-1.29053578052,0.0641535394919,2.33831463069,0.793970956485,2.77339282129,1.73414440079,43.327208491
do_nothing,3.47372683213,3.62306529608,3.87301722631,-2.06353323771,-0.0877541280647,0.881793258577,-0.960385030087,-0.839752048458,-0.0849917999882,3.13320968593,0.952855061695,3.99305807644,2.08684235581,43.2697126993
do_nothing,3.95366745863,3.1169960375,4.70952358735,-1.91139056648,0.44900540065,2.21223067449,0.171150299984,0.210449460613,-0.22026981195,3.12396773799,0.796319184704,4.02584463492,1.70648827219,37.5211953996
do_nothing,3.50515740081,1.80417016445,4.41315254098,-1.28736068197,0.902034509895,3.09616472628,1.64357910997,1.51043710736,-0.317386388132,2.51143286324,0.452599513323,3.11422057732,0.924717753909,28.4406000768
do_nothing,2.47724903603,0.309483409278,3.26012371184,-0.371411802435,1.07582207295,3.03688550352,2.90803211011,2.57285214093,-0.359149982758,1.59545216671,0.0862473211039,1.72817799115,0.159713307727,17.5801927857
do_nothing,1.27339193487,-0.789172452136,1.66661263396,0.583489439272,0.864563183896,1.85637389393,3.42686294738,2.94529701254,-0.339161939216,0.649257948675,-0.173005235548,0.36561162482,-0.262396799758,5.37638418301
do_nothing,0.203974931788,-1.1697365212,0.0407963009227,1.32527713506,0.295518934823,-0.210341322218,2.87718475464,2.37886131424,-0.263062799625,-0.164608886536,-0.276194688119,-0.623991273118,-0.231321658591,-8.40267977584
do_nothing,-0.592056359771,-0.856603380937,-1.32298811364,1.67406510351,-0.473148075386,-2.57308975619,1.28661104124,0.932128326267,-0.146981478976,-0.810634667108,-0.259765044648,-1.13078149602,0.123327100412,-23.7034462291
do_nothing,-1.1379889626,-0.169132512236,-2.28103117841,1.56943068401,-1.2007169464,-4.47843498755,-0.950568771955,-1.02815995743,-0.0136089688254,-1.33374658716,-0.211173306362,-1.26711000633,0.511194301522,-39.2226249719
do_nothing,-1.54113345182,0.441311993913,-2.81235839263,1.0803234907,-1.64290567367,-5.26789114214,-3.18657363635,-2.93309109347,0.113021153546,-1.78107922849,-0.214129361202,-1.26190873414,0.625982276044,-51.9719912577
do_nothing,-1.89048502973,0.595173545054,-2.95555235041,0.376257559046,-1.63492000554,-4.6104077595,-4.7263505259,-4.19047230928,0.212629475597,-2.13484526652,-0.299923949977,-1.32029675098,0.293335569998,-57.7259606908
do_nothing,-2.18100014569,0.147374446573,-2.74915677618,-0.329458200995,-1.14997141984,-2.6261222165,-5.05687999101,-4.37724557185,0.272349966188,-2.29152730927,-0.42756071315,-1.51160803578,-0.440355946128,-52.3480270262
do_nothing,-2.29964100169,-0.753104202752,-2.20613011299,-0.845468894421,-0.312650405707,0.142738348771,-4.0206618468,-3.38082882238,0.288136793857,-2.09983089647,-0.50198991087,-1.73311985791,-1.3153415633,-33.5944125971
do_nothing,-2.07872917942,-1.72618142221,-1.3316610762,-1.05631207941,0.638186893292,2.90367728797,-1.87346094926,-1.44176433817,0.263833349498,-1.44171875284,-0.422428941009,-1.76257573596,-1.95969457509,-2.7128218292
do_nothing,-1.3912466518,-2.31759369014,-0.169827550704,-0.948713334314,1.42504219976,4.86845324921,0.793490959593,0.916721776313,0.208531854293,-0.31936056275,-0.138890995493,-1.3743900488,-2.04367560623,34.8841031558
do_nothing,-0.243337764339,-2.18594558468,1.15122584322,-0.604208375868,1.82060727963,5.50249752863,3.23978978107,3.04874139803,0.133313128564,1.0948011415,0.30947127449,-0.467534975495,-1.42471256195,70.345374586
do_nothing,1.18078113919,-1.24639618778,2.40681814329,-0.163241935196,1.71986619284,4.68510822387,4.80673280958,4.3823206129,0.0485180923647,2.47471124116,0.793718917019,0.851988753351,-0.223361136152,93.5173731706
do_nothing,2.54717077822,0.283929304319,3.31289985289,0.225324440455,1.17125479846,2.72937311631,5.11492915131,4.58835478376,-0.0376402921629,3.42726817137,1.13608079536,2.27285866679,1.2027672022,95.9659748506
do_nothing,3.46907786983,1.95492311186,3.60658948181,0.451767240333,0.356790521465,0.260656307851,4.16436842708,3.66846084422,-0.118926997364,3.62223144056,1.17842373978,3.36891710529,2.3802101863,73.9577677506
do_nothing,3.63853445585,3.23938101946,3.14189925223,0.475061093632,-0.471319970235,-1.99899303694,2.30830805747,1.93664258373,-0.189848285241,2.91825334636,0.85126522529,3.74678790636,2.89147164978,30.3592540951
do_nothing,2.94272297056,3.71650360451,1.96163567681,0.326685721581,-1.0751943719,-3.46308213816,0.116793236268,-0.0943746474287,-0.244225262717,1.43512009953,0.214150553153,3.19501526477,2.53230207143,-25.3388998216
do_nothing,1.51889848087,3.21531001943,0.311969934563,0.0902247334943,-1.30754478382,-3.85043740879,-1.8172485877,-1.88031011164,-0.274549134434,-0.460523460038,-0.551939131899,1.776874912,1.39378844241,-79.1100182635
do_nothing,-0.276094968697,1.86750753725,-1.41350257865,-0.133727860689,-1.15373023643,-3.23945163706,-3.05966863714,-3.00860217716,-0.272761889279,-2.25755941562,-1.20110759786,-0.170662789688,-0.163383973702,-116.13647642
do_nothing,-1.97353381321,0.0547299598404,-2.78607480879,-0.263847045322,-0.726116772145,-1.99718383518,-3.44379210958,-3.30502747969,-0.232492282199,-3.45908283537,-1.5091658312,-2.13437794652,-1.63430716027,-125.157719299
do_nothing,-3.14012275754,-1.72557626483,-3.47317192256,-0.263087724976,-0.21439286123,-0.618151488152,-3.0757658974,-2.85332193192,-0.152101837903,-3.74285584183,-1.35828156355,-3.5851709411,-2.54872430748,-102.078631581
