label,COUNTER,INTERPOLATED,AF3,F7,F3,FC5,T7,P7,O1,O2,P8,T8,FC6,F4,F8,AF4,RAW_CQ,GYROX,GYROY,MARKER,SYNC,TIME_STAMP_s,TIME_STAMP_ms,CQ_AF3,CQ_F7,CQ_F3,CQ_FC5,CQ_T7,CQ_P7,CQ_O1,CQ_O2,CQ_P8,CQ_T8,CQ_FC6,CQ_F4,CQ_F8,CQ_AF4,CQ_CMS,CQ_DRL
off_to_on,4106.9393119,4107.55909116,4114.54414889,4134.0427863,4100.47965819,4108.46923636,4104.24107517,4100.95471977,4136.02934677,4096.21640022,4105.27762979,4091.10988274,4106.61858623,278.080542497
off_to_on,4109.18361268,4109.76640135,4116.20608208,4133.98801024,4103.23676049,4110.9971561,4106.24134756,4102.89334564,4136.06586522,4098.06340334,4107.13703824,4092.48975497,4108.72206101,313.543443251
off_to_on,4111.88397553,4112.29742191,4118.26588929,4133.931304,4106.46769934,4114.25573785,4109.01819985,4105.62468465,4136.10619086,4100.72900409,4109.23669396,4094.70852034,4111.30832727,351.726173269
off_to_on,4114.96285644,4115.09809221,4120.66789182,4133.87552034,4110.08347855,4118.15296347,4112.49243341,4109.0705072,4136.14959793,4104.14169703,4111.51071063,4097.70023858,4114.29567148,392.099457966
off_to_on,4118.33106934,4118.1060031,4123.34568363,4133.82343642,4113.98366995,4122.57556264,4116.56192728,4113.12906392,4136.1952792,4108.20516888,4113.88929446,4101.37460093,4117.59061924,434.040570558
off_to_on,4121.89130688,4121.25265425,4126.22477949,4133.77762597,4118.06042686,4127.39356903,4121.10572613,4117.67915521,4136.24236694,4112.80221517,4116.30136635,4105.6206293,4121.0917109,476.852254299
off_to_on,4125.54184029,4124.46586117,4129.22545834,4133.74034218,4122.2026319,4132.46534656,4125.98866424,4122.5847685,4136.28995666,4117.79926284,4118.67712612,4110.31095372,4124.69342719,519.784519219
off_to_on,4129.18026234,4127.6722262,4132.26569674,4133.71341614,4126.30002614,4137.64290045,4131.06636007,4127.70011705,4136.33713267,4123.05133376,4120.95046869,4115.30651403,4128.29011961,562.058531852
off_to_on,4132.70713915,4130.79958758,4135.26408726,4133.69817554,4130.24717101,4142.77728133,4136.19040601,4132.87490362,4136.38299468,4128.40727264,4123.06117116,4120.46152204,4131.77980472,602.891737801
off_to_on,4136.02944389,4133.77936351,4138.14263989,4133.69538672,4133.94710492,4147.72389097,4141.2135748,4137.95962707,4136.42668439,4133.71505781,4124.95678068,4125.62851503,4135.06769084,641.523311474
off_to_on,4139.06365573,4136.54871328,4140.82937178,4133.70522251,4137.31457089,4152.34750556,4145.99486641,4142.81075146,4136.46741099,4138.82701411,4126.59414672,4130.66333213,4138.06931898,677.239016297
off_to_on,4141.73842293,4139.05244591,4143.26060018,4133.72725694,4140.27871081,4156.52684593,4150.40422739,4147.29556373,4136.50447446,4143.60475326,4127.94055605,4135.42985086,4140.71321697,709.394581661
off_to_on,4143.99670599,4141.24461658,4145.38286575,4133.76048688,4142.78514349,4160.15854279,4154.32678791,4151.29655861,4136.5372857,4147.92367908,4128.97444393,4139.80433106,4142.94298567,737.436758656
off_to_on,4145.79733722,4143.08976302,4147.15442793,4133.80337938,4144.79736717,4163.16036762,4157.66647888,4154.71520551,4136.56538265,4151.67691071,4129.68567116,4143.67922825,4144.71875776,760.921304218
off_to_on,4147.11595555,4144.5637481,4148.54629068,4133.85394235,4146.29745323,4165.47362798,4160.34891474,4157.47497485,4136.58844176,4154.77849939,4130.07537236,4146.96635799,4146.01799487,779.527258822
off_to_on,4147.94530004,4145.65418994,4149.54273568,4133.90981519,4147.28602571,4167.06465832,4162.32345509,4159.52352924,4136.60628437,4157.16584175,4130.15539736,4149.59931805,4146.83561456,793.067020928
off_to_on,4148.29487152,4146.36047749,4150.14135991,4133.9683752,4147.78154933,4167.92537356,4163.56439175,4160.83401836,4136.61887771,4158.80122503,4129.94738373,4151.53510481,4147.18346671,801.491876628
off_to_on,4148.18999657,4146.69338511,4150.35263462,4134.02685483,4147.81897635,4168.07288992,4164.07124177,4161.40545155,4136.62633038,4159.67247422,4129.48151165,4152.75489205,4147.08920407,804.892810496
off_to_on,4147.670351,4146.67431465,4150.19902065,4134.0824646,4147.44782666,4167.54825277,4163.86816027,4161.26215706,4136.62888257,4159.79270509,4128.79500402,4153.2639713,4146.5946152,803.496596827
off_to_on,4146.78801903,4146.33420643,4149.71369143,4134.13251625,4146.72979585,4166.4143437,4163.00251833,4160.45236961,4136.62689111,4159.19921923,4127.93044135,4153.09088315,4145.75350612,797.65734177
off_to_on,4145.60517957,4145.71217094,4148.93892793,4134.17454095,4145.73600134,4164.75306789,4161.54271969,4159.04601794,4136.6208101,4157.95160698,4126.93396581,4152.28579546,4144.62923189,787.843809993
off_to_on,4144.19152148,4144.85390149,4147.92425981,4134.20639736,4144.5439867,4162.66194566,4159.57535495,4157.13181075,4136.61116782,4156.12914943,4125.85344899,4150.91820915,4143.29198777,774.62301938
off_to_on,4142.62149575,4143.80993295,4146.72443337,4134.22636513,4143.23460893,4160.25025042,4157.20181221,4154.81374121,4136.59854079,4153.82763195,4124.73669641,4149.07409154,4141.81597467,758.640718217
off_to_on,4140.97151375,4142.63381457,4145.39728961,4134.23321987,4141.88893331,4157.63484657,4154.53447766,4152.20714707,4136.58352635,4151.15569827,4123.62975652,4146.85255306,4140.27655263,740.599465681
off_to_on,4139.31719841,4141.3802644,4144.00163542,4134.22628628,4140.58525473,4154.93588717,4151.69266926,4149.43447476,4136.56671471,4148.23088492,4122.57539496,4144.36219381,4138.74749144,721.235114541
off_to_on,4137.73078839,4140.10337056,4142.59518707,4134.20546738,4139.39635526,4152.27253107,4148.79845094,4146.62090221,4136.54866193,4145.17548223,4121.61178506,4141.7172536,4137.29841834,701.292543335
off_to_on,4136.27878517,4138.85489945,4141.23265891,4134.17124839,4138.38709345,4149.75883321,4145.97247382,4143.8899757,4136.52986485,4142.11236871,4120.77145451,4139.03370043,4135.99255054,681.50150212
off_to_on,4135.01991939,4137.6827645,4139.96406096,4134.12467536,4137.61240411,4147.4999499,4143.32998494,4141.35941109,4136.51073914,4139.16096108,4120.08051522,4136.42539013,4134.8847848,662.553420142
off_to_on,4134.0034971,4136.6297005,4138.83325818,4134.06730981,4137.11576755,4145.58878427,4140.97713299,4139.13719984,4136.49160144,4136.43341276,4119.55819072,4134.00042179,4134.02019898,645.079976502
off_to_on,4133.26816873,4135.73217916,4137.87683137,4134.00116161,4136.92818637,4144.10317638,4139.00768645,4137.31814581,4136.4726564,4134.03118019,4119.21664195,4131.85780258,4133.43300162,629.634159065
off_to_on,4132.84114586,4135.0195912,4137.12326608,4133.92860343,4137.06768657,4143.10371994,4137.50026239,4135.98094187,4136.45398943,4132.04205975,4119.06108034,4130.08452139,4133.1459463,616.674434943
off_to_on,4132.73787263,4134.51370968,4136.59248245,4133.85227078,4137.53933896,4142.63226251,4136.51614493,4135.18587447,4136.43556553,4130.53777853,4119.09014528,4128.75311369,4133.17020837,606.552530264
off_to_on,4132.96214196,4134.22843866,4136.29570504,4133.77495196,4138.33577693,4142.7111203,4136.09775016,4134.97322091,4136.41723457,4129.57220046,4119.29651362,4127.91978103,4133.50570404,599.505172716
off_to_on,4133.50663069,4134.16984132,4136.23565958,4133.69947237,4139.43816867,4143.3430123,4136.26777087,4135.36237795,4136.39874289,4129.18018625,4119.66770087,4127.62310803,4134.14181532,595.649995098
off_to_on,4134.35381337,4134.33643212,4136.4070716,4133.62857807,4140.81758591,4144.51169238,4137.02901072,4136.35173439,4136.37975084,4129.37712211,4120.18700785,4127.88339827,4135.05847074,594.98563862
off_to_on,4135.47720227,4134.71970918,4136.79743215,4133.56482279,4142.43669767,4146.18323416,4138.36489453,4137.91927461,4136.35985551,4130.1591097,4120.83456368,4128.70263021,4136.22752028,597.395937384
off_to_on,4136.84285099,4135.30489561,4137.38798685,4133.51046306,4144.25170767,4148.30790112,4140.24062022,4140.02387587,4136.33861771,4131.50378843,4121.58841454,4130.06501408,4137.61433484,602.657918613
off_to_on,4138.41105218,4136.07185244,4138.15489834,4133.46736537,4146.21444711,4150.82251592,4142.60489708,4142.60723986,4136.31559189,4133.3717417,4122.42560944,4131.93811258,4139.17955528,610.453225646
off_to_on,4140.13815573,4136.99612162,4139.07052749,4133.436929,4148.27453206,4153.65322721,4145.39219684,4145.59637805,4136.29035758,4135.70842125,4123.32323687,4134.2744708,4140.88091445,620.382465947
off_to_on,4141.97843288,4138.05005486,4140.10477702,4133.42002769,4150.38149565,4156.71856111,4148.52542748,4148.9065522,4136.26255064,4138.44650861,4124.25937134,4137.01368626,4142.67505606,631.981901917
off_to_on,4143.88591319,4139.20398361,4141.22644111,4133.41697241,4152.48680986,4159.93263731,4151.91892692,4152.44455728,4136.23189282,4141.50862042,4125.21389479,4140.0848373,4144.51927868,644.741836262
off_to_on,4145.81612567,4140.42738616,4142.40450695,4133.42749685,4154.54571953,4163.2084275,4155.48166491,4156.11222351,4136.19821779,4144.81025604,4126.16916561,4143.40917926,4146.37313942,658.125999882
off_to_on,4147.72768216,4141.69001051,4143.60935911,4133.45076633,4156.51882245,4166.46093634,4159.12053611,4159.81000864,4136.16149227,4148.26288104,4127.11051634,4146.90301169,4148.19986119,671.591234311
off_to_on,4149.58365013,4142.96291562,4144.81384367,4133.48540987,4158.37334246,4169.61019178,4162.74362759,4163.44055097,4136.12183092,4151.77703954,4128.02657018,4150.480618,4149.96749869,684.606774155
off_to_on,4151.35267262,4144.2193981,4145.99415701,4133.52957414,4160.08405778,4172.58394318,4166.26334733,4166.91205816,4136.07950401,4155.26539132,4128.90937502,4154.05717958,4151.6498304,696.672473398
off_to_on,4153.00980511,4145.43577744,4147.13053345,4133.58099748,4161.63386306,4175.31997926,4169.59930897,4170.14141531,4136.03493744,4158.64557537,4129.75436207,4157.55157059,4153.22695719,707.335377557
off_to_on,4154.53705205,4146.59201933,4148.20771539,4133.63710081,4163.01395959,4177.76799549,4172.68087926,4173.05690887,4135.98870475,4161.84281069,4130.56014311,4160.88894617,4154.68560155,716.204115426
off_to_on,4155.92359874,4147.67218375,4149.21520027,4133.69509217,4164.22368486,4179.89095926,4175.44930931,4175.60047861,4135.94151145,4164.79215737,4131.32816745,4164.00304675,4156.01911487,722.960663637
off_to_on,4157.16574713,4148.6646924,4150.14726849,4133.75208079,4165.27000712,4181.6659422,4177.85938804,4177.72942947,4135.89417229,4167.44037525,4132.0622648,4166.83815308,4157.22721279,727.369121558
off_to_on,4158.26657574,4149.56241667,4151.00280583,4133.80519626,4166.16672461,4183.08441014,4179.88057561,4179.41755631,4135.84758238,4169.74733331,4132.76810478,4169.35064042,4158.31546912,729.28122525
off_to_on,4159.23535335,4150.36259455,4151.78494177,4133.85170811,4166.93341935,4184.15198101,4181.49759373,4180.65565646,4135.80268346,4171.68693941,4133.45260592,4171.51009425,4159.29460742,728.638431642
off_to_on,4160.0867442,4151.06659004,4152.50053121,4133.88914108,4167.59422343,4184.88768003,4182.71046927,4181.45142712,4135.76042687,4173.24757544,4134.12332736,4173.29996371,4160.17963432,725.470519035
off_to_on,4160.83984799,4151.67951385,4153.15951233,4133.91538141,4168.17646107,4185.32273761,4183.53404529,4181.8287653,4135.72173487,4174.43203876,4134.78787519,4174.71774347,4160.98886232,719.890774304
off_to_on,4161.51712218,4152.20972827,4153.7741762,4133.92876955,4168.70923118,4185.49899031,4183.99699123,4181.82650818,4135.68746211,4175.25700591,4135.45335247,4175.77468845,4161.7428704,712.087965017
off_to_on,4162.14323591,4152.6682621,4154.35838592,4133.92817567,4169.22199509,4185.46695661,4184.14036023,4181.49667051,4135.65835905,4175.75204901,4136.12587828,4176.49508076,4162.46344995,702.315419914
off_to_on,4162.74390461,4153.06816391,4154.92678254,4133.91305437,4169.74323017,4185.28366823,4184.01575538,4180.90225152,4135.63503889,4175.95824854,4136.81019628,4176.9150806,4163.1725807,690.877657458
off_to_on,4163.34475245,4153.42382256,4155.49401347,4133.88347636,4170.29920447,4185.0103428,4183.68317821,4180.11469715,4135.61794976,4175.92645741,4137.50938776,4177.08120537,4163.89147637,678.115103884
off_to_on,4163.97024525,4153.75028327,4156.07401545,4133.84013578,4170.91291912,4184.70998623,4183.20864164,4179.21111316,4135.60735338,4175.71528027,4138.22469775,4177.04849076,4164.63973321,664.387524026
off_to_on,4164.64273086,4154.06258582,4156.67937896,4133.78433269,4171.60325554,4184.44501184,4182.66163482,4178.27133144,4135.60331126,4175.38883887,4138.95547635,4176.87839592,4165.43460682,650.056846101
off_to_on,4165.38161671,4154.37514867,4157.32081526,4133.71793136,4172.3843529,4184.27495947,4182.11253008,4177.37493371,4135.60567946,4175.01439831,4139.6992305,4176.63652103,4166.29043394,635.470092329
off_to_on,4166.20270655,4154.70121914,4158.00674088,4133.64329605,4173.26522968,4184.25438997,4181.63002009,4176.59833569,4135.61411193,4174.65993105,4140.45177592,4176.39020948,4167.21820804,620.943128858
off_to_on,4167.11771018,4155.05240616,4158.74298787,4133.56320671,4174.2496512,4184.43102112,4181.27866947,4176.01202919,4135.62807277,4174.39169586,4141.20747368,4176.20610985,4168.22530979,606.745920411
off_to_on,4168.13393214,4155.4383076,4159.5326423,4133.48075804,4175.33623362,4184.84415893,4181.11665812,4175.67807216,4135.64685657,4174.27190705,4141.95953264,4176.14777317,4169.31538736,593.089918045
off_to_on,4169.25413758,4155.86623991,4160.37600731,4133.39924572,4176.51876473,4185.52346621,4181.19378559,4175.64790663,4135.66961619,4174.35656582,4142.7003566,4176.27336071,4170.48837568,580.118124478
off_to_on,4170.47658669,4156.34107325,4161.27068242,4133.32204462,4177.78671339,4186.48809702,4181.54979629,4175.96057286,4135.69539669,4174.69351996,4143.42191434,4176.63353396,4171.7406396,567.898273927
off_to_on,4171.79522355,4156.8651713,4162.21174619,4133.25248348,4179.12589229,4187.74621207,4182.21307383,4176.64137373,4135.72317407,4175.32081037,4144.11611091,4177.26959365,4173.06522233,556.419436562
off_to_on,4173.20000051,4157.43843053,4163.19202613,4133.19372114,4180.51923405,4189.29487667,4183.19973962,4177.70102748,4135.75189703,4176.26535294,4144.77513995,4178.21192636,4174.45217849,545.592216761
off_to_on,4174.67731537,4158.05841047,4164.20243709,4133.14862897,4181.94763695,4191.12032909,4184.51317682,4179.13532952,4135.78053006,4177.541993,4145.39179872,4179.47880798,4175.8889697,535.252565228
off_to_on,4176.210536,4158.72054288,4165.23236755,4133.11968383,4183.3908357,4193.1985951,4186.14398694,4180.92532672,4135.80809606,4179.15295743,4145.95975037,4181.07560182,4177.36090088,525.169073896
off_to_on,4177.78058497,4159.4184051,4166.27009251,4133.10887576,4184.82825289,4195.49641315,4188.07037178,4183.03799031,4135.83371637,4181.08771614,4146.47372138,4182.99437641,4178.85157572,515.053475745
off_to_on,4179.36655666,4160.144041,4167.30319163,4133.11763359,4186.23979046,4197.97242626,4190.25892,4185.42735726,4135.85664664,4183.32325238,4146.92962615,4185.21395495,4180.34335199,504.573935417
off_to_on,4180.94634033,4160.88831182,4168.31895289,4133.14677129,4187.60652511,4200.57858962,4192.66576446,4188.03609475,4135.87630664,4185.82472817,4147.32461481,4187.70039475,4181.81777966,493.370596564
off_to_on,4182.49722539,4161.64125935,4169.30474451,4133.19645699,4188.91127883,4203.26173896,4195.23806501,4190.79742959,4135.89230261,4188.54651946,4147.65704473,4190.40788144,4183.25600777,481.072753258
off_to_on,4183.99646835,4162.39246452,4170.24834094,4133.26620574,4190.13904376,4205.96526248,4197.91576203,4193.63737319,4135.90444116,4191.43358448,4147.92638023,4193.28001041,4184.63915,467.316939775
off_to_on,4185.42180572,4163.13138676,4171.13819312,4133.3548961,4191.27724935,4208.63081926,4200.63353899,4196.47716509,4135.91273383,4194.42311969,4148.13302911,4196.25141637,4185.94860235,451.765188715
off_to_on,4186.75190153,4163.84767157,4171.96363716,4133.46080978,4192.31586922,4211.20004905,4203.32292714,4199.23585202,4135.91739209,4197.44644976,4148.27812803,4199.2497016,4187.16631146,434.122693698
off_to_on,4187.96672297,4164.53141713,4172.71503991,4133.58169251,4193.24737377,4213.61622166,4205.91448343,4201.83291715,4135.91881305,4200.43109228,4148.36329219,4202.19760491,4188.27499536,414.154130389
off_to_on,4189.04784198,4165.17339326,4173.38388373,4133.71483335,4194.0665427,4215.82577969,4208.3399718,4204.19087401,4135.91755628,4203.30293358,4148.39034633,4205.01534586,4189.2583222,391.697937766
off_to_on,4189.97866516,4165.76520969,4173.96279597,4133.85715922,4194.77015919,4217.77973383,4210.53447987,4206.23774187,4135.91431278,4205.98844898,4148.3610554,4207.623073,4190.10105478,366.677938427
off_to_on,4190.74459803,4166.29943303,4174.44553204,4134.00534059,4195.35661279,4219.43487726,4212.43840528,4207.90932378,4135.9098675,4208.41690072,4148.27687307,4209.94334125,4190.78917064,339.111779208
off_to_on,4191.33315258,4166.76965497,4174.82692286,4134.15590431,4195.82544316,4220.75479295,4213.99925134,4209.15121504,4135.90505691,4210.52244698,4148.13872488,4211.90354164,4191.30996786,309.115797362
off_to_on,4191.73400939,4167.17051613,4175.10279911,4134.30534925,4196.17685835,4221.71063495,4215.17317789,4209.92047943,4135.90072362,4212.24609901,4147.94684106,4213.43820742,4191.65216691,276.906058009
off_to_on,4191.93904587,4167.49769191,4175.26990484,4134.45026085,4196.41126202,4222.28167257,4215.92626237,4210.18694183,4135.89767014,4213.53746783,4147.70065071,4214.49112361,4191.80601743,242.795459812
off_to_on,4191.94234226,4167.74784774,4175.32581292,4134.58742048,4196.52882197,4222.45559337,4216.23543613,4209.93405975,4135.89661407,4214.35624876,4147.39874605,4215.01717293,4191.76341711,207.186961752
off_to_on,4191.74017626,4167.91857201,4175.26885315,4134.71390619,4196.52910959,4222.22856857,4216.08907223,4209.15935045,4135.8981468,4214.67340073,4147.03892145,4214.9838582,4191.51804776,170.563138251
off_to_on,4191.33101552,4168.0082955,4175.09806241,4134.82718146,4196.41083507,4221.6050909,4215.48721243,4207.87436588,4135.90269793,4214.47198666,4146.61828823,4214.37245174,4191.0655306,133.472416438
off_to_on,4190.71551556,4168.01620572,4174.81316394,4134.92516918,4196.1716982,4220.59760193,4214.44143329,4206.10422275,4135.91050717,4213.7476527,4146.13346235,4213.17873324,4190.40360019,96.5124822708
off_to_on,4189.89652817,4167.9421647,4174.41458018,4135.0063085,4195.80836746,4219.22593045,4212.97436261,4203.88670972,4135.9216051,4212.50873512,4145.58081774,4211.41329125,4189.53229328,60.3114562056
off_to_on,4188.87912248,4167.78663744,4173.90348117,4135.06959266,4195.31659299,4217.51656798,4211.11886774,4201.27100707,4135.93580382,4210.77599559,4144.95679465,4209.10137694,4188.45414596,25.507529621
off_to_on,4187.67061786,4167.55063733,4173.28186685,4135.11458685,4194.691451,4215.50180979,4208.91694728,4198.31606598,4135.95269777,4208.58199695,4144.25824856,4206.28231296,4187.17438989,-7.27218330403
off_to_on,4186.28062432,4167.23569289,4172.55267901,4135.14142549,4193.92770917,4213.21879184,4206.41836558,4195.0887046,4135.97167469,4205.97014213,4143.4828222,4203.00847475,4185.70113591,-37.4327895223
off_to_on,4184.72108314,4166.84383813,4171.71993498,4135.15078931,4193.0202956,4210.7084546,4203.67907689,4191.66148649,4135.99193605,4202.99340883,4142.62932067,4199.3438745,4184.0455313,-64.4319648933
off_to_on,4183.00629768,4166.37762644,4170.78887262,4135.14386338,4191.96484683,4208.01446465,4200.75949169,4188.1104524,4136.01252609,4199.71282062,4141.69806823,4195.36239076,4182.22187531,-87.798741294
off_to_on,4181.15294253,4165.84016554,4169.766094,4135.12227769,4190.75830497,4205.18212302,4197.7226404,4184.51277938,4136.03236811,4196.19570199,4140.69122447,4191.14569706,4180.24767668,-107.150024687
off_to_on,4179.18003756,4165.23516865,4168.65969347,4135.08803313,4189.39952995,4202.25728714,4194.63229161,4180.94444122,4136.05030654,4192.51376976,4139.61303809,4186.78095204,4178.1436371,-122.204216109
off_to_on,4177.10887356,4164.56701541,4167.47935575,4135.04341578,4187.88988985,4199.28533007,4191.55108148,4177.47794266,4136.06515286,4188.74111737,4138.4700186,4182.35832038,4175.93354562,-132.791406137
off_to_on,4174.96287632,4163.84081433,4166.23640954,4134.9909035,4186.23379199,4196.31015752,4188.53871006,4174.18019634,4136.07573376,4184.95215079,4137.27100942,4177.96839959,4173.64407144,-138.859725664
off_to_on,4172.76739815,4163.06245801,4164.94382413,4134.93306867,4184.43911849,4193.37330046,4185.65025771,4171.11060634,4136.08093932,4181.21953608,4136.02715018,4173.69963058,4171.30444637,-140.477561284
off_to_on,4170.54942863,4162.2386618,4163.61613806,4134.87248131,4182.51753381,4190.5130983,4182.93467077,4168.31941532,4136.07976958,4177.61221821,4134.75172185,4169.63577135,4168.94603199,-137.8314844
off_to_on,4168.33722016,4161.37697721,4162.26931268,4134.81161665,4180.48463735,4187.76398503,4180.43345995,4165.84636328,4136.07137754,4174.19356851,4133.45987408,4165.85351153,4166.6017727,-131.219898635
off_to_on,4166.1598288,4160.48577281,4160.92050717,4134.75277081,4178.3599416,4185.15588872,4178.17964844,4163.71969629,4136.05510673,4171.01971488,4132.16824031,4162.42030259,4164.3055411,-121.042572313
off_to_on,4164.0465757,4159.57417682,4159.58777571,4134.69798798,4176.16666496,4182.71375282,4176.1969998,4161.95555301,4136.03052191,4168.13810388,4130.89445257,4159.3924728,4162.09138886,-107.78638044
off_to_on,4162.02643945,4158.65197831,4158.2896925,4134.64900155,4173.93133758,4180.45718613,4174.49954761,4160.55774539,4135.99743145,4165.58633764,4129.6565732,4156.81368888,4159.99272251,-92.0077267416
off_to_on,4160.12739506,4157.72948646,4157.0449146,4134.60719125,4171.68322859,4178.40024669,4173.09144066,4159.51793833,4135.95590039,4163.3913213,4128.47246638,4154.71381603,4158.04142972,-74.3122496736
off_to_on,4158.37571997,4156.81735019,4155.87169716,4134.57355709,4169.45361231,4176.55136352,4171.96710842,4158.81622121,4135.90625364,4161.56874763,4127.35913637,4153.10821671,4156.26698665,-55.3325350824
off_to_on,4156.7952918,4155.92634319,4154.78737916,4134.54871063,4167.27490018,4174.91339824,4171.11174223,4158.42205243,4135.84906906,4160.12293614,4126.33206258,4151.99751434,4154.69558069,-35.7046544644
off_to_on,4155.40690512,4155.06712147,4153.80786043,4134.53288286,4165.17967238,4173.48384593,4170.50207789,4158.29554619,4135.7851607,4159.04703221,4125.40456245,4151.36783319,4153.34928451,-16.0444116633
off_to_on,4154.22763589,4154.24996252,4152.94709228,4134.52594733,4163.19964828,4172.25517139,4170.10745542,4158.38905969,4135.71555283,4158.32356021,4124.58721278,4151.19150899,4152.24531689,3.07579296484
off_to_on,4153.27028132,4153.48449629,4152.21660382,4134.52745661,4161.36463847,4171.21527249,4169.89112102,4158.64902789,4135.64144593,4157.92531175,4123.88735743,4151.42824829,4151.39542359,21.1485830209
off_to_on,4152.54290082,4152.77943871,4151.62508542,4134.53668944,4159.70152196,4170.34805805,4169.81172722,4159.01798426,4135.56417598,4157.81653834,4123.30872622,4152.02669801,4150.80540758,37.750860145
off_to_on,4152.04848025,4152.14233881,4151.17804841,4134.55270563,4158.23329138,4169.63412375,4169.82497932,4159.43669883,4135.48516883,4157.95440685,4122.85118503,4152.92637167,4150.4748325,52.5599220123
off_to_on,4151.78473695,4151.57935007,4150.87757722,4134.5744056,4156.9782069,4169.05150621,4169.88537027,4159.84636072,4135.40589165,4158.29066614,4122.51063213,4154.05986539,4150.39691694,65.3657873653
off_to_on,4151.74407835,4151.09503564,4150.72218666,4134.60059143,4155.94909508,4168.57649247,4169.94794235,4160.19072944,4135.3278035,4158.77346592,4122.27904947,4155.35528549,4150.55862962,76.0792106234
off_to_on,4151.91372112,4150.69221608,4150.7067931,4134.63002658,4155.152824,4168.18446029,4169.9700117,4160.41817969,4135.2523073,4159.34926282,4122.14471116,4156.73880144,4150.94098795,84.7350296578
off_to_on,4152.27597228,4150.37186659,4150.82280382,4134.66149193,4154.58997893,4167.85072326,4169.91279338,4160.48356727,4135.18070515,4159.96474579,4122.09254444,4158.13723331,4151.51955452,91.4906678117
off_to_on,4152.80866734,4150.13306887,4151.05832435,4134.6938359,4154.25475519,4167.5513547,4169.74286755,4160.34984965,4135.11415888,4160.56871241,4122.10463186,4159.48058156,4152.26511862,96.6197981427
off_to_on,4153.48575454,4149.97302092,4151.39847877,4134.72601718,4154.13507578,4167.26396413,4169.43343308,4159.98940303,4135.05365744,4161.11382972,4122.16083686,4160.70440925,4153.14454257,100.50136583
off_to_on,4154.27800808,4149.88710536,4151.82583317,4134.75713868,4154.21293174,4166.96840096,4168.96530133,4159.38498745,4134.99999225,4161.55821716,4122.23952947,4161.75199152,4154.12174579,103.604346404
off_to_on,4155.15384755,4149.86901451,4152.32090778,4134.78647195,4154.46493352,4166.64736139,4168.32759092,4158.5303231,4134.95374128,4161.86679511,4122.31838384,4162.57615467,4155.15879339,106.468786595
off_to_on,4156.08023595,4149.91092762,4152.86275935,4134.81347195,4154.86305257,4166.28687698,4167.51809487,4157.43025425,4134.91526227,4162.0123506,4122.37521619,4163.14073795,4156.21705051,109.683824147
off_to_on,4157.02362547,4150.00373376,4153.42961216,4134.83778214,4155.37552483,4165.87666725,4166.54330298,4156.10049212,4134.88469492,4161.97628191,4122.38882967,4163.42162462,4157.25836065,113.863505876
off_to_on,4157.95091787,4150.13729193,4153.9995146,4134.85923063,4155.96788177,4165.41034353,4165.41807562,4154.56694352,4134.86197138,4161.74899599,4122.33983262,4163.40730523,4158.24620449,119.621314658
off_to_on,4158.83040602,4150.3007189,4154.55099683,4134.87781831,4156.60407031,4164.88545692,4164.16497863,4152.86464772,4134.84683411,4161.32994554,4122.21139783,4163.09895353,4159.14679616,127.544373096
off_to_on,4159.63266313,4150.4826942,4155.06370542,4134.89370023,4157.24762062,4164.30338948,4162.81330314,4151.03635927,4134.83885981,4160.72730672,4121.989933,4162.51001403,4159.93007618,138.168311729
off_to_on,4160.33134792,4150.67177129,4155.51899118,4134.90716175,4157.86281934,4163.66909421,4161.3978077,4149.13082869,4134.8374879,4159.95731224,4121.66563544,4161.66531887,4160.57056375,151.953770914
off_to_on,4160.90389728,4150.85668385,4155.90042836,4134.91859094,4158.41584691,4162.99069584,4159.95723243,4147.20084581,4134.84205189,4159.04326844,4121.23290927,4160.59977013,4161.04803679,169.265448627
off_to_on,4161.33208248,4151.02663714,4156.19424692,4134.92844894,4158.87583959,4162.27897067,4158.53264486,4145.30112075,4134.8518121,4158.01429777,4120.69062799,4159.35664114,4161.34801494,190.354514591
off_to_on,4161.60241121,4151.17157528,4156.38966314,4134.93723971,4159.21584062,4161.54672855,4157.16568404,4143.48608444,4134.86598794,4156.90386009,4120.04223213,4157.9855663,4161.46202937,215.345087539
off_to_on,4161.70636442,4151.28241746,4156.47909935,4134.94548051,4159.4136095,4160.80812371,4155.89677358,4141.80769455,4134.88378826,4155.7481153,4119.29565768,4156.5403017,4161.38767229,244.225321018
off_to_on,4161.64046331,4151.35125731,4156.45828783,4134.95367445,4159.45226345,4160.07792411,4154.76337597,4140.31333302,4134.90443848,4154.58419699,4118.46309791,4155.07634899,4161.1284281,276.84346988
off_to_on,4161.40616854,4151.37152143,4156.3262588,4134.96228617,4159.32073109,4159.37076947,4153.79835882,4139.04387838,4134.92720328,4153.44847047,4117.5606074,4153.64854044,4160.69329724,312.909122226
off_to_on,4161.00961927,4151.33808427,4156.08521693,4134.97172169,4159.01400477,4158.70044846,4153.0285394,4138.03202927,4134.95140404,4152.37484922,4116.6075631,4152.30868453,4160.09623141,351.999587167
off_to_on,4160.46122566,4151.24733802,4155.74031455,4134.98231304,4158.53318491,4158.07922375,4152.47346671,4137.30094614,4134.97643063,4151.39324076,4115.6260025,4151.10336827,4159.35540584,393.571233979
off_to_on,4159.77513331,4151.09721727,4155.29933392,4134.99430811,4157.88531747,4157.51723176,4152.14449102,4136.86326578,4135.00174707,4150.52818739,4114.63986314,4150.07200544,4158.49236011,436.975390692
off_to_on,4158.96858299,4150.88717977,4154.77229398,4135.00786564,4157.08303273,4157.02198105,4152.04416004,4136.72052939,4135.02689136,4149.79775872,4113.67415137,4149.24520966,4157.53104351,481.47823814
off_to_on,4158.06119221,4150.61814588,4154.1709999,4135.02305514,4156.1440011,4156.59796904,4152.16596769,4136.86304844,4135.05146997,4149.21274242,4112.75407052,4148.64355743,4156.49680444,526.283985413
off_to_on,4157.07418776,4150.29240044,4153.50855517,4135.03986145,4155.0902273,4156.24643227,4152.49446731,4137.27021506,4135.07514774,4148.77616658,4111.9041397,4148.2767901,4155.41536497,570.560489283
off_to_on,4156.02961893,4149.91346178,4152.79885672,4135.05819322,4153.94720963,4155.96523945,4153.0057463,4137.91124543,4135.09763471,4148.48317304,4111.14733499,4148.14348508,4154.31182181,613.466388349
off_to_on,4154.94958106,4149.4859235,4152.05609297,4135.07789458,4152.74299511,4155.74893102,4153.6682447,4138.74632758,4135.11867112,4148.32124609,4110.50428319,4148.23120706,4153.20971289,654.178766725
off_to_on,4153.85547772,4149.0152751,4151.29426391,4135.09875927,4151.5071646,4155.58890329,4154.44388679,4139.72812892,4135.13801219,4148.27078573,4109.99253672,4148.51713005,4152.13018587,691.920343947
off_to_on,4152.76734769,4148.50770846,4150.52674034,4135.12054598,4150.26978437,4155.47372975,4155.28948188,4140.80360466,4135.15541422,4148.30600042,4109.62595523,4148.96910172,4151.09130014,725.985206904
off_to_on,4151.70327992,4147.96991764,4149.76587761,4135.14299418,4149.06036201,4155.38960717,4156.15834009,4141.91603655,4135.17062329,4148.39608075,4109.41421546,4149.5471038,4150.10748816,755.762155359
off_to_on,4150.6789362,4147.40889951,4149.02269676,4135.16583925,4147.90684437,4155.32090948,4157.00204037,4143.00722279,4135.18336782,4148.50660437,4109.36246689,4150.20504674,4149.18919606,780.754823503
off_to_on,4149.70719651,4146.83176332,4148.30664314,4135.18882603,4146.83469419,4155.2508293,4157.77228348,4144.01973509,4135.19335573,4148.60111353,4109.47114526,4150.89282452,4148.34271567,800.59786226
off_to_on,4148.79793747,4146.24555631,4147.62542963,4135.21172015,4145.8660791,4155.16208392,4158.4227603,4144.89915726,4135.20027699,4148.64280038,4109.73595109,4151.55854548,4147.57021279,815.068614893
off_to_on,4147.95794827,4145.65711203,4146.98496723,4135.23431627,4145.01920258,4155.03766039,4158.91096543,4145.59622092,4135.2038114,4148.59623045,4110.14799375,4152.15084785,4146.86994788,824.09388614
off_to_on,4147.19098309,4145.07292609,4146.38938234,4135.25644305,4144.30780098,4154.86157254,4159.19988787,4146.06875722,4135.2036417,4148.4290328,4110.69409579,4152.62120483,4146.23667664,827.751587213
off_to_on,4146.49794283,4144.49906276,4145.84111531,4135.27796449,4143.7408232,4154.61960084,4159.2595139,4146.28339031,4135.19947108,4148.11348551,4111.35724545,4152.92612323,4145.6622093,826.267228194
off_to_on,4145.87717343,4143.94109351,4145.34109139,4135.29877807,4143.32230244,4154.29998556,4159.06808334,4146.21690677,4135.19104438,4147.62792789,4112.1171794,4153.02914313,4145.13609988,820.005417633
off_to_on,4145.32486292,4143.40406728,4144.88895166,4135.31880972,4143.05142025,4153.89404377,4158.61304833,4145.85724675,4135.17817144,4146.95793689,4112.95107273,4152.90255313,4144.64643026,809.456709405
off_to_on,4144.83551515,4142.89251074,4144.4833292,4135.33800641,4142.92275582,4153.39668234,4157.89169352,4145.20407577,4135.16075147,4146.0972141,4113.83430921,4152.52874676,4144.18064951,795.220303424
off_to_on,4144.40247512,4142.41045583,4144.12215371,4135.35632688,4142.92670558,4152.8067826,4156.91138923,4144.26891166,4135.13879661,4145.04814083,4114.74130247,4151.90115957,4143.72642681,777.983253333
off_to_on,4144.01847964,4141.96149072,4143.80296745,4135.37373119,4143.05005227,4152.12743714,4155.68946308,4143.07479858,4135.11245332,4143.8219727,4115.64633753,4151.02474409,4143.27247554,758.496954424
off_to_on,4143.67620688,4141.54882982,4143.52323528,4135.39017001,4143.27665747,4151.36602589,4154.25269159,4141.65553781,4135.08202003,4142.43865999,4116.52440251,4149.91595895,4142.80930838,737.551774899
off_to_on,4143.36880007,4141.17539769,4143.28063309,4135.40557423,4143.58824784,4150.53412483,4152.63642846,4140.05450324,4135.04795967,4140.92629604,4117.35198139,4148.60226905,4142.3298867,715.950750851
off_to_on,4143.09034276,4140.84392165,4143.07330067,4135.41984594,4143.96526244,4149.64724855,4150.8834015,4138.32308583,4135.01090564,4139.32021189,4118.10778112,4147.12117474,4141.8301336,694.483288274
off_to_on,4142.83626618,4140.55702726,4142.90004766,4135.43285122,4144.3877274,4148.72443417,4149.04222393,4136.51882676,4134.97166003,4137.6617514,4118.77336945,4145.51880836,4141.30928685,673.899802599
off_to_on,4142.60367318,4140.31733125,4142.76050414,4135.44441593,4144.83612388,4147.7876817,4147.16567787,4134.70331182,4134.93118324,4135.99677534,4119.33370424,4143.84815583,4140.77007694,654.888178666
off_to_on,4142.39156737,4140.1275265,4142.65521091,4135.4543248,4145.29221704,4146.86127189,4145.30883762,4132.93991033,4134.89057442,4134.37395603,4119.77753955,4142.16697805,4140.2187243,638.052854863
off_to_on,4142.20098135,4139.99045438,4142.58564775,4135.46232473,4145.73981643,4145.97098892,4143.52710732,4131.29144843,4134.85104287,4132.84293421,4120.09769957,4140.53552015,4139.66475952,623.89722678
off_to_on,4142.0350028,4139.90916058,4142.55420209,4135.46813251,4146.16544268,4145.14328003,4141.87425144,4129.81790953,4134.81387108,4131.45241685,4120.29121673,4139.01410685,4139.12067913,612.809930953
off_to_on,4141.89870228,4139.88693184,4142.56408336,4135.47144719,4146.55888004,4144.4043876,4140.40049745,4128.57425438,4134.78037073,4130.24829829,4120.35933552,4137.66072754,4138.60145793,605.055413457
off_to_on,4141.79897047,4139.92731183,4142.61919129,4135.4719667,4146.91359865,4143.77949065,4139.15078791,4127.6084482,4134.75183338,4129.27188593,4120.30738864,4136.52871547,4138.1239447,600.769019362
off_to_on,4141.74427496,4140.03409512,4142.72394761,4135.46940814,4147.22703501,4143.29189132,4138.16325271,4126.95977341,4134.72947803,4128.55830697,4120.14455499,4135.66462089,4137.70617254,599.956664855
off_to_on,4141.74434847,4140.21129791,4142.88310107,4135.46353067,4147.50072197,4142.96227807,4137.46796155,4126.65749303,4134.71439796,4128.1351629,4119.88351235,4135.10636773,4137.36661686,602.498981137
off_to_on,4141.80982052,4140.46310411,4143.1015153,4135.45415975,4147.74026336,4142.80809103,4137.08600223,4126.71991258,4134.70750949,4128.02148529,4119.53999837,4134.88176837,4137.12343304,608.159657392
off_to_on,4141.95180473,4140.79378465,4143.38394748,4135.4412113,4147.95515134,4142.84300779,4137.02891349,4127.15386926,4134.70950505,4128.22703056,4119.13229465,4135.00745265,4136.99370418,616.597568538
off_to_on,4142.18145362,4141.20758792,4143.73482473,4135.42471441,4148.15842811,4143.07656024,4137.29848355,4127.95465679,4134.72081294,4128.75193442,4118.68064832,4135.48824671,4136.99272515,627.382156514
off_to_on,4142.50949243,4141.70859975,4144.15802343,4135.40483138,4148.3661978,4143.51388584,4137.88690784,4129.10637471,4134.74156598,4129.586729,4118.20664567,4136.31701624,4137.13334602,640.011439002
off_to_on,4142.94574323,4142.30057216,4144.65665547,4135.38187378,4148.59699803,4144.15561011,4138.7772837,4130.58267224,4134.77158068,4130.71270946,4117.73255204,4137.47496775,4137.42539329,653.931944743
off_to_on,4143.49865023,4142.98672172,4145.23286437,4135.35631352,4148.87104557,4144.99785188,4139.94440568,4132.34784111,4134.81034836,4132.10262175,4117.28063223,4138.93238211,4137.87518354,668.559823719
off_to_on,4144.17481681,4143.76949982,4145.88763336,4135.32878806,4149.20937473,4146.03233806,4141.35581473,4134.35819902,4134.85703885,4133.72163062,4116.87246583,4140.64973683,4138.48513981,683.302359465
off_to_on,4144.97856488,4144.6503391,4146.62060694,4135.30009904,4149.63289211,4147.24661239,4142.9730462,4136.56369674,4134.91051739,4135.52851726,4116.52827178,4142.57915924,4139.25351751,697.57912116
off_to_on,4145.911527,4145.62938231,4147.42992741,4135.27120427,4150.16137569,4148.62432015,4144.75301658,4138.90967561,4134.9693742,4137.47704846,4116.26625693,4144.66614054,4140.17424282,710.842031137
off_to_on,4146.97228243,4146.70520185,4148.31208818,4135.24320303,4150.81245054,4150.14555084,4146.64948598,4141.33869963,4135.03196624,4139.5174554,4116.10200302,4146.85143304,4141.23686415,722.593683402
off_to_on,4148.15604841,4147.87452089,4149.26180661,4135.217315,4151.60057723,4151.78722212,4148.61453385,4143.7923874,4135.09646962,4141.5979596,4116.04790726,4149.07304918,4142.42661488,732.403324621
off_to_on,4149.45443928,4149.13194913,4150.27192081,4135.19485334,4152.53609158,4153.52349078,4150.59999016,4146.21317402,4135.16094094,4143.66628664,4116.11269179,4151.26828178,4143.72458522,739.919994624
off_to_on,4150.85530667,4150.46974864,4151.33331661,4135.17719251,4153.62433664,4155.32618092,4152.55877118,4148.54594186,4135.22338521,4145.67111464,4116.30099858,4153.37567061,4145.10800091,744.882415698
off_to_on,4152.34267476,4151.87764712,4152.43489296,4135.16573154,4154.86492827,4157.16522397,4154.44607921,4150.73947006,4135.28182786,4147.56341323,4116.61308665,4155.33684825,4146.55060685,747.1253207
off_to_on,4153.89678477,4153.3427162,4153.56357521,4135.1618537,4156.25119441,4159.00910947,4156.22043619,4152.74766501,4135.33438808,4149.29763858,4117.04464817,4157.09820908,4148.0231536,746.582023526
off_to_on,4155.49426132,4154.84933204,4154.70438648,4135.16688358,4157.76982464,4160.82534889,4157.84453174,4154.53054718,4135.37935081,4150.83276009,4117.58675879,4158.61235644,4149.49398379,743.283162635
off_to_on,4157.10841149,4156.37923365,4155.8405867,4135.18204281,4159.40076094,4162.58095712,4159.28587691,4156.0549819,4135.41523442,4152.13310384,4118.22597425,4159.83929548,4150.92971319,737.351685539
off_to_on,4158.70966316,4157.91169088,4156.95388795,4135.20840576,4161.1173524,4164.24295673,4160.51726369,4157.29515328,4135.44085158,4153.16900652,4118.94458168,4160.74735032,4152.29599849,728.99428316
off_to_on,4160.26614437,4159.42379005,4158.02475144,4135.24685661,4162.88678651,4165.77890952,4161.51703814,4158.23279012,4135.45536045,4153.91728098,4119.72100862,4161.31379564,4153.55838011,718.489620878
off_to_on,4161.74439886,4160.89083971,4159.03276818,4135.29804914,4164.67079828,4167.15747759,4162.26920159,4158.85716078,4135.45830423,4154.36150036,4120.53038715,4161.52520215,4154.68318442,706.173841324
off_to_on,4163.11022573,4162.28689279,4159.95712042,4135.3623706,4166.426646,4168.34901348,4162.76335928,4159.16486043,4135.44963685,4154.49211253,4121.34526383,4161.37750422,4155.6384649,692.423926097
off_to_on,4164.32962388,4163.58537518,4160.77711563,4135.43991087,4168.10833003,4169.32617464,4162.99453918,4159.15941885,4135.42973357,4154.30639886,4122.13643912,4160.87580478,4156.39495784,677.639594188
off_to_on,4165.36981463,4164.7598041,4161.47277973,4135.53043799,4169.66801901,4170.06455342,4162.96290488,4158.85075927,4135.39938555,4153.80829334,4122.87391333,4160.03393822,4156.92702337,662.224479316
off_to_on,4166.20030995,4165.78457424,4162.02549148,4135.63338145,4171.05763729,4170.54330886,4162.67338625,4158.25453965,4135.35977807,4153.00807774,4123.52790947,4158.87381639,4157.21354008,646.567363184
off_to_on,4166.79398868,4166.63578448,4162.41863591,4135.74782389,4172.23055806,4170.7457831,4162.13525052,4157.39140778,4135.31245285,4151.92196923,4124.06993855,4157.4245866,4157.23871981,631.024244817
off_to_on,4167.12814017,4167.29207501,4162.63825215,4135.87250257,4173.14334023,4170.66008186,4161.36163493,4156.28620072,4135.25925543,4150.57161651,4124.47386958,4155.72163406,4156.99280967,615.901997014
off_to_on,4167.1854333,4167.73544202,4162.6736491,4136.00582098,4173.75744257,4170.27959674,4160.3690601,4154.96711795,4135.20226945,4148.98352052,4124.71696434,4153.80546372,4156.47265047,601.444300209
off_to_on,4166.95476937,4167.95199664,4162.51796199,4136.14587103,4174.04084671,4169.60344579,4159.17694026,4153.46489485,4135.1437402,4147.18839531,4124.78083745,4151.72049781,4155.68206422,587.820454068
off_to_on,4166.43197961,4167.93263497,4162.16862335,4136.29046584,4173.96952207,4168.63680852,4157.80710246,4151.81199951,4135.08599065,4145.22048307,4124.6523033,4149.51382555,4154.63204818,575.117551351
off_to_on,4165.62033273,4167.67358836,4161.62772424,4136.43718285,4173.52866946,4167.39113321,4156.28332388,4150.04187192,4135.03133315,4143.11683669,4124.32407464,4147.23394074,4153.34075878,563.336361664
off_to_on,4164.53082347,4167.1768265,4160.90224449,4136.58341637,4172.71368682,4165.88419664,4154.63089306,4148.18822063,4134.9819808,4140.91658174,4123.79528179,4144.92950193,4151.83327613,552.391120332
off_to_on,4163.18222088,4166.45029067,4160.0041353,4136.72643864,4171.53081012,4164.14000055,4152.87619836,4146.28438822,4134.93996187,4138.66016911,4123.07178748,4142.64814756,4150.14114711,542.113256064
off_to_on,4161.60086299,4165.50794053,4158.95024237,4136.86346764,4169.99739298,4162.18849344,4151.04634452,4144.36279245,4134.9070412,4136.38862827,4122.1662789,4140.43539563,4148.30171343,532.258927072
off_to_on,4159.82019377,4164.36960436,4157.76206348,4136.99173978,4168.14180249,4160.06511233,4149.1687959,4142.45444674,4134.8846515,4134.14283023,4121.09812656,4138.33365309,4146.35723849,522.520075718
off_to_on,4157.88004782,4163.06062971,4156.46534068,4137.10858491,4166.00292227,4157.81014515,4147.27104442,4140.58856063,4134.87383756,4131.96276889,4119.89300781,4136.38135573,4144.35385476,512.538563299
off_to_on,4155.82569825,4161.6113395,4155.08949351,4137.21150106,4163.62926963,4155.46792247,4145.38029952,4138.79221947,4134.87521548,4129.88686897,4118.58230209,4134.61225478,4142.3403604,501.922815465
off_to_on,4153.70669338,4160.0563062,4153.66690687,4137.29822604,4161.07774862,4153.08585422,4143.52319833,4137.09014172,4134.8889486,4127.95132972,4117.20227317,4133.05486232,4140.36690062,490.266300476
off_to_on,4151.57551708,4158.43346466,4152.23209359,4137.36680347,4158.4120759,4150.71333494,4141.72553451,4135.50451145,4134.91474113,4126.18951392,4115.79306266,4131.73206329,4138.48357512,477.167081723
off_to_on,4149.48611624,4156.78309099,4150.82075779,4137.41564069,4155.70092929,4148.40054722,4140.01200444,4134.05488236,4134.95184972,4124.63139269,4114.39752627,4130.66089804,4136.73901732,462.247635851
off_to_on,4147.49234468,4155.14668093,4149.46879012,4137.4435567,4153.01588074,4146.19719845,4138.40596982,4132.7581485,4134.99911258,4123.30305673,4113.05995119,4129.85251456,4135.17899359,445.174110868
off_to_on,4145.64637768,4153.56576543,4148.21122952,4137.4498186,4150.42918433,4144.15122963,4136.92923604,4131.62857479,4135.05499499,4122.22630406,4111.82469787,4129.31228505,4133.84507114,425.674215226
off_to_on,4143.99715286,4152.08070412,4147.08122833,4137.43416559,4148.01149698,4142.30753795,4135.60184588,4130.67787889,4135.11764941,4121.41831359,4110.73481327,4129.04007582,4132.77340147,403.552978707
off_to_on,4142.58889373,4150.72949857,4146.1090582,4137.39681999,4145.82961356,4140.70675553,4134.44188829,4129.91535421,4135.18498778,4120.89141153,4109.83066419,4129.03065512,4131.99366249,378.705706762
off_to_on,4141.45976945,4149.54666705,4145.32119335,4137.33848536,4143.94429905,4139.384127,4133.46532265,4129.34802303,4135.2547631,4120.65293616,4109.14863912,4129.27421869,4131.52819703,351.12755867
off_to_on,4140.64073992,4148.56222048,4144.7395054,4137.26033212,4142.40829792,4138.36852581,4132.68581937,4128.98080795,4135.3246569,4120.7052037,4108.71996469,4129.75700958,4131.39137837,320.919311976
off_to_on,4140.15462888,4147.80077599,4144.38060026,4137.16397143,4141.2645948,4137.68164573,4132.11461858,4128.81671025,4135.39236924,4121.0455759,4108.56967896,4130.46200639,4131.5892254,288.289025831
off_to_on,4140.01545884,4147.28083961,4144.25532201,4137.05141847,4140.5449913,4137.33739745,4131.76040838,4128.85698372,4135.45570752,4121.66662689,4108.71579774,4131.3696525,4132.11928053,253.549478008
off_to_on,4140.22807185,4147.01428317,4144.36844267,4136.92504636,4140.26905219,4137.34153307,4131.62922416,4129.10129316,4135.51267073,4122.55640407,4109.1687032,4132.45859734,4132.97075386,217.111417936
off_to_on,4140.78804861,4147.00603311,4144.71854888,4136.78753199,4140.44346013,4137.6915126,4131.72437034,4129.54784786,4135.56152566,4123.69877413,4109.93077555,4133.7064213,4134.12492654,179.472844403
off_to_on,4141.68192729,4147.25398097,4145.29812882,4136.6417952,4141.06180347,4138.3766179,4132.04636582,4130.193502,4135.60087238,4125.07384233,4110.99627933,4135.09031622,4135.55579629,141.204674856
off_to_on,4142.88771173,4147.74911714,4146.09385484,4136.4909325,4142.10480587,4139.37831063,4132.59291418,4131.03381608,4135.62969623,4126.65843084,4112.35150659,4136.58769612,4137.23093936,102.933317258
off_to_on,4144.37564863,4148.47588148,4147.08705002,4136.33814693,4143.54099059,4140.67082226,4133.35889965,4132.06307604,4135.6474045,4128.42660066,4113.97517007,4138.17671694,4139.11255604,65.3207794539
off_to_on,4146.10924417,4149.41271732,4148.2543207,4136.18667533,4145.32775686,4142.22195674,4134.33641015,4133.27427051,4135.65384653,4130.35020264,4115.83903129,4139.83669034,4141.15866145,29.0430500905
off_to_on,4148.04648289,4150.53280898,4149.56833187,4136.03971461,4147.41283073,4143.99407976,4135.51479004,4134.65903117,4135.64931662,4132.39944478,4117.90874156,4141.54838396,4143.32438049,-5.23244454103
off_to_on,4150.14120602,4151.8049769,4150.99869788,4135.90034843,4149.73604026,4145.94526331,4136.88072673,4136.20754625,4135.63453992,4134.54346569,4120.14486762,4143.29420835,4145.56330382,-36.8694645515
off_to_on,4152.34460179,4153.19469985,4152.5129581,4135.7714756,4152.23135301,4148.03054977,4138.41837626,4137.90846123,4135.61064223,4136.75090647,4122.50406883,4145.05829782,4147.82886156,-65.2848123159
off_to_on,4154.60675785,4154.66522979,4154.07760475,4135.65574173,4154.82910529,4150.20329632,4140.10953341,4139.74878325,4135.57910489,4138.99047512,4124.94038833,4146.8264985,4150.07567231,-89.9685981439
off_to_on,4156.87822492,4156.17876222,4155.65912925,4135.55547565,4157.45834589,4152.41655846,4141.93385189,4141.71380773,4135.54170681,4141.2314993,4127.40661764,4148.5862818,4152.2608273,-110.502151688
off_to_on,4159.11154114,4157.69762395,4157.22505371,4135.4726322,4160.04921336,4154.62447054,4143.86911937,4143.78708563,4135.50045576,4143.4444644,4129.85569231,4150.32660525,4154.34507324,-126.572899223
off_to_on,4161.26266915,4159.18543985,4158.74491527,4135.40874286,4162.53526531,4156.78358197,4145.89159158,4145.95044913,4135.45751165,4145.6015345,4132.24207498,4152.03774474,4156.29386139,-137.985631184
off_to_on,4163.29230052,4160.60824146,4160.19117257,4135.36487586,4164.85567983,4158.85410912,4147.97638636,4148.18411089,4135.41510469,4147.67705331,4134.52308326,4153.71112171,4158.07823548,-144.669703802
off_to_on,4165.16698632,4161.93548178,4161.54000596,4135.34160676,4166.9572531,4160.80106452,4150.09793521,4150.4668468,4135.3754513,4149.64801993,4136.66011993,4155.33914562,4159.67553519,-146.681852624
off_to_on,4166.86005734,4163.14092288,4162.77198519,4135.33900089,4168.79612317,4162.59522691,4152.2304836,4152.77626595,4135.34067109,4151.49453055,4138.61976527,4156.91508662,4161.06989584,-144.204446155
off_to_on,4168.35230223,4164.20336624,4163.87258122,4135.35660855,4170.33915709,4164.2139179,4154.34862567,4155.08916368,4135.31270778,4153.2001733,4140.3746938,4158.43298649,4162.25252862,-137.539173918
off_to_on,4169.63237884,4165.10719985,4164.83250258,4135.3934737,4171.56494845,4165.64155464,4156.42785384,4157.38194629,4135.29325705,4154.75235924,4141.90438178,4159.88760884,4163.22177034,-127.096336658
off_to_on,4170.69694144,4165.84274178,4165.64784173,4135.44815645,4172.46438478,4166.86995311,4158.44509958,4159.63110949,4135.28370396,4156.14257081,4143.19557833,4161.2744237,4163.98289726,-113.380075443
off_to_on,4171.55047606,4166.40636686,4166.32002303,4135.51876932,4173.04075826,4167.89836412,4160.37924012,4161.81374756,4135.28507228,4157.366509,4144.24252083,4162.58961718,4164.54770489,-96.9700334221
off_to_on,4172.20484634,4166.8004111,4166.85555088,4135.60302668,4173.30941048,4168.73323301,4162.21154571,4163.90806749,4135.29798762,4158.42412262,4145.04688482,4163.83011406,4164.93386374,-78.5000871762
off_to_on,4172.67856331,4167.0328569,4167.26556429,4135.69830613,4173.29691959,4169.38768543,4163.92604471,4165.89388172,4135.32265555,4159.31950717,4145.61746908,4164.99359986,4165.16406968,-58.6349113871
off_to_on,4172.99580386,4167.11681066,4167.56521219,4135.80172046,4173.03985666,4169.88075284,4165.50978777,4167.75305412,4135.35885543,4160.06066576,4145.96962684,4166.07852899,4165.2650155,-38.0452424006
off_to_on,4173.18521298,4167.06979327,4167.77287116,4135.9101983,4172.58315608,4170.23636309,4166.95299733,4169.46987672,4135.40594997,4160.65913067,4146.12446391,4167.08410665,4165.26621797,-17.3827727579
off_to_on,4173.2785346,4166.91287103,4167.90923483,4136.02057092,4171.97816075,4170.48213236,4168.24909471,4171.03135857,4135.46290977,4161.12945049,4146.10783384,4168.01023421,4165.19874081,2.74436509376
off_to_on,4173.30912314,4166.66966158,4167.99630961,4136.12966294,4171.28041656,4170.64800392,4169.39460278,4172.42741303,4135.5283516,4161.48855456,4145.94916824,4168.8574112,4165.09385865,21.7945803831
off_to_on,4173.31039322,4166.36525419,4168.05635615,4136.23438382,4170.54730105,4170.76478632,4170.38892848,4173.65093496,4135.60058882,4161.75501247,4145.68018657,4169.62659041,4164.98171026,39.3133743577
off_to_on,4173.31426795,4166.02508705,4168.11081835,4136.3318174,4169.83557803,4170.8626488,4171.23403434,4174.69776487,4135.67769174,4161.94821228,4145.33353508,4170.31898611,4164.88999027,54.9506470944
off_to_on,4173.34968673,4165.67382612,4168.17928265,4136.41930668,4169.19897379,4170.96963422,4171.93401407,4175.5665426,4135.75755574,4162.08748616,4144.94140748,4170.93583989,4164.84272809,68.4740655348
off_to_on,4173.44123208,4165.33429,4168.27850997,4136.494531,4168.68587024,4171.11025045,4172.49459184,4176.25845915,4135.83797451,4162.19121618,4144.53420126,4171.4781522,4164.85920084,79.7779422011
off_to_on,4173.6079309,4165.02646367,4168.42158013,4136.5555732,4168.33720664,4171.30419906,4172.92256963,4176.77692015,4135.91671603,4162.27595575,4144.13926301,4171.94639203,4164.95302282,88.8872407828
off_to_on,4173.86227936,4164.76664025,4168.61718477,4136.60097457,4168.18467382,4171.56529533,4173.22524915,4177.12713865,4135.99159829,4162.35560337,4143.77977287,4172.34019975,4165.13144834,95.9565085134
off_to_on,4174.20953212,4164.56672512,4168.86909917,4136.62977587,4168.24927369,4171.90062653,4173.40985613,4177.31567736,4136.06056245,4162.44066474,4143.47381333,4172.65810063,4165.39491794,101.263729329
off_to_on,4174.64728658,4164.43373013,4169.17585676,4136.64154318,4168.54030246,4172.30998606,4173.48299433,4177.34996244,4136.12174087,4162.53763692,4143.23366076,4172.89724735,4165.7368689,105.199287513
off_to_on,4175.16538153,4164.36947806,4169.53064204,4136.6363782,4169.05479973,4172.78561047,4173.45015572,4177.23779208,4136.17351781,4162.64854494,4143.06532939,4173.05320982,4166.1438223,108.250420801
off_to_on,4175.74611751,4164.37052885,4169.92140936,4136.61491267,4169.77748752,4173.31223446,4173.31531106,4176.98686323,4136.2145809,4162.77065541,4142.96838739,4173.11982961,4166.59574761,110.981718488
off_to_on,4176.36479325,4164.42832991,4170.33122555,4136.57828769,4170.68120411,4173.86746644,4173.08060133,4176.60433873,4136.2439619,4162.89638488,4142.93605342,4173.08915336,4167.06669554,114.01237723
off_to_on,4176.99054029,4164.52958353,4170.73882555,4136.52811847,4171.72781802,4174.42247417,4172.74614485,4176.09647407,4136.26106533,4163.01341248,4142.95556969,4172.95145645,4167.52567838,117.991057482
off_to_on,4177.58742543,4164.65681513,4171.11936116,4136.46644603,4172.86958834,4174.94295659,4172.30996842,4175.46831926,4136.26568438,4163.1049976,4143.0088358,4172.69536321,4167.93776729,123.56928126
off_to_on,4178.11577996,4164.78911795,4171.44531523,4136.39567724,4174.05091935,4175.39036599,4171.76806421,4174.72350691,4136.2580035,4163.15049439,4143.07327594,4172.30806603,4168.26536653,131.374374228
off_to_on,4178.53370498,4164.90304238,4171.6875463,4136.31851533,4175.21044164,4175.72333394,4171.11456768,4173.86413323,4136.23858793,4163.12604679,4143.12290211,4171.77564038,4168.46961781,141.982979877
off_to_on,4178.79869501,4164.97359231,4171.81642347,4136.23788278,4176.28333879,4175.89924599,4170.34204655,4172.89073477,4136.20836061,4163.00544011,4143.12952786,4171.08344892,4168.51188224,155.896158405
off_to_on,4178.86931754,4164.97528669,4171.80300753,4136.15683885,4177.2038298,4175.87590458,4169.44188642,4171.80235987,4136.16856754,4162.76107895,4143.06408097,4170.21662337,4168.35524469,173.517027893
off_to_on,4178.70688405,4164.88324241,4171.62023251,4136.0784939,4177.90771152,4175.61321674,4168.40475504,4170.59673069,4136.12073279,4162.36505616,4142.89795996,4169.16060941,4167.96598404,195.131813779
off_to_on,4178.27704859,4164.67423386,4171.24404214,4136.00592276,4178.33486381,4175.07484207,4167.22112529,4169.27048867,4136.06660486,4161.79027335,4142.60437752,4167.90175681,4167.31495436,220.895048239
off_to_on,4177.55127269,4164.3276864,4170.65443695,4135.94207961,4178.43162127,4174.22973803,4165.88183428,4167.81951253,4136.00809616,4161.01157109,4142.15963501,4166.42793384,4166.37882477,250.819507548
off_to_on,4176.50810013,4163.82656348,4169.83639143,4135.8897166,4178.15292044,4173.0535421,4164.37865507,4166.23929488,4135.94721767,4160.00682528,4141.54427519,4164.72914294,4165.14113079,284.771298315
off_to_on,4175.13419155,4163.1581121,4168.78060474,4135.85130865,4177.46413956,4171.52973585,4162.70485581,4164.52535983,4135.88601079,4158.75796638,4140.74406547,4162.79811266,4163.59309643,322.470310717
off_to_on,4173.42507807,4162.31443665,4167.48405465,4135.82898643,4176.34255978,4169.65054339,4160.85572199,4162.67370237,4135.82647866,4157.25188041,4139.75077141,4160.63084058,4161.73419446,363.496056281
off_to_on,4171.3856031,4161.29287868,4165.9503318,4135.82447936,4174.77839173,4167.41752675,4158.82901894,4160.68122969,4135.77051887,4155.48115452,4138.56268921,4158.22706326,4159.57242207,407.298706039
off_to_on,4169.03003378,4160.0961879,4164.18973966,4135.83906985,4172.77532813,4164.84185247,4156.62537482,4158.54618542,4135.71985963,4153.44463606,4137.18491594,4155.59063184,4157.1242796,453.214949223
off_to_on,4166.38183611,4158.73247861,4162.21915462,4135.87356005,4170.35060219,4161.94421651,4154.24856799,4156.26853918,4135.67600147,4151.14778166,4135.62934744,4152.72977584,4154.41445159,500.488111971
off_to_on,4163.47312069,4157.21497487,4160.06165016,4135.92825151,4167.53454997,4158.75442786,4151.70570705,4153.8503262,4135.64016611,4148.60278117,4133.91440513,4149.65724262,4151.47520077,548.291816901
off_to_on,4160.34377861,4155.56155624,4157.74589783,4136.00293836,4164.36969414,4155.31066458,4149.00729719,4151.29592423,4135.61325431,4145.8284508,4132.06450419,4146.39030432,4148.34549669,595.756332787
off_to_on,4157.0403387,4153.79412413,4155.3053664,4136.09691364,4160.90938462,4151.65842829,4146.16719151,4148.6122584,4135.59581412,4142.84989805,4130.10928628,4142.95062938,4145.06991057,641.996663499
off_to_on,4153.61458739,4151.93781593,4152.77734763,4136.20898859,4157.21604829,4147.84923511,4143.20243085,4145.80892757,4135.5880206,4139.69797009,4128.08264893,4139.36401965,4141.69731633,686.141361721
off_to_on,4150.12200166,4150.02009962,4150.20184349,4136.33752386,4153.35911453,4143.93909074,4140.13297963,4142.89824827,4135.58966815,4136.40850442,4126.02161163,4135.66001863,4138.27944454,727.36102838
off_to_on,4146.62005159,4148.06978602,4147.62035424,4136.48047183,4149.41269536,4139.98680562,4136.98136811,4139.89521484,4135.60017577,4133.02140779,4123.96506422,4131.87139993,4134.86934051,764.895472828
off_to_on,4143.16643385,4146.11599872,4145.07461008,4136.63542844,4145.45310728,4136.05221211,4133.77225482,4136.81737681,4135.61860557,4129.57959535,4121.95244696,4128.03354956,4131.51978069,798.078560391
off_to_on,4139.81729878,4144.18714281,4142.60529084,4136.79969316,4141.55632692,4132.19434809,4130.5319245,4133.68463643,4135.64369415,4126.12782668,4120.02241333,4124.18375871,4128.28170222,826.359862044
off_to_on,4136.62553313,4142.30991318,4140.25077763,4136.97033525,4137.79547324,4128.46967203,4127.28773799,4130.51897085,4135.67389613,4122.71147853,4118.21152631,4120.36044709,4125.20269958,849.322342474
off_to_on,4133.6391576,4140.50838103,4138.04597935,4137.14426456,4134.23840728,4124.93037144,4124.0675514,4127.34408502,4135.70743865,4119.37529595,4116.55303731,4116.6023387,4122.32563943,866.695471555
off_to_on,4130.89989378,4138.80319376,4136.02127371,4137.31830499,4130.94553488,4121.62282306,4120.89912191,4124.18500306,4135.74238516,4116.16216367,4115.07579281,4112.94761366,4119.68744024,878.363314223
off_to_on,4128.44194833,4137.21091831,4134.20159829,4137.48926885,4127.96788974,4118.58625676,4117.80951794,4121.06760786,4135.77670645,4113.11193876,4113.80330896,4109.43306084,4117.31805755,884.367339353
off_to_on,4126.29105469,4135.74355192,4132.60572188,4137.65403039,4125.34556351,4115.85166767,4114.82455099,4118.01814027,4135.80835646,4110.26038297,4112.75304752,4106.09325589,4115.23970743,884.903882861
off_to_on,4124.46380281,4134.40821705,4131.24571993,4137.80959697,4123.10653572,4113.4410115,4111.96824413,4115.06266982,4135.83535023,4107.63822876,4111.93591845,4102.95978827,4113.4663523,880.316395214
off_to_on,4122.96727675,4133.20704968,4130.12667069,4137.95317623,4121.26594103,4111.36670672,4109.26234995,4112.22654905,4135.85584105,4105.27040794,4111.35602582,4100.06055864,4112.00346304,871.082791134
off_to_on,4121.79900876,4132.1372819,4129.24658047,4138.0822378,4119.8257941,4109.63145574,4106.72592746,4109.53386348,4135.86819405,4103.17546495,4111.01066364,4097.41916544,4110.84806115,857.798393708
off_to_on,4120.9472462,4131.19151188,4128.596538,4138.19456821,4118.77517485,4108.22838483,4104.37498534,4107.00688908,4135.87105333,4101.36517005,4110.89055867,4095.05439593,4109.98903429,841.155120343
off_to_on,4120.39151637,4130.35814673,4128.16108969,4138.28831754,4118.09086001,4107.14149123,4102.22219606,4104.66556903,4135.86340031,4099.84433969,4110.98034738,4092.97983334,4109.40770845,821.917687219
off_to_on,4120.10346368,4129.62199662,4127.91881903,4138.36203673,4117.73837057,4106.34637474,4100.27668353,4102.52702121,4135.84460087,4098.61086389,4111.25926457,4091.20358763,4109.07865079,800.897707135
off_to_on,4120.0479243,4128.96499365,4127.84310743,4138.41470463,4117.67339104,4105.81122239,4098.54388514,4100.60508764,4135.81443945,4097.65593349,4111.70201367,4089.7281542,4108.97066967,778.92662081
off_to_on,4120.18419679,4128.36700459,4127.90304799,4138.44574392,4117.84350427,4105.49800785,4097.02548886,4098.90993799,4135.77313891,4096.96445485,4112.27978187,4088.55040222,4109.04797316,756.828432114
off_to_on,4120.46746195,4127.80670448,4128.06448001,4138.45502576,4118.19017677,4105.3638619,4095.7194458,4097.44774002,4135.72136502,4096.51563543,4112.96135887,4087.66169291,4109.27144363,735.393211531
off_to_on,4120.85030172,4127.26247699,4128.29110938,4138.44286274,4118.65092209,4105.362567,4094.62005883,4096.22041027,4135.66021542,4096.28371981,4113.71431497,4087.04812602,4109.59998391,715.352289661
off_to_on,4121.28426578,4126.71330679,4128.545678,4138.40999068,4119.16156581,4105.44612665,4093.71814675,4095.22545796,4135.59119321,4096.23885282,4114.5061927,4086.69091054,4109.99188985,697.355986957
off_to_on,4121.72143425,4126.13963077,4128.79114504,4138.35753968,4119.65853341,4105.5663591,4093.00128296,4094.4559338,4135.51616588,4096.34804324,4115.305667,4086.56685306,4110.40620419,681.95462012
off_to_on,4122.11592729,4125.52411688,4128.99184347,4138.28699548,4120.08108348,4105.6764664,4092.45410651,4093.90049381,4135.43731077,4096.57619956,4116.08363059,4086.64895454,4110.80400876,669.58339175
off_to_on,4122.42531566,4124.85234281,4129.11457704,4138.20015237,4120.37341162,4105.73253102,4092.05870177,4093.54358521,4135.35704871,4096.88720709,4116.8141654,4086.90710339,4111.14961488,660.551612494
off_to_on,4122.61189083,4124.11335129,4129.12962553,4138.099059,4120.48655597,4105.69489587,4091.79504073,4093.3657572,4135.27796786,4097.24501507,4117.47536577,4087.30884992,4111.4116162,655.036531696
off_to_on,4122.64375833,4123.30006354,4129.01162937,4137.98595865,4120.38004231,4105.52938716,4091.64147986,4093.34409501,4135.20274017,4097.614702,4118.04998599,4087.82024437,4111.56377319,653.081872182
off_to_on,4122.49572403,4122.40953821,4128.74032865,4137.86322562,4120.02321583,4105.20834422,4091.57530141,4093.45277054,4135.13403323,4097.96348795,4118.52589155,4088.40671773,4111.58570444,654.600985482
off_to_on,4122.1499495,4121.44306844,4128.30113574,4137.73329936,4119.39621725,4104.71142652,4091.57328771,4093.66369819,4135.07442053,4098.26166479,4118.89630226,4089.03398303,4111.46336643,659.384375332
off_to_on,4121.59636036,4120.40611597,4127.68552609,4137.59861832,4118.49057334,4104.02617498,4091.6123158,4093.94728043,4135.02629315,4098.48341784,4119.15982339,4089.66893299,4111.18931068,667.111189469
off_to_on,4120.83279954,4119.30808717,4126.89123753,4137.46155543,4117.30938558,4103.1483128,4091.66995846,4094.27322276,4134.99177615,4098.60751635,4119.32026977,4090.28051001,4110.76271515,677.36415673
off_to_on,4119.86492581,4118.16196183,4125.9222743,4137.32435724,4115.8671148,4102.08177959,4091.7250766,4094.61139457,4134.97265251,4098.61785473,4119.38629611,4090.84052455,4110.1891944,689.647346071
off_to_on,4118.70586576,4116.98379117,4124.78871828,4137.18908885,4114.1889737,4100.83850107,4091.75838688,4094.93270866,4134.97029748,4098.50383098,4119.37085374,4091.32439912,4109.48040103,703.406044548
off_to_on,4117.37563491,4115.7920857,4123.50635548,4137.05758651,4112.30995207,4099.43790467,4091.75298763,4095.20999036,4134.98562554,4098.26055341,4119.29050026,4091.71181587,4108.65343678,718.047996474
off_to_on,4115.90034986,4114.60711703,4122.09613084,4136.93141943,4110.27351208,4097.9061988,4091.69482563,4095.41880506,4135.01905209,4097.88887065,4119.16459312,4091.98724676,4107.73009756,732.965221769
off_to_on,4114.31125882,4113.45015976,4120.58344889,4136.81186222,4108.13000192,4096.27544062,4091.57308677,4095.53821316,4135.07047113,4097.39522364,4119.0144013,4092.14034664,4106.73598016,747.555639444
off_to_on,4112.64362299,4112.34270114,4118.99734205,4136.69987867,4105.93484557,4094.58242357,4091.38049509,4095.55142287,4135.13924986,4096.79132312,4118.86217109,4092.1661922,4105.69948195,761.243758014
off_to_on,4110.93548603,4111.30564684,4117.36953231,4136.59611729,4103.74657422,4092.86742218,4091.11350867,4095.44631571,4135.22424047,4096.09366154,4118.73018311,4092.06535464,4104.65072818,773.499752564
off_to_on,4109.22637258,4110.35855195,4115.7334165,4136.50091849,4101.62477007,4091.1728365,4090.77240499,4095.21582487,4135.32380859,4095.32287485,4118.63983712,4091.8438008,4103.62046399,783.856322099
off_to_on,4107.55595998,4109.51890534,4114.12300779,4136.41433267,4099.62799598,4089.5417822,4090.36125278,4094.85815291,4135.43587768,4094.50297603,4118.61079988,4091.51262454,4102.63895067,791.922804697
off_to_on,4105.96276788,4108.80149416,4112.57186867,4136.33614828,4097.81178362,4088.01667356,4089.8877714,4094.37682084,4135.5579877,4093.66048728,4118.66024792,4091.08761703,4101.73490536,797.39611863
off_to_on,4104.48290986,4108.21787165,4111.11207021,4136.26592784,4096.22674998,4086.63784647,4089.36308193,4093.78054667,4135.68736615,4092.8235012,4118.80223244,4090.58869049,4100.93452217,800.068197183
off_to_on,4103.14894808,4107.77594776,4109.77321195,4136.20305016,4094.91690629,4085.44226667,4088.80135817,4093.08295724,4135.82100937,4092.02070362,4119.04718773,4090.03917495,4100.26060836,799.829697395
off_to_on,4101.98888848,4107.47971637,4108.58153399,4136.1467561,4093.91821604,4084.46236533,4088.21938834,4092.30214263,4135.95577122,4091.28039116,4119.40159739,4089.46501117,4099.73186428,796.669889259
off_to_on,4101.02534814,4107.32912804,4107.55914958,4136.09619569,4093.25744902,4083.72503862,4087.6360602,4091.46006687,4136.08845655,4090.6295158,4119.86782555,4088.89386584,4099.36232893,790.672768523
off_to_on,4100.2749201,4107.32011054,4106.72342195,4136.0504743,4092.95136678,4083.25084135,4087.07178276,4090.58185187,4136.21591631,4090.09278687,4120.4441128,4088.3541965,4099.16100566,782.009576823
off_to_on,4099.74775356,4107.44473404,4106.08650396,4136.00869584,4093.00626232,4083.05339665,4086.54785833,4089.69495453,4136.33514131,4089.69185762,4121.12472988,4087.8742946,4099.13167522,770.928050874
off_to_on,4099.44735925,4107.69151199,4105.65505302,4135.97000134,4093.41786385,4083.13903552,4086.08581955,4088.82826062,4136.44335154,4089.44462038,4121.90027592,4087.48133535,4099.27289614,757.73885105
off_to_on,4099.37064196,4108.04582385,4105.43012768,4135.93360172,4094.17159917,4083.50667168,4085.70674754,4088.01112181,4136.53807812,4089.36462999,4122.7581032,4087.20046287,4099.57818559,742.799732824
off_to_on,4099.50815409,4108.49044146,4105.4072659,4135.89880347,4095.24320464,4084.14790977,4085.43058796,4087.27236488,4136.61723524,4089.4606711,4123.68284635,4087.05393757,4100.03636809,726.498116714
off_to_on,4099.84455678,4109.00613768,4105.57673909,4135.86502672,4096.59965123,4085.04737699,4085.27548303,4086.63930392,4136.67917977,4089.73648011,4124.65703148,4087.06037153,4100.63207361,709.232778973
off_to_on,4100.35926842,4109.57235348,4105.92397024,4135.83181538,4098.2003492,4086.18326194,4085.25713755,4086.13678681,4136.7227566,4090.19062781,4125.66173852,4087.23407477,4101.34636246,691.395422987
off_to_on,4101.02727414,4110.1678985,4106.43009957,4135.79883926,4099.99858408,4087.52803793,4085.38823752,4085.78630701,4136.74732857,4090.81656426,4126.67729023,4087.5845327,4102.15745074,673.352898034
off_to_on,4101.82006456,4110.77165936,4107.07267585,4135.76588882,4101.943129,4089.04934276,4085.67793835,4085.60520961,4136.75279007,4091.60282222,4127.68394095,4088.11603105,4103.04150754,655.430807059
off_to_on,4102.70666769,4111.36329036,4107.82644781,4135.73286343,4103.97997325,4090.71098223,4086.13143791,4085.60601724,4136.73956414,4092.53337083,4128.66253976,4088.82743996,4103.97349349,637.899189157
off_to_on,4103.65473472,4111.9238621,4108.66422624,4135.69975409,4106.05410364,4092.47402197,4086.74964759,4085.79589807,4136.70858329,4093.58810617,4129.5951445,4089.71216387,4104.92800968,620.960877627
off_to_on,4104.63163961,4112.43644582,4109.55778553,4135.66662214,4108.11127539,4094.29793073,4087.52897252,4086.17629385,4136.66125494,4094.74346156,4130.46556619,4090.75825897,4105.88012646,604.743024151
off_to_on,4105.60555308,4112.8866138,4110.47877276,4135.63357522,4110.0997113,4096.14173868,4088.46121075,4086.74272268,4136.59941254,4095.97311724,4131.25982685,4091.94871525,4106.80616414,589.292148395
off_to_on,4106.54645417,4113.26284054,4111.39959331,4135.60074187,4111.97167268,4097.96517571,4089.53357884,4087.4847661,4136.52525425,4097.24878678,4131.96651815,4093.26189535,4107.68440026,574.572925526
off_to_on,4107.42704646,4113.5567933,4112.29424387,4135.56824651,4113.68485193,4099.72975726,4090.728869,4088.38624564,4136.44127109,4098.54105576,4132.57705247,4094.67211801,4108.49568274,560.470767989
off_to_on,4108.22355122,4113.76350615,4113.13906739,4135.53618604,4115.20354521,4101.39978895,4092.02574102,4089.42558923,4136.35016708,4099.82024823,4133.08580321,4096.15037011,4109.22393324,546.798098802
off_to_on,4108.91635642,4113.88143678,4113.91340876,4135.50460971,4116.49957396,4102.94326696,4093.39915104,4090.57638447,4136.25477386,4101.05729785,4133.49013608,4097.66512913,4109.85653115,533.304058387
off_to_on,4109.49050819,4113.9124113,4114.60015576,4135.47350322,4117.55293619,4104.33265759,4094.82091842,4091.80811286,4136.15796264,4102.22460331,4133.79033924,4099.18327692,4110.38457581,519.687242034
off_to_on,4109.9360408,4113.86146813,4115.18615664,4135.4427779,4118.35218167,4105.5455482,4096.26043165,4093.0870567,4136.0625563,4103.29685255,4133.98946575,4100.67108683,4110.80303192,505.610936489
off_to_on,4110.24814947,4113.73661709,4115.66251247,4135.41226524,4118.89451845,4106.56516917,4097.68549242,4094.37736782,4135.97124459,4104.25180464,4134.09310721,4102.09526691,4111.11076997,490.720217378
off_to_on,4110.4272186,4113.54853368,4116.02474836,4135.3817169,4119.18566942,4107.38079337,4099.06329463,4095.64228334,4135.88650515,4105.07102253,4134.10912112,4103.42404339,4111.31051901,474.660188553
off_to_on,4110.4787223,4113.31021008,4116.2728722,4135.35080991,4119.23950559,4107.98802264,4100.36152891,4096.8454679,4135.81053278,4105.74055173,4134.04733538,4104.62826706,4111.40875103,457.094593427
off_to_on,4110.41301578,4113.0365833,4116.41133073,4135.3191567,4119.07748699,4108.38897025,4101.54959502,4097.95245267,4135.74517922,4106.25153824,4133.91925126,4105.68252171,4111.41551531,437.724009027
off_to_on,4110.24503462,4112.74415761,4116.44887301,4135.2863195,4118.72794225,4108.59234457,4102.59989247,4098.9321311,4135.691905,4106.60077546,4133.737762,4106.56620729,4111.34423654,416.302846605
off_to_on,4109.99391543,4112.45063408,4116.39832887,4135.25182823,4118.22521622,4108.61343314,4103.48914749,4099.75825998,4135.65174499,4106.79116355,4133.5168976,4107.26456319,4111.21148468,392.654427764
off_to_on,4109.68254732,4112.17455416,4116.27630756,4135.21520113,4117.60871105,4108.47398022,4104.19972215,4100.41090425,4135.62528826,4106.83205842,4133.27159974,4107.76958973,4111.0367171,366.683480149
off_to_on,4109.33705887,4111.9349596,4116.10281937,4135.17596707,4116.92184224,4108.20194464,4104.7208417,4100.87775645,4135.6126728,4106.73948193,4133.01752397,4108.08082019,4110.8419872,338.385498864
off_to_on,4108.98624171,4111.75106575,4115.9008204,4135.13368858,4116.21092654,4107.83112001,4105.04966908,4101.15525663,4135.61359492,4106.53616084,4132.77086052,4108.20589209,4110.65160809,307.852544642
off_to_on,4108.6609092,4111.64194198,4115.69568009,4135.08798442,4115.52401559,4107.40059689,4105.19215278,4101.24943846,4135.62733263,4106.25136145,4132.54816081,4108.16086684,4110.49175674,275.275192266
off_to_on,4108.39318806,4111.62619105,4115.51457106,4135.03855092,4114.90968705,4106.95404719,4105.16357711,4101.17643198,4135.65278192,4105.92048939,4132.36615431,4107.97025116,4110.39000347,240.940497101
off_to_on,4108.21574214,4111.7216186,4115.38578266,4134.98518092,4114.41580474,4106.53881558,4104.98875255,4100.9625648,4135.68850448,4105.58443169,4132.24154062,4107.6666835,4110.37475412,205.226007423
off_to_on,4108.16093106,4111.94488539,4115.33796291,4134.9277797,4114.08826164,4106.20481078,4104.70179743,4100.64401888,4135.73278488,4105.28862823,4132.19074337,4107.29026182,4110.47459718,168.590009228
off_to_on,4108.25991068,4112.31113715,4115.39929741,4134.8663771,4113.969722,4106.00319953,4104.34547931,4100.26601954,4135.78369525,4105.0818729,4132.22961635,4106.88750535,4110.71755421,131.558341768
off_to_on,4108.54168799,4112.83361049,4115.59663839,4134.80113511,4114.0983824,4105.98491787,4103.97010373,4099.88155376,4135.83916508,4105.01485842,4132.37309668,4106.50995998,4111.13023998,94.7082602939
off_to_on,4109.0321479,4113.52321685,4115.9546019,4134.73235072,4114.50677496,4106.19902585,4103.63195942,4099.54963739,4135.89705378,4105.13849336,4132.63480534,4106.21247502,4111.73694624,58.6499417493
off_to_on,4109.75307498,4114.38811111,4116.4946555,4134.66045346,4115.22063897,4106.6909446,4103.39135146,4099.33317352,4135.95522357,4105.50203435,4133.02660131,4106.05119678,4112.55867138,24.0063248064
off_to_on,4110.72119795,4115.43325579,4117.23422321,4134.58599775,4116.25789059,4107.50062617,4103.31027761,4099.29646679,4136.0116104,4106.15109085,4133.55810152,4106.08134178,4113.61212646,-8.60795611126
off_to_on,4111.9472892,4116.65999576,4118.18583799,4134.50965013,4117.62772256,4108.66071774,4103.44982463,4099.50247904,4136.06429054,4107.12557172,4134.23618495,4106.35482746,4114.90875443,-38.6077449006
off_to_on,4113.4353546,4118.0656621,4119.35637399,4134.43217205,4119.32986761,4110.19479007,4103.86738101,4100.00992937,4136.11154096,4108.4576529,4135.06450347,4106.91785066,4116.45380503,-65.457841221
off_to_on,4115.18195035,4119.64322585,4120.74639204,4134.35439892,4121.35405903,4112.11570585,4104.61377728,4100.87035478,4136.15189174,4110.16985106,4136.04302525,4107.80851237,4118.24551025,-88.6920012163
off_to_on,4117.17566351,4121.38102381,4122.34963072,4134.27721644,4123.6797198,4114.42420505,4105.73047544,4102.12525618,4136.1841689,4112.27329019,4137.16763808,4109.05459138,4120.27440581,-107.929735549
off_to_on,4119.39679027,4123.26257878,4124.15267316,4134.20153525,4126.27590837,4117.10778253,4107.24693305,4103.80345625,4136.2075267,4114.76624596,4138.42983945,4110.67156863,4122.52284202,-122.890257931
off_to_on,4121.81724225,4125.26653534,4126.13481559,4134.12826521,4129.10154329,4120.13992744,4109.17826667,4105.91879346,4136.22146834,4117.63304655,4139.81653905,4112.66099888,4124.96472354,-133.403035549
off_to_on,4124.40070468,4127.36673049,4128.2681584,4134.05829032,4132.10592261,4123.47978541,4111.52333365,4108.4682683,4136.2258546,4120.84339986,4141.30999658,4115.00931763,4127.56551171,-139.414505421
off_to_on,4127.10306389,4129.53241486,4130.51793405,4133.9924458,4135.22954605,4127.07229248,4114.26334082,4111.43074567,4136.2209003,4124.35220485,4142.88791447,4117.68715823,4130.28251576,-140.990647282
off_to_on,4129.87311258,4131.72863608,4132.84307837,4133.93149821,4138.40523961,4130.8488158,4117.36107285,4114.76630034,4136.20715859,4128.09988964,4144.52370048,4120.64923848,4133.06549031,-138.315246259
off_to_on,4132.65353203,4133.91679011,4135.1970436,4133.87612959,4141.55957217,4134.72831843,4120.76081217,4118.41627005,4136.18549397,4132.01330124,4146.18690904,4123.8348558,4135.85754542,-131.68383638
off_to_on,4135.38214006,4136.05534002,4137.5288424,4133.82692629,4144.61454403,4138.61904596,4124.38899626,4122.30405473,4136.15704487,4136.00715099,4147.8438633,4127.16900781,4138.59636353,-121.493481035
off_to_on,4137.99338254,4138.10069417,4139.78430283,4133.78437267,4147.48951569,4142.42071177,4128.15562927,4126.33667077,4136.12317729,4139.98599799,4149.45845116,4130.56412992,4141.21570406,-108.228707226
off_to_on,4140.42003517,4140.00822864,4141.90750505,4133.74884968,4150.10333462,4146.02713566,4131.95643415,4130.40703887,4136.08543123,4143.84672995,4150.9930802,4133.92241675,4143.64716331,-92.444059776
off_to_on,4142.59507187,4141.73343055,4143.84236149,4133.72063769,4152.3766072,4149.32926971,4135.67569939,4134.39695275,4136.04546185,4147.48147884,4152.40976706,4137.13866798,4145.82214366,-74.7438783585
off_to_on,4144.45364632,4143.23313178,4145.53429442,4133.69992297,4154.2340532,4152.21852484,4139.18974374,4138.18064588,4136.00497758,4150.78088713,4153.67132892,4140.10357522,4147.67397351,-55.7600221869
off_to_on,4145.93512507,4144.46679597,4146.93195772,4133.68680643,4155.60687259,4154.59029458,4142.37089246,4141.62884589,4135.96567715,4153.63762191,4154.74263664,4142.70734423,4149.14010875,-36.1283664757
off_to_on,4146.98510486,4145.3978163,4147.98894514,4133.68131376,4156.43504849,4156.34755809,4145.09183304,4144.61318144,4135.92918785,4155.95001826,4155.59188373,4144.84352794,4150.16433771,-16.4649612182
off_to_on,4147.5573431,4145.99477796,4148.66542451,4133.68340565,4156.66950689,4157.40443482,4147.23019685,4147.01078713,4135.89700721,4157.62572237,4156.19182111,4146.41293231,4150.69890662,2.65722897686
off_to_on,4147.61552978,4146.23263757,4148.92963715,4133.69298748,4156.27405335,4157.68955757,4148.67319757,4148.70893695,4135.87044995,4158.58519838,4156.52090609,4147.32744824,4150.70648108,20.7300949577
off_to_on,4147.13483123,4146.09377216,4148.75920399,4133.70991751,4155.22700968,4157.14913099,4149.32214821,4149.60952912,4135.85060231,4158.76496264,4156.564315,4147.51365999,4150.16186138,37.3298000259
off_to_on,4146.10314069,4145.56885235,4148.14218432,4133.73401331,4153.52247974,4155.74954779,4149.09667676,4149.63324365,4135.83828518,4158.12041354,4156.31477162,4146.91608404,4149.05337523,52.1330620216
off_to_on,4144.52197889,4144.6574993,4147.07783991,4133.76505576,4151.17118312,4153.47944693,4147.9384664,4148.72320113,4135.8340275,4156.62813604,4155.77314913,4145.49990151,4147.38388131,64.9296319486
off_to_on,4142.40699796,4143.36869058,4145.57706629,4133.80279031,4148.20080835,4150.35111466,4145.81435917,4146.84796454,4135.83805062,4154.28757548,4154.94881048,4143.25306287,4145.17132889,75.6304410558
off_to_on,4139.78805512,4141.72088885,4143.66246396,4133.84692512,4144.65585231,4146.40115053,4142.71868162,4144.0037467,4135.85026423,4151.12199592,4153.85966162,4140.18766394,4142.44883453,84.271050873
off_to_on,4136.70883702,4139.74187639,4141.36803467,4133.8971262,4140.59692989,4141.69034571,4138.67467705,4140.21571265,4135.87027365,4147.1786623,4152.53190257,4136.34051794,4139.26425389,91.0102201487
off_to_on,4133.22603161,4137.46828911,4138.73850122,4133.95300967,4136.0995564,4136.30274821,4133.73496049,4135.53829836,4135.89739834,4142.52821397,4150.99947352,4131.77287705,4135.67924563,96.1235918231
off_to_on,4129.40806067,4134.94485476,4135.82826294,4134.01413151,4131.25242445,4130.34392007,4127.98094945,4130.0545042,4135.93070052,4137.26322676,4149.30320557,4126.56928946,4131.76784384,99.9926936073
off_to_on,4125.33340235,4132.22335107,4132.70001284,4134.07997577,4126.15521616,4123.93842172,4121.5212625,4123.874161,4135.96902296,4131.49599194,4147.48969786,4120.83561078,4127.61457465,103.089629982
off_to_on,4121.0885491,4129.36131023,4129.42305509,4134.14994203,4120.91601033,4117.22658915,4114.48911742,4117.13120616,4136.01103431,4125.35557032,4145.60995488,4114.69622161,4123.3121708,105.958015035
off_to_on,4116.76566081,4126.42050607,4126.0713739,4134.22333369,4115.64836058,4110.36069796,4107.03879988,4109.98004635,4136.05528021,4118.98420841,4143.71782798,4108.29053423,4118.95895453,109.190847432
off_to_on,4112.45998576,4123.46526936,4122.7215152,4134.29934819,4110.46813495,4103.50063313,4099.34131026,4102.59111944,4136.10023833,4112.53322901,4141.86831405,4101.76890013,4114.65597331,113.406153764
off_to_on,4108.26713253,4120.56068426,4119.45035056,4134.37707094,4105.49021842,4096.80920505,4091.57932936,4095.14580092,4136.14437515,4106.15853083,4140.11577107,4095.28805488,4110.50398418,119.221319595
off_to_on,4104.28028292,4117.77072447,4116.33279885,4134.4554739,4100.82518637,4090.44726758,4083.94167163,4087.83082692,4136.18620245,4100.01584855,4138.51211497,4089.00625677,4106.60039019,127.227085757
off_to_on,4100.58743982,4115.15639137,4113.43958341,4134.53342026,4096.57606027,4084.56880424,4076.61741582,4080.83242636,4136.22433125,4094.25593645,4137.105064,4083.07828925,4103.03623644,137.962208335
off_to_on,4097.26880385,4112.77391736,4110.8351025,4134.60967594,4092.83525546,4079.31615241,4069.78991775,4074.33036847,4136.25752134,4089.01984398,4135.93649645,4077.65050424,4099.89337239,151.889762189
off_to_on,4094.39436958,4110.67309621,4108.57548742,4134.68292839,4089.68182575,4074.81553329,4063.63091662,4068.49213787,4136.28472438,4084.43445077,4135.04098436,4072.8560845,4097.24188284,169.376010729
do_nothing,4092.02182527,4108.89579911,4106.70691655,4134.75181294,4087.17910091,4071.17304696,4058.2949456,4063.46744741,4136.30511905,4080.60842119,4134.44456018,4068.81069643,4095.13788107,190.672671875
do_nothing,4090.19483034,4107.47472858,4105.26424507,4134.81494613,4085.37280058,4068.47127707,4053.91424824,4059.38328838,4136.31813699,4077.62872462,4134.16376499,4065.60869175,4093.62174525,215.903285353
do_nothing,4088.94173159,4106.43245513,4104.2699984,4134.87096523,4084.28969224,4066.76662893,4050.59438522,4056.33969893,4136.32347844,4075.55784741,4134.20501697,4063.31999662,4092.71686306,245.054233353
do_nothing,4088.27476392,4105.78077138,4103.73376501,4134.91857259,4083.93684238,4066.08749965,4048.4106926,4054.40640634,4136.32111717,4074.43179827,4134.5643267,4061.98780167,4092.42893136,277.970791301
do_nothing,4088.18976455,4105.52038774,4103.6520095,4134.95658324,4084.3014897,4066.43334984,4047.40572325,4053.62046766,4136.31129473,4074.25898012,4135.2273736,4061.6271379,4092.74583771,314.358395922
do_nothing,4088.66641181,4105.64098173,4104.00831265,4134.98397363,4085.35154735,4067.77471504,4047.58776949,4053.98499876,4136.29450424,4075.01997146,4136.16994469,4062.22439173,4093.63812992,353.789121017
do_nothing,4089.66898195,4106.12160095,4104.77402991,4134.99992926,4087.03671984,4070.05416238,4048.93052643,4055.46904265,4136.27146482,4076.66822824,4137.35872386,4063.7377795,4095.0600592,395.713154248
do_nothing,4091.14759969,4106.93140716,4105.90934566,4135.00388891,4089.29019837,4073.18816406,4051.37391465,4058.00858728,4136.24308771,4079.13168483,4138.75240642,4066.09876751,4096.95116212,439.474878421
do_nothing,4093.03994124,4108.0307375,4107.36468672,4134.9955831,4092.03087825,4077.06982656,4054.82603888,4061.50870089,4136.21043566,4082.31520069,4140.30310195,4069.21439028,4099.23832751,484.332986666
do_nothing,4095.27333285,4109.37244765,4109.08244627,4134.97506466,4095.16602311,4081.57238351,4059.16621837,4065.84671273,4136.1746772,4086.10376987,4141.95797676,4072.970388,4101.83827756,529.483909046
do_nothing,4097.76717393,4110.90349183,4110.99895839,4134.94272969,4098.59428493,4086.55333244,4064.24898623,4070.87632916,4136.13703771,4090.36638311,4143.66107822,4077.23505546,4104.6603772,574.087703348
do_nothing,4100.43560212,4112.56668623,4113.04665478,4134.89932715,4102.20897605,4091.85907249,4069.90891955,4076.43254117,4136.09874926,4094.9604096,4145.35527606,4081.86366925,4107.6096743,617.295469956
do_nothing,4103.19030904,4114.30259556,4115.15632821,4134.84595599,4105.90148079,4097.32988247,4075.96613204,4082.33715144,4136.06100107,4099.73634694,4146.9842508,4086.70333974,4110.59006452,658.27729425
do_nothing,4105.94341043,4116.05147806,4117.25942422,4134.78404887,4109.56468984,4102.80506706,4082.23223724,4088.40472701,4136.02489274,4104.54277493,4148.4944574,4091.59811959,4113.50747003,696.249701751
do_nothing,4108.61027257,4117.7552224,4119.29028154,4134.71534211,4113.09634097,4108.12809376,4088.51657404,4094.4487697,4135.9913918,4109.23134164,4149.83699307,4096.39419151,4116.27292085,730.501630864
do_nothing,4111.11219948,4119.35921032,4121.18824455,4134.64183223,4116.40215346,4113.15154471,4094.63247728,4100.2878892,4135.96129737,4113.6616094,4150.9693013,4100.94495548,4118.80543161,760.417984636
do_nothing,4113.37889037,4120.81404233,4122.89957599,4134.56571972,4119.39865246,4117.74171523,4100.40337572,4105.75176405,4135.9352112,4117.70559327,4151.85665052,4105.11583959,4121.03457408,785.499915216
do_nothing,4115.35058593,4122.07706867,4124.37910626,4134.48934173,4122.01559079,4121.78270472,4105.66850607,4110.68668433,4135.91351709,4121.25183623,4152.47333416,4108.78866831,4122.90265797,805.381118662
do_nothing,4116.97983314,4123.11367556,4125.59156534,4134.41509561,4124.19789151,4125.17986514,4110.28804724,4114.96048544,4135.89636964,4124.20888245,4152.80354924,4111.86543855,4124.366447,819.839567552
do_nothing,4118.2328125,4123.89828541,4126.51255497,4134.34535589,4125.9070519,4127.86249677,4114.14750064,4118.4667055,4135.88369248,4126.5080324,4152.84192298,4114.27137525,4125.39835471,828.804278789
do_nothing,4119.09018658,4124.4150402,4127.12913183,4134.28238777,4127.12196956,4129.78570837,4117.1611701,4121.12782709,4135.8751862,4128.10528985,4152.59366979,4115.95716404,4125.98708314,832.356898354
do_nothing,4119.54744624,4124.65814839,4127.43998591,4134.22826048,4127.83917224,4130.93138929,4119.27462793,4122.89749701,4135.87034556,4128.98243995,4152.07437458,4116.90028758,4126.13768795,830.728076408
do_nothing,4119.61474756,4124.63188765,4127.45521297,4134.18476406,4128.07245371,4131.3082724,4120.46609024,4123.76165458,4135.86848521,4129.1472288,4151.30941185,4117.10542441,4125.87107376,824.28879662
do_nothing,4119.316251,4124.35026812,4127.19569411,4134.15333303,4127.85193907,4130.9510986,4120.7466642,4123.73853828,4135.86877293,4128.63264747,4150.33302311,4116.60390252,4125.22294414,813.537006032
do_nothing,4118.68899076,4123.83637291,4126.69210955,4134.13498033,4127.22262203,4129.91892437,4120.15947038,4122.87758064,4135.87026895,4127.4953553,4149.1870876,4115.4522339,4124.24225002,799.080060122
do_nothing,4117.78131896,4123.1214034,4125.98362597,4134.13024451,4126.24243459,4128.29264324,4118.77768286,4121.25724069,4135.87196979,4125.81330771,4147.91963222,4113.72978866,4122.98919789,781.61364581
do_nothing,4116.65098381,4122.24346733,4125.11630857,4134.13915266,4124.9799248,4126.17181757,4116.70156651,4118.98186008,4135.87285495,4123.68268128,4146.58313547,4111.53569737,4121.53289413,761.897966459
do_nothing,4115.36291354,4121.24615572,4124.1413179,4134.16120117,4123.51163097,4123.67094014,4114.0546248,4116.17766217,4135.87193452,4121.21421266,4145.23268745,4108.98509698,4119.94871425,740.732063457
do_nothing,4113.9867881,4120.17696152,4123.11295897,4134.19535559,4121.91924941,4120.91526216,4110.97900003,4112.98804241,4135.86829593,4118.52908691,4143.92407198,4106.20485802,4118.31549419,718.927206494
do_nothing,4112.59448733,4119.08559729,4122.08665455,4134.24007042,4120.28669813,4118.03633725,4107.63029184,4109.56832045,4135.86114795,4115.75452492,4142.71183883,4103.32894777,4116.71264626,697.280307406
do_nothing,4111.25750742,4118.02227185,4121.11691617,4134.29332884,4118.69717986,4115.16743732,4104.17197701,4106.0801415,4135.84986028,4113.01922772,4141.64743311,4100.49359543,4115.21730322,676.548298923
do_nothing,4110.04443701,4117.03598548,4120.25538503,4134.35270183,4117.23034516,4112.43899776,4100.76962559,4102.68572436,4135.83399714,4110.44883824,4140.77744564,4097.83243032,4113.90159151,657.424371052
do_nothing,4109.01858056,4116.17290121,4119.54901121,4134.41542513,4115.95965036,4109.97424527,4097.58511387,4099.54215733,4135.81334352,4108.16157765,4140.14204283,4095.47176331,4112.8301281,640.516877105
do_nothing,4108.2358097,4115.47484554,4119.0384331,4134.47849189,4114.9499959,4107.88515279,4094.77103293,4096.79593986,4135.78792291,4106.26420495,4139.77362729,4093.52617461,4112.05782524,626.331611321
do_nothing,4107.74271395,4114.97798579,4118.75661046,4134.53875815,4114.25571881,4106.26885186,4092.4654829,4094.57795692,4135.75800581,4104.84843437,4139.6957714,4092.09455792,4111.62807488,615.258023121
do_nothing,4107.57510998,4114.71172428,4118.7277546,4134.59305764,4113.91899914,4105.20461492,4090.78742721,4092.99905548,4135.72410837,4103.98792697,4139.92245649,4091.2567537,4111.57136939,607.559774953
do_nothing,4107.75695552,4114.69784139,4118.96658796,4134.63832194,4113.96872431,4104.75149837,4089.83275968,4092.1463699,4135.68698114,4103.73595154,4140.4576397,4091.07088207,4111.90439915,603.36987932
do_nothing,4108.29969847,4114.94991035,4119.47795345,4134.67170173,4114.41983842,4104.94671327,4089.67121151,4092.08051483,4135.64758798,4104.12378552,4141.29516001,4091.57146116,4112.6296501,602.690473874
do_nothing,4109.20207632,4115.47299713,4120.25678084,4134.69068454,4115.27318585,4105.80476472,4090.34419524,4092.83373356,4135.60707565,4105.15990056,4142.4189848,4092.76836869,4113.73550675,605.397118515
do_nothing,4110.45036448,4116.26364892,4121.28840543,4134.69320431,4116.51584162,4107.31737471,4091.86364999,4094.40905549,4135.56673459,4106.82994982,4143.80378759,4094.64667479,4115.1968484,611.247334691
do_nothing,4112.01905638,4117.31016438,4122.54922105,4134.67773827,4118.1219041,4109.45417589,4094.21191713,4096.78048051,4135.52795218,4109.09754613,4145.41583774,4097.16734313,4116.97610896,619.89296418
do_nothing,4113.87194325,4118.59312975,4124.00763867,4134.64338691,4120.05371062,4112.16413858,4097.34263949,4099.89417223,4135.49215971,4111.9057929,4147.21417274,4100.2687673,4119.02475529,630.895806792
do_nothing,4115.96354796,4120.08619615,4125.625311,4134.58993329,4122.26342329,4115.37766841,4101.18264212,4103.67060658,4135.46077521,4115.17950431,4149.15201424,4103.8690807,4121.28512513,643.74590111
do_nothing,4118.24085579,4121.75706586,4127.35857545,4134.51787867,4124.69492026,4119.00929077,4105.6347186,4108.00758971,4135.4351442,4118.82802824,4151.17838034,4107.86915235,4123.69255429,657.88173757
do_nothing,4120.64527559,4123.56864939,4129.1600606,4134.42845217,4127.28591916,4122.96081956,4110.58121594,4112.78402931,4135.41648076,4122.74856652,4153.23983967,4112.15615835,4126.17771453,672.711642234
do_nothing,4123.11475812,4125.4803504,4130.98039693,4134.32359282,4129.97025291,4127.12489321,4115.88828462,4117.86431879,4135.40581158,4126.82987136,4155.28234719,4116.60760024,4128.66907758,687.635548796
do_nothing,4125.58599465,4127.44943216,4132.76996975,4134.20590367,4132.68021491,4131.38875096,4121.41063815,4123.10317428,4135.40392519,4130.95618589,4157.25309815,4121.09562744,4131.09541802,702.066387176
do_nothing,4127.99661767,4129.43241799,4134.48065234,4134.07857821,4135.34889073,4135.63811685,4126.99665158,4128.35075093,4135.4113289,4135.01128991,4159.10233554,4125.49151171,4133.3882679,715.450355893
do_nothing,4130.28732719,4131.38647794,4136.06745882,4133.94530086,4137.91239618,4139.76105826,4132.49361807,4133.45785755,4135.42821529,4138.88251,4160.78504701,4129.67011754,4135.48423878,727.285406563
do_nothing,4132.40387024,4133.2707559,4137.49006057,4133.81012423,4140.3119471,4143.65168886,4137.75297934,4138.28108707,4135.4544403,4142.46455541,4162.26249061,4133.51421313,4137.32713301,737.137346288
do_nothing,4134.29880705,4135.04759439,4138.71411539,4133.67732701,4142.49569372,4147.21359359,4142.63534883,4142.68768523,4135.489514,4145.66304835,4163.50349416,4136.91847333,4138.86977425,744.653051236
do_nothing,4135.93300606,4136.68361868,4139.71236614,4133.55125758,4144.42026212,4150.36286479,4147.01515544,4146.55999115,4135.53260522,4148.39762923,4164.48548053,4139.79303712,4140.07549808,749.57037899
do_nothing,4137.27681955,4138.15064719,4140.46547378,4133.43616903,4146.0519567,4153.03065323,4150.78475074,4149.79929981,4135.58256026,4150.60453302,4165.19518092,4142.06649856,4140.91925568,751.724470298
do_nothing,4138.31090388,4139.42640187,4140.96255954,4133.33605237,4147.36759046,4155.16515605,4153.85784222,4152.32901789,4135.63793542,4152.2385522,4165.62900869,4143.68822967,4141.3882975,751.050246579
do_nothing,4139.02666131,4140.49499927,4141.20144128,4133.25447487,4148.35492396,4156.73298407,4156.17213987,4154.0970099,4135.69704242,4153.27432332,4165.79307892,4144.62995737,4141.48241801,747.581038711
do_nothing,4139.42629486,4141.34721161,4141.18856054,4133.19443057,4149.01270868,4157.71987382,4157.69113213,4155.07706121,4135.75800525,4153.7068992,4165.70287165,4144.88654336,4141.2137588,741.443421538
do_nothing,4139.52248217,4141.98049569,4140.93860826,4133.15820972,4149.35034503,4158.1307328,4158.40494007,4155.26941714,4135.81882629,4153.55159457,4165.38255058,4144.47594503,4140.60618328,732.848470831
do_nothing,4139.33768844,4142.39879638,4140.4738683,4133.14729309,4149.3871794,4157.98903065,4158.33023245,4154.70039101,4135.87745918,4152.84312054,4164.86396252,4143.43836605,4139.69425227,722.079798308
do_nothing,4138.90315132,4142.61213959,4139.82330781,4133.1622763,4149.1514769,4157.33557132,4157.50921842,4153.42106773,4135.93188569,4151.63404897,4164.18535563,4141.83463489,4138.5218447,709.478848925
do_nothing,4138.25758194,4142.63603687,4139.02145238,4133.20282788,4148.67911744,4156.22670204,4156.00776722,4151.50516113,4135.98019336,4149.99267223,4163.38986533,4139.7438771,4137.14047998,695.428056893
do_nothing,4137.4456353,4142.49072976,4138.10709019,4133.2676835,4148.01207127,4154.73203378,4153.91273456,4149.0461129,4136.02065098,4148.0003446,4162.52382572,4137.260572,4135.60740871,680.332546989
do_nothing,4136.51621051,4142.20030645,4137.12185509,4133.35467718,4147.19671638,4152.93176253,4151.32860228,4146.15354659,4136.05177873,4145.74840887,4161.63497043,4134.49110514,4133.98354477,664.601131409
do_nothing,4135.52064539,4141.79172657,4136.10874102,4133.46080857,4146.2820633,4150.9136922,4148.37355967,4142.9492114,4136.07241013,4143.33482414,4160.7705901,4131.54994423,4132.33131573,648.627386071
do_nothing,4134.51087216,4141.2937917,4135.11060143,4133.58234397,4145.31795355,4148.77006738,4145.17517219,4139.56256558,4136.08174319,4140.86061942,4159.97571508,4128.55557772,4130.712509,632.771592069
do_nothing,4133.5376,4140.73609942,4134.16868672,4133.71494708,4144.35329654,4146.59432822,4141.86579506,4136.12616029,4136.07937833,4138.42630159,4159.29138989,4125.62636171,4129.18618922,617.344297193
do_nothing,4132.64858777,4140.14801795,4133.32126981,4133.85383464,4143.43440566,4144.47789997,4138.5778971,4132.77098951,4136.06534146,4136.12834593,4158.75310321,4122.87642288,4127.80675802,602.592190075
do_nothing,4131.88706467,4139.55771613,4132.60240582,4133.99395073,4142.60348891,4142.50712649,4135.43946112,4129.62197124,4136.04009098,4134.05589242,4158.38943065,4120.41176103,4126.62222014,588.68688777
do_nothing,4131.29034991,4138.99127998,4132.04086564,4134.130153,4141.89734138,4140.76044957,4132.56962291,4126.79371807,4136.00450807,4132.28776137,4158.22094031,4118.32668573,4125.6727105,575.717120086
do_nothing,4130.88871369,4138.47194225,4131.65927581,4134.25740362,4141.34627798,4139.30592426,4130.07469904,4124.38674179,4135.95987066,4130.88988737,4158.25940053,4116.70070703,4124.98932584,563.684655545
do_nothing,4130.70451179,4138.01944648,4131.47348887,4134.37095748,4140.97333452,4138.19914699,4128.04473716,4122.48421852,4135.90781181,4129.9132542,4158.50731849,4115.59598219,4124.59329217,552.504160063
do_nothing,4130.75161572,4137.64956116,4131.49219934,4134.46654043,4140.79375405,4137.48165601,4126.55070175,4121.14941856,4135.85026384,4129.39239321,4158.95782532,4115.05539924,4124.49548677,542.007016742
do_nothing,4131.03514888,4137.37375381,4131.71681156,4134.5405104,4140.81476433,4137.17984623,4125.64238308,4120.42387984,4135.78939041,4129.3444876,4159.59491105,4115.10135492,4124.69632064,531.948970331
do_nothing,4131.55152816,4137.19902889,4132.1415565,4134.58999522,4141.03564114,4137.30442122,4125.34709061,4120.32637605,4135.72750864,4129.76910248,4160.39399922,4115.73525964,4125.18597489,522.021299778
do_nothing,4132.28879978,4137.12792762,4132.75384601,4134.61300126,4141.44804251,4137.85038657,4125.66916216,4120.85270151,4135.66700442,4130.64853859,4161.32283918,4116.9377759,4125.9449727,511.865073667
do_nothing,4133.22724882,4137.1586823,4133.53484571,4134.60848885,4142.03659002,4138.79757061,4126.59029132,4121.97626567,4135.61024369,4131.94878565,4162.34268197,4118.66977144,4126.94505778,501.087912316
do_nothing,4134.34025386,4137.28551344,4134.46024102,4134.57641091,4142.77966704,4140.1116425,4128.07064701,4123.64946197,4135.55948331,4133.62103125,4163.40969622,4120.87394401,4128.1503412,489.282572509
do_nothing,4135.59535138,4137.4990533,4135.5011658,4134.51771362,4143.65039823,4141.74558276,4130.05073178,4125.80574987,4135.51678481,4135.60366266,4164.47657156,4123.47705255,4129.518671,476.046590753
do_nothing,4136.95546874,4137.78687645,4136.62525873,4134.43429896,4144.61777068,4143.64154816,4132.45390085,4128.36236459,4135.48393461,4137.82468338,4165.49425087,4126.39266986,4131.00317317,461.002171873
do_nothing,4138.38028027,4138.13411469,4137.79780917,4134.32895093,4145.64785407,4145.73306173,4135.18944196,4131.22354913,4135.46237377,4140.20445296,4166.41372823,4129.52435468,4132.55390841,443.815493925
do_nothing,4139.82763791,4138.52413175,4138.98295245,4134.20522871,4146.70507605,4147.94744985,4138.15609827,4134.284187,4135.45314037,4142.65864922,4167.18784763,4132.76912871,4134.11958729,424.214618365
do_nothing,4141.25502763,4138.93923217,4140.14487425,4134.06733135,4147.75350905,4150.20844259,4141.245904,4137.43370297,4135.45682677,4145.10134659,4167.77303911,4136.0211356,4135.64928636,402.005245568
do_nothing,4142.62100358,4139.36137889,4141.24898486,4133.9199395,4148.75812672,4152.43885033,4144.34819406,4140.56009315,4135.47355359,4147.44810287,4168.13093256,4139.17535515,4137.0941104,377.083638014
do_nothing,4143.88655555,4139.7728956,4142.26302699,4133.76804069,4149.68599161,4154.56322934,4147.35364605,4143.55394395,4135.50296144,4149.61894899,4168.22979576,4142.13124742,4138.40875058,349.446143488
do_nothing,4145.01636923,4140.15713158,4143.15808472,4133.61674512,4150.5073391,4156.51045117,4150.15821448,4146.3123027,4135.5442208,4151.54118253,4168.04575134,4144.79620578,4139.55289381,319.194883906
do_nothing,4145.97994369,4140.49906961,4143.90946544,4133.47109933,4151.19652785,4158.21609521,4152.66682332,4148.74226994,4135.59605967,4153.15187446,4167.56373577,4147.08870717,4140.4924459,286.53932661
do_nothing,4146.75253614,4140.78586043,4144.49743189,4133.33590513,4151.73283187,4159.62459062,4154.79669353,4150.76419482,4135.65680791,4154.40000996,4166.77817351,4148.94105899,4141.20053783,251.793617884
do_nothing,4147.31590993,4141.00726968,4144.90776657,4133.21555067,4152.10105539,4160.6910427,4156.48019656,4152.31436976,4135.72445661,4155.24819706,4165.69334838,4150.3016558,4141.65829204,215.369726642
do_nothing,4147.65886726,4141.15602638,4145.13215562,4133.11385987,4152.2919575,4161.38268934,4157.66714196,4153.34713812,4135.79673021,4155.67389142,4164.32346305,4151.13667461,4141.85533176,177.76661277
do_nothing,4147.77755486,4141.22806467,4145.16838474,4133.03396564,4152.30247967,4161.6799448,4158.32642725,4153.83634904,4135.8711687,4155.67010034,4162.69238619,4151.431155,4141.7900235,139.555792973
do_nothing,4147.67553678,4141.22265318,4145.02034467,4132.97821088,4152.13577466,4161.57700124,4158.44700002,4153.77611629,4135.94521662,4155.24554644,4160.83309459,4151.18943065,4141.46944932,101.363820676
do_nothing,4147.36363581,4141.14241039,4144.69784984,4132.94808014,4151.80104125,4161.08197227,4158.03810557,4153.18086172,4136.01631568,4154.42428899,4158.78682657,4150.43490061,4140.90911344,63.8523200632
do_nothing,4146.85955164,4140.99320749,4144.21627882,4132.9441637,4151.31317387,4160.21657679,4157.12881743,4152.0846483,4136.08199722,4153.24481944,4156.60197104,4149.20915117,4140.13239565,27.6963126313
do_nothing,4146.1872704,4140.78396392,4143.59605102,4132.96615423,4150.69224076,4159.01537538,4155.7668718,4150.53983155,4136.13997129,4151.75866571,4154.33272486,4147.57046197,4139.16977135,-6.43835597278
do_nothing,4145.37628599,4140.526344,4142.86195788,4133.01287535,4149.96280837,4157.52458523,4154.01685076,4148.61508102,4136.1882087,4150.02855662,4152.03755783,4145.59175037,4138.05782509,-37.9176433569
do_nothing,4144.46065895,4140.23436587,4142.04237093,4133.08233996,4149.15313317,4155.80051246,4151.95778098,4146.39284442,4136.22501334,4148.12621203,4149.77753108,4143.35802747,4136.83809002,-66.1611418833
do_nothing,4143.47794303,4139.92393627,4141.16835213,4133.17183567,4148.29424536,4153.90765298,4149.68023397,4143.96634526,4136.24908206,4146.12983689,4147.61451865,4140.96345458,4135.55575019,-90.6622924386
do_nothing,4142.46801373,4139.61232688,4140.27269419,4133.27803368,4147.41895213,4151.91652379,4147.28303111,4141.4362203,4136.25955018,4144.12140653,4145.60938573,4138.50810228,4134.2582466,-111.006217852
do_nothing,4141.47183571,4139.31760952,4139.38892095,4133.39711678,4146.56079049,4149.90129592,4144.86966955,4138.90691491,4136.25602085,4142.18383758,4143.82017857,4136.09452423,4132.99382984,-126.884498773
do_nothing,4140.53020789,4139.05806879,4138.55027859,4133.52492187,4145.75296121,4147.93730748,4142.54459624,4136.48296341,4136.23857738,4140.39814289,4142.30038179,4133.82426402,4131.81010415,-138.106320276
do_nothing,4139.6825256,4138.85161128,4137.78874886,4133.65709163,4145.02727719,4146.09854009,4140.40946247,4134.2652856,4136.20777759,4138.84066934,4141.0972974,4131.79441598,4130.75260721,-144.60553804
do_nothing,4138.96559822,4138.71519056,4137.13411455,4133.78923005,4144.41315917,4144.45514408,4138.55949278,4132.34763009,4136.16463053,4137.58051413,4140.25059652,4130.09435833,4129.86346855,-146.443347902
do_nothing,4138.41255889,4138.66426601,4136.61310529,4133.91705582,4143.9367112,4143.07109639,4137.08009693,4130.81328933,4136.11055582,4136.67720822,4139.79108981,4128.80276995,4129.18018646,-143.806393776
do_nothing,4138.05189978,4138.71231233,4136.24864904,4134.03654816,4143.6199059,4142.00207125,4136.04384476,4129.73220086,4136.04732751,4136.17874539,4139.73975555,4127.98503155,4128.73455858,-137.000315335
do_nothing,4137.90666209,4138.87039503,4136.0592511,4134.14407962,4143.47990674,4141.29359659,4135.50791059,4129.15853567,4135.97700424,4136.12002296,4140.10705623,4127.69109794,4128.55179648,-126.438910073
do_nothing,4137.99380547,4139.14682487,4136.05851865,4134.23653121,4143.52855056,4140.97956051,4135.51207771,4129.12885755,4135.90184878,4136.52174599,4140.89256573,4127.95391238,4128.64984889,-112.629252653
do_nothing,4138.32377605,4139.54690251,4136.25484442,4134.31138574,4143.77200914,4141.08112073,4136.07737421,4129.66091823,4135.82424006,4137.38983109,4142.08491987,4128.78841536,4129.03895263,-96.1532701242
do_nothing,4138.90028621,4140.07276209,4136.65125872,4134.36679665,4144.21064378,4141.60605727,4137.2053898,4130.75313083,4135.74658133,4138.71532955,4143.66209366,4130.19118082,4129.72142375,-77.6464131213
do_nothing,4139.72031277,4140.72331975,4137.24545366,4134.40163025,4144.83906102,4142.54859417,4138.8782994,4132.38474114,4135.67120819,4140.47487145,4145.59199858,4132.14069074,4130.69169446,-57.7741883175
do_nothing,4140.77431269,4141.49432938,4138.02997768,4134.41548067,4145.64637091,4143.88969936,4141.05959391,4134.51669093,4135.60029999,4142.63161418,4147.83338302,4134.59823711,4131.93659367,-37.2074182637
do_nothing,4142.04664741,4142.37854407,4138.99259239,4134.40865794,4146.61664095,4145.59785452,4143.6954922,4137.09314163,4135.53579812,4145.13665957,4150.33700873,4137.50941673,4133.43586005,-16.5971612106
do_nothing,4143.51619857,4143.36597703,4140.11677706,4134.38215048,4147.72953058,4147.63026773,4146.7169809,4140.04360073,4135.47933412,4147.93088585,4153.04706593,4140.80616194,4135.16286805,3.44974955438
do_nothing,4145.15714965,4144.44425154,4141.38236012,4134.33756453,4148.96108152,4149.93448299,4150.04240338,4143.28556865,4135.43217041,4150.94712332,4155.90278134,4144.40922936,4137.08553871,22.3935995016
do_nothing,4146.93990085,4145.59902516,4142.76625119,4134.27704367,4150.28463185,4152.45032366,4153.5804961,4146.72760285,4135.39515553,4154.11258881,4158.84016564,4148.23105042,4139.16739971,39.7822220646
do_nothing,4148.83207888,4146.81447013,4144.24324303,4134.20317218,4151.67181461,4155.11209254,4157.2337528,4150.27267944,4135.36869572,4157.35148296,4161.79384227,4152.17883319,4141.36875321,55.2681512913
do_nothing,4150.79959989,4148.07378939,4145.78685023,4134.11886665,4153.0935983,4157.85094074,4160.90198444,4153.82172117,4135.35274344,4160.58764804,4164.69889667,4156.15779541,4143.64790618,68.6218047107
do_nothing,4152.80774248,4149.35974604,4147.37015027,4134.02726036,4154.52132431,4160.59731091,4164.48593521,4157.27715504,4135.34680325,4163.74718155,4167.49268484,4160.0744041,4145.96241607,79.740149714
do_nothing,4154.82218843,4150.65518405,4148.9665937,4133.93158495,4155.92769737,4163.28335849,4167.89081404,4160.54636256,4135.34995449,4166.76090349,4170.11654189,4163.83949786,4148.27030536,88.6504758456
do_nothing,4156.80999147,4151.94351819,4150.55075208,4133.83505419,4157.28768723,4165.84525616,4171.02960523,4163.54489108,4135.36088982,4169.56658191,4172.51733574,4167.37117422,4150.53120067,95.5090816411
do_nothing,4158.74043853,4153.20917342,4152.09897599,4133.74075388,4158.5793045,4168.22529277,4173.82603202,4166.19930545,4135.37796813,4172.11083231,4174.64881684,4170.59733512,4152.70735663,100.594880637
do_nothing,4160.58577299,4154.43795556,4153.58993977,4133.65154182,4159.78421894,4170.37368687,4176.21706105,4168.44957402,4135.39927998,4174.35062037,4176.47272258,4173.45779802,4154.76453038,104.29812819
do_nothing,4162.32175631,4155.61733849,4155.00505491,4133.56996099,4160.88819558,4172.25004671,4178.15485432,4170.25090154,4135.42272307,4176.25431416,4177.95960365,4175.90589847,4156.67267911,107.104661143
do_nothing,4163.92805119,4156.73665623,4156.32873996,4133.49816853,4161.88133158,4173.8244232,4179.60809705,4171.5749436,4135.44608537,4177.80225045,4179.08934974,4177.90952975,4158.4064607,109.576219589
do_nothing,4165.38841827,4157.78719284,4157.54854162,4133.43788253,4162.75808577,4175.07791881,4180.56265518,4172.41036151,4135.46713274,4178.98679922,4179.85140193,4179.45158864,4159.94552597,112.327576641
do_nothing,4166.69072668,4158.76216769,4158.6551086,4133.39034776,4163.5171017,4176.00283378,4181.02154289,4172.76270258,4135.48369805,4179.81193158,4180.24465073,4180.52981952,4161.2745997,116.00133098
do_nothing,4167.82678748,4159.65661878,4159.64202679,4133.35632103,4164.16083456,4176.60235033,4181.00420857,4172.65361757,4135.49376846,4180.29231613,4180.27702924,4181.1560735,4162.38335672,121.241312813
do_nothing,4168.79202684,4160.46719223,4160.50553063,4133.33607564,4164.69500113,4176.88977443,4180.54517448,4172.11945322,4135.49556764,4180.45198858,4179.96482204,4181.35502246,4163.26610813,128.665613896
do_nothing,4169.58502282,4161.19185046,4161.24411126,4133.32942411,4165.12788013,4176.88737333,4179.69209236,4171.20928292,4135.48762989,4180.32265737,4179.33172047,4181.16239013,4163.92132092,138.84027376
do_nothing,4170.2069358,4161.82951651,4161.85804668,4133.33575737,4165.46949786,4176.62486438,4178.50330067,4169.98246156,4135.46886338,4179.94172365,4178.40766399,4180.62278185,4164.35100144,152.254635151
do_nothing,4170.66086705,4162.3796752,4162.34888296,4133.35409815,4165.73074055,4176.13762601,4177.0449903,4168.50581004,4135.43860014,4179.35010642,4177.22751554,4179.78721158,4164.55997958,169.299322835
do_nothing,4170.9511837,4162.84195515,4162.71889768,4133.38316579,4165.92243884,4175.464714,4175.38810146,4166.85054995,4135.39663094,4178.58997288,4175.82962458,4178.71043716,4164.55513456,190.247704576
do_nothing,4171.08284888,4163.21571715,4162.97057754,4133.42144925,4166.0544723,4174.64677458,4173.60508544,4165.08911864,4135.34322361,4177.70247838,4174.25433523,4177.4482231,4164.34460631,215.241564634
do_nothing,4171.0607962,4163.49967491,4163.10614156,4133.46728489,4166.13494118,4173.72395065,4171.76667035,4163.29200015,4135.27912391,4176.7256208,4172.54249914,4176.05465356,4163.93703692,244.281562673
do_nothing,4170.88938462,4163.69157407,4163.12713871,4133.51893553,4166.16945016,4172.73387695,4169.93877035,4161.52470621,4135.20553898,4175.69230987,4170.7340514,4174.57961606,4163.34088582,277.222870712
do_nothing,4170.57196617,4163.78795275,4163.03414535,4133.57466731,4166.16054409,4171.70985686,4168.17967156,4159.84503586,4135.12410358,4174.62874355,4168.86670538,4173.06656963,4162.56385863,313.776185719
do_nothing,4170.11059319,4163.78400415,4162.82658281,4133.63282118,4166.10732936,4170.67930471,4166.53761654,4158.30073006,4135.03683057,4173.55317009,4166.97481641,4171.55069828,4161.61248447,353.51411313
do_nothing,4169.50588446,4163.67355648,4162.50266909,4133.69187634,4166.00530667,4169.66252643,4165.04889173,4156.92762112,4134.94604714,4172.4750976,4165.08845686,4170.05753353,4160.49186815,395.882713694
do_nothing,4168.75706123,4163.44917975,4162.05951131,4133.75050305,4165.84643091,4168.67189541,4163.7365003,4155.74835528,4134.85431935,4171.39499201,4163.2327347,4168.60210799,4159.20563414,440.217810736
do_nothing,4167.86215423,4163.10242191,4161.49333755,4133.80760325,4165.61940295,4167.71146227,4162.60947637,4154.77174151,4134.76436771,4170.30448122,4161.42737679,4167.18867766,4157.75606776,485.765475639
do_nothing,4166.81837294,4162.6241696,4160.79985826,4133.86233729,4165.31018557,4166.77701555,4161.66286759,4153.99275179,4134.67897683,4169.18705853,4159.68658513,4165.81102323,4156.14444743,531.705952885
do_nothing,4165.62261783,4162.0051213,4159.97473937,4133.9141363,4164.9027236,4165.85658893,4160.87838246,4153.39316839,4134.60090247,4168.01925424,4158.01916188,4164.45331367,4154.3715498,577.180157146
do_nothing,4164.27210727,4161.23635356,4159.01416201,4133.96270011,4164.37983674,4164.93138792,4160.22566871,4152.94284529,4134.53277927,4166.77222074,4156.4288865,4163.09148841,4152.43829867,621.317778923
do_nothing,4162.7650833,4160.30995491,4157.91543771,4134.0079813,4163.72424347,4163.97708955,4159.66416103,4152.60152331,4134.47703232,4165.4136558,4154.91511702,4161.69508936,4150.34651906,663.265976416
do_nothing,4161.10155485,4159.21969709,4156.67764396,4134.05015683,4162.91966714,4162.96545028,4159.14541079,4152.32111437,4134.43579562,4163.90997139,4153.47357713,4160.22945282,4148.09975017,702.21761178
do_nothing,4159.28403404,4157.96170949,4155.30224283,4134.08958896,4161.95196982,4161.86614337,4158.6157887,4152.04834937,4134.41084014,4162.22860188,4152.09728318,4158.65815332,4145.70406563,737.438009143
do_nothing,4157.31822017,4156.53512154,4153.79364493,4134.12677756,4160.81025715,4160.64873645,4158.01943504,4151.72766857,4134.4035138,4160.34033827,4150.77755864,4156.94557975,4143.1688474,768.289268874
do_nothing,4155.21358725,4154.9426373,4152.15968252,4134.16230659,4159.48789761,4159.28471344,4157.3013221,4151.30422299,4134.41469525,4158.22157216,4149.50508086,4155.0595176,4140.50746001,794.251266405
do_nothing,4152.9838344,4153.19100896,4150.41195909,4134.19678732,4157.98340188,4157.74944345,4156.4102893,4150.72685152,4134.44476292,4155.85633745,4148.27090412,4152.97361095,4137.73777608,814.938590199
do_nothing,4150.64716392,4151.29137943,4148.56604734,4134.23080124,4156.30111388,4156.02400117,4155.30191387,4149.95090001,4134.49358021,4153.23804558,4147.06740519,4150.66958323,4134.88250988,830.112826383
do_nothing,4148.22635965,4149.25946906,4146.64151454,4134.26484545,4154.4516722,4154.09675019,4153.94108807,4148.94075646,4134.56049725,4150.37082439,4145.88910269,4148.13910672,4131.96932506,839.689771169
do_nothing,4145.74864748,4147.1155884,4144.66176174,4134.29928314,4152.45221053,4151.96461161,4152.30418729,4147.671989,4134.6443691,4147.27038756,4144.73330854,4145.38522668,4129.03069291,843.741340773
do_nothing,4143.24533068,4144.8844661,4142.6536728,4134.33430182,4150.32627737,4149.63395426,4150.38073229,4146.13299195,4134.74358979,4143.96438324,4143.60057927,4142.4232666,4126.10349049,842.492144657
do_nothing,4140.75120409,4142.59488945,4140.64707813,4134.3698815,4148.10346763,4147.12106073,4148.17447142,4144.3260665,4134.85614104,4140.49219373,4142.49494539,4139.28116457,4123.22834061,836.310883101
do_nothing,4138.30376197,4140.27916344,4138.67404771,4134.40577488,4145.81877179,4144.45214186,4145.70383332,4142.26788678,4134.97965387,4136.90418249,4141.42390861,4135.99921595,4120.44870904,825.696917044
do_nothing,4135.94222451,4137.97240193,4136.76803579,4134.44150086,4143.51166088,4141.66289169,4143.00172717,4139.98932712,4135.11148125,4133.26040885,4140.39820802,4132.62922313,4117.80978608,811.262531017
do_nothing,4133.70641616,4135.71167164,4134.96290669,4134.47635217,4141.2249371,4138.79759457,4140.1146941,4137.53465253,4135.24877911,4129.62885306,4139.43136724,4129.23307711,4115.35718963,793.711562121
do_nothing,4131.63553577,4133.53501496,4133.29187633,4134.50941716,4139.00338997,4135.90781385,4137.10143935,4134.96009918,4135.38859326,4126.0832144,4138.53904423,4125.88081928,4113.13553512,773.815192936
do_nothing,4129.76686323,4131.48038258,4131.78640745,4134.53961507,4136.89230567,4133.05070825,4134.03079828,4132.33189547,4135.52794912,4122.7003622,4137.73821368,4122.64825161,4111.18692363,752.385799751
do_nothing,4128.13445049,4129.58450978,4130.47509906,4134.56574335,4134.93588344,4130.28703623,4130.97921034,4129.72379484,4135.6639414,4119.55753336,4137.04621908,4119.61418214,4109.54940364,730.249807412
do_nothing,4126.76784639,4127.88177335,4129.38261164,4134.58653524,4133.17561648,4127.67892091,4128.02779359,4127.21421044,4135.79382053,4116.72938139,4136.47973721,4116.85740789,4108.2554648,708.220526396
do_nothing,4125.69090574,4126.40306827,4128.52867019,4134.600725,4131.64869874,4125.28745981,4125.25912945,4124.88305913,4135.91507296,4114.28499101,4136.05370332,4114.45355138,4107.33062404,687.071935013
do_nothing,4124.92073262,4125.17474463,4127.92718684,4134.60711821,4130.38652037,4123.17027311,4122.75388323,4122.80843771,4136.02549264,4112.2849785,4135.78024926,4112.47187747,4106.79216498,667.514320931
do_nothing,4124.46680624,4124.21764556,4127.58554305,4134.60466399,4129.4133159,4121.37909128,4120.58739703,4121.06326603,4136.12324121,4110.77879999,4135.66770888,4110.97222387,4106.64809002,650.172614712
do_nothing,4124.33033307,4123.54628535,4127.50406698,4134.59252588,4128.74502597,4119.95748517,4118.82639738,4119.71203727,4136.20689486,4109.80238593,4135.71974445,4110.00217876,4106.89633961,635.568136052
do_nothing,4124.50386205,4123.16820297,4127.67573604,4134.57014822,4128.38842836,4118.93883952,4117.52595906,4118.80781549,4136.27547642,4109.37621063,4135.93464373,4109.59463278,4107.52432534,624.104333828
do_nothing,4124.97119056,4123.08352122,4128.08612645,4134.5373146,4128.34058471,4118.34466279,4116.72685889,4118.38961317,4136.32847151,4109.50389016,4136.30483076,4109.76582074,4108.50881247,616.056939617
do_nothing,4125.70757758,4123.28473466,4128.71362242,4134.4941955,4128.58863774,4118.18331454,4116.45343937,4118.48026799,4136.36582856,4110.17138259,4136.81662461,4110.51395041,4109.81617437,611.56877982
do_nothing,4126.68026853,4123.75674154,4129.52988778,4134.44138222,4129.10998012,4118.4492148,4116.71208263,4119.08491922,4136.38794284,4111.34684131,4137.45026955,4111.81849348,4111.40302752,610.649311903
do_nothing,4127.84932381,4124.47712636,4130.50059261,4134.37990498,4129.87280123,4119.12258137,4117.49037108,4120.19016005,4136.39562555,4112.98114602,4138.18024859,4113.64018769,4113.21723991,613.178772703
do_nothing,4129.16873056,4125.41669025,4131.58637704,4134.31123343,4130.83700278,4120.16971963,4118.75698337,4121.76391512,4136.39005935,4115.00910915,4138.97587958,4115.92177025,4115.19929087,618.916659991
do_nothing,4130.58776602,4126.54021709,4132.74402492,4134.23725877,4131.95545877,4121.5438674,4120.46234482,4123.75606317,4136.37274247,4117.35132737,4139.80218031,4118.58943303,4117.28394492,627.514121984
do_nothing,4132.05257002,4127.8074543,4133.92781087,4134.16025714,4133.17558065,4123.18657473,4122.54002019,4126.09979415,4136.34542356,4119.91662096,4140.62097604,4121.55495979,4119.40218843,638.529707394
do_nothing,4133.50787526,4129.17427857,4135.09097692,4134.08283484,4134.4411348,4125.02957588,4124.90880571,4128.71365925,4136.31003008,4122.60497919,4141.39221106,4124.71847714,4121.48336559,651.447829504
do_nothing,4134.89883648,4130.59400957,4136.18728845,4134.00785664,4135.69424752,4126.99708941,4127.47544784,4131.50424349,4136.26859292,4125.31090757,4142.07541523,4127.97172423,4123.45744035,665.699220867
do_nothing,4136.17289396,4132.01882819,4137.17261492,4133.9383592,4136.87752322,4129.00846337,4130.13788964,4134.36936404,4136.22317021,4127.92705518,4142.63126777,4131.20172311,4125.25730382,680.682604707
do_nothing,4137.2816032,4133.40125107,4138.00647817,4133.87745216,4137.9361951,4130.98106691,4132.78892361,4137.20167564,4136.17577314,4130.34798714,4143.02319476,4134.29471331,4126.82104242,695.786790569
do_nothing,4138.18236205,4134.69561041,4138.65351041,4133.82821033,4138.82022429,4132.83331785,4135.32011268,4139.89254757,4136.12829652,4132.47395962,4143.2189331,4137.1402014,4128.09408172,710.41241522
do_nothing,4138.83996885,4135.85948672,4139.08476649,4133.79356053,4139.48626418,4134.48772921,4137.62582925,4142.33606558,4136.08245634,4134.21455352,4143.19199391,4139.63497051,4129.03112386,723.992590565
do_nothing,4139.22795062,4136.85504433,4139.27883921,4133.77616727,4139.89941029,4135.87385528,4139.60725709,4144.43300645,4136.03973634,4135.49202771,4142.92296105,4141.68689553,4129.59780346,736.011782541
do_nothing,4139.32960794,4137.65022217,4139.22273326,4133.77832161,4140.03466373,4136.93102117,4141.17620126,4146.09463376,4136.00134531,4136.24426354,4142.40056654,4143.21841744,4129.77199765,746.022322807
do_nothing,4139.13873388,4138.21973859,4138.91246192,4133.8018377,4139.87804642,4137.61072723,4142.25855819,4147.24616932,4135.96818618,4136.42718778,4141.62249304,4144.16954345,4129.54473803,753.658042298
do_nothing,4138.65997573,4138.545875,4138.35334047,4133.8479614,4139.42731897,4137.87863133,4142.7973098,4147.829806,4135.94083775,4136.01658091,4140.59586409,4144.50025753,4128.92068792,758.644608672
do_nothing,4137.90882177,4138.6190115,4137.55996129,4133.91729529,4138.69226721,4137.71602748,4142.75492243,4147.80714354,4135.91954959,4135.00920003,4139.33739484,4144.19224735,4127.91816334,760.806250335
do_nothing,4136.91120889,4138.43789585,4136.5558469,4134.00974365,4137.69453956,4137.120758,4142.11505259,4147.16094896,4135.90424981,4133.42317072,4137.87318881,4143.24987882,4126.56869303,760.068662664
do_nothing,4135.70276157,4138.00963665,4135.37278925,4134.12448059,4136.46703466,4136.10751793,4140.88348744,4145.89616766,4135.89456551,4131.29762839,4136.2381798,4141.70037651,4124.91612899,756.458018788
do_nothing,4134.32768627,4137.34942133,4134.04989507,4134.25994356,4135.05285619,4134.70753372,4139.08827628,4144.04013868,4135.88985462,4128.69161766,4134.4752315,4139.59319789,4123.01533547,750.096144546
do_nothing,4132.837359,4136.47996918,4132.63236843,4134.41385347,4133.50386877,4132.96762217,4136.77903974,4141.64199663,4135.88924773,4125.68228501,4132.63392111,4136.99861869,4120.93050003,741.192058793
do_nothing,4131.28865518,4135.43073959,4131.17007157,4134.58326182,4131.87890417,4130.94865915,4134.02547386,4138.7712723,4135.89169803,4122.36242615,4130.76904513,4134.0055756,4118.73312356,730.030219381
do_nothing,4129.74208089,4134.23692392,4129.71591389,4134.76462381,4130.24168107,4128.72351024,4130.91509697,4135.51573416,4135.89603698,4118.83747243,4128.93889725,4130.7188396,4116.49975833,716.955945105
do_nothing,4128.25977232,4132.93825712,4128.3241256,4134.95389549,4128.6585133,4126.37449595,4127.5503157,4131.97854094,4135.90103333,4115.22202116,4127.20337727,4127.25561733,4114.30957153,702.358598316
do_nothing,4126.90343504,4131.57769111,4127.04847702,4135.14665188,4127.19589033,4123.9904823,4124.04491267,4128.27480206,4135.9054531,4111.6360305,4125.62199747,4123.7416979,4112.2418177,686.653206324
do_nothing,4125.73229665,4130.19997631,4125.94050665,4135.33822179,4125.91801993,4121.66370214,4120.52008008,4124.52766471,4135.90811778,4108.20081127,4124.25185727,4120.30727888,4110.37330591,670.261267121
do_nothing,4124.80114555,4128.85020028,4125.04782046,4135.52383471,4124.88442481,4119.48642316,4117.10014046,4120.86406427,4135.90795874,4105.03495463,4123.14565913,4117.08261559,4108.77594697,653.591523186
do_nothing,4124.15852428,4127.57233342,4124.41252192,4135.69877418,4124.14768377,4117.54758416,4113.90810801,4117.41028792,4135.90406539,4102.25033632,4122.34983742,4114.19364396,4107.51446252,637.021493567
do_nothing,4123.84513975,4126.40783071,4124.06982718,4135.85853181,4123.75140235,4115.92952297,4111.06125128,4114.28750945,4135.89572552,4099.94833527,4121.9028688,4111.75772756,4106.64433115,620.880528585
do_nothing,4123.8925434,4125.39433575,4124.04691228,4135.99895601,4123.72848999,4114.70491591,4108.66681882,4111.60745531,4135.88245634,4098.21639611,4121.83382632,4109.87967414,4106.21003823,605.435093786
do_nothing,4124.32212408,4124.56452928,4124.3620307,4136.11638966,4124.09980925,4113.93404168,4106.81808486,4109.46835945,4135.86402528,4097.12505313,4122.16123118,4108.64815695,4106.24368427,590.876902323
do_nothing,4125.14444456,4123.9451584,4125.02392909,4136.20779161,4124.8732499,4113.66247163,4105.59086201,4107.95135496,4135.84046009,4096.72551656,4122.89224548,4108.13266159,4106.76399418,577.314401167
