label,COUNTER,INTERPOLATED,AF3,F7,F3,FC5,T7,P7,O1,O2,P8,T8,FC6,F4,F8,AF4,RAW_CQ,GYROX,GYROY,MARKER,SYNC,TIME_STAMP_s,TIME_STAMP_ms,CQ_AF3,CQ_F7,CQ_F3,CQ_FC5,CQ_T7,CQ_P7,CQ_O1,CQ_O2,CQ_P8,CQ_T8,CQ_FC6,CQ_F4,CQ_F8,CQ_AF4,CQ_CMS,CQ_DRL
off_to_on,4468.12885092,4324.26290373,4157.19487273,4131.19998299,4500.71945826,4635.53889741,4794.45374198,4709.10343371,4136.04815599,4267.95864265,4477.97226244,4627.89758552,4537.88316486,-72.3222333426
off_to_on,4470.5213299,4326.60291324,4157.86297264,4131.34606978,4503.15390302,4637.66316242,4796.05003122,4711.28575656,4136.02649752,4269.29664297,4470.62132359,4629.12450219,4539.05556104,-49.2689661376
off_to_on,4471.79476333,4328.33350229,4158.49277383,4131.49604641,4504.44648718,4638.13995318,4795.45396069,4711.67016322,4136.01052032,4270.22233007,4462.33598269,4628.70097471,4538.87804741,-25.7933596616
off_to_on,4471.9203575,4329.43108306,4159.07678127,4131.64951575,4504.55599859,4636.92263499,4792.60458456,4710.23483504,4136.00019017,4270.72521806,4453.42884139,4626.59266966,4537.32744702,-2.626269906
off_to_on,4470.89072583,4329.88291285,4159.60721821,4131.80604443,4503.46542251,4633.99867497,4787.48414337,4706.98926081,4135.99532341,4270.80247842,4444.20543716,4622.79699267,4534.40751922,19.5612602822
off_to_on,4468.72099068,4329.68801157,4160.07640963,4131.96515453,4501.18332669,4629.39134357,4780.120555,4701.97544729,4135.9956033,4270.45936132,4434.95578553,4617.34469663,4530.15008912,40.183919278
off_to_on,4465.44932846,4328.85781466,4160.477186,4132.12631778,4497.74455438,4623.16047046,4770.58876172,4695.26841375,4136.00060043,4269.70942681,4425.94683742,4610.30067938,4524.61546544,58.7647589542
off_to_on,4461.13691313,4327.41652232,4160.80328915,4132.28895257,4493.21017899,4615.40219326,4759.01083416,4686.97590822,4136.00979613,4268.57456766,4417.41606865,4601.763898,4517.89209525,74.9536246678
off_to_on,4455.86723136,4325.40111436,4161.0497617,4132.45242477,4487.66669802,4606.24767002,4745.55476994,4677.237304,4136.02260778,4267.08481172,4409.56637156,4591.8663532,4510.09542752,88.5406237529
off_to_on,4449.74476256,4322.86101011,4161.2133016,4132.61605229,4481.22446895,4595.86075946,4730.43196618,4666.22165901,4136.03841505,4265.27789828,4402.56236601,4580.77112695,4501.36598342,99.4640640927
off_to_on,4442.89303778,4319.85736468,4161.29256448,4132.77911384,4474.01541535,4584.43470832,4713.89338888,4654.12494689,4136.05658589,4263.19863058,4396.52819293,4568.66948865,4491.86665798,107.812508287
off_to_on,4435.45211279,4316.46200497,4161.28839855,4132.94086162,4466.19005684,4572.18791875,4696.22450692,4641.16649592,4136.07650129,4260.89801405,4391.54679832,4555.77711781,4481.77930593,113.820817455
off_to_on,4427.57551137,4312.75602195,4161.20399928,4133.1005374,4457.91393992,4559.3589015,4677.73910319,4627.58470029,4136.09757798,4258.43219785,4387.66066203,4542.32952322,4471.30069022,117.860295497
off_to_on,4419.4267139,4308.82804819,4161.04497448,4133.25739154,4449.36356784,4546.20054918,4658.77211583,4613.63209366,4136.11928804,4255.86124387,4384.87387492,4528.57676791,4460.6378957,120.423280139
off_to_on,4411.17528261,4304.7722607,4160.81931394,4133.41070373,4440.72194487,4532.97388705,4639.67169749,4599.5698982,4136.14117508,4253.24775362,4383.15542091,4514.77763386,4450.00332927,122.102748917
off_to_on,4402.99272612,4300.68615811,4160.53726141,4133.5598045,4432.17386107,4519.94147412,4620.79070442,4585.66217832,4136.16286631,4250.65538737,4382.44347784,4501.19337793,4439.60944064,123.567707291
off_to_on,4395.0482133,4296.66816802,4160.21109034,4133.70409654,4423.90104939,4507.36063459,4602.47784169,4572.16973831,4136.18408028,4248.14731281,4382.65051515,4488.08124112,4429.66330455,125.535297073
off_to_on,4387.50424857,4292.81514429,4159.85478784,4133.84307473,4416.07734673,4495.47669977,4585.06869538,4559.3439073,4136.20463015,4245.78462173,4383.66893914,4475.68787742,4420.36120636,128.740699348
off_to_on,4380.51242073,4289.21981751,4159.48365493,4133.97634395,4408.86398752,4484.5164369,4568.87688246,4547.42035555,4136.22442241,4243.62475366,4385.377021,4464.24286926,4411.88337117,133.905998646
off_to_on,4374.20933554,4285.96826397,4159.11383423,4134.10363359,4402.40515318,4474.68183512,4554.1855457,4536.61308632,4136.24345136,4241.71996559,4387.64484034,4453.95249465,4404.38897307,141.709220415
off_to_on,4368.71283902,4283.13746017,4158.76177921,4134.22480792,4396.8238946,4466.14441073,4541.2394155,4527.10874671,4136.26178954,4240.11588668,4390.3399883,4444.99390816,4398.01155637,152.754752817
off_to_on,4364.11863437,4280.79299068,4158.44368237,4134.33987152,4392.21853707,4459.04018514,4530.2376529,4519.06140051,4136.27957481,4238.85019621,4393.3327969,4437.50989366,4392.85499481,167.54631651
off_to_on,4360.49738913,4278.98697695,4158.17488156,4134.44896925,4388.65966813,4453.46547703,4521.32767778,4512.58790378,4136.29699462,4237.95146199,4396.50089566,4431.60433963,4388.99010656,186.463551493
off_to_on,4357.89242148,4277.7562926,4157.96926616,4134.55238073,4386.18779722,4449.47363598,4514.6001709,4507.76401994,4136.31426845,4237.4381747,4399.73293778,4427.33857851,4386.45203253,209.743151815
off_to_on,4356.31804343,4277.1211271,4157.83870521,4134.65050926,4384.81176256,4447.07282635,4510.08541848,4504.62140279,4136.33162939,4237.31801055,4402.93138558,4424.72871687,4385.2384715,237.465305478
off_to_on,4355.75862494,4277.08395291,4157.7925205,4134.74386567,4384.50794382,4446.22494794,4507.75114057,4503.14556368,4136.34930564,4237.58735055,4406.01429483,4423.74406476,4385.30884782,269.54599504
off_to_on,4356.16842635,4277.62894304,4157.83702628,4134.83304776,4385.22032066,4446.84575418,4507.50191212,4503.27492147,4136.36750307,4238.23107953,4408.91608905,4424.30674854,4386.58446664,305.735489442
off_to_on,4357.47222787,4278.72187487,4157.97515597,4134.91871627,4386.86139625,4448.80619912,4509.18024717,4504.90101253,4136.38638961,4239.22268149,4411.5873636,4426.29256374,4388.94968757,345.623118285
off_to_on,4359.56676399,4280.31054323,4158.20619344,4135.00156835,4389.31398264,4451.93501322,4512.56937456,4507.86991124,4136.40608209,4240.52464064,4413.99380557,4429.53309258,4392.25412079,388.648178434
off_to_on,4362.32294869,4282.32569163,4158.52562331,4135.08230954,4392.43382154,4456.02247418,4517.39768789,4511.98488182,4136.42663621,4242.0891491,4416.11435448,4433.81907627,4396.31582137,434.116588976
off_to_on,4365.58885435,4284.68245468,4158.92511036,4135.1616254,4396.05299063,4460.82530489,4523.34480443,4517.01024842,4136.44803989,4243.85911369,4417.93876087,4438.90499502,4400.92542783,481.222690495
off_to_on,4369.19338442,4287.28228919,4159.39261352,4135.24015361,4399.98402199,4466.07259615,4530.04911891,4522.67643424,4136.47021026,4245.76944476,4419.46472282,4444.5147716,4405.85116137,529.075386822
off_to_on,4372.95055693,4290.01535469,4159.91263474,4135.31845761,4404.02463684,4471.47261867,4537.11668905,4528.68608286,4136.49299444,4247.74860107,4420.69479402,4450.3484767,4410.84457363,576.72766237
off_to_on,4376.66429555,4292.7632889,4160.46659725,4135.39700274,4407.96298011,4476.72035784,4544.1312437,4534.72113735,4136.51617401,4249.72035564,4421.6332604,4456.08987863,4415.64690351,623.208382193
off_to_on,4380.13360505,4295.40230835,4161.03334272,4135.47613557,4411.58321939,4481.50557712,4550.66506138,4540.45071603,4136.53947289,4251.60573909,4422.28317621,4461.41464753,4419.9958797,667.555196897
off_to_on,4383.15799256,4297.80655102,4161.58973147,4135.55606748,4414.67135781,4485.52119299,4556.29043046,4545.53959046,4136.56256843,4253.32510977,4422.64373398,4465.99899539,4423.63278474,708.847333503
off_to_on,4385.54298315,4299.85156668,4162.11132569,4135.63686306,4417.02109846,4488.4717267,4560.59137209,4549.65704198,4136.5851051,4254.80029349,4422.70811886,4469.52851055,4426.30958121,746.237060462
off_to_on,4387.10557039,4301.41785196,4162.57313203,4135.71843424,4418.43959123,4490.08158781,4563.17528606,4552.48584951,4136.60671015,4255.95673146,4422.46196642,4471.70693005,4427.79589116,778.978669829
off_to_on,4387.67943941,4302.39432224,4162.95037747,4135.80054059,4418.75289131,4490.10294137,4563.68416978,4553.73114621,4136.62701059,4256.72557214,4421.88250697,4472.26458528,4427.88561719,806.453916762
off_to_on,4387.11980256,4302.68161097,4163.21929083,4135.88279621,4417.81096311,4488.3229165,4561.80506239,4553.12887506,4136.64565051,4257.04564277,4420.93844108,4470.96625891,4426.4029985,828.192991959
off_to_on,4385.30769512,4302.19508951,4163.35786172,4135.96468317,4415.49207299,4484.56992766,4557.27938016,4550.45357621,4136.66230798,4256.86523783,4419.59055111,4467.618201,4423.20790702,843.890273768
off_to_on,4382.15359111,4300.86750638,4163.34654992,4136.04557104,4411.70642998,4478.71890237,4549.91083525,4545.52525041,4136.67671055,4256.14366598,4417.79301476,4462.07407196,4418.20020712,853.414306634
off_to_on,4377.60021659,4298.65115457,4163.16891917,4136.1247419,4406.39895354,4470.69523822,4539.57166658,4538.21506335,4136.68864856,4254.85250303,4415.49534993,4454.23960693,4411.323027,856.811670605
off_to_on,4371.62445992,4295.51948844,4162.81217276,4136.20141958,4399.5510728,4460.47734853,4526.20695883,4528.44968534,4136.69798563,4252.97650653,4412.64488736,4444.07583143,4402.56481983,854.304634217
off_to_on,4364.23830491,4291.46812802,4162.26757158,4136.27480196,4391.1814902,4448.09769791,4509.83688241,4516.21409919,4136.70466557,4250.51415771,4409.18964066,4431.60070094,4391.96012899,846.282714187
off_to_on,4355.48874313,4286.51520828,4161.53071992,4136.34409469,4381.34587461,4433.64227622,4490.55675236,4501.552755,4136.70871548,4247.47780802,4405.08142312,4416.88908645,4379.58901196,833.288491307
off_to_on,4345.4566546,4280.70105219,4160.60170932,4136.40854472,4370.13548268,4417.2485086,4468.53487461,4484.56900342,4136.71024468,4243.8934206,4400.27904844,4400.07108212,4365.57512158,815.998241197
off_to_on,4334.25468038,4274.08716964,4159.48511617,4136.46747213,4357.674742,4399.10165085,4444.00822233,4465.42279518,4136.70943959,4239.79991041,4394.75144897,4381.32866849,4350.08248867,795.198123315
off_to_on,4322.02414504,4266.75460778,4158.18985454,4136.52029865,4344.11786348,4379.4297697,4417.27605834,4444.32669416,4136.70655461,4235.24810062,4388.48054848,4360.89082113,4333.31109534,771.756827972
off_to_on,4308.93111987,4258.80170121,4156.728891,4136.56657155,4329.64458337,4358.49745589,4388.69169066,4421.54030916,4136.70189962,4230.29932588,4381.46373851,4339.02720997,4315.49137042,746.595703358
off_to_on,4295.16174799,4250.34129168,4155.11883354,4136.60598178,4314.45516467,4336.59846206,4358.65261331,4397.36330557,4136.69582453,4225.02372555,4373.71582536,4316.0406839,4296.8777772,720.657465802
off_to_on,4280.91697839,4241.49750617,4153.37941116,4136.63837538,4298.76481335,4314.0474947,4327.58934051,4372.12720864,4136.68870185,4219.49828049,4365.27033851,4292.25877889,4277.74169553,694.874633982
off_to_on,4266.40687673,4232.40219772,4151.53286451,4136.66375763,4282.79768496,4291.17141916,4295.95328841,4346.18625279,4136.68090794,4213.80465603,4356.18011916,4268.02452187,4258.36382523,670.138823391
off_to_on,4251.84469503,4223.19116522,4149.60327093,4136.68228958,4266.78067076,4268.30015627,4264.20409116,4319.9075654,4136.67280411,4208.02692006,4346.51713889,4243.68682661,4239.02635396,647.271990819
off_to_on,4237.44088989,4214.00027578,4147.61582902,4136.69427736,4250.93715954,4245.75755904,4232.7967563,4293.6609964,4136.66471821,4202.24920905,4336.37153102,4219.5907905,4220.00513949,627.000626253
off_to_on,4223.39727955,4204.96161614,4145.59612892,4136.70015445,4235.48097034,4223.85255647,4202.16906867,4267.80891671,4136.65692786,4196.55341633,4325.84985048,4196.06820242,4201.56215483,609.933752502
off_to_on,4209.90152377,4196.19979747,4143.56943383,4136.70045806,4220.61064447,4202.87084061,4172.72964055,4242.69630854,4136.64964602,4191.01697518,4315.07261014,4173.42856194,4183.93843297,596.545421383
off_to_on,4197.12209765,4187.82853155,4141.55999754,4136.69580039,4206.50427052,4183.0673521,4144.8469806,4218.64145867,4136.64300952,4185.71080555,4304.17117071,4151.95088869,4167.34772907,587.162204845
off_to_on,4185.20391179,4179.94758559,4139.59044005,4136.68683623,4193.3149963,4164.65978923,4118.83991508,4195.92754259,4136.63707115,4180.69748657,4293.2840872,4131.87657031,4151.97109004,581.955982625
off_to_on,4174.26470698,4172.64020806,4137.6812006,4136.67422844,4181.16735548,4147.82332757,4094.96964364,4174.795354,4136.63179545,4176.02970824,4282.55303604,4113.40345723,4137.95248785,580.942133454
off_to_on,4164.39232301,4165.97110042,4135.85008386,4136.65861316,4170.15450716,4132.68669298,4073.43365134,4155.43739128,4136.62705839,4171.74904548,4272.11846322,4096.68136648,4125.39563375,583.983052669
off_to_on,4155.64291006,4159.98498959,4134.11191056,4136.64056652,4160.33645321,4119.32968185,4054.36163117,4137.9934638,4136.62265059,4167.88508585,4262.11510497,4081.80910556,4114.36204873,590.796752593
off_to_on,4148.04011742,4154.70583416,4132.47827996,4136.62057484,4151.73926448,4107.78217186,4037.81350042,4122.54792636,4136.61828412,4164.45492955,4252.66753847,4068.83307333,4104.87042138,600.970154746
off_to_on,4141.57526091,4150.13667551,4130.9574464,4136.59901006,4144.35531219,4098.02461582,4023.77952252,4109.12859447,4136.61360213,4161.46306762,4243.88592073,4057.74744133,4096.89724122,613.976549316
off_to_on,4136.20843792,4146.2601228,4129.55430841,4136.5761115,4138.14446882,4089.98996285,4012.18247633,4097.70733643,4136.60819112,4158.90163155,4235.86206949,4048.49586599,4090.37865373,629.196573943
off_to_on,4131.87052829,4143.03944,4128.27050409,4136.55197522,4133.03621227,4083.56690633,4002.88174857,4088.2022837,4136.60159502,4156.75099546,4228.66603054,4040.97463359,4085.21344499,645.941955399
off_to_on,4128.46599192,4140.4201835,4127.10460308,4136.5265514,4128.9325401,4078.60431799,3995.67916566,4080.48155,4136.59333069,4154.98070106,4222.34326111,4035.03709545,4081.26702926,663.481172638
off_to_on,4125.87635064,4138.33232206,4126.05238213,4136.49964991,4125.7115781,4074.91669302,3990.32632859,4074.36830274,4136.5829041,4153.550666,4216.91254022,4030.49921268,4078.37628389,681.066143739
off_to_on,4123.96422243,4136.69275656,4125.10716883,4136.47095417,4123.23174836,4072.29040397,3986.533173,4069.6469912,4136.56982664,4152.41262804,4212.36469323,4027.14599909,4076.35505276,697.95901528
off_to_on,4122.57776271,4135.40814648,4124.26023617,4136.44004235,4121.33634939,4070.4905417,3983.97744575,4066.07050341,4136.55363102,4151.51177152,4208.66219186,4024.7386287,4075.00012365,713.45814207
off_to_on,4121.55535919,4134.37794358,4123.50123003,4136.40641526,4119.85839356,4069.26811166,3982.31477206,4063.3680026,4136.53388619,4150.7884791,4205.73966252,4023.02196167,4074.09747696,726.922383574
off_to_on,4120.73042546,4133.49753025,4122.81861142,4136.36952921,4118.62554582,4068.36735295,3981.18898295,4061.25318197,4136.51021098,4150.18015022,4203.5053065,4021.73224016,4073.42860355,737.792902202
off_to_on,4119.93614233,4132.66136202,4122.20009661,4136.32883211,4117.46501324,4067.53295583,3980.24238084,4059.43267602,4136.48228591,4149.62302912,4201.84320603,4020.60471292,4072.77669753,745.611722581
off_to_on,4119.01000594,4131.76601834,4121.63307965,4136.28380081,4116.20824476,4066.51696962,3979.12564117,4057.61437496,4136.44986311,4149.05398791,4200.61646213,4019.38096372,4071.9325449,750.036403407
off_to_on,4117.79805642,4130.71307448,4121.10502409,4136.2339776,4114.6953162,4065.08521589,3977.50707745,4055.51540671,4136.41277404,4148.41221569,4199.67108356,4017.81574325,4070.69995065,750.850291311
off_to_on,4116.15867931,4129.41171825,4120.60381345,4136.17900372,4112.77889384,4063.02305025,3975.08103545,4052.86957534,4136.37093485,4147.64077064,4198.84052212,4015.68313395,4068.90057236,747.967971801
off_to_on,4113.96589389,4127.78104787,4120.11805263,4136.11864814,4110.32769085,4060.14034777,3971.57522631,4049.43407556,4136.32434959,4146.68795987,4197.95072797,4012.78191169,4066.37805748,741.435702034
off_to_on,4111.11206553,4125.75200188,4119.63731551,4136.05282984,4107.22935351,4056.27562136,3966.75685637,4044.99533701,4136.27311102,4145.50851956,4196.8255806,4008.94000415,4063.00141144,731.426796499
off_to_on,4107.51000342,4123.26888608,4119.15233708,4135.98163249,4103.39273672,4051.29921723,3960.43746084,4039.373889,4136.21739938,4144.06457683,4195.29253626,4004.01798239,4058.66755356,718.232130858
off_to_on,4103.09442805,4120.29047784,4118.65515091,4135.9053107,4098.74955073,4045.11556504,3952.47639664,4032.42817324,4136.15747906,4142.32638247,4193.18832231,3997.91155699,4053.30304642,702.246122322
off_to_on,4097.82281521,4116.79070172,4118.13917536,4135.8242875,4093.25538111,4037.66449162,3942.78299431,4024.05726828,4136.09369358,4140.27281171,4190.36450287,3990.5530829,4046.86501043,683.94872783
off_to_on,4091.67564226,4112.75888352,4117.59925382,4135.73914331,4086.89010194,4028.92163384,3931.31740832,4014.20252199,4136.02645895,4137.89163702,4186.69273936,3981.91210552,4039.34125828,663.884165636
off_to_on,4084.65607876,4108.19960124,4117.03165575,4135.65059682,4079.65771675,4018.89800862,3918.09023826,4002.84811859,4135.95625567,4135.17958282,4182.06957384,3971.99500513,4030.74970278,642.637203769
off_to_on,4076.78917614,4103.13216118,4116.43404592,4135.55947864,4071.5856732,4007.63881518,3903.16101945,3990.02063106,4135.88361991,4132.14217708,4176.42057329,3960.84381637,4021.13710716,620.807963872
off_to_on,4068.12062026,4097.58973559,4115.80543002,4135.46669907,4062.72370556,3995.22155685,3886.63570117,3975.78763123,4135.80913392,4128.7934184,4169.70368888,3948.53431379,4010.57725781,598.986255916
off_to_on,4058.71511642,4091.61820486,4115.14608423,4135.37321118,4053.14226434,3981.7535778,3868.66324396,3960.25544591,4135.73341634,4125.15527994,4161.91170583,3935.1734645,3999.16864657,577.726485018
off_to_on,4048.65447897,4085.27475147,4114.45747605,4135.27997109,4042.93059551,3967.3691137,3849.43147477,3943.56615994,4135.65711262,4121.25707322,4153.07368597,3920.89635417,3987.03175344,557.52415439
off_to_on,4038.03549787,4078.62625663,4113.74218272,4135.18789673,4032.19453218,3952.22595581,3829.16234111,3925.89397542,4135.58088595,4117.13469539,4143.25533569,3905.86269442,3974.30602085,538.794928758
off_to_on,4026.96765162,4071.74755127,4113.00381209,4135.09782709,4021.05406133,3936.50182539,3808.10670328,3907.44104146,4135.50540896,4112.82978362,4132.55826582,3890.25301771,3961.14660839,521.857122572
off_to_on,4015.57073143,4064.71957315,4112.2469294,4135.01048328,4009.64072558,3920.3905504,3786.53879845,3888.43287016,4135.43135628,4108.38879983,4121.11814569,3874.26466204,3947.7210121,506.918341012
off_to_on,4003.97243457,4057.6274801,4111.47699195,4134.92643311,3998.09491693,3904.09812911,3764.75050254,3869.11345303,4135.35939806,4103.86206769,4109.10178928,3858.10764039,3934.20562566,494.066834663
off_to_on,3992.30597656,4050.55876593,4110.70029192,4134.84606052,3986.56311518,3887.83875721,3743.04550627,3849.7401886,4135.29019446,4099.30278259,4096.70324713,3842.00048171,3920.78231278,483.267937753
off_to_on,3980.70776307,4043.60142209,4109.92390638,4134.76954104,3975.1951194,3871.83088595,3721.73351145,3830.57872584,4135.22439094,4094.76601333,4084.13901086,3826.16611989,3907.63505096,474.365752827
off_to_on,3969.31515393,4036.84218284,4109.15565194,4134.69682435,3964.14131625,3856.29336997,3701.12454206,3811.89782162,4135.16261426,4090.30771256,4071.64246736,3810.8278968,3894.94669796,467.090030359
off_to_on,3958.26434296,4030.36488668,4108.40404071,4134.62762479,3953.55002449,3841.44175492,3681.5234541,3793.96430245,4135.10546874,4085.98375077,4059.4577666,3796.20573491,3882.89592325,461.067978894
off_to_on,3947.68837064,4024.2489813,4107.67823324,4134.56142043,3943.5649509,3827.48474736,3663.22471628,3777.03821266,4135.05353273,4081.84898705,4047.83328745,3782.51252497,3871.65433815,455.840538724
off_to_on,3937.71528018,4018.56819341,4106.98798352,4134.49746125,3934.32278894,3814.62090256,3646.50752425,3761.36822273,4135.00735474,4077.95638775,4037.01490135,3769.95076541,3861.38385122,450.882468224
off_to_on,3928.46642278,4013.38937945,4106.34357113,4134.43478652,3925.95098842,3803.03556023,3631.63130101,3747.18736275,4134.96744915,4074.35620258,4027.23924212,3758.70948194,3852.2342684,445.625434387
off_to_on,3920.05491378,4008.7715676,4105.755716,4134.37225138,3918.56572098,3792.89805295,3618.83162847,3734.70913739,4134.93429123,4071.09520607,4018.72719085,3748.96144913,3844.34115211,439.483174234
off_to_on,3912.58423875,4004.76519612,4105.23547148,4134.3085623,3912.27006365,3784.3592086,3608.31664704,3724.12407008,4134.9083114,4068.21601108,4011.67777899,3740.86072947,3837.8239488,431.877706839
off_to_on,3906.14700684,4001.41154857,4104.79409279,4134.24232042,3907.1524197,3777.54916473,3600.26395401,3715.59671519,4134.88988883,4065.75645944,4006.26269872,3734.54054071,3832.78439069,422.265530081
off_to_on,3900.82384815,3998.74238163,4104.44287897,4134.17207185,3903.285194,3772.57551106,3594.81802601,3709.26316921,4134.87934436,4063.74909421,4002.62159,3730.11145833,3829.3051751,410.162733877
off_to_on,3896.68245345,3996.77973857,4104.19298821,4134.09636341,3900.72373778,3769.52177541,3592.08818678,3705.22910426,4134.87693317,4062.22071701,4000.85824754,3727.65995829,3827.4489231,395.168002428
off_to_on,3893.77675616,3995.53593817,4104.05522797,4134.01380207,3899.50557575,3768.4462676,3592.14713834,3703.56834058,4134.88283722,4061.19203354,4001.0378608,3727.24730438,3827.25741929,376.982560343
off_to_on,3892.14626017,3995.0137277,4104.03982322,4133.92311617,3899.64992629,3769.38129532,3595.03007021,3704.32196864,4134.89715774,4060.67738998,4003.18536631,3728.90878482,3828.75113486,355.426237799
off_to_on,3891.81552026,3995.20658716,4104.15616784,4133.82321621,3901.15752322,3772.3327654,3600.73435806,3707.49802542,4134.91990819,4060.68460274,4007.28495537,3732.65330393,3831.92903701,330.448983335
off_to_on,3892.7937852,3996.0991714,4104.41256564,4133.71325304,3904.01074425,3777.28018169,3609.21985866,3713.07172373,4134.95100774,4061.21488394,4013.28074309,3738.46333494,3836.76868854,302.137333076
off_to_on,3895.07481642,3997.66787603,4104.81596912,4133.59267099,3908.17404783,3784.17704847,3620.40980184,3720.98622685,4134.99027565,4062.26286416,4021.07856691,3746.29523963,3843.22664094,270.715544829
off_to_on,3898.6368967,3999.88151255,4105.3717247,4133.46125384,3913.59471571,3792.95168416,3634.1922731,3731.15395391,4135.03742686,4063.81671371,4030.54884641,3756.07995931,3851.23912348,236.541316563
off_to_on,3903.44304381,4002.70207767,4106.08333421,4133.31916145,3920.20389343,3803.508445,3650.42227131,3743.45839402,4135.09206895,4065.85836225,4041.53040171,3767.72407831,3860.72302811,200.096222701
off_to_on,3909.44144268,4006.08560112,4106.95224238,4133.16695536,3927.91791518,3815.72935126,3668.92431609,3757.75639871,4135.15370091,4068.36381557,4053.83509759,3781.11125787,3871.57718731,161.971209861
off_to_on,3916.56610712,4009.98305605,4107.97766017,4133.00561201,3936.63989361,3829.47610115,3689.49556874,3773.88091437,4135.22171376,4071.30356684,4067.25315533,3796.10403275,3883.68393742,122.847688037
off_to_on,3924.73777764,4014.3413156,4109.15643291,4132.83652247,3946.26154873,3844.59244824,3711.9094202,3791.64410766,4135.29539342,4074.64309799,4081.5589547,3812.54595734,3896.91095566,83.4749258245
off_to_on,3933.8650563,4019.10413917,4110.48296163,4132.66147818,3956.66524398,3860.90690976,3735.91948895,3810.84082924,4135.3739259,4078.34346527,4096.51713648,3830.26408081,3911.11335282,44.6446026534
off_to_on,3943.84577327,4024.21317158,4111.94918417,4132.48264261,3967.72619177,3878.23576328,3761.26396193,3831.25235346,4135.45640501,4082.36196088,4111.88881004,3849.07172272,3926.13599739,7.16348133668
off_to_on,3954.56857232,4029.60893833,4113.54462123,4132.30250928,3979.31478508,3896.38628059,3787.67020166,3852.65032498,4135.54184253,4086.65284087,4127.43767185,3868.77151183,3941.81603954,-28.1747634731
off_to_on,3965.91469566,4035.23182037,4115.25649038,4132.12384719,3991.29900753,3915.16013909,3814.85953409,3874.80083718,4135.62918097,4091.16810702,4142.93584805,3889.15864178,3957.98559578,-60.6174936961
off_to_on,3977.75994071,4041.0229918,4117.06988868,4131.94963499,4003.54687021,3934.3569433,3842.5521235,3897.46856207,4135.71730873,4095.85832875,4158.16928784,3910.02428793,3974.47454802,-89.4797752445
off_to_on,3989.9767543,4046.92530457,4118.96804199,4131.78298571,4015.92882099,3953.7777825,3870.47183423,3920.42084723,4135.80507748,4100.67348905,4172.94255326,3931.15912129,3991.11340358,-114.168755266
off_to_on,4002.43642291,4052.88410505,4120.9326166,4131.62706395,4028.32007083,3973.22874562,3898.35097423,3943.43169365,4135.89132155,4105.56383688,4187.08287459,3952.35684806,4007.73615744,-134.204824875
off_to_on,4015.0113117,4058.8479684,4122.94408611,4131.48499778,4040.60278156,3992.52431179,3925.93481413,3966.28552787,4135.97487888,4110.48072783,4200.44336891,3973.41769813,4024.183094,-149.238760306
off_to_on,4027.57710085,4064.76933907,4124.98214387,4131.35978785,4052.6680623,4011.49053513,3952.98577705,3988.78068551,4136.05461312,4115.37743414,4212.90535042,3994.15178263,4040.3034641,-159.064181205
off_to_on,4040.01496464,4070.60506747,4127.02614975,4131.25421642,4064.41772575,4029.96794566,3979.28720073,4010.73252877,4136.12943648,4120.20990565,4224.37969424,4014.38224114,4055.95797354,-163.624835275
off_to_on,4052.21363839,4076.31683594,4129.05559767,4131.17075903,4075.76576236,4047.81409462,4004.64658354,4031.97612956,4136.1983325,4124.93746425,4234.80724936,4033.94810137,4071.02102257,-163.016407972
off_to_on,4064.07131924,4081.87146959,4131.05058976,4131.11150184,4086.63949789,4064.90568169,4028.89823909,4052.36846121,4136.2603784,4129.52341559,4244.15832893,4052.7067804,4085.38264061,-157.482755588
off_to_on,4075.49734999,4087.24113084,4132.99230241,4131.07806738,4096.98040966,4081.14021259,4051.90530054,4071.79005476,4136.31476616,4133.93556432,4252.43133777,4070.53616525,4098.9500684,-147.406659368
off_to_on,4086.41364081,4092.40339926,4134.86342914,4131.07155154,4106.74458591,4096.43714888,4073.56103414,4090.14609075,4136.36082181,4138.14662164,4259.65062454,4087.33622186,4111.64894869,-133.295392557
off_to_on,4096.75579007,4097.3412412,4136.6485865,4131.0924741,4115.90282318,4110.73852546,4093.78944082,4107.36691298,4136.39802229,4142.13449693,4265.86367004,4103.03009465,4123.42409743,-115.761582237
off_to_on,4106.47387406,4102.04287633,4138.33466933,4131.14074529,4124.44036617,4124.00902624,4112.5451444,4123.40796576,4136.42600915,4145.88246891,4271.1377414,4117.56467283,4134.23983846,-95.5000325695
off_to_on,4115.53288469,4106.50154993,4139.91114418,4131.21564981,4132.35630435,4136.23552271,4129.81258408,4138.24917171,4136.44459884,4149.37923451,4275.55615448,4130.9106136,4144.07989603,-73.2613460759
off_to_on,4123.91280406,4110.71522145,4141.3702707,4131.31584969,4139.66264834,4147.42609516,4145.60454648,4151.8937805,4136.45378896,4152.61883705,4279.21429309,4143.06182663,4152.94685089,-49.8233220365
off_to_on,4131.60831569,4114.68618068,4142.70724361,4131.43940631,4146.38311799,4157.6085699,4159.96008896,4164.36673214,4136.45376023,4155.60047823,4282.21553427,4154.03443802,4160.86117658,-25.9612162481
off_to_on,4138.62816253,4118.42060405,4143.92025047,4131.58382144,4152.55168117,4166.82861895,4172.94192119,4175.71258936,4136.44487411,4158.32822087,4284.66722384,4163.86526551,4167.85988375,-2.41800781397
off_to_on,4144.9941722,4121.92806354,4145.01044298,4131.7460965,4158.21088946,4175.14748055,4184.63332506,4185.99310401,4136.42766586,4160.81059206,4286.67683733,4172.60985012,4173.99481088,20.1241679255
off_to_on,4150.73997989,4125.22100142,4145.98182284,4131.92280856,4163.41006167,4182.63936876,4195.13470498,4195.28449011,4136.40283339,4163.06009897,4288.3484471,4180.3401016,4179.33060971,41.0702955856
off_to_on,4155.90948781,4128.31418369,4146.84104584,4132.11020137,4168.20336994,4189.38864894,4204.55986948,4203.67448279,4136.37122192,4165.09267163,4289.7795994,4187.14162557,4183.94248214,59.9354185651
off_to_on,4160.55510819,4131.22414504,4147.59715066,4132.30428881,4172.64788561,4195.48686209,4213.03215169,4211.25926656,4136.3338051,4166.92704884,4291.05868446,4193.11080918,4187.91373294,76.3633135908
off_to_on,4164.73584338,4133.96863776,4148.26122115,4132.50096824,4176.80164235,4201.02968535,4220.68047965,4218.14035833,4136.29166291,4168.58412505,4292.26286047,4198.35174849,4191.33320763,90.1401334872
off_to_on,4168.51526148,4136.56609627,4148.84599323,4132.69614046,4180.72177326,4206.11391763,4227.63550766,4224.42153082,4136.24595707,4170.08627657,4293.45656844,4202.97310508,4194.29268849,101.202443936
off_to_on,4171.95942907,4139.03512869,4149.36541905,4132.88583285,4184.46277587,4210.83457825,4234.02591613,4230.20585912,4136.19790462,4171.45668619,4294.69065154,4207.08498115,4196.88432295,109.639296602
off_to_on,4175.13486397,4141.39404562,4149.83420287,4133.0663219,4188.07495455,4215.28220248,4239.97498082,4235.59296818,4136.14875042,4172.71868462,4296.00206952,4210.79590092,4199.19815738,115.688212337
off_to_on,4178.1065692,4143.66043518,4150.26732352,4133.23425124,4191.60308305,4219.54041028,4245.59750162,4240.67655134,4136.09973933,4173.89512661,4297.41417736,4214.20998265,4201.31984539,119.725187769
off_to_on,4180.93620603,4145.85079207,4150.67955917,4133.38674094,4195.08532229,4223.68381461,4250.99716783,4245.54221987,4136.05208879,4175.00781793,4298.93751845,4217.42437787,4203.32859387,122.249076885
off_to_on,4183.68045828,4147.98020619,4151.08502968,4133.52148408,4198.55241845,4227.7763228,4256.26442075,4250.2657315,4136.00696263,4176.07700725,4300.57106588,4220.52704492,4205.29540094,123.860923561
off_to_on,4186.38963232,4150.06211458,4151.49677129,4133.63682667,4202.02719672,4231.86987017,4261.47485692,4254.91163234,4135.96544679,4177.12095456,4302.30383253,4223.59491162,4207.28162961,125.239022349
off_to_on,4189.10652848,4152.10811815,4151.92635728,4133.73182745,4205.5243549,4236.00360965,4266.68819626,4259.53233201,4135.92852752,4178.15558467,4304.11676069,4226.69246758,4209.33794841,127.110657715
off_to_on,4191.86560973,4154.12786283,4152.38357626,4133.80629464,4209.05055115,4240.20356602,4271.94782015,4264.16761743,4135.8970728,4179.19423126,4305.9847961,4229.87081237,4211.50365759,130.221609413
off_to_on,4194.69248321,4156.12898281,4152.876178,4133.86079749,4212.60477041,4244.48274776,4277.28086605,4268.84459667,4135.87181722,4180.2474739,4307.87904934,4233.16717008,4213.80640626,135.304605254
off_to_on,4197.60369956,4158.11710251,4153.40969378,4133.8966514,4216.17894542,4248.84169522,4282.6988473,4273.57805061,4135.85335067,4181.32306733,4309.76894887,4236.60486604,4216.26229262,143.047948248
off_to_on,4200.60686419,4160.09589196,4153.98733572,4133.91587606,4219.75880029,4253.26942954,4288.19875034,4278.37115829,4135.84211106,4182.42595955,4311.6242954,4240.19374614,4218.8763273,154.065543965
off_to_on,4203.70104442,4162.06716994,4154.60997671,4133.9211273,4223.32487809,4257.74475454,4293.76454734,4283.21655062,4135.838381,4183.55839286,4313.41713506,4243.93100542,4221.64322808,168.869506008
off_to_on,4206.87744654,4164.03104763,4155.2762095,4133.91560418,4226.85370874,4262.23785311,4299.36905001,4288.0976383,4135.84228836,4184.72007956,4315.12338049,4247.80237958,4224.54850378,187.846421702
off_to_on,4210.12032865,4165.98610531,4155.98248092,4133.90293393,4230.31906962,4266.71211109,4304.97602209,4292.9901534,4135.85381043,4185.90844227,4316.72412171,4251.78364236,4227.56977695,211.238220187
off_to_on,4213.40810782,4167.92959405,4156.7232944,4133.88703822,4233.69328956,4271.12609576,4310.54246242,4297.86383927,4135.87278134,4187.1189071,4318.2065839,4255.84234269,4230.67828763,239.128409602
off_to_on,4216.71461431,4169.857654,4157.4914717,4133.8719854,4236.94854627,4275.43561234,4316.02096877,4302.68422147,4135.89890223,4188.34523671,4319.56470508,4259.93970949,4233.84051625,271.434245841
off_to_on,4220.01044184,4171.76554078,4158.27846321,4133.86183396,4240.05810902,4279.59576098,4321.36209323,4307.41439225,4135.93175353,4189.5798897,4320.79932322,4264.03264823,4237.01986085,307.905167728
off_to_on,4223.26434074,4173.64785211,4159.07469426,4133.8604732,4242.99748137,4283.56291869,4326.5166045,4312.0167438,4135.97080886,4190.81439261,4321.91797991,4268.07575336,4240.17830489,348.127591421
off_to_on,4226.4446015,4175.49874745,4159.86993459,4133.87146754,4245.74540416,4287.296576,4331.4375796,4316.45459082,4136.01544976,4192.03971147,4322.93436449,4272.02326401,4243.27801507,391.535912636
off_to_on,4229.52037826,4177.31215447,4160.65367737,4133.89791047,4248.28468577,4290.76096588,4336.08225854,4320.69363048,4136.06498086,4193.24661086,4323.86743929,4275.83089631,4246.28281457,437.429328764
off_to_on,4232.4629065,4179.0819578,4161.41551449,4133.94229443,4250.60283455,4293.92643337,4340.41360803,4324.7031977,4136.11864489,4194.42599016,4324.74030104,4279.457494,4249.15948488,484.99387024
off_to_on,4235.24657462,4180.80216608,4162.14549548,4134.00640194,4252.69247732,4296.77050582,4344.40155435,4328.45728374,4136.17563722,4195.56918802,4325.57884429,4282.86644879,4251.87885827,533.328830443
off_to_on,4237.84981645,4182.46705521,4162.83445816,4134.09122264,4254.55155636,4299.27863695,4348.02386028,4331.93529712,4136.23511977,4196.66824811,4326.4103001,4286.02685283,4254.41667262,581.476616354
off_to_on,4240.2557993,4184.0712862,4163.47432049,4134.19689986,4256.18330665,4301.44461097,4351.26663563,4335.12255649,4136.29623416,4197.7161407,4327.26172587,4288.91435757,4256.7541711,628.454914711
off_to_on,4242.45289107,4185.60999755,4164.05832481,4134.32270904,4257.59602305,4303.270606,4354.12448536,4338.01051569,4136.3581142,4198.70693692,4328.15852094,4291.51172561,4258.87843967,673.289982287
off_to_on,4244.43489894,4187.07887314,4164.58122741,4134.46706906,4258.80263508,4304.76692897,4356.60031319,4340.59673119,4136.41989773,4199.63593395,4329.12303828,4293.80907508,4260.78248659,715.049827324
off_to_on,4246.20108106,4188.47418755,4165.03942879,4134.62758607,4259.82011394,4305.95144605,4358.70481089,4342.88459177,4136.48073795,4200.49973186,4330.17335607,4295.80382783,4262.46507844,752.876056206
off_to_on,4247.75594222,4189.79283186,4165.43104235,4134.80112825,4260.66874209,4306.84874343,4360.45567439,4344.88283852,4136.53981429,4201.29626368,4331.32226347,4297.50038423,4263.93035657,786.013214735
off_to_on,4249.10883235,4191.03232356,4165.75590145,4134.98392882,4261.37128054,4307.48906278,4361.87659651,4346.60491059,4136.59634291,4202.02478252,4332.57650506,4298.90955696,4265.18726645,813.834551521
off_to_on,4250.27337491,4192.19080501,4166.01550702,4135.17171329,4261.95207226,4307.90706348,4362.99609292,4348.06815765,4136.6495868,4202.6858099,4333.93631575,4300.04780426,4266.24883852,835.863267853
off_to_on,4251.26675789,4193.26703498,4166.21291997,4135.35984652,4262.43612212,4308.14046929,4363.84622264,4349.29296385,4136.69886538,4203.28105116,4335.39526519,4300.93630941,4267.13136443,851.788491372
off_to_on,4252.10892511,4194.26037798,4166.35260429,4135.54349395,4262.84819368,4308.22866043,4364.46126606,4350.30182978,4136.7435636,4203.81328378,4336.94041705,4301.59995688,4267.85351456,861.475412949
off_to_on,4252.82170809,4195.17079566,4166.44022833,4135.71779121,4263.21196206,4308.21127305,4364.87642305,4351.11845859,4136.78314025,4204.28622549,4338.55279491,4302.06625749,4268.43544363,864.969246641
off_to_on,4253.42793935,4195.99884404,4166.48243299,4135.87801571,4263.54925832,4308.12686554,4365.12658964,4351.76688981,4136.81713541,4204.70438874,4340.20813365,4302.36427401,4268.89792925,862.492902688
off_to_on,4253.95058732,4196.74567929,4166.48657648,4136.01975381,4263.87943634,4308.01170664,4365.24526612,4352.27072024,4136.84517682,4205.07292829,4341.8778833,4302.52359565,4269.26158399,854.438497267
off_to_on,4254.41194985,4197.41307391,4166.46046588,4136.13905721,4264.21888652,4307.89873314,4365.26364006,4352.65244493,4136.86698498,4205.39748826,4343.5304212,4302.57340401,4269.54617599,841.353051186
off_to_on,4254.83293955,4198.00344369,4166.4120859,4136.23258258,4264.58071339,4307.8167152,4365.20987741,4352.93294351,4136.8823768,4205.68405399,4345.13241974,4302.54166641,4269.77008485,823.9189414
off_to_on,4255.23248763,4198.51988469,4166.34933467,4136.29770906,4264.97458589,4307.78965627,4365.10864206,4353.13112804,4136.89126756,4205.93881346,4346.65030973,4302.45448267,4269.94991103,802.929856151
off_to_on,4255.62708638,4198.96621773,4166.27977603,4136.33262898,4265.40676022,4307.836442,4364.98085128,4353.2637585,4136.89367124,4206.16803149,4348.05177537,4302.33560193,4270.10024672,779.263162695
off_to_on,4256.03048182,4199.34703661,4166.21041623,4136.3364086,4265.88026574,4307.97073923,4364.84366067,4353.34542138,4136.88969892,4206.37793884,4349.30721463,4302.20611445,4270.23360598,753.849720426
off_to_on,4256.45351907,4199.66775447,4166.14751209,4136.30901645,4266.39523629,4308.2011328,4364.71065913,4353.38865629,4136.87955531,4206.57463663,4350.39109866,4302.08431176,4270.36050115,727.642254442
off_to_on,4256.90413426,4199.93464106,4166.09641562,4136.25131858,4266.94936065,4308.53147556,4364.59224161,4353.40420558,4136.86353347,4206.76401507,4351.28316672,4301.98569724,4270.48964255,701.583442724
off_to_on,4257.38747865,4200.15484288,4166.06145873,4136.16504113,4267.53842037,4308.96141569,4364.49611684,4353.40135372,4136.84200773,4206.95168406,4351.96939847,4301.92311967,4270.62823034,676.574865856
off_to_on,4257.90615362,4200.33637746,4166.04587981,4136.052702,4268.15687852,4309.48705791,4364.42789956,4353.38831752,4136.81542492,4207.14291248,4352.4427145,4301.90699524,4270.78230148,653.447921276
off_to_on,4258.4605302,4200.48809321,4166.05179235,4135.91751462,4268.79848144,4310.10170899,4364.39173234,4353.37264503,4136.78429421,4207.34257202,4352.70336735,4301.94557996,4270.95709216,632.937710882
off_to_on,4259.04912329,4200.61958763,4166.08019415,4135.76326813,4269.45683517,4310.79665582,4364.39088147,4353.36158108,4136.74917568,4207.55508194,4352.7589993,4302.0452536,4271.15737639,615.66077221
off_to_on,4259.66898908,4200.74107796,4166.131014,4135.59418923,4270.12592075,4311.56192411,4364.42825384,4353.36235976,4136.71066799,4207.78435128,4352.62435845,4302.21077898,4271.3877445,602.097350126
off_to_on,4260.31611418,4200.86322087,4166.20319157,4135.41479185,4270.800516,4312.38696874,4364.50678761,4353.38238925,4136.6693954,4208.033716,4352.32068032,4302.44550489,4271.65279078,592.578713438
off_to_on,4260.98576769,4200.9968806,4166.29478524,4135.22972119,4271.47649705,4313.26125221,4364.62967825,4353.4293021,4136.62599451,4208.30586962,4351.87475776,4302.75148763,4271.95718642,587.279821896
off_to_on,4261.67279093,4201.15284785,4166.40310178,4135.04359889,4272.15100004,4314.17467598,4364.8004126,4353.51085322,4136.58110114,4208.60278675,4351.31773653,4303.12951425,4272.30562271,586.217452432
off_to_on,4262.37180595,4201.34151522,4166.52484149,4134.86087564,4272.82243204,4315.1178397,4365.02259727,4353.6346588,4136.53533752,4208.92564065,4350.68368663,4303.57901958,4272.7026184,589.253707293
off_to_on,4263.07733046,4201.57251841,4166.65625241,4134.68569702,4273.49032945,4316.08211562,4365.29958223,4353.80778091,4136.48930037,4209.2747165,4350.00801026,4304.09789846,4273.15219567,596.104658421
off_to_on,4263.78379478,4201.85435516,4166.79328721,4134.52178772,4274.15507185,4317.05953766,4365.63389539,4354.036174,4136.44354993,4209.6493241,4349.32575586,4304.6822243,4273.65743851,606.353733375
off_to_on,4264.48546384,4202.19399685,4166.93175697,4134.37235798,4274.81746809,4318.04251766,4366.02651864,4354.32402049,4136.39860043,4210.04771421,4348.66991287,4305.32589392,4274.21995709,619.46931294
off_to_on,4265.17627463,4202.59650958,4167.06747657,4134.24003525,4275.47823993,4319.02341299,4366.47604867,4354.67299215,4136.35491212,4210.46700434,4348.06976491,4306.0202266,4274.83929019,634.825885974
off_to_on,4265.84960591,4203.0647024,4167.19639751,4134.12682261,4276.13743526,4319.99398007,4366.97779699,4355.08148183,4136.31288504,4210.90312024,4347.54937748,4306.75355165,4275.51228385,651.727997653
off_to_on,4266.49800229,4203.59882084,4167.31472445,4134.03408442,4276.79380799,4320.9447573,4367.52289102,4355.54385538,4136.27285466,4211.35075965,4347.1262918,4307.51082261,4276.23248945,669.436141708
off_to_on,4267.11287915,4204.19630295,4167.41901316,4133.96255816,4277.44420541,4321.86442649,4368.09744304,4356.04977657,4136.23508949,4211.80338528,4346.81048858,4308.27329854,4276.98962585,687.193691119
off_to_on,4267.68423752,4204.85161371,4167.50624835,4133.91239038,4278.08300479,4322.73920579,4368.68185423,4356.58365748,4136.19979059,4212.25325313,4346.60367446,4309.01833221,4277.76915054,704.253937995
off_to_on,4268.20041938,4205.55617149,4167.57390064,4133.88319357,4278.70164046,4323.55232725,4369.25031852,4357.1242845,4136.16709295,4212.6914819,4346.49893157,4309.71930257,4278.5519816,719.906323112
off_to_on,4268.64793343,4206.2983768,4167.61996293,4133.87411994,4279.28825915,4324.28364974,4369.77058371,4357.6446637,4136.13706856,4213.10816769,4346.48075539,4310.34572341,4279.31440744,733.50097467
off_to_on,4269.01137801,4207.06374991,4167.64296713,4133.88394759,4279.82753628,4324.90945178,4370.2040167,4358.11212088,4136.10973108,4213.49254648,4346.52548988,4310.86355227,4280.02821258,744.470735396
off_to_on,4269.27348364,4207.83517896,4167.64198266,4133.91117424,4280.30067804,4325.40244058,4370.50600559,4358.48868003,4136.08504176,4213.83320446,4346.60215094,4311.23571303,4280.6610381,752.349932121
off_to_on,4269.4152906,4208.5932753,4167.61659866,4133.95411375,4280.68562558,4325.73200238,4370.62671559,4358.73173098,4136.06291648,4214.11833392,4346.67361161,4311.42283388,4281.17698291,756.789235492
off_to_on,4269.41647004,4209.31682811,4167.56689238,4134.01099064,4280.9574674,4325.86470688,4370.51219832,4358.7949826,4136.04323359,4214.33602995,4346.69810538,4311.38419049,4281.53744007,757.566076445
off_to_on,4269.25578883,4209.98334586,4167.4933861,4134.08002833,4281.08905614,4325.76506551,4370.10583734,4358.62968455,4136.02584224,4214.47462097,4346.63098943,4311.07883293,4281.70215013,754.590232654
off_to_on,4268.9117106,4210.56966886,4167.39699562,4134.15952718,4281.05181594,4325.39652998,4369.35009514,4358.18608681,4136.01057112,4214.52302416,4346.42669725,4310.46686481,4281.63044272,747.904368733
off_to_on,4268.36311797,4211.05263416,4167.27897315,4134.24792914,4280.81671712,4324.72270457,4368.18851098,4357.41509412,4135.99723725,4214.47111528,4346.04080116,4309.51083454,4281.28262758,737.679500963
off_to_on,4267.59013348,4211.4097721,4167.14084745,4134.34386632,4280.35538577,4323.70873338,4366.56788353,4356.27006176,4135.9856547,4214.31010102,4345.43209945,4308.17719134,4280.62148808,724.205552014
off_to_on,4266.57501062,4211.62001249,4166.98436431,4134.44619193,4279.64130828,4322.32281233,4364.44055899,4354.70866954,4135.97564304,4214.03288099,4344.56464071,4306.43775296,4279.61382303,707.877354652
off_to_on,4265.30306045,4211.6643773,4166.81142975,4134.55399267,4278.65108336,4320.53776624,4361.76673462,4352.69480393,4135.96703521,4213.63438605,4343.40959938,4304.27112778,4278.23197788,689.176646573
off_to_on,4263.76357504,4211.52663654,4166.62405835,4134.66658325,4277.36566977,4318.33262414,4358.5166798,4350.20037356,4135.95968465,4213.11187954,4341.94692193,4301.66403188,4276.4553027,668.650763032
off_to_on,4261.95070599,4211.19390452,4166.42432842,4134.78348398,4275.77157444,4315.69412103,4354.67277427,4347.20698125,4135.95347125,4212.46520825,4340.16667184,4298.61244149,4274.27147379,646.888871883
off_to_on,4259.86425506,4210.65715464,4166.214345,4134.90438407,4273.86192522,4312.61805363,4350.23126477,4343.70737735,4135.94830607,4211.69699109,4338.07001339,4295.12252383,4271.67761712,624.496700763
off_to_on,4257.51033497,4209.91163328,4165.99621111,4135.02909321,4271.63737452,4309.11041855,4345.20364867,4339.70662389,4135.94413433,4210.81273469,4335.66978846,4291.21129475,4268.68117676,602.070773229
off_to_on,4254.90186129,4208.95715616,4165.77200714,4135.15748504,4269.1067841,4305.1882674,4339.61760436,4335.22290705,4135.94093659,4209.82086748,4332.99065608,4286.9069599,4265.30047935,580.173196451
off_to_on,4252.05884111,4207.79827431,4165.54377749,4135.28943629,4266.28764835,4300.88022103,4333.51740389,4330.28794682,4135.93872799,4208.73268624,4330.06878129,4282.24890697,4261.56495546,559.308026002
off_to_on,4249.00843107,4206.4443011,4165.31352336,4135.42476538,4263.20622261,4296.22659731,4326.96376195,4324.94696646,4135.93755555,4207.56221207,4326.95107679,4277.28732881,4257.51499166,539.900173771
off_to_on,4245.78474505,4204.90919611,4165.08319991,4135.56317461,4259.89733388,4291.27912083,4320.03309648,4319.25820025,4135.93749343,4206.32595613,4323.69401781,4272.08247085,4253.20140015,522.27772527
off_to_on,4242.42840184,4203.21130647,4164.85471598,4135.7041995,4256.40386403,4286.10019944,4312.81619817,4313.29193488,4135.9386367,4205.04259834,4320.3620669,4266.70351016,4248.68450752,506.658396543
off_to_on,4238.98581267,4201.37297077,4164.6299344,4135.84716892,4252.77590862,4280.76176995,4305.41632857,4307.12909741,4135.94109366,4203.73258581,4317.02575974,4261.22708708,4244.03287821,493.140694177
off_to_on,4235.50821953,4199.41999508,4164.41067085,4135.99117896,4249.06962816,4275.34373313,4297.9467886,4300.85941951,4135.94497731,4202.41766028,4313.75951623,4255.73552393,4239.32170246,481.700151245
off_to_on,4232.0505055,4197.38101495,4164.19868944,4136.1350828,4245.34582124,4269.93201568,4290.52802044,4294.57922422,4135.95039651,4201.12032693,4310.63925149,4250.31477736,4234.63089158,472.190805474
off_to_on,4228.66980804,4195.2867608,4163.99569352,4136.27749821,4241.66826183,4264.61631295,4283.28432532,4288.38889626,4135.9574472,4199.86327881,4307.73986912,4245.05218172,4230.04293486,464.35187191
off_to_on,4225.42397513,4193.16924758,4163.80331043,4136.41683302,4238.10185298,4259.48758066,4276.34029689,4282.39011022,4135.9662045,4198.6687933,4305.13272341,4240.03404973,4225.64058282,457.819349812
off_to_on,4222.36991183,4191.0609118,4163.62306955,4136.55132799,4234.71065828,4254.63535592,4269.81708415,4276.68290148,4135.97671592,4197.55811819,4302.88313883,4235.34320364,4221.50442913,452.142101232
off_to_on,4219.56187063,4188.99372147,4163.45637358,4136.67911519,4231.55587894,4250.14499719,4263.82860789,4271.36267354,4135.98899625,4196.55086573,4301.04807337,4231.05651456,4217.71046956,446.801755041
off_to_on,4217.04974356,4186.99828551,4163.30446354,4136.79828924,4228.69384788,4246.0949389,4258.47786086,4266.51723998,4136.00302434,4195.66443355,4299.67400804,4227.24253018,4214.32771945,441.235632665
off_to_on,4214.87741569,4185.10298987,4163.16837864,4136.90698763,4226.17411411,4242.55405899,4253.85342289,4262.22400173,4136.01874211,4194.91347071,4298.79513785,4223.95927127,4211.41597206,434.861766854
off_to_on,4213.0812398,4183.33318771,4163.04891275,4137.00347618,4224.03768868,4239.57925675,4250.0263188,4258.54735842,4136.03605552,4194.30940674,4298.4319302,4221.25227472,4209.02377825,427.104997658
off_to_on,4211.68868926,4181.71046977,4162.94656943,4137.08623516,4222.31551975,4237.21333314,4247.04733887,4255.53644738,4136.05483784,4193.86006006,4298.59010507,4219.15295567,4207.18672245,417.423083758
off_to_on,4210.71724176,4180.25203936,4162.86151795,4137.15404141,4221.02725698,4235.48325753,4244.94492824,4253.22329553,4136.07493463,4193.56934026,4299.26007772,4217.67735314,4205.92606248,405.331764365
off_to_on,4210.17353987,4178.97021383,4162.79355293,4137.20604227,4220.18035627,4234.39889221,4243.72373378,4251.62145691,4136.09617047,4193.43705642,4300.41688925,4216.8253121,4205.24778898,390.427746966
off_to_on,4210.05286623,4177.87207027,4162.74206015,4137.241817,4219.76956437,4233.9522316,4243.36387503,4250.72519341,4136.11835685,4193.45884023,4302.02063374,4216.58014128,4205.14214694,372.408677614
off_to_on,4210.33896112,4176.95924891,4162.70599134,4137.26142217,4219.77680978,4234.11719533,4243.82098068,4250.50923857,4136.14130087,4193.62618944,4304.01737276,4216.90876987,4205.58364539,351.089269789
off_to_on,4211.00419894,4176.22792181,4162.68385042,4137.26541802,4220.17151207,4234.84999551,4245.02700476,4250.92916417,4136.16481412,4193.9266329,4306.34051046,4217.76240857,4206.53156383,326.412920132
off_to_on,4212.01012763,4175.6689282,4162.67369335,4137.25487371,4220.91130661,4236.09007809,4246.89180913,4251.92234861,4136.18872136,4194.34401449,4308.91258539,4219.07770246,4207.93094557,298.458318434
off_to_on,4213.30836227,4175.2680717,4162.67314347,4137.2313502,4221.94316673,4237.76161787,4249.30547166,4253.40952465,4136.21286828,4194.85888909,4311.6474201,4220.77834479,4209.71405015,267.440757682
off_to_on,4214.84181105,4175.0065686,4162.6794234,4137.19686069,4223.20489065,4239.77552673,4252.14125466,4255.29686416,4136.23712795,4195.44901994,4314.45255639,4222.77710518,4211.80222074,233.708059899
off_to_on,4216.54620002,4174.86163147,4162.68940401,4137.15380947,4224.6269076,4242.03191665,4255.25914548,4257.47853887,4136.2614055,4196.08996335,4317.23189458,4224.97821081,4214.10810787,197.731246282
off_to_on,4218.35185155,4174.80716815,4162.69967024,4137.10491135,4226.1343455,4244.42294257,4258.50986185,4259.83968034,4136.28564065,4196.75572408,4319.88844784,4227.28000819,4216.53817885,160.09028745
off_to_on,4220.18566235,4174.8145728,4162.7066026,4137.0530945,4227.64929375,4246.83593728,4261.73919848,4262.2596487,4136.30980795,4197.41946198,4322.32711949,4229.57782398,4218.99543328,121.45546305
off_to_on,4221.97321919,4174.85358372,4162.70647261,4137.00139088,4229.09318716,4249.15674,4264.79257937,4264.61550955,4136.3339144,4198.05422937,4324.45741119,4231.76693732,4221.38223828,82.5650320123
off_to_on,4223.64098534,4174.89318137,4162.69554955,4136.95281886,4230.38923311,4251.27311372,4267.51967265,4266.78561189,4136.35799452,4198.63371709,4326.1959742,4233.74557357,4223.60319459,44.2000586664
off_to_on,4225.11848835,4174.90250018,4162.67021531,4136.91026304,4231.46480249,4253.07814345,4269.77892167,4268.65315656,4136.3821029,4199.13298767,4327.46892305,4235.41782957,4225.56794411,7.15735010867
off_to_on,4226.34043926,4174.85172818,4162.6270835,4136.8763569,4232.25370625,4254.47350772,4271.44184802,4270.1096455,4136.40630444,4199.52917391,4328.21384141,4236.69644355,4227.19383288,-27.7784673929
off_to_on,4227.24871567,4174.7129702,4162.56311873,4136.85337345,4232.69828312,4255.37251983,4272.39698849,4271.05810619,4136.43066248,4199.80212298,4328.38142234,4237.50532798,4228.4083484,-59.8626731912
off_to_on,4227.79414523,4174.4610517,4162.47575165,4136.84312892,4232.75123064,4255.702842,4272.55333937,4271.41599259,4136.45522531,4199.93496711,4327.93669901,4237.78179106,4229.15125752,-88.416927212
off_to_on,4227.93803217,4174.07424287,4162.3629855,4136.84690396,4232.37711964,4255.40878597,4271.84319751,4271.11767437,4136.48001156,4199.91460427,4326.85983669,4237.47838136,4229.37638025,-112.853491836
off_to_on,4227.65337812,4173.53488482,4162.22348993,4136.8653859,4231.55354329,4254.45312615,4270.22430676,4270.11643871,4136.50499519,4199.73207481,4325.14647211,4236.56430119,4229.05294604,-132.69628122
off_to_on,4226.925758,4172.82990297,4162.05667834,4136.89863486,4230.27186368,4252.81836695,4267.68124142,4268.38594419,4136.53009063,4199.38282264,4322.80760103,4235.02634688,4228.16649175,-147.59793452
off_to_on,4225.75382294,4171.95119542,4161.86276524,4136.94607523,4228.53753223,4250.5074223,4264.22598278,4265.92108266,4136.55513915,4198.86683349,4319.86902941,4232.86934763,4226.71927438,-157.352253758
off_to_on,4224.1494135,4170.89588746,4161.6428007,4137.00651315,4226.36997419,4247.54368358,4259.8976704,4262.73822258,4136.57989707,4198.18864579,4316.37041674,4230.11608933,4224.73018673,-161.901515947
off_to_on,4222.13727841,4169.66644636,4161.39867968,4137.07817961,4223.80204122,4243.97047081,4254.76153567,4258.87482584,4136.6040267,4197.35723381,4312.3639524,4226.80672469,4222.23417907,-161.338356924
off_to_on,4219.75440582,4168.27065368,4161.13312465,4137.1587975,4220.87904991,4239.84988033,4248.9070513,4254.38844854,4136.62709078,4196.38576644,4307.91271581,4222.99768601,4219.28120507,-155.902122206
off_to_on,4217.04898588,4166.72143592,4160.84964096,4137.24567034,4217.65743716,4235.26106144,4242.44535417,4249.35515483,4136.6485511,4195.29124864,4303.08878006,4218.76013179,4215.93472476,-145.969777608
off_to_on,4214.07903443,4165.03655746,4160.5524451,4137.33578928,4214.20307531,4230.29797156,4235.50602232,4243.86739075,4136.66777191,4194.09405613,4297.97112404,4214.17797221,4212.26981098,-132.041664467
off_to_on,4210.91071785,4163.23818346,4160.24636736,4137.42595431,4210.58930045,4225.06667631,4228.23330562,4238.03138065,4136.68402859,4192.81737693,4292.64342165,4209.34553067,4208.37091732,-114.722572496
off_to_on,4207.61642838,4161.35232325,4159.93673089,4137.51290495,4206.89471601,4219.6822748,4220.78192622,4231.96412315,4136.6965218,4191.48657595,4287.19177762,4204.36490926,4204.32937596,-94.6987870701
off_to_on,4204.27266648,4159.40816859,4159.62921084,4137.59345514,4203.20084034,4214.26554273,4213.31257704,4225.79007481,4136.70439736,4190.12850082,4281.70247784,4199.34313422,4200.24070168,-72.711938135
off_to_on,4200.95779324,4157.43734309,4159.32967747,4137.66462704,4199.5896716,4208.93939462,4205.98725532,4219.63761894,4136.70677159,4188.77074856,4276.25981861,4194.38916372,4196.20178376,-49.5306216424
off_to_on,4197.74972011,4155.4730823,4159.04402834,4137.72377825,4196.14124525,4203.82527289,4198.96457313,4213.63542305,4136.70276184,4187.44091401,4270.94407369,4189.61084412,4192.30805069,-25.9208711459
off_to_on,4194.72360564,4153.54936528,4158.77801487,4137.76871747,4192.93125976,4199.03957387,4192.395187,4207.9087916,4136.69152139,4186.16584088,4265.82965065,4185.11190207,4188.65069288,-2.6166201133
off_to_on,4191.94962954,4151.7000202,4158.53706909,4137.79780382,4190.02884316,4194.69021973,4186.41748431,4202.57612077,4136.67227773,4184.97089641,4260.98348007,4180.98905803,4185.31402585,19.7086897078
off_to_on,4189.49091249,4149.95782725,4158.32613638,4137.81002562,4187.49452864,4190.87348112,4181.15365538,4197.74555816,4136.64437307,4183.87928979,4256.46367161,4177.32934299,4182.37307164,40.4682315073
off_to_on,4187.40164659,4148.35364266,4158.14952006,4137.80505516,4185.37850061,4187.67114732,4176.7062673,4193.51196485,4136.60730525,4182.91145323,4252.31846251,4174.20769427,4179.89142929,59.1846027027
off_to_on,4185.72549583,4146.91556814,4158.01074328,4137.78327675,4183.71916398,4185.14813074,4173.15543997,4189.95426823,4136.56076771,4182.08450293,4248.58547534,4171.68489876,4177.91949708,75.5083931785
off_to_on,4184.49431838,4145.66818954,4157.91243342,4137.74578637,4182.54207986,4183.35057946,4170.55670653,4187.13328398,4136.50468627,4181.41179546,4245.2912939,4169.80594334,4176.49309898,89.231743873
off_to_on,4183.72725299,4144.63190753,4157.85623327,4137.69436225,4181.85929901,4182.30455681,4168.93961978,4185.09007246,4136.43925109,4180.90259214,4242.45135778,4168.59882137,4175.6325568,100.296319611
off_to_on,4183.43020076,4143.82238121,4157.84274254,4137.63140703,4181.66911234,4182.01532945,4168.3071439,4183.84487977,4136.36494175,4180.56184162,4240.07016839,4168.07383184,4175.34223574,108.79533612
off_to_on,4183.59572063,4143.2501025,4157.87149224,4137.55986302,4181.95622424,4182.46728678,4168.63584655,4183.39669676,4136.2825436,4180.39008684,4238.14179067,4168.22339339,4175.61057665,114.969512259
off_to_on,4184.20334336,4142.92011552,4157.94095304,4137.48310339,4182.69234093,4183.62449442,4169.87688115,4183.72344998,4136.19315384,4180.38349947,4236.65062634,4169.02237965,4176.41061256,119.197058137
off_to_on,4185.22029471,4142.83189064,4158.04857775,4137.40480303,4183.83715265,4185.43186406,4171.957724,4184.78281866,4136.09817605,4180.53404027,4235.57242701,4170.42896612,4177.70095108,121.978048341
off_to_on,4186.60260437,4142.97935833,4158.19087659,4137.3287938,4185.33967587,4187.81690223,4174.78460666,4186.51365202,4135.99930246,4180.82974013,4234.87550886,4172.38596249,4179.42718921,123.913754131
off_to_on,4188.29656428,4143.35110288,4158.36352304,4137.25890989,4187.13991043,4190.69198213,4178.24556265,4188.83794209,4135.89848372,4181.25509275,4234.52212536,4174.82258924,4181.52371327,125.681710383
off_to_on,4190.24048832,4143.93071166,4158.56148676,4137.19882936,4189.17075703,4193.95706603,4182.21398839,4191.66329056,4135.79788649,4181.79154614,4234.46995137,4177.65664351,4183.91582496,128.007466591
off_to_on,4192.36671528,4144.69727034,4158.77918937,4137.15191869,4191.36013267,4197.50279226,4186.5526034,4194.88579275,4135.69983989,4182.4180776,4234.67363006,4180.79698722,4186.52212456,131.634109456
off_to_on,4194.60378918,4145.62599015,4159.01067799,4137.12108664,4193.63321614,4201.21382913,4191.11768345,4198.39324962,4135.60677224,4183.11183427,4235.08633295,4184.14628041,4189.25707472,137.290738644
off_to_on,4196.87874461,4146.68894835,4159.24981059,4137.10865393,4195.91475168,4204.9723899,4195.76343203,4202.06860768,4135.52114004,4183.84881909,4235.66128377,4187.60387452,4192.03366195,145.661123649
off_to_on,4199.11942091,4147.85591887,4159.49044702,4137.11624439,4198.13133756,4208.66179694,4200.34635195,4205.79351866,4135.44535158,4184.60460094,4236.35319771,4191.06877402,4194.76606967,157.353769054
off_to_on,4201.25672704,4149.09526648,4159.72663892,4137.14470234,4200.21362633,4212.16998122,4204.72947833,4209.45190547,4135.38168788,4185.35502641,4237.11959067,4194.44257195,4197.3722753,172.874567845
off_to_on,4203.22678038,4150.37487514,4159.95281211,4137.19404021,4202.09836699,4215.39280449,4208.7863388,4212.93341946,4135.33222374,4186.0769109,4237.92191791,4197.63226513,4199.77648659,192.603126685
off_to_on,4204.97284641,4151.6630798,4160.16393487,4137.26341894,4203.73022437,4218.23709747,4212.40451629,4216.13667679,4135.2987519,4186.74868734,4238.72650808,4200.5528589,4201.9113382,216.773707118
off_to_on,4206.44701401,4152.92957091,4160.35566651,4137.35116269,4205.06331929,4220.623317,4215.48870374,4218.97216928,4135.28271334,4187.35099291,4239.50526768,4203.1296797,4203.71977892,245.461550937
off_to_on,4207.61155083,4154.14624225,4160.52448082,4137.45480785,4206.06244331,4222.48773918,4217.9631594,4221.36475703,4135.28513646,4187.8671761,4240.23614017,4205.30032505,4205.15659217,278.575153335
off_to_on,4208.43989662,4155.28795543,4160.66776056,4137.57118498,4206.70391411,4223.78412303,4219.77349365,4223.25566635,4135.30658788,4188.28371029,4240.90331501,4207.01619544,4206.18950728,315.854819151
off_to_on,4208.91726678,4156.33319809,4160.78385981,4137.69653084,4206.97605118,4224.48479906,4220.88774419,4224.60393535,4135.34713699,4188.59050308,4241.49719168,4208.24356933,4206.79987467,356.877594708
off_to_on,4209.04085403,4157.26461777,4160.87213253,4137.82662603,4206.87926561,4224.58115895,4221.29672294,4225.38727105,4135.40633627,4188.78109523,4242.01411426,4208.96420031,4206.98289516,401.068422816
off_to_on,4208.81963162,4158.06941821,4160.9329269,4137.95695303,4206.42577145,4224.08354387,4221.01364479,4225.60230318,4135.48321846,4188.85274663,4242.45590041,4209.17543298,4206.74740976,447.717131017
off_to_on,4208.27377622,4158.73961012,4160.96754609,4138.082868,4205.6389391,4223.0205501,4220.07307331,4225.26424219,4135.57631132,4188.80641091,4242.82919675,4208.88985112,4206.11527194,496.000639556
off_to_on,4207.4337421,4159.27211396,4160.97817779,4138.1997793,4204.5523228,4221.43779027,4218.52924165,4224.40596901,4135.68367003,4188.64660401,4243.14469821,4208.1344871,4205.12033831,545.009574563
off_to_on,4206.3390301,4159.66871666,4160.96779549,4138.30332539,4203.20840435,4219.39616582,4216.45382695,4223.07660389,4135.80292645,4188.38117529,4243.41627359,4206.949635,4203.80712617,593.778304213
off_to_on,4205.03670501,4159.93588944,4160.94003619,4138.38954453,4201.65710355,4216.96972185,4213.93327265,4221.33961797,4135.93135401,4188.02099253,4243.6600418,4205.3873219,4202.22919601,641.317287534
off_to_on,4203.57972219,4160.08447726,4160.8990597,4138.45502952,4199.95411184,4214.24316712,4211.0657657,4219.27056529,4136.06594614,4187.57955484,4243.89344382,4203.50950083,4200.44732444,686.646538906
off_to_on,4202.02512917,4160.12927421,4160.84939586,4138.49706085,4198.15910952,4211.3091503,4207.95798292,4216.95452342,4136.20350571,4187.07254859,4244.13435332,4201.38603592,4198.52753751,728.828969454
off_to_on,4200.43220969,4160.08850153,4160.79578586,4138.51371329,4196.33392867,4208.26538859,4204.7217244,4214.48333729,4136.34074228,4186.51736305,4244.40026511,4199.09255386,4196.53907582,767.002373695
off_to_on,4198.8606365,4159.98320699,4160.74302451,4138.50393156,4194.54072257,4205.21174496,4201.47054978,4211.9527638,4136.47437365,4185.93258226,4244.70759459,4196.70823663,4194.55236121,800.408885336
off_to_on,4197.36869531,4159.83660541,4160.69580941,4138.46757227,4192.84019973,4202.24734833,4198.31652768,4209.45961316,4136.60122794,4185.33746964,4245.0711137,4194.31362776,4192.63703058,828.420824662
off_to_on,4196.01163597,4159.6733806,4160.65860261,4138.4054107,4191.28997531,4199.46784471,4195.3671987,4207.09897834,4136.71834222,4184.75146063,4245.50354043,4191.9885189,4190.86009558,850.561997616
off_to_on,4194.84019935,4159.51896869,4160.63550947,4138.31911246,4189.94308617,4196.96285931,4192.72283942,4204.96163589,4136.82305421,4184.19367708,4246.01528941,4189.80997551,4189.28427794,866.52368059
off_to_on,4193.89935853,4159.39884239,4160.63017816,4138.21117173,4188.84670799,4194.81373903,4190.47409893,4203.13169096,4136.91308355,4183.68247529,4246.61438117,4187.8505501,4187.96655993,876.174728219
off_to_on,4193.22730317,4159.33781442,4160.64572227,4138.0848188,4188.0411041,4193.09163192,4188.70006105,4201.68452583,4136.9865998,4183.23503721,4247.30649868,4186.17672043,4186.95697818,879.565463131
off_to_on,4192.85468476,4159.35937722,4160.68466754,4137.94390095,4187.55882574,4191.85594573,4187.46676458,4200.68509683,4137.04227489,4182.86701195,4248.0951706,4184.84757774,4186.29767737,876.925238081
off_to_on,4192.80412975,4159.48509398,4160.74892269,4137.79274163,4187.42417358,4191.15321227,4186.82619377,4200.18660866,4137.07931811,4182.59221246,4248.98205397,4183.91377869,4186.02222936,868.65379613
off_to_on,4193.09001715,4159.73405407,4160.8397731,4137.63598339,4187.65292055,4191.01636853,4186.81573114,4200.2295799,4137.09749269,4182.42236992,4249.967284,4183.41676376,4186.15521301,855.306784431
off_to_on,4193.71850779,4160.12240369,4160.95789528,4137.47842067,4188.25228669,4191.4644507,4187.45804774,4200.84129879,4137.09711342,4182.3669466,4251.04985616,4183.38823534,4186.71204121,837.575990101
off_to_on,4194.68780397,4160.66295987,4161.10338929,4137.3248288,4189.22114902,4192.50268358,4188.76139111,4202.03565594,4137.07902557,4182.43300593,4252.2280057,4183.84988096,4187.69901442,816.265054789
off_to_on,4195.98861182,4161.36491323,4161.27582597,4137.17979544,4190.55046221,4194.12293567,4190.72022024,4203.81332877,4137.04456597,4182.62513756,4253.49955217,4184.81332101,4189.11357448,792.261583836
off_to_on,4197.60477292,4162.23362201,4161.47430504,4137.04756078,4192.22386064,4196.30450042,4193.31612839,4206.16228379,4136.99550792,4182.94543353,4254.86218023,4186.28025597,4190.94472891,766.506690514
off_to_on,4199.51402858,4163.27049721,4161.69752046,4136.9318723,4194.21840787,4199.01515531,4196.5189907,4209.05855481,4136.93399199,4183.39351145,4256.31363326,4188.24278587,4193.17361339,739.96309856
off_to_on,4201.68887784,4164.47297568,4161.94382892,4136.83585935,4196.50545718,4202.21244493,4200.28827128,4212.46725008,4136.86244538,4183.9665793,4257.85180274,4190.68387306,4195.77415969,713.582964592
off_to_on,4204.09749002,4165.83457613,4162.21131773,4136.76193209,4199.05158548,4205.84512995,4204.57442658,4216.34373756,4136.78349292,4184.65953667,4259.47470255,4193.57791954,4198.71383697,688.276577737
off_to_on,4206.70463433,4167.34503117,4162.49786884,4136.71170821,4201.81956349,4209.85474304,4209.32034533,4220.63495662,4136.69986296,4185.46510668,4261.18032542,4196.89143096,4201.95443639,664.883046456
off_to_on,4209.47259188,4168.99048744,4162.80121618,4136.68597002,4204.76932765,4214.17719425,4214.46277255,4225.28080523,4136.61429178,4186.37399304,4262.96638596,4200.5837418,4205.45287266,644.143988247
off_to_on,4212.36202071,4170.75376584,4163.1189943,4136.68465307,4207.85892258,4218.74437251,4219.93367389,4230.21555557,4136.52942983,4187.37505737,4264.82996304,4204.60777931,4209.16198082,626.68109796
off_to_on,4215.33274989,4172.61467366,4163.44877729,4136.70686636,4211.04538828,4223.48569613,4225.66150726,4235.36925639,4136.44775352,4188.45551205,4266.76706241,4208.91084885,4213.03129213,612.978295478
off_to_on,4218.3444865,4174.55036134,4163.78810758,4136.7509429,4214.28557215,4228.32957301,4231.57237968,4240.66908775,4136.37148559,4189.6011251,4268.77212756,4213.4354283,4217.00777908,603.368959431
off_to_on,4221.3574256,4176.53571744,4164.13451501,4136.81451827,4217.53685189,4233.20474043,4237.59107899,4246.04064204,4136.30252707,4190.79643459,4270.83753327,4218.11996521,4221.03656599,598.028553197
off_to_on,4224.33276127,4178.54379611,4164.48552743,4136.8946336,4220.75776206,4238.04146324,4243.64198078,4251.40911394,4136.24240311,4192.02497076,4272.95310036,4222.89967642,4225.06160694,596.972751454
off_to_on,4227.23310277,4180.54627273,4164.83867451,4136.98785861,4223.90852264,4242.77257888,4249.64984122,4256.70039059,4136.19222459,4193.26948583,4275.10567216,4227.70735454,4229.02633858,600.06098827
off_to_on,4230.02280583,4182.51392349,4165.19148682,4137.09042939,4226.95147348,4247.33438595,4255.54049478,4261.84204117,4136.15266651,4194.51219151,4277.27879257,4232.47419021,4232.87431812,607.005178486
off_to_on,4232.66823318,4184.4171254,4165.54149271,4137.19839541,4229.85142237,4251.66738077,4261.241482,4266.76421146,4136.1239635,4195.73500553,4279.45252198,4237.1306206,4236.54985945,617.383214483
off_to_on,4235.13796071,4186.22637239,4165.88621526,4137.30776983,4232.57591731,4255.71685166,4266.6826349,4271.40043334,4136.10592226,4196.9198077,4281.60342099,4241.60721461,4239.99867913,630.656704905
off_to_on,4237.40294643,4187.91280266,4166.22317152,4137.41467725,4235.09545502,4259.43334458,4271.79664705,4275.68836101,4136.09794962,4198.04870606,4283.7047234,4245.83560219,4243.16856193,646.192297093
off_to_on,4239.43667864,4189.4487309,4166.54987583,4137.51549327,4237.38363802,4262.77301589,4276.51965152,4279.57044559,4136.09909489,4199.10431226,4285.72670959,4249.74945081,4246.01005128,663.285815347
off_to_on,4241.21531753,4190.80817809,4166.86384843,4137.60697056,4239.41729204,4265.69788865,4280.79182422,4282.99455806,4136.10810415,4200.07002446,4287.63728062,4253.28548651,4248.47716553,681.188361354
off_to_on,4242.71784185,4191.96739021,4167.16263028,4137.68634643,4241.17655438,4268.17602888,4284.55802358,4285.91456799,4136.12348406,4200.93031479,4289.40272248,4256.38455097,4250.52813584,699.133466757
off_to_on,4243.92620865,4192.90533629,4167.44380429,4137.7514283,4242.64494257,4270.1816574,4287.76847013,4288.29088248,4136.14357243,4201.67101677,4290.98863901,4258.99268005,4252.12615631,716.364364051
off_to_on,4244.82553061,4193.60417506,4167.70502295,4137.80065383,4243.80941041,4271.69521111,4290.37946237,4290.0909458,4136.16661235,4202.27960739,4292.36102206,4261.06218329,4253.24013206,732.160451728
off_to_on,4245.40427075,4194.04967873,4167.94404153,4137.83312416,4244.66039626,4272.70336477,4292.35411699,4291.2896964,4136.19082719,4202.74547666,4293.48741829,4262.55269801,4253.84540554,745.862068674
off_to_on,4245.65445015,4194.2316013,4168.15875593,4137.8486097,4245.19186471,4273.19902011,4293.66311301,4291.86997247,4136.21449325,4203.06017679,4294.33814405,4263.43218621,4253.92443661,756.892752428
off_to_on,4245.57185877,4194.14397804,4168.3472435,4137.84752932,4245.40133928,4273.18126326,4294.2854107,4291.82285201,4136.2360074,4203.21764199,4294.88749384,4263.67783762,4253.46740732,764.778230978
off_to_on,4245.156255,4193.78534183,4168.50780466,4137.8309048,4245.28991896,4272.65528543,4294.20890726,4291.1479074,4136.25394726,4203.21436898,4295.11488413,4263.27683791,4252.472719,769.161491522
off_to_on,4244.41153475,4193.15884197,4168.63900297,4137.80029369,4244.86226748,4271.63225551,4293.43098419,4289.85334942,4136.26712181,4203.04954816,4295.00587313,4262.22695874,4250.94734661,769.813388848
off_to_on,4243.34584783,4192.27225125,4168.73970096,4137.75770429,4244.126561,4270.12912848,4291.95889686,4287.95603229,4136.27461072,4202.7251355,4294.55299868,4260.53692614,4248.90701559,766.638402825
off_to_on,4241.97163841,4191.13784906,4168.80908873,4137.7054969,4243.09437849,4268.16837125,4289.80995589,4285.48129015,4136.27579123,4202.24585598,4293.75638144,4258.22652661,4246.37616876,759.675325389
off_to_on,4240.30558663,4189.77217065,4168.84670284,4137.64627631,4241.78051943,4265.77758686,4287.01145377,4282.4625777,4136.27035206,4201.61913151,4292.62404871,4255.32641642,4243.38769578,749.092844606
off_to_on,4238.36843135,4188.19561691,4168.8524328,4137.58277974,4240.20273554,4262.98901959,4283.60029658,4278.94089202,4136.25829414,4200.85492814,4291.17194418,4251.87760767,4239.98240482,735.18018852
off_to_on,4236.18465721,4186.43192304,4168.82651308,4137.51776529,4238.38136762,4259.83892616,4279.62231068,4274.96395842,4136.23991869,4199.96552019,4289.42360151,4247.93061489,4236.20822419,718.333185285
off_to_on,4233.78203384,4184.50748995,4168.76949892,4137.45390477,4236.33888375,4256.36680173,4275.13120498,4270.58517113,4136.21580366,4198.96517152,4287.40947275,4243.54425665,4232.11913113,699.036279758
off_to_on,4231.19099976,4182.45058709,4168.68222476,4137.39368489,4234.09932133,4252.6144539,4270.18718194,4265.8622871,4136.18676985,4197.86973704,4285.16591619,4238.78411834,4227.77381394,677.841211687
off_to_on,4228.44388965,4180.29044112,4168.56574487,4137.33931969,4231.68764163,4248.62492338,4264.85520386,4260.85588094,4136.15383849,4196.69619032,4282.73386258,4233.72069409,4223.23408426,655.34319924
off_to_on,4225.57400961,4178.0562301,4168.42125661,4137.29267675,4229.12901012,4244.44125672,4259.20293534,4255.62757839,4136.11818241,4195.4620859,4280.15719208,4228.42723851,4218.56306598,632.155577402
off_to_on,4222.61457285,4175.77600808,4168.25000719,4137.25521866,4226.44802034,4240.10514417,4253.29839797,4250.23809632,4136.08107282,4194.18496798,4277.48086743,4222.97737128,4213.82319775,608.883908596
off_to_on,4219.59751491,4173.47558925,4168.05318617,4137.227961,4223.66788069,4235.65544331,4247.20738724,4244.74512729,4136.04382416,4192.88173941,4274.74888028,4217.44248966,4209.07409545,586.100609551
off_to_on,4216.55221423,4171.17742436,4167.83180609,4137.21144739,4220.8095844,4231.12661549,4240.99071395,4239.20111513,4136.00773921,4191.56800688,4272.00207659,4211.88905408,4204.37032898,564.321122241
off_to_on,4213.50414863,4168.89950358,4167.58657472,4137.20574162,4217.89108067,4226.54710692,4234.70134072,4233.6509743,4135.97405661,4190.25741956,4269.275933,4206.37581902,4199.75917253,543.982598145
off_to_on,4210.47352101,4166.65431943,4167.31776224,4137.21043669,4214.92646113,4221.93770756,4228.38148828,4228.1298077,4135.94390258,4188.9610183,4266.5983579,4200.95108371,4195.27838946,525.425966231
off_to_on,4207.47388784,4164.4479211,4167.02506725,4137.2246795,4211.92516943,4217.30992022,4222.05978462,4222.66067644,4135.91824847,4187.68661185,4263.98758884,4195.65003535,4190.95411061,508.882119888
off_to_on,4204.51082264,4162.27908732,4166.70748478,4137.24720977,4208.89123574,4212.66436914,4215.74852569,4217.25247055,4135.89787546,4186.43819459,4261.45025266,4190.49225224,4186.79886009,494.462792136
off_to_on,4201.58064493,4160.13863943,4166.36317943,4137.27641119,4205.82253171,4207.98927489,4209.44110826,4211.89792324,4135.88334729,4185.21541832,4258.97964682,4185.47942608,4182.8097763,482.156498468
off_to_on,4198.6692428,4158.00891116,4165.98936632,4137.31037232,4202.7100384,4203.25901988,4203.10968902,4206.57180576,4135.87499175,4184.01312843,4256.55429122,4180.59335549,4178.96706931,471.829720707
off_to_on,4195.75101601,4155.86338635,4165.58220231,4137.34695488,4199.53711799,4198.43282898,4196.70311717,4201.2293348,4135.87289129,4182.82097301,4254.13679058,4175.79425476,4175.23274939,463.23329161
off_to_on,4192.78796545,4153.66651055,4165.13668954,4137.38386663,4196.27878208,4193.45359043,4190.14518366,4195.80482105,4135.87688288,4181.62309187,4251.67303774,4171.01941609,4171.549656,456.013727582
off_to_on,4189.72895438,4151.37367919,4164.64659369,4137.41873612,4192.90095365,4188.24684578,4183.33322825,4190.21058676,4135.88656689,4180.39789155,4249.09178042,4166.1822585,4167.84081252,449.729054556
off_to_on,4186.50916796,4148.93140167,4164.10437907,4137.44918678,4189.35972825,4182.71998301,4176.13714727,4184.33618164,4135.90132468,4179.11791216,4246.30456741,4161.17179462,4164.00912999,443.868488065
off_to_on,4183.04980014,4146.27764047,4163.50116339,4137.47290793,4185.60065131,4176.76167605,4168.39885078,4178.04793257,4135.92034404,4177.7497924,4243.2060862,4155.85254751,4159.93748392,437.875170536
off_to_on,4179.25800078,4143.34232441,4162.82669557,4137.48772041,4181.55804332,4170.24162475,4159.93222805,4171.18887138,4135.94265153,4176.25434039,4239.67490295,4150.06495358,4155.48919156,431.171043099
off_to_on,4175.02712074,4140.04803816,4162.06936054,4137.49163525,4177.15442086,4163.01066197,4150.52369257,4163.57909715,4135.9671507,4174.5867199,4235.57461633,4143.62629384,4150.50892257,423.18284104
off_to_on,4170.23729742,4136.31089231,4161.21621597,4137.48290342,4172.300077,4154.90130478,4139.93338988,4155.01664151,4135.99266447,4172.69676397,4230.75543784,4136.33220232,4144.8240809,413.368154824
off_to_on,4164.75642545,4132.0415815,4160.25306649,4137.46005588,4166.89289816,4145.72883449,4127.89715964,4145.27891523,4136.01798055,4170.52942926,4225.05621222,4127.95880456,4138.24669937,401.240494281
off_to_on,4158.44155779,4127.14663989,4159.16458121,4137.42193277,4160.818504,4135.29299205,4114.12934601,4134.12481994,4136.04189796,4168.02540588,4218.30689041,4118.26553956,4130.57588863,386.392332118
off_to_on,4151.14077875,4121.52990377,4157.93446067,4137.36770129,4153.9508009,4123.38037144,4098.32654619,4121.29760819,4136.06327316,4165.12189707,4210.33146458,4106.99871454,4121.6008784,368.515182795
off_to_on,4142.69558342,4115.09419003,4156.54565845,4137.29686235,4146.15303883,4109.76758352,4080.17237492,4106.52856835,4136.08106418,4161.75358138,4200.95136875,4093.89583166,4111.10467996,347.415890453
off_to_on,4132.94378673,4107.74319613,4154.98066211,4137.20924586,4137.27945324,4094.2252447,4059.34330209,4089.54159571,4136.09437099,4157.85376705,4189.98933923,4078.69070904,4098.86838502,323.028450385
off_to_on,4121.72296919,4099.38362096,4153.22183619,4137.10499568,4127.17755877,4076.5228195,4035.51558959,4070.05868752,4136.10247099,4153.35574259,4177.27371494,4061.11939482,4084.67609525,295.420866022
off_to_on,4108.87444561,4089.92749775,4151.25182803,4136.98454503,4115.69113896,4056.43431234,4008.37331211,4047.80636657,4136.10484816,4148.19432072,4162.64313953,4040.92684121,4068.32045125,264.796740577
off_to_on,4094.24771787,4079.29471854,4149.05403441,4136.84858391,4102.66394647,4033.74476263,3977.61739509,4022.52299587,4136.1012151,4142.30756359,4145.95160414,4017.87426777,4049.60869728,231.49151117
off_to_on,4077.70534453,4067.41571653,4146.61312371,4136.69801994,4087.94409325,4008.25745079,3942.97554396,3993.96689747,4136.09152703,4135.63866682,4127.07374436,3991.74710002,4028.36918382,195.963445186
off_to_on,4059.12812996,4054.23425759,4143.91560473,4136.53393457,4071.38907027,3979.80167346,3904.21287555,3961.92513495,4136.07598733,4128.13796871,4105.91027757,3962.36332428,4004.45817217,158.779725203
off_to_on,4038.42050559,4039.71027691,4140.95042964,4136.35753622,4052.87129562,3948.24089614,3861.1429984,3926.22276319,4136.05504431,4119.76503925,4082.39344077,3929.58205383,3977.76676926,120.598141947
off_to_on,4015.51594792,4023.82268219,4137.7096145,4136.1701125,4032.2840478,3913.4810443,3813.63922704,3886.73229524,4136.02937942,4110.49079248,4056.49226356,3893.31205835,3948.22778601,82.1450867437
off_to_on,3990.38225292,4006.57203096,4134.18885779,4135.97298317,4009.54760255,3875.47865225,3761.64556049,3843.38308616,4135.99988718,4100.29955534,4028.21749068,3853.51997048,3915.82228309,44.1906790987
off_to_on,3963.02646703,3987.98297935,4130.38813417,4135.7674558,3984.61535652,3834.24855462,3705.18700955,3796.17029193,4135.96764757,4089.19101743,3997.62595222,3810.23785334,3880.58554508,7.52197589962
off_to_on,3933.49926185,3968.10639166,4126.31223846,4135.55478566,3957.47969348,3789.87078279,3644.37882653,3745.16303013,4135.93389185,4077.18197994,3964.82417156,3763.56979336,3842.61221024,-27.0847180422
off_to_on,3901.8985347,3947.02099721,4121.97125394,4135.33614147,3928.17732975,3742.49631786,3579.4341755,3690.5113519,4135.89996288,4064.3078188,3929.97100075,3713.69717693,3802.06028054,-58.8913851784
off_to_on,3868.37202128,3924.8344823,4117.38091824,4135.1125778,3896.7938668,3692.35135588,3510.66978554,3632.45163253,4135.86727131,4050.62357767,3893.27908238,3660.88231721,3759.15374538,-87.2246305252
off_to_on,3833.11871995,3901.68391156,4112.56286163,4134.8850152,3863.46728211,3639.73976102,3438.50915327,3571.31000356,4135.83724887,4036.20461031,3855.01495577,3605.47012095,3714.18357411,-111.499817611
off_to_on,3796.38895095,3877.73538522,4107.54469385,4134.65422809,3828.3901051,3585.04341791,3363.4829074,3507.50348276,4135.81130035,4021.14670031,3815.49765439,3547.88752504,3667.50686685,-131.242087505
off_to_on,3758.48290759,3853.18285638,4102.35991919,4134.42084054,3791.81005438,3528.72024741,3286.2260165,3441.53851131,4135.79075553,4005.56559842,3775.09568066,3488.64048752,3619.54400034,-146.103457366
off_to_on,3719.7475998,3828.24605595,4097.04766401,4134.18532931,3754.0289549,3471.29971855,3207.47161181,3374.00667884,4135.77682287,3989.59593378,3734.22229265,3428.30839005,3570.77366544,-155.875337319
off_to_on,3680.57214312,3803.16750142,4091.65220653,4133.9480336,3715.39980847,3413.37577246,3128.04130733,3305.57750572,4135.77054615,3973.38947569,3693.32909475,3367.5357938,3521.72576384,-160.495971498
off_to_on,3641.38140566,3778.20859873,4086.22230619,4133.70917056,3676.32195719,3355.59716951,3048.83202616,3236.98825632,4135.77276587,3957.11274522,3652.89798836,3307.02158827,3472.97221106,-160.05249534
off_to_on,3602.62809085,3753.64488319,4080.81033763,4133.46885538,3637.23435318,3298.65537456,2970.79948081,3169.03087142,4135.78408655,3940.9440019,3613.43160743,3247.50567785,3425.11577925,-154.777497715
off_to_on,3564.78340139,3729.76048319,4075.4712434,4133.22712491,3598.60702802,3243.27020321,2894.93860076,3102.53623098,4135.8048513,3925.06965718,3575.44243423,3189.75345976,3378.77720145,-145.040173073
do_nothing,3528.32649763,3706.84192929,4070.26132833,4132.98396341,3560.93093662,3190.17355965,2822.26134519,3038.35608158,4135.83512462,3909.68019357,3539.44085958,3134.53845495,3334.58084584,-131.332340527
do_nothing,3493.73302693,3685.17146691,4065.23692716,4132.73932901,3524.70642967,3140.09169772,2753.77247738,2977.34308259,4135.87468417,3894.96569395,3505.92251505,3082.62355395,3293.13934902,-114.2497951
do_nothing,3461.46305756,3665.02006394,4060.4529848,4132.49317956,3490.43068217,3093.72652701,2690.44399991,2920.32953344,4135.9230219,3881.11110832,3475.35525851,3034.74142822,3255.03766667,-94.469640258
do_nothing,3431.94879681,3646.64033023,4055.9615955,4132.2454965,3458.58446881,3051.73655875,2633.18905185,2868.10543607,4135.97935458,3868.29140491,3448.16623584,2991.5747279,3220.81705468,-72.7244211139
do_nothing,3405.5825056,3630.25958553,4051.81055164,4131.99630565,3429.61872655,3014.71813823,2582.83614219,2821.39661571,4136.04264329,3856.6667658,3424.72946689,2953.73673561,3190.95952949,-49.7740212141
do_nothing,3382.7050388,3616.07332154,4048.04195594,4131.74569406,3403.94137778,2983.18763728,2540.10463436,2780.84366532,4136.11162132,3846.3779959,3405.35441227,2921.7531689,3165.87337092,-26.3763926739
do_nothing,3363.59543999,3604.23930384,4044.69095103,4131.49382236,3381.90490112,2957.56528013,2505.58240013,2746.98249039,4136.18482939,3837.54231465,3390.27596605,2896.04581877,3145.88022244,-3.25825295366
do_nothing,3348.46200102,3594.87254889,4041.78461824,4131.24093239,3363.79513084,2938.16124666,2479.7065263,2720.22721066,4136.26065696,3830.24969482,3379.64628956,2876.91867781,3131.20431181,18.9131027208
do_nothing,3337.43516072,3588.04138997,4039.34109347,4130.9873502,3349.821739,2925.16464076,2462.74788398,2700.85612187,4136.33738833,3824.55989924,3373.52885201,2864.5471483,3121.96425958,39.555756297
do_nothing,3330.56256357,3583.76481495,4037.36894069,4130.73348474,3340.11080746,2918.63582702,2454.80025989,2689.00133624,4136.41325196,3820.50034697,3371.89497729,2858.97083064,3118.16786551,58.1958480011
do_nothing,3327.80653085,3582.01121868,4035.8668157,4130.47982269,3334.69983086,2918.50253135,2455.77460489,2684.64260595,4136.48647146,3818.06491394,3374.62311432,2860.09027708,3119.71016569,74.4860595618
do_nothing,3329.04411449,3582.69866506,4034.82344189,4130.22692017,3333.53540951,2924.55997181,2465.39878206,2687.60569459,4136.55531668,3817.213742,3381.50095423,2867.66796044,3126.37494023,88.2191326771
do_nothing,3334.06981227,3585.69670045,4034.21790833,4129.97539196,3336.47379483,2936.47514212,2483.22300172,2697.56550184,4136.61815326,3817.87409414,3392.23041464,2881.33355709,3137.8397267,99.3358470736
do_nothing,3342.60092489,3590.82970312,4034.02028818,4129.72589896,3343.28434476,2953.79521575,2508.63092191,2714.05397328,4136.67348906,3819.94225599,3406.43540403,2900.59348401,3153.68426407,107.927097325
do_nothing,3354.28543503,3597.88169577,4034.19256276,4129.47913467,3353.65583637,2975.95988179,2540.85617843,2736.47264734,4136.72001622,3823.2864437,3423.67217142,2924.84446849,3173.40216093,114.229937363
do_nothing,3368.7121909,3606.60249077,4034.68982443,4129.23581132,3367.20547169,3002.3172703,2579.00389816,2764.10951274,4136.75664734,3827.75064015,3443.44194363,2953.39077204,3196.41545533,118.61770003
do_nothing,3385.42308428,3616.71498484,4035.46171996,4128.99664598,3383.49030651,3032.14298126,2622.07655082,2796.15967943,4136.78254513,3833.15924396,3465.20545817,2985.46454349,3222.0916169,121.584536447
do_nothing,3403.92683152,3627.92337231,4036.45408607,4128.76234734,3402.02073376,3064.66160367,2669.00331704,2831.74921048,4136.79714454,3839.32238309,3488.39891865,3020.24864703,3249.7624399,123.724943759
do_nothing,3423.71389742,3639.92200622,4037.61072019,4128.53360306,3422.27556824,3099.07000548,2718.67200019,2869.96133007,4136.80016709,3846.04171644,3512.45083469,3056.90120305,3278.74419248,125.709050887
do_nothing,3444.27205006,3652.40460668,4038.87522346,4128.31106837,3443.71821093,3134.56159517,2769.96239548,2909.86411702,4136.7916271,3853.11652498,3536.79916414,3094.58100085,3308.35832771,128.254604741
do_nothing,3465.10200219,3665.07349659,4040.19284888,4128.09535571,3465.81332245,3170.35070604,2821.7799558,2950.53872204,4136.77183006,3860.34987974,3560.90815288,3132.47289401,3337.95202837,132.096737189
do_nothing,3485.73258271,3677.64853849,4041.51228634,4127.88702607,3488.04340874,3205.69623733,2873.08856473,2991.10711201,4136.74136318,3867.55466812,3584.28427007,3169.81227678,3366.91785233,137.956686991
do_nothing,3505.73489167,3689.87545146,4042.7873179,4127.68658187,3509.92471774,3239.92370254,2922.94124384,3030.75834795,4136.70107882,3874.5592622,3606.49066232,3205.90776158,3394.71176961,146.510697241
do_nothing,3524.73492308,3701.53320576,4043.97828041,4127.49446169,3531.02186609,3272.44488431,2970.50768353,3068.77244601,4136.65207129,3881.21262377,3627.15959879,3240.16123428,3420.86893319,158.360308366
do_nothing,3542.42419121,3712.44022243,4045.05327961,4127.31103677,3550.9606561,3302.77437578,3015.0975913,3104.54094951,4136.59564785,3887.38865941,3646.00244783,3272.08455232,3445.01660339,174.0052196
do_nothing,3558.56796531,3722.45914595,4045.9891083,4127.13660884,3569.43860741,3330.54239662,3056.17899617,3137.58345339,4136.53329475,3892.98966466,3662.81681272,3301.31226738,3466.88374488,193.819796802
do_nothing,3573.0108039,3731.50000823,4046.77183204,4126.97140891,3586.23280948,3355.50340519,3093.39082623,3167.55946575,4136.4666394,3897.94872888,3677.49055585,3327.60989629,3486.30693515,218.03416535
do_nothing,3585.67917764,3739.52166033,4047.39701838,4126.81559608,3601.20480003,3377.54018129,3126.54928329,3194.27515954,4136.39740951,3902.23100941,3690.00255413,3350.87742504,3503.23235687,246.720652046
do_nothing,3596.5810779,3746.53141137,4047.86959903,4126.66925571,3614.302285,3396.66322076,3155.64776615,3217.68475503,4136.32739041,3905.83382536,3700.4201497,3371.14790569,3517.71379104,279.786136458
do_nothing,3605.80262026,3752.58288117,4048.20336834,4126.53239639,3625.55763456,3413.00545764,3180.85033271,3237.88647265,4136.25838164,3908.78556524,3708.89338316,3388.58118782,3529.90667655,316.970645139
do_nothing,3613.50176501,3757.77213962,4048.42013576,4126.40494531,3635.08321146,3426.81250477,3202.47893275,3255.11319903,4136.1921537,3911.1434466,3715.64621826,3403.45300785,3540.05844858,357.85228054
do_nothing,3619.89938575,3762.23227063,4048.54856327,4126.28674234,3643.06370855,3438.42877231,3220.9948768,3269.71820754,4136.13040619,3912.99020962,3720.96508078,3416.13983433,3548.49550908,401.858332718
do_nothing,3625.26801766,3766.12655887,4048.62273112,4126.17753276,3649.74578664,3448.2799801,3236.97522389,3282.15646209,4136.07472816,3914.42986648,3725.18513692,3427.10002784,3555.60731005,448.282185737
do_nothing,3629.91870598,3769.64054998,4048.68048604,4126.07695926,3655.4254071,3456.85271677,3251.08496352,3292.96220085,4136.02656168,3915.58266454,3728.67482329,3436.852015,3561.82814056,496.305408299
do_nothing,3634.18644786,3772.9732794,4048.76163475,4125.98455357,3660.43334295,3464.671812,3264.0460283,3302.72363881,4135.98716933,3916.57945139,3731.81920778,3445.95029095,3567.6172973,545.024218176
do_nothing,3638.41477597,3776.32799786,4048.90605182,4125.89972839,3665.11942276,3472.27637292,3276.60429633,3312.05573975,4135.95760642,3917.55565308,3735.00280687,3454.96014975,3573.43838177,593.479343202
do_nothing,3642.94006651,3779.90274278,4049.15177472,4125.82177033,3669.83611198,3480.19538976,3289.49582365,3321.57208504,4135.9386984,3918.64509218,3738.59250759,3464.43209386,3579.73850354,640.688174235
do_nothing,3648.07616757,3783.88111321,4049.53315966,4125.74983487,3674.92206418,3488.92383549,3303.41358171,3331.85690488,4135.93102411,3919.97387977,3742.92124103,3474.87689083,3586.92817632,685.678019556
do_nothing,3654.09993435,3788.42360093,4050.07917015,4125.68294428,3680.68627825,3498.90017022,3318.97596297,3343.43833725,4135.93490499,3921.65461361,3748.27302922,3486.74222537,3595.36267193,727.519228662
do_nothing,3661.23822648,3793.65981197,4050.81186542,4125.6199899,3687.39347707,3510.48611192,3336.69825731,3356.76393803,4135.95040062,3923.78110461,3754.86997754,3500.39184001,3605.32554582,765.356960632
do_nothing,3669.65686934,3799.68188103,4051.74514875,4125.55973972,3695.25127844,3523.94945228,3356.96819513,3372.17938528,4135.97731053,3926.42383491,3762.8617129,3516.08796698,3617.01496932,798.440427737
do_nothing,3679.45200864,3806.53933796,4052.88382603,4125.50085236,3704.39966157,3539.45058328,3380.02650302,3389.91120199,4136.01518207,3929.6263237,3772.3176763,3533.97773256,3630.53339938,826.148543317
do_nothing,3690.64419761,3814.23563102,4054.22301343,4125.44189775,3714.90314469,3557.03325977,3405.9532301,3410.0541716,4136.06332403,3933.40254325,3783.22256952,3554.08406649,3645.88099198,848.011040023
do_nothing,3703.17545284,3822.72644969,4055.74791988,4125.3813849,3726.74598564,3576.61996305,3434.66038624,3432.56394283,4136.12082536,3937.7354881,3795.47513651,3576.30147973,3662.95302394,863.72429773
do_nothing,3716.90940295,3831.919922,4057.43401604,4125.31779607,3739.83060115,3598.01205567,3465.89119463,3457.25512417,4136.18657818,3942.57695699,3808.89033284,3600.39689019,3681.5414367,873.161322842
do_nothing,3731.63453696,3841.67869043,4059.24758686,4125.2496267,3753.97927748,3620.89473698,3499.22601282,3483.804961,4136.25930438,3947.84856153,3823.20480931,3626.01548637,3701.34046024,876.375541477
do_nothing,3747.07044357,3851.82380032,4061.14665044,4125.17542962,3768.93912044,3644.8466285,3534.09472625,3511.76247813,4136.33758493,3953.44392933,3838.08551134,3652.69142941,3721.95612205,873.598299354
do_nothing,3762.8768208,3862.14026708,4063.0822122,4125.09386209,3784.39007079,3669.3536468,3569.79517815,3540.56276682,4136.41989112,3959.23202518,3853.14108043,3679.86301475,3742.91930171,865.230195248
do_nothing,3778.66493429,3872.38412674,4064.99981082,4125.00373364,3799.95569765,3693.82666426,3605.51697813,3569.54590533,4136.50461704,3965.06147239,3867.93564127,3706.89175081,3763.70186194,851.826603593
do_nothing,3794.01111415,3882.29072152,4066.84130201,4124.90405247,3815.21638108,3717.62232243,3640.36983808,3597.97983438,4136.59011278,3970.76572049,3882.00447247,3733.08467201,3783.73527686,834.077953701
do_nothing,3808.47180841,3891.58392802,4068.54681751,4124.79406822,3829.72440907,3740.06625103,3673.41542377,3625.08636798,4136.67471768,3976.16887534,3894.87099266,3757.71908995,3802.43109107,812.785520027
do_nothing,3821.59965693,3899.98600319,4070.05683049,4124.67330871,3843.02044603,3760.47786219,3703.70158788,3650.06941046,4136.75679344,3981.09198501,3906.06444931,3780.06890326,3819.20248101,788.833636125
do_nothing,3832.96001467,3907.22770189,4071.31425487,4124.54160833,3854.65078069,3778.1958353,3730.2977682,3672.14437422,4136.83475643,3985.35955875,3915.13767454,3799.43153356,3833.48615284,763.15936869
do_nothing,3842.14733732,3913.05830963,4072.26650467,4124.39912625,3864.18473281,3792.60338384,3752.33029364,3690.56775107,4136.90710904,3988.80608847,3921.68427191,3815.15453392,3844.76380031,736.720770146
do_nothing,3848.80084715,3917.25523681,4072.86744074,4124.24635271,3871.23159079,3803.15240213,3769.01634198,3704.66578405,4136.97246953,3991.28234205,3925.35461956,3826.66092672,3852.58236046,710.464866013
do_nothing,3852.61892018,3919.63283396,4073.07913575,4124.08410249,3875.45646593,3809.38562729,3779.69533638,3713.86121555,4137.02960013,3992.66120468,3925.87011739,3833.47236918,3856.57234526,685.296528629
do_nothing,3853.37167896,3920.05011318,4072.87339456,4123.91349509,3876.59448504,3810.95601767,3783.85665194,3717.69715172,4137.07743284,3992.84285987,3923.03516833,3835.22931725,3856.46359109,662.049341371
do_nothing,3850.91133552,3918.41709692,4072.23297497,4123.73592159,3874.46279804,3807.64264295,3781.1626268,3715.85717987,4137.11509269,3991.75912339,3916.7464645,3831.70745876,3852.09785553,641.459463635
do_nothing,3845.17990538,3914.6995608,4071.15246438,4123.55299925,3868.96995217,3799.36249981,3771.46603107,3708.18100313,4137.14191771,3989.37677245,3906.99924421,3822.82981314,3843.43779732,624.143367364
do_nothing,3836.21400299,3908.92199159,4069.63877927,4123.36651518,3860.1222748,3786.17780647,3754.82133665,3694.67500982,4137.15747536,3985.69974623,3893.89029338,3808.67404254,3830.5719998,610.580141573
do_nothing,3824.1465294,3901.16864182,4067.71126768,4123.17836137,3848.02701085,3768.29848557,3731.48934375,3675.51736984,4137.16157472,3980.77013296,3877.61757892,3789.47468287,3813.71583331,601.09886774
do_nothing,3809.20516913,3891.5826273,4065.40140838,4122.9904638,3832.8920738,3746.07971046,3701.93494948,3651.05743882,4137.1542739,3974.66790006,3858.47651883,3765.62017752,3793.2080956,595.871369182
do_nothing,3791.70772358,3880.36308071,4062.75211457,4122.80470891,3815.02238755,3720.0145614,3666.81807961,3621.80944735,4137.13588213,3967.50936718,3836.85300894,3737.64477452,3769.50351402,594.910440157
do_nothing,3772.05441711,3867.76044096,4059.8166631,4122.62287056,3794.81291571,3690.72200695,3626.97804121,3588.44064986,4137.10695621,3959.44446486,3813.21343705,3706.21552442,3743.16133578,598.073473877
do_nothing,3750.71741649,3854.07002205,4056.65728351,4122.44654118,3772.73859135,3658.93058868,3583.4117812,3551.7542991,4137.06829087,3950.65286389,3788.09201689,3672.1147849,3714.83036803,605.071240134
do_nothing,3728.22790127,3839.62406492,4053.34345239,4122.27707016,3749.34146927,3625.45833696,3537.24674799,3512.66799173,4137.02090315,3941.33909917,3762.0758652,3636.21879394,3685.23095211,615.481414284
do_nothing,3705.16110753,3824.78252827,4049.949949,4122.11551277,3725.21552182,3591.18957767,3489.70924208,3472.18809161,4136.96601073,3931.72684728,3735.78832067,3599.47301015,3655.13446413,628.766324352
do_nothing,3682.11983897,3809.9229189,4046.55473609,4121.96259198,3700.98958329,3557.0493998,3442.08930024,3431.38107482,4136.90500469,3922.05254659,3709.8710623,3562.86503285,3625.34102066,644.29425849
do_nothing,3659.71699336,3795.42949631,4043.23673613,4121.8186754,3677.30901533,3523.97663735,3395.70328147,3391.342749,4136.83941702,3912.55857187,3684.96562369,3527.39599957,3596.65613227,661.3635656
do_nothing,3638.5576882,3781.68220906,4040.07357678,4121.68376816,3654.81671257,3492.89627301,3351.85540528,3353.16637533,4136.77088393,3903.48619126,3661.69491831,3494.05141362,3569.86708562,679.228696188
do_nothing,3619.22158401,3769.04573055,4037.13938015,4121.55752267,3634.13409234,3464.69219214,3311.7995316,3317.91076055,4136.70110554,3895.06854117,3640.64538763,3463.77237481,3545.71984488,697.12727434
do_nothing,3602.24599738,3757.85895916,4034.50266894,4121.43926468,3615.84271373,3440.1812043,3276.70246377,3286.56938775,4136.6318033,3887.52385375,3622.35035898,3437.42817262,3524.89724538,714.307268052
do_nothing,3588.11036755,3748.42533176,4032.22445811,4121.32803487,3600.46714894,3420.08920385,3247.61000235,3260.04161695,4136.56467616,3881.04916266,3607.27515442,3415.79115307,3507.99920656,730.053335131
do_nothing,3577.22259232,3741.004271,4030.35659399,4121.22264424,3588.45968485,3405.03026516,3225.41687957,3239.1069126,4136.50135687,3875.81469544,3595.80442711,3399.51468919,3495.5256192,743.711461412
do_nothing,3569.90768208,3735.80404661,4028.94039364,4121.12174088,3580.18736643,3395.48936256,3210.84156517,3224.40294591,4136.44336965,3871.95913641,3588.23211992,3389.11497488,3487.86246644,754.711068069
do_nothing,3566.39909771,3732.97628072,4028.00562679,4121.02388534,3575.92180892,3391.80927489,3204.40676008,3216.40828114,4136.39209055,3869.58591238,3584.75434657,3384.95722551,3485.27162252,762.583840318
do_nothing,3566.83304242,3732.6122687,4027.56986986,4120.92763112,3575.83210551,3394.18208456,3206.42619048,3215.43019028,4136.34871173,3868.76061725,3585.46539014,3387.24671201,3487.88464208,766.978623966
do_nothing,3571.2458716,3734.74122224,4027.63824882,4120.83160687,3579.9810449,3402.64551611,3216.9980887,3221.5979571,4136.31421082,3869.50965062,3590.35690306,3396.02488373,3495.70071018,767.671855854
do_nothing,3579.57467355,3739.33047275,4028.20357319,4120.73459666,3588.3247342,3417.08418559,3236.00550838,3234.8618347,4136.28932634,3871.82010217,3599.32027943,3411.17065464,3508.5887756,764.573141538
do_nothing,3591.66096036,3746.28760368,4029.24685013,4120.63561462,3600.71559953,3437.23565733,3263.12337713,3254.99761927,4136.27453986,3875.64086919,3612.15205984,3432.40674531,3526.29374121,757.725764815
do_nothing,3607.25729769,3755.46441169,4030.7381539,4120.53397095,3616.90861618,3462.70103293,3297.83195076,3281.61660332,4136.27006571,3880.88495113,3628.5621245,3459.31079477,3548.44644238,747.302101372
do_nothing,3626.03659794,3766.66253203,4032.63781388,4120.42932607,3636.57050436,3492.95963738,3339.43610734,3314.18048142,4136.27584841,3887.43282316,3648.18433558,3491.3307889,3574.57701125,733.594104217
do_nothing,3647.60370725,3779.64050473,4034.89787323,4120.32173084,3659.29152108,3527.38722204,3387.08971396,3352.02060742,4136.29156799,3895.13675276,3670.58920733,3527.8042012,3604.13110609,716.999222592
do_nothing,3671.50883667,3794.12200781,4037.46376127,4120.21165085,3684.59938704,3565.27698222,3439.82412287,3394.36085032,4136.31665297,3903.82589039,3695.29811608,3567.98011317,3636.48838603,698.002299725
do_nothing,3697.26232626,3809.80494411,4040.27611561,4120.09997382,3711.97481449,3605.86259203,3496.57971461,3440.3431746,4136.35030072,3913.31193903,3721.79851581,3611.04348232,3670.98253714,677.15415961
do_nothing,3724.35019013,3826.37104212,4043.27268584,4119.98799937,3740.86805127,3648.342398,3556.23931138,3489.05498467,4136.39150432,3923.39518933,3749.55960031,3656.14066086,3706.92211032,655.047731226
do_nothing,3752.24987279,3843.49561878,4046.39024916,4119.8774114,3770.71583004,3691.9038867,3617.66223864,3539.55722782,4136.43908528,3933.87069812,3778.04785221,3702.40524061,3743.61141675,632.29266373
do_nothing,3780.44565327,3860.85715478,4049.56646987,4119.77023366,3800.95811082,3735.74755231,3679.71781848,3590.9122462,4136.49173075,3944.53438852,3806.74194114,3748.98331021,3780.37074319,609.489453208
do_nothing,3808.44316144,3878.14634898,4052.74163854,4119.66876969,3831.0540285,3779.10933534,3741.31713238,3642.21040491,4136.54803423,3955.18885894,3835.14647576,3795.05725736,3816.5551945,587.204127136
do_nothing,3835.78251978,3895.07434761,4055.86023382,4119.57552905,3860.49650357,3821.28088094,3801.4419897,3692.59459749,4136.60653819,3965.64870544,3862.80417522,3839.86732772,3851.57154223,565.944515283
do_nothing,3862.04969029,3911.37988415,4058.87225791,4119.4931418,3888.82504061,3861.6269697,3859.17017605,3741.28183711,4136.66577732,3975.74518661,3889.30610034,3882.73025983,3884.89255144,546.139075866
do_nothing,3886.88568706,3926.8351151,4061.73430768,4119.42426393,3915.63632239,3899.59960094,3913.69622468,3787.5812765,4136.7243207,3985.33008997,3914.29967162,3923.05444564,3916.06836865,528.119145371
do_nothing,3909.993407,3941.24999322,4064.41035418,4119.37147656,3940.59230313,3934.74835136,3964.34714801,3830.90815547,4136.78081173,3994.27869376,3937.49429437,3960.35121384,3944.73467822,512.105343892
do_nothing,3931.14192954,3954.47508076,4066.87221575,4119.33718215,3963.42560915,3966.72678538,4010.59277472,3870.79334515,4136.83400413,4002.49175548,3958.66450916,3994.24199111,3970.61746489,498.198700327
do_nothing,3950.1682374,3966.40276784,4069.09972166,4119.32350132,3983.94216322,3995.29485056,4052.05055367,3906.8883354,4136.88279303,4009.89649735,3977.65068262,4024.46125896,3993.53435374,486.376870539
do_nothing,3966.97640947,3976.96692299,4071.08057504,4119.33217383,4002.0210573,4020.31734533,4088.48489875,3938.96568899,4136.92624014,4016.44659747,3994.35734608,4050.85538302,4013.39262787,476.495614288
do_nothing,3981.53443087,3986.14106132,4072.809935,4119.36446759,4017.61180077,4041.75869207,4119.80135167,3966.91515548,4136.9635921,4022.12123213,4008.74937385,4073.37754296,4030.18414509,468.295482135
do_nothing,3993.86884956,3993.93516869,4074.28974735,4119.42109926,4030.72916627,4059.67437935,4146.03602312,3990.73579359,4136.99429175,4026.92324863,4020.84626538,4092.07912733,4043.97748242,461.413450388
do_nothing,4004.05758156,4000.39136585,4075.52786189,4119.50216993,4041.44593724,4074.19954935,4167.34093236,4010.52458701,4137.01798207,4030.87657675,4030.71485461,4107.09807512,4054.90772809,455.399039379
do_nothing,4012.2212252,4005.57863298,4076.53698044,4119.6071188,4049.88392926,4085.53529653,4183.9659945,4026.46215091,4137.03450283,4034.02301187,4038.46081357,4118.64474111,4063.16441288,449.734266326
do_nothing,4018.51328742,4009.58684203,4077.33348452,4119.73469728,4056.20370878,4093.93330891,4196.23850175,4038.79621273,4137.04388059,4036.41852062,4044.21934508,4126.98593188,4068.97812304,443.856626198
do_nothing,4023.10975103,4012.52036115,4077.93619421,4119.88296518,4060.59346662,4099.67952255,4204.54100631,4047.8236078,4137.04631246,4038.12923249,4048.14547167,4132.42780389,4072.60636675,437.184168985
do_nothing,4026.1984212,4014.49150145,4078.36511019,4120.04930996,4063.25751926,4103.07747286,4209.28853882,4053.8715585,4137.04214476,4039.22728687,4050.40432405,4135.29833231,4074.31927279,429.141654558
do_nothing,4027.96848195,4015.6140732,4078.64018993,4120.23048922,4064.40490878,4104.43201368,4210.90608679,4057.2790041,4137.03184757,4039.78670415,4051.16181503,4135.93005034,4074.38568655,419.186720408
do_nothing,4028.60067085,4015.99730482,4078.78020591,4120.42269588,4064.23855286,4104.03403822,4209.80721405,4058.37871975,4137.01598647,4039.87944359,4050.57605381,4134.6437258,4073.06019471,406.834994843
do_nothing,4028.25844408,4015.74035693,4078.80172905,4120.62164454,4062.94536089,4102.14677753,4206.37462892,4057.48090792,4136.99519292,4039.57179793,4048.78981389,4131.73358498,4070.57155862,391.683128607
do_nothing,4027.08045489,4014.92763365,4078.71827447,4120.82267698,4060.68768347,4098.99417498,4200.94340861,4054.85886859,4136.97013448,4038.92125809,4045.9243165,4127.45461821,4067.11296962,373.428799758
do_nothing,4025.17461023,4013.62505812,4078.53963955,4121.02088368,4057.59640079,4094.75174181,4193.78746454,4050.73725726,4136.9414864,4037.97395972,4042.07453256,4122.01240813,4062.83445964,351.886866401
do_nothing,4022.61390249,4011.87743734,4078.27145592,4121.21123782,4053.76588455,4089.54019272,4185.10969241,4045.28332688,4136.90990555,4036.76279841,4037.30614173,4115.55581455,4057.83771046,327.000994776
do_nothing,4019.43413993,4009.70699652,4077.91496834,4121.38873743,4049.25098882,4083.42204505,4175.03609636,4038.6014238,4136.87600785,4035.30627246,4031.65421816,4108.17273197,4052.173407,298.850269745
do_nothing,4015.63362189,4007.11311517,4077.46704402,4121.54855099,4044.06614184,4076.40124435,4163.61401374,4030.73087452,4136.84034993,4033.60808266,4025.12364299,4099.88901145,4045.84117858,267.650493805
do_nothing,4011.17472733,4004.07324899,4076.92040683,4121.68616134,4038.1865259,4068.42575892,4150.81440297,4021.64726303,4136.80341566,4031.6574882,4017.69117496,4090.6705123,4038.79206981,233.750091132
do_nothing,4005.98730998,4000.54497497,4076.26408227,4121.79750277,4031.55124992,4059.39297029,4136.53799777,4011.26696539,4136.76560799,4029.43038824,4009.30904601,4080.42812705,4030.93338544,197.620746513
do_nothing,3999.97372455,3996.46905384,4075.4840309,4121.87908621,4024.06834284,4049.15758057,4120.62498359,3999.45468236,4136.7272463,4026.89107106,3999.90989129,4069.02550928,4022.13566337,159.843116678
do_nothing,3993.0152479,3991.77336599,4074.56394137,4121.92810762,4015.62132729,4037.54166472,4102.86772105,3986.03359875,4136.68856915,4023.9945475,3989.41277405,4056.28913354,4012.24145208,121.088145377
do_nothing,3984.97960798,3986.3775447,4073.48614842,4121.94253551,4006.07707479,4024.34641793,4083.02593029,3970.79770135,4136.64974208,4020.6893643,3977.73002725,4042.02023166,4001.07550349,82.0946858142
do_nothing,3975.72929452,3980.19810534,4072.23263737,4121.921174,3995.29459727,4009.36508841,4060.84366314,3953.52571013,4136.61086972,4016.92077519,3964.7746064,4026.00808321,3988.4559429,43.6442780991
do_nothing,3965.13029766,3973.15385157,4070.78609354,4121.8636987,3983.1343962,3992.39654418,4036.06732707,3933.99602006,4136.57201143,4012.63413521,3950.46763148,4008.04409053,3974.20594382,6.53403962954
do_nothing,3953.06090656,3965.17132939,4069.13095394,4121.77066374,3969.46797062,3973.25890094,4008.46399021,3912.00201607,4136.53319927,4007.77837553,3934.74579064,3987.93604216,3958.16541897,-28.4513014254
do_nothing,3939.4201986,3956.19009855,4067.25441864,4121.6434794,3954.18708084,3951.80263753,3977.83918944,3887.3671119,4136.49445707,4002.30941367,3917.5682849,3965.52196409,3940.20223997,-60.5671675259
do_nothing,3924.13586331,3946.16759822,4065.14738071,4121.48436097,3937.21237503,3927.92264715,3944.05348613,3859.95887674,4136.4558195,3996.19335686,3898.92301104,3940.68297614,3920.22251766,-89.1356350468
do_nothing,3907.17103214,3935.08340003,4062.80523707,4121.29625042,3918.50101244,3901.56871586,3907.03706649,3829.70165155,4136.41734965,3989.40936469,3878.83171101,3913.35461302,3898.17951383,-113.569674561
do_nothing,3888.52982566,3922.94266639,4060.22854688,4121.08271398,3898.05295828,3872.75398353,3866.8017631,3796.58711877,4136.37915427,3981.95205109,3857.35385725,3883.53613197,3874.08081009,-133.394207303
do_nothing,3868.26138119,3909.77866356,4057.42350981,4120.84781917,3875.91567852,3841.56102348,3823.44997839,3760.68237162,4136.34139535,3973.83332392,3834.5890942,3851.29741087,3847.99342952,-148.263173265
do_nothing,3846.46218373,3895.65421617,4054.40224341,4120.59599626,3852.18702664,3808.14527068,3777.18011414,3722.13512848,4136.30429759,3965.08358242,3810.67811312,3816.78313529,3820.04668673,-157.971951041
do_nothing,3823.27658851,3880.66203067,4051.18284558,4120.33188924,3827.01618508,3772.7356318,3728.28824823,3681.17584923,4136.26815087,3955.75221721,3785.80189781,3780.21407818,3790.43262971,-162.46463874
do_nothing,3798.89549312,3864.92385868,4047.7892366,4120.06020217,3800.60259933,3735.63221877,3677.16594551,3638.1166301,4136.23330771,3945.90738446,3760.17934186,3741.88538725,3759.4040283,-161.835893662
do_nothing,3773.55318734,3848.58851515,4044.2507828,4119.78554677,3773.19292018,3697.2012583,3624.29423929,3593.34687717,4136.20017566,3935.63505302,3734.06330061,3702.1619092,3727.26995761,-156.327226838
do_nothing,3747.522479,3831.82881085,4040.60171259,4119.51229686,3745.07604649,3657.86733861,3570.23396805,3547.32588302,4136.16920479,3925.03735144,3707.73520209,3661.47069434,3694.38911691,-146.317846901
do_nothing,3721.10826061,3814.8375005,4036.88034306,4119.24445516,3716.57643478,3618.10325765,3515.61279431,3500.57255104,4136.14087114,3914.23026855,3681.49839831,3620.29093479,3661.16111189,-132.310341019
do_nothing,3694.63974253,3797.82238712,4033.12814341,4118.98553715,3688.04590959,3578.41783119,3461.1093628,3453.65262373,4136.11565666,3903.34078679,3655.67048955,3579.14169115,3628.0160088,-114.911670055
do_nothing,3668.46163112,3781.00075693,4029.38866761,4118.73847604,3659.85426828,3539.34209942,3407.43516897,3407.16387071,4136.09402684,3892.50355002,3630.57489717,3538.56785114,3595.40253758,-94.8101397586
do_nothing,3642.92457325,3764.59334688,4025.70639412,4118.50555197,3632.37902228,3501.4144359,3355.31480147,3361.71977439,4136.07640703,3881.85718598,3606.5319929,3499.12483624,3563.77537661,-72.7491801736
do_nothing,3618.37521848,3748.818067,4022.12551483,4118.28834771,3605.99465275,3465.16510786,3305.46528958,3317.93231325,4136.06315855,3871.54041821,3583.85011308,3461.36262436,3533.58198996,-49.4989086255
do_nothing,3595.14626712,3733.8837107,4018.68871697,4118.08773172,3581.06177932,3431.10086158,3258.57532549,3276.39448159,4136.05455595,3861.68811088,3562.81679377,3425.80968649,3505.24950774,-25.826557536
do_nothing,3573.5468741,3719.98388838,4015.43600289,4117.90386883,3557.91664613,3399.6901078,3215.28513973,3237.66319733,4136.05076647,3852.42739291,3543.6905556,3392.95744049,3479.17214025,-2.46691048821
do_nothing,3553.85376584,3707.29141151,4012.40359067,4117.73625735,3536.86131754,3371.34926028,3176.16778427,3202.24323644,4136.05183288,3843.87400535,3526.6935474,3363.24580608,3455.69959659,19.9060960986
do_nothing,3536.30339937,3695.95333775,4009.6229358,4117.58379067,3518.15494902,3346.43073602,3141.71252379,3170.57279279,4136.05766084,3836.12900672,3512.00532461,3337.05040179,3435.12693909,40.7054823636
do_nothing,3521.08545228,3686.08686163,4007.11990905,4117.44484031,3502.00645614,3325.21306022,3112.31095225,3143.01119847,4136.06801166,3829.27595741,3499.75799444,3314.67185961,3417.6862483,59.4540002129
do_nothing,3508.33787977,3677.77620231,4004.91415982,4117.317357,3488.56884974,3307.8934365,3088.24634454,3119.82925436,4136.08250121,3823.37868498,3490.0329066,3296.32764912,3403.54040179,75.8026486176
do_nothing,3498.1437134,3671.07060078,4003.01868671,4117.1989853,3477.93544021,3294.58304586,3069.68662499,3101.20251763,4136.10060542,3818.47970958,3482.85900795,3282.1467033,3392.77918635,89.5441628413
do_nothing,3490.52970747,3665.98349516,4001.43962927,4117.08718723,3470.13804011,3285.3052307,3056.68119228,3087.20777652,4136.12167257,3814.59938287,3478.21291458,3272.16702734,3385.41787122,100.62090496
do_nothing,3485.46686648,3662.49289607,4000.17628581,4116.97936963,3465.14721592,3279.99660677,3049.16168785,3077.82281657,4136.14494207,3811.73576546,3476.02068708,3266.33635353,3381.39827264,109.126799993
do_nothing,3482.87281258,3660.54293654,3999.22135372,4116.87301027,3462.87455889,3278.51103054,3046.94663976,3072.92945289,4136.16956919,3809.86523916,3476.16122802,3264.51578468,3380.59224161,115.303193627
do_nothing,3482.61587943,3660.04652473,3998.56137954,4116.76577765,3463.17686555,3280.62623746,3049.74976144,3072.31967393,4136.19465473,3808.94382127,3478.47115627,3266.48625086,3382.80741189,119.528747504
do_nothing,3484.52075158,3660.88898397,3998.17739835,4116.65563988,3465.86204378,3286.05286232,3057.19154268,3075.70462076,4136.21927837,3808.90912126,3482.75095563,3271.95749427,3387.79495739,122.303726624
do_nothing,3488.37540833,3662.93252701,3998.04573457,4116.54095847,3470.69649413,3294.4454622,3068.81364444,3082.7260163,4136.24253434,3809.68285527,3488.77214613,3280.57920026,3395.25903161,124.229258022
do_nothing,3493.93908279,3666.02137964,3998.13893035,4116.42056351,3477.413661,3305.41508793,3084.09550482,3092.96956705,4136.26356769,3811.17381355,3496.28518866,3291.95381246,3404.86750011,125.982341214
do_nothing,3500.95091067,3669.98734613,3998.42676338,4116.29380756,3485.7234071,3318.54289648,3102.47248552,3105.97978915,4136.28160971,3813.28115959,3505.02780957,3305.65051052,3416.26353197,128.287563741
do_nothing,3509.13892226,3674.65559493,3998.87731314,4116.16059613,3495.32183875,3333.39426526,3123.35483954,3121.27566459,4136.29601082,3815.89792934,3514.73342087,3321.219793,3429.07759061,131.886612328
do_nothing,3518.22902525,3679.85043894,3999.45803356,4116.02139395,3505.90119969,3349.53286093,3146.14676251,3138.36651247,4136.30626958,3818.91459351,3525.13931687,3338.20809499,3442.93935832,137.506763287
do_nothing,3527.95363485,3685.40089029,4000.13679087,4115.87720694,3517.15945758,3366.53413063,3170.2648036,3156.76746669,4136.31205632,3822.2225471,3535.99434593,3356.17188207,3457.48914189,145.82958077
do_nothing,3538.05963116,3691.14578461,4000.88282814,4115.72954066,3528.80922956,3383.99771983,3195.15495473,3176.01398222,4136.31323051,3825.71739625,3547.06578659,3374.69069749,3472.3883396,157.461049536
do_nothing,3548.31536018,3696.93829305,4001.66762199,4115.58033701,3540.58572948,3401.55837879,3220.30780873,3195.67484766,4136.30985084,3829.30192452,3558.14519824,3393.37869587,3487.32859888,172.904319927
do_nothing,3558.51644253,3702.6496712,4002.46560279,4115.43189179,3552.25346909,3418.89499321,3245.27127272,3215.36325794,4136.30217751,3832.88863696,3569.05306512,3411.89427285,3502.03935919,192.536145796
do_nothing,3568.4902109,3708.17213016,4003.25471638,4115.28675611,3563.61150467,3435.73746378,3269.66044007,3234.74559541,4136.29066669,3836.4018009,3579.64210806,3429.94749139,3516.29355104,216.587955103
do_nothing,3578.09866076,3713.42075557,4004.01681273,4115.14762572,3574.49708847,3451.87125793,3293.16435623,3253.54767502,4136.27595706,3839.77892612,3589.79919771,3447.30510835,3529.91130803,245.132316043
do_nothing,3587.23986649,3718.33444309,4004.73785525,4115.0172224,3584.78765603,3467.13956167,3315.54955463,3271.55832574,4136.258849,3842.97165265,3599.4458638,3463.79311435,3542.76163831,278.075356328
do_nothing,3595.84788255,3722.87586156,4005.40795206,4114.89817218,3594.40115425,3481.44306425,3336.66038169,3288.63029894,4136.24027715,3845.94604098,3608.53745447,3479.29681019,3554.76209228,315.155464467
do_nothing,3603.89121461,3727.03049619,4006.02121858,4114.79288522,3603.2947853,3494.73750927,3356.41626793,3304.6786105,4136.221277,3848.68228534,3617.0610548,3493.75854959,3565.87654876,355.948358903
do_nothing,3611.37000484,3730.80486178,4006.57548772,4114.70344216,3611.46230783,3507.02923755,3374.80622916,3319.67653124,4136.20294681,3851.17389496,3625.03232303,3507.17337501,3576.11131991,399.878365942
do_nothing,3618.31212706,3734.22400808,4007.07189013,4114.6314918,3618.93009363,3518.36902686,3391.88099234,3333.64953531,4136.18640588,3853.42640961,3632.49144338,3519.58285807,3585.50984169,446.235510389
do_nothing,3624.76842853,3737.32846579,4007.51433222,4114.57816439,3625.75218523,3528.84459724,3407.74323128,3346.66759522,4136.17275066,3855.45573363,3639.49842545,3531.06752356,3594.14626942,494.197799918
do_nothing,3630.80738507,3740.17080022,4007.90890303,4114.54400441,3632.00463472,3538.57219693,3422.53646323,3358.83627125,4136.16301008,3857.28618642,3646.12799964,3541.73828539,3602.11833461,542.857884147
do_nothing,3636.50945331,3742.81195066,4008.26324328,4114.52892615,3637.77942507,3547.68770974,3436.43319758,3370.28708072,4136.15810187,3858.94837581,3652.46436626,3551.72735092,3609.53983901,591.253102779
do_nothing,3641.96140716,3745.31753581,4008.58591034,4114.53219424,3643.17828246,3556.33773016,3449.62293936,3381.16764693,4136.15879127,3860.47700499,3658.59605117,3561.17905696,3616.53316371,638.397810395
do_nothing,3647.25093593,3747.75429988,4008.88577144,4114.55243052,3648.30668029,3564.67103649,3462.3006327,3391.6321177,4136.16565402,3861.90872152,3664.61110494,3570.2410853,3623.22215496,683.316780389
do_nothing,3652.46175808,3750.18686005,4009.17145505,4114.58764752,3653.26831355,3572.83085576,3474.65608444,3401.83231033,4136.17904501,3863.28011081,3670.59285566,3579.05646934,3629.72571536,725.078450169
do_nothing,3657.66946998,3752.67489471,4009.45088601,4114.63530766,3658.16028793,3580.94826005,3486.86483857,3411.90998599,4136.19907419,3864.62592486,3676.61638911,3587.7567486,3636.15238145,762.826778332
do_nothing,3662.93830474,3755.27088511,4009.73092505,4114.69240624,3663.06922225,3589.13696469,3499.08088132,3421.9905841,4136.2255908,3865.97762181,3682.74588753,3596.45655687,3642.59610846,795.810541491
do_nothing,3668.31892457,3758.01849124,4010.01712698,4114.75557546,3668.06840897,3597.48971829,3511.43145099,3432.17866162,4136.25817713,3867.3622734,3689.03290956,3605.2498473,3649.13341422,823.408998322
do_nothing,3673.84731366,3760.95160873,4010.31362553,4114.82120541,3673.21611859,3606.07638769,3524.01410992,3442.55518677,4136.29615226,3868.80187628,3695.51564418,3614.20786734,3655.82195959,845.152987155
do_nothing,3679.54478099,3764.09411771,4010.62314544,4114.88557765,3678.55507205,3614.94375145,3536.8961153,3453.17673653,4136.33858611,3870.31308155,3702.21912078,3623.37890353,3662.70056706,860.740698129
do_nothing,3685.41902535,3767.46029996,4010.94713607,4114.94500577,3684.1130447,3624.11692805,3550.11600671,3464.07654796,4136.38432342,3871.90733438,3709.15630965,3632.78972433,3669.79060492,870.047564819
do_nothing,3691.4661616,3771.05586769,4011.28601428,4114.99597763,3689.90450885,3633.60228344,3563.68721628,3475.26727885,4136.43201726,3873.59139498,3716.33000454,3642.44856379,3677.09859623,873.12994227
do_nothing,3697.67356035,3774.87951813,4011.63949867,4115.03529315,3695.9331706,3643.39159053,3577.60340766,3486.74524766,4136.4801707,3875.36819254,3723.73534135,3652.34941248,3684.61985157,870.222469793
do_nothing,3704.02331376,3778.9249037,4012.0070132,4115.06019221,3702.19521401,3653.46715289,3591.84516608,3498.49585036,4136.52718543,3877.23794793,3731.36277843,3662.47731847,3692.34287527,861.729251725
do_nothing,3710.49611101,3783.18288878,4012.38813402,4115.06846732,3708.68303305,3663.8075602,3606.38759786,3510.49979479,4136.57141566,3879.19948756,3739.20134314,3672.81435303,3700.25425861,848.209218603
do_nothing,3717.07528781,3787.64395177,4012.78305181,4115.05855664,3715.38920937,3674.39371412,3621.20835557,3522.73975475,4136.61122526,3881.2516623,3747.24193863,3683.34586478,3708.34375144,830.356243322
do_nothing,3723.75080709,3792.30058599,4013.19302074,4115.02961349,3722.31048458,3685.21475296,3636.2955873,3535.20702695,4136.64504636,3883.39478052,3755.48050364,3694.06663352,3716.60919662,808.974773747
do_nothing,3730.52293243,3797.14955416,4013.62076579,4114.9815496,3729.45147837,3696.27351075,3651.65531556,3547.90777594,4136.67143719,3885.6319645,3763.92082762,3704.98654165,3725.06102055,784.951901145
do_nothing,3737.4053718,3802.19386043,4014.07082226,4114.91505049,3736.82791827,3707.59117228,3667.31778268,3560.86847395,4136.68913738,3887.97034391,3772.57684195,3716.13540663,3733.72599658,759.226906866
do_nothing,3744.42769559,3807.44431862,4014.54978415,4114.83156222,3744.46917364,3719.2108275,3683.34235423,3574.14018447,4136.69711847,3890.42200878,3781.4742365,3727.566661,3742.65003586,732.759410976
do_nothing,3751.63686889,3812.92061655,4015.06644259,4114.7332501,3752.41992221,3731.19968434,3699.82064516,3587.80139626,4136.69462794,3893.00465684,3790.65128528,3739.35962392,3751.89980939,706.497283201
do_nothing,3759.09778065,3818.65180162,4015.63180054,4114.6229307,3760.74082173,3743.64976638,3716.87762287,3601.95918693,4136.68122496,3895.74188558,3800.15880605,3751.6201783,3761.56306344,681.345470723
do_nothing,3766.89270054,3824.67614153,4016.25895585,4114.50397967,3769.50810878,3756.67699626,3734.67054117,3616.7485772,4136.65680629,3898.66309691,3810.05922233,3764.47974545,3771.74755497,658.136848587
do_nothing,3775.11964585,3831.04034512,4016.96285106,4114.38021857,3778.8121008,3770.41864533,3753.38566638,3632.33002618,4136.62162108,3901.8030016,3820.42474191,3778.0925329,3782.57860172,637.606103247
do_nothing,3783.88969329,3837.79815982,4017.75989465,4114.25578491,3788.75463182,3785.02921134,3773.2328659,3648.8851093,4136.57627369,3905.20073052,3831.33471038,3792.63111628,3794.19530995,620.367518989
do_nothing,3793.32332232,3845.00839341,4018.66746476,4114.13499007,3799.44550724,3800.6748647,3794.43823666,3666.61051179,4136.52171393,3908.89857922,3842.87224097,3808.28049991,3806.74560984,606.897361427
do_nothing,3803.54592505,3852.73243729,4019.70331234,4114.02217036,3810.99811329,3817.52667766,3817.23505182,3685.71055612,4136.45921464,3912.94043132,3855.12025972,3825.2308788,3820.3802897,597.521357562
do_nothing,3814.6826603,3861.03139426,4020.88488579,4113.92153667,3823.52436252,3835.75291523,3841.85339366,3706.38855938,4136.39033714,3917.36992297,3868.15713792,3843.6693943,3835.2462742,592.407571172
do_nothing,3826.85286521,3869.96293557,4022.22860363,4113.83702834,3837.12919336,3855.51071968,3868.50891538,3728.83738159,4136.3168851,3922.22842505,3882.05210874,3863.77123202,3851.47943531,591.564774158
do_nothing,3840.16426355,3879.57802838,4023.74910513,4113.77217654,3851.90487005,3876.93755866,3897.39122971,3753.22957527,4136.24084867,3927.55293089,3896.86068188,3885.69045233,3869.19725509,594.846227393
do_nothing,3854.70722663,3889.9176847,4025.45851105,4113.72998228,3867.92534514,3900.14282912,3928.65245553,3779.7075785,4136.16434011,3933.37394456,3912.62027665,3909.55096794,3888.49167678,601.958615823
do_nothing,3870.54934701,3901.00988635,4027.3657273,4113.71281366,3885.24095211,3925.20001388,3962.39646261,3808.37440566,4136.08952352,3939.71346779,3929.34629107,3935.43808897,3909.42248196,612.475733362
do_nothing,3887.73057887,3912.86683705,4029.47582393,4113.722326,3903.87368771,3952.13977396,3998.66933897,3839.2852812,4136.01854067,3946.58318249,3947.02881117,3963.39104276,3932.01151823,625.856377983
do_nothing,3906.2591803,3925.48268153,4031.78951941,4113.75940796,3923.81332418,3980.94432813,4037.45156461,3872.44063272,4135.95343586,3953.98291958,3965.63014116,3993.39684395,3956.23807286,641.465792891
