label,COUNTER,INTERPOLATED,AF3,F7,F3,FC5,T7,P7,O1,O2,P8,T8,FC6,F4,F8,AF4,RAW_CQ,GYROX,GYROY,MARKER,SYNC,TIME_STAMP_s,TIME_STAMP_ms,CQ_AF3,CQ_F7,CQ_F3,CQ_FC5,CQ_T7,CQ_P7,CQ_O1,CQ_O2,CQ_P8,CQ_T8,CQ_FC6,CQ_F4,CQ_F8,CQ_AF4,CQ_CMS,CQ_DRL
off_to_on,0.693367339402,-0.264812359599,1.00617478817,-0.633546728007,0.170389954467,-3.00819497407,1.77768667365,1.55166685037,-0.669205683612,1.90725138171,-0.375636749361,2.53337479149,0.194422286431,-143.500899698
off_to_on,-0.416646684927,0.404701003613,0.104838116277,1.03466466853,0.199407277976,2.23766560281,1.25848728287,0.81849329432,0.703778797949,0.223712635451,0.937011296897,-0.637099047806,0.754971049706,69.8782312225
off_to_on,-1.42282413392,-0.534276984275,-2.14208799957,-1.19685124191,-1.29496617052,2.35924265743,-2.67181497499,-2.44184031659,-0.748771722868,-2.45042761024,-0.886958521173,-2.73568563199,-1.19462308522,120.078547307
off_to_on,1.30866763526,0.116622026877,0.714573360218,0.886696623207,0.893522152191,-2.38883518172,0.683529934186,1.05902091542,0.764164812489,1.21193971928,0.124605612906,1.523356243,0.266873674737,-38.814660547
off_to_on,-0.250829040756,-0.945214248079,0.809219277631,-0.268350055695,-0.106768040379,-3.15030459761,0.109851188233,0.146719744523,-0.770428880223,-0.040771378704,-0.596449969498,0.365573588021,-0.488805637696,-149.037330428
off_to_on,1.14664139227,2.67048480665,1.64219176808,0.15859046857,0.990679286063,4.97907403417,1.59474232629,1.03445532885,0.803825326185,1.14231163639,1.88794563996,1.16481687695,1.85011132766,69.3121128201
off_to_on,-2.28221292026,-1.91414883801,-3.40928123358,-0.925797204307,-1.96617206274,-0.308599197107,-1.49883110216,-1.87577030562,-0.837372232543,-1.41214834339,-1.27269832751,-1.95877785207,-1.35853495103,109.213949816
off_to_on,1.1067344472,-0.703885377329,0.568912443616,1.58376080338,0.949757969873,-2.14509988864,-0.260758439772,0.846132614006,0.839627979073,0.443164728981,-0.367253154059,0.0759608055724,-0.0804522995501,-25.9116802711
off_to_on,0.213788211337,0.498843845735,1.36982697942,-1.12664080404,0.181453213029,-1.21955299056,-0.660992582506,-0.433327972377,-0.842633090471,-1.24471650724,-0.354641621047,-0.326915585103,-0.820869971321,-149.180628951
off_to_on,0.538814878476,2.07967191206,1.16708842695,0.268318350236,0.699633569898,2.82579864047,2.38137389893,1.17277443574,0.871871731821,2.204895479,2.13854924452,2.51439659156,2.15064420086,68.8006947243
off_to_on,-1.19593239984,-1.79999428607,-2.311736734,-0.441795104461,-1.63629282448,0.457911008352,-0.319743664565,-0.636773182852,-0.891473459884,0.077659346844,-1.13927480721,-0.851676904603,-0.428472408843,97.2082070628
off_to_on,0.339675559681,-0.847850594098,-0.50870040209,1.40972314569,0.64843095454,-1.4841845742,-1.79984459097,-0.485722218652,0.882424912766,-2.05764408892,-0.881968669386,-2.49194376256,-1.30861502051,-11.2048089344
off_to_on,-0.220029920616,0.468051293008,0.935518182017,-1.57089088391,0.19053663083,-2.25518786441,-1.07899303534,-0.564276741496,-0.882877814392,-0.77404486624,-0.311241577664,0.233075344445,-0.766902340103,-161.877628886
off_to_on,1.38166002597,2.30854358205,2.45648311485,0.65966565376,0.97160833782,3.38524690449,3.7431680862,2.22269080186,0.90495296641,3.94060775715,2.64737869953,4.47628136572,2.87700015269,88.6056542321
off_to_on,-1.53575677707,-2.33321648897,-2.82932088387,-0.235207466477,-1.9934614106,0.575953262871,-0.797293092733,-1.49905819097,-0.909576716539,-1.94525373062,-1.71615585773,-3.08758632083,-1.14502223003,85.6712865071
off_to_on,0.897333834616,0.433739309092,-0.210259998407,0.981594191212,1.06362132541,-1.92991425638,-1.45488778432,0.433268577499,0.891502303628,-0.919527338048,-0.295922581435,-1.44829142152,-0.255145287808,-40.6430390301
off_to_on,-1.35736687364,-0.823942746406,-0.153484622936,-1.48774639215,-0.159802591943,-2.48453143734,-2.1832001574,-1.55256983734,-0.88933243081,-0.646095628871,-0.69980575043,0.656116555743,-1.81540397464,-106.166872499
off_to_on,1.56961904463,1.82688833895,2.86233403189,0.758844513553,0.922118909894,4.89220058337,4.14411774057,1.96498120016,0.90168103347,2.488579574,2.22206016893,2.79385077586,2.35826926142,67.6165836491
off_to_on,-0.0347914473015,-0.209334551593,-1.17964762781,-0.085888690021,-1.59776724734,-0.618815901636,0.603787030957,0.245689171801,-0.891688056805,-0.323507691362,-0.775495656512,-1.6167054818,0.805587167298,52.6154364398
off_to_on,-0.535147040807,-0.965545891994,-2.06445071672,0.827720870048,0.776980152078,-3.46539240379,-3.327406821,-0.992164782014,0.866921101855,-1.17167080239,-0.583045282374,-1.15200805983,-1.33585957583,-6.07982578772
off_to_on,-1.31666546371,-1.13132045001,-0.164104065087,-1.8708216466,0.0404911853071,0.937994102997,-1.19802846529,-1.41048629491,-0.861451999529,-1.41479640849,-1.10843147276,-0.365125441393,-2.45125681924,-100.327382949
off_to_on,1.86898039573,2.33617007203,3.63793361682,1.36276039532,0.387478082625,3.65475913158,4.01647059991,2.1246468693,0.862304874742,2.67869227385,2.20134682568,2.38575917809,3.01923251543,50.6465307957
off_to_on,0.191228552403,-0.0498730958018,-1.10763343357,0.0384913525502,-1.06685606045,-3.23690706206,-0.258489539623,0.0800528195859,-0.839222595917,0.260166262199,-0.253212388868,-0.334981145548,1.14854852542,35.6776054152
off_to_on,-0.299784737366,-0.779476645599,-2.10975100204,-0.0587348583463,1.1755153198,-0.405944376035,-1.40643262369,0.112743352798,0.809860541944,-1.33502422989,-0.509223286596,-1.03586607455,-1.67857262983,28.5633063944
off_to_on,-2.57824774529,-2.21651033778,-1.20446647633,-1.38918550206,-1.17865446191,0.955908838234,-2.62492550012,-2.96377267618,-0.800081135641,-2.23964990061,-1.87305521091,-1.99825142358,-2.98541397256,-98.5458195434
off_to_on,2.902922905,3.36401556592,4.64095811407,1.91722951824,1.11791829221,1.75778620899,3.49457397724,2.28355952015,0.788676602809,3.99141753357,2.57489359815,3.81402407786,4.01777561264,3.25991840921
off_to_on,0.491412117142,-0.126255759169,-0.820220457105,-0.626303676973,-0.632755730796,-2.60750133785,1.12970926287,1.40122135767,-0.754871875113,-0.585323850414,0.114671810547,-0.738801056393,0.489221231015,86.736974166
off_to_on,-1.48473628947,-1.6009210661,-3.14991625448,-0.325332034859,0.371908855591,0.262172392892,-1.91567772725,-0.896762458429,0.722599338771,-2.03758075475,-1.00510516654,-1.74228294202,-2.02191297924,-13.2577424372
off_to_on,-1.44077012208,-1.01011182671,-0.326328682527,-0.603470815898,-0.887664304669,1.14798346929,-2.66276636258,-2.9318202048,-0.707473562899,0.0235789841992,-1.48401633676,-0.0335370601346,-1.54111506778,-28.6558600762
off_to_on,2.24096639075,2.40052014725,4.0054080493,1.68660020784,1.11318947549,0.542554626426,3.04218715569,2.15487437416,0.684126446977,2.11059472029,2.10539150917,1.78662806463,2.62094939624,-93.8017275779
off_to_on,0.655911909708,0.274728965881,-0.378092281611,-1.01299509216,-0.247751675341,-1.96795661118,1.80763718085,2.30446255133,-0.642442707763,-0.758610614069,0.50599236038,-0.690344284026,0.629057208466,133.01095879
off_to_on,-1.44753394891,-1.78255536494,-3.32021301982,-0.152829054394,-0.346447973065,0.219512729455,-2.39596142482,-1.97841902505,0.608469624581,-0.901569496405,-1.11119199078,-0.247729410634,-1.559514519,40.3065258923
off_to_on,-1.49186166228,-0.985860178497,-0.430213351394,-0.209312734765,-0.569597772232,1.73857915989,-2.30387980658,-2.7760280306,-0.587226636104,-0.255822247232,-1.57035248919,-0.533502949712,-1.42947091654,-118.747142172
off_to_on,2.8500094063,3.39553491889,4.82125865708,1.18281516817,1.64407281878,0.306335136205,3.67753912629,3.7231314369,0.553261288412,2.18025881329,2.47487042913,1.08402337557,2.79424686681,-53.9708187848
off_to_on,-0.776451917738,-1.67027696427,-2.14187005129,-0.796061004762,-1.11069116809,-4.0680488532,-0.496619447695,-0.227280900332,-0.506674692458,-1.91881422527,-0.161692133402,-1.08530139558,-0.950623107147,133.741999032
off_to_on,-0.630271376952,-1.14332896543,-2.28248666948,-0.213739288807,-0.159780136972,3.29450646601,-0.778575329006,-1.17283352851,0.471776797558,-0.0492440649542,-0.979089770247,1.3222680989,-0.416605503722,69.5807508767
off_to_on,-0.237567143449,1.1454242899,1.29960407064,-0.0665963566619,0.16741195009,1.89940920753,-0.402165281867,-0.304157937922,-0.444137839466,1.17893921931,-0.544647083807,-0.536965401569,0.238109961925,-196.608400845
off_to_on,0.796887614632,0.764870011901,1.78287441104,1.02250658545,0.867196604425,-3.91636710571,0.176391087606,0.502986445334,0.401709344613,-0.111882783462,1.41139350074,-1.20645133745,0.0421334456358,21.6881160927
off_to_on,-0.24038347386,-1.6063189997,-1.49359871189,-0.818911422041,-1.0147942223,-0.505582409695,0.256135399063,0.171254202188,-0.353043957601,-1.59045678565,-0.392768217431,0.832978908565,-0.711606507131,111.44230244
off_to_on,-0.163074278633,0.513079286303,-0.489298135067,-0.0796444927546,-0.0964610397219,4.42008373316,0.96971660607,0.646789121474,0.317679378815,1.08509704199,-0.372836385644,1.56092054405,1.33198937409,37.6923846833
off_to_on,0.422089350316,1.00476762536,0.877441734042,0.0720558450505,0.71911253928,-1.63708083492,-0.768130131653,-0.883266175856,-0.283994209701,1.22922743998,0.138406709995,-1.60502284018,0.159575434798,-158.1638027
off_to_on,-0.336575299802,-0.919894991083,-0.17737423044,0.431119961762,0.148728709818,-3.19658718831,-1.16025628762,-0.787121384155,0.235833862991,-1.39854861179,0.203372571908,-0.956261079439,-1.94232957826,23.5972990604
off_to_on,-1.14496256815,-0.948368287936,-0.736187170677,-0.196572438523,-1.15150992955,2.45811804037,0.075893128117,0.734213643016,-0.187559436166,-1.39183031619,-0.631245099707,1.11551816797,-0.0185725344663,83.7914930941
off_to_on,2.23271611452,2.11697486423,1.73015427724,-0.192543923191,0.71685280074,2.22629546988,2.8270115559,1.83951280257,0.152026703347,2.51324508408,0.870634020063,1.67900885341,3.16716845534,33.7182187475
off_to_on,-0.239907511006,-0.772713087933,-1.21067984489,-0.193340591058,0.447807032436,-3.57983811867,-1.18701895711,-2.02962537596,-0.113309111493,0.0147994779861,0.012431013177,-2.09534133245,-1.55622028164,-117.066809033
off_to_on,-2.07138750558,-1.05320714694,-0.931643232324,0.449231553954,-0.493568697363,0.302158099037,-2.60040882442,-0.940823343505,0.0624354591081,-1.57410169061,-0.905372816258,-0.801375847431,-2.37971471948,3.74748141035
off_to_on,0.394002644327,0.757372619167,1.44399734387,0.228621197155,-0.511551134576,2.50985187936,0.850857660592,1.65671615141,-0.0165899564601,-0.277046117814,-0.00380879288282,1.79160064271,1.54973534039,66.6574763414
off_to_on,2.15438349864,0.304626208632,0.312126152746,-0.602531056768,0.635033480227,-1.81569658046,2.9911003672,0.559272150996,-0.0182835204536,1.01423287029,1.02287842427,0.333598609974,2.00615447788,30.6641608078
off_to_on,-0.152542672137,0.288708322915,-0.546054478433,-0.211562617944,0.601569830798,-0.518024721241,-0.260302453498,-0.468048317353,0.0572151197105,1.53228201337,0.283369099396,-0.840312175048,-0.923619799853,-73.6302794182
off_to_on,-3.05864686267,-1.19016120339,-1.21992439413,0.772089915012,-1.23210248918,1.51933802187,-4.49304158938,-1.83242571526,-0.0978354812081,-2.25768646656,-1.67688964234,-1.3351925397,-2.7430573025,-24.6563578153
off_to_on,1.19902757874,0.189265922138,0.942401025513,0.0663644821769,0.181862475742,-0.197255633446,1.46221035632,1.06622645648,0.12525360954,-1.01370059779,0.196246622596,1.66976585056,1.51466164611,58.3028429734
off_to_on,2.49733400714,1.08574101645,1.17885858739,-0.960642817296,0.801561391215,-1.63337956794,4.38844705606,1.87234786046,-0.161890168312,2.53114406854,1.52631813859,0.979461701501,2.46647763193,23.766561668
off_to_on,-1.36942030043,-0.393149865996,-0.768525377156,0.522557502012,-0.220883313797,0.994742672531,-2.37542849724,-1.46676291991,0.246996263606,0.36092996342,-0.160756388993,-2.22706375357,-1.67169578936,-31.7236688864
off_to_on,-1.8052371461,-0.694157032747,-1.24375824769,0.294865622269,-0.621667567344,1.6753660411,-3.26662199264,-1.23876652876,-0.34638170282,-2.07654279909,-1.5242572641,0.15345572277,-1.9899187267,-52.6335627569
off_to_on,0.949808837582,0.289949316781,0.387160274136,-0.0629053468571,0.289946430727,-1.87431078677,2.36365577795,1.21980277444,0.36418009453,-0.0487349092405,0.295869682818,1.87157829582,1.5322825192,54.9480498918
off_to_on,1.22036645527,0.0423202965698,1.38116334659,-0.766056292195,0.112871921229,-1.61219299149,1.80174334341,0.351142927655,-0.304141838845,1.02605157132,0.858544812377,-1.29040403372,1.258826278,15.585851518
off_to_on,0.305636036031,0.862890830769,0.554217479262,0.904042352571,0.597020632435,3.3050313484,-0.921432261878,0.325136592094,0.322173397263,1.02594355597,0.839494950818,-0.289880405992,-0.422989050053,-1.29275509793
off_to_on,-2.35239867795,-1.13316956055,-3.07723569257,-0.277852480646,-1.18879574346,-0.0616556654368,-2.18942270593,-1.47745814434,-0.490509196955,-1.56733798062,-1.88447965103,0.430450412808,-2.02265274941,-66.7624948168
off_to_on,0.856592730684,0.327998206742,1.12115370263,-0.110028291699,0.578458769364,-2.51883414418,1.76400295864,0.657242054147,0.617319882668,-0.0154641533461,-0.0469279319952,1.0003027237,1.264992149,49.3498316566
off_to_on,0.653990849268,-0.629581747439,1.60600875566,-0.332756243256,-0.107761369899,-0.561909898082,-0.40571896386,-0.284868272924,-0.522638004495,-0.543441863365,0.839012492347,-2.1092441921,0.31962060833,5.85675310051
off_to_on,0.691441831745,1.44623821184,0.0250772296651,1.06452006379,0.734098706383,4.35577265472,0.565611807844,1.16609987198,0.385572714784,2.05507720547,1.41076102163,1.11504407229,0.691918443657,20.1231256608
off_to_on,-1.0518214277,-0.0213250057825,-2.10115911766,-1.09902293428,-0.996382715528,-1.99959389786,0.694370733057,-0.170503632213,-0.488100966654,0.0233837198439,-1.98101003838,1.05561297269,-1.23198483662,-67.7309908948
off_to_on,-0.800805293582,-1.71588191798,0.231378020964,0.373546241878,0.153636056179,-3.38469359939,-1.81183610987,-1.44191719809,0.710292594469,-2.50469109006,-0.661031972062,-1.2386847743,-0.713919803543,39.6074112714
off_to_on,0.285666056116,-0.282025505696,1.20803952938,0.018907983342,0.0798984412764,3.36349829394,-1.70873761001,-0.605942265017,-0.714338118175,-0.244772655205,1.22265372802,-1.04706259392,0.939124094405,-3.10691852772
off_to_on,2.25336033828,3.15217209264,1.08352900122,0.554133747707,0.908986164837,2.54382265061,4.59992154539,3.09133886947,0.553880103236,3.70386660307,1.66902334577,2.05684647202,1.745529307,33.505409324
off_to_on,-1.30949255566,-1.2815473956,-2.08062009695,-1.22195027974,-1.20255581877,-6.02818189264,0.155097139292,-0.464506384523,-0.576609006208,-1.11824737908,-2.48986956609,-0.247999193525,-2.23421038064,-59.4839526578
off_to_on,-1.36285734259,-2.04865351066,-0.197812706536,1.0375979745,0.348338422853,2.06695352511,-4.57755670909,-2.24105777671,0.773084367201,-2.22803336312,0.00748732813501,-0.439884941191,-0.198429974621,27.6767265954
off_to_on,-0.721335238443,-0.235760964315,-0.0846983329472,-0.44767120376,-0.447429699501,3.71542712087,-1.24455835682,-1.77891807732,-0.809075552802,-1.03074541838,0.463238705076,-1.94757530462,0.149173551982,-10.0718978483
off_to_on,4.44686163286,4.66519848376,3.31785182612,0.346016986952,1.67868169146,-2.6741155628,7.82109584195,5.66739221207,0.673959551858,4.73495141196,1.84925020837,2.86331602504,2.38343819508,39.2063176516
off_to_on,-1.89235466069,-2.51835060676,-2.21472838645,-0.73366961929,-1.5495879045,-3.90601072023,-2.26434083607,-0.845293766077,-0.679479451375,-0.905884111928,-1.90319978279,0.173734504687,-1.77941256777,-45.5226103994
off_to_on,-3.25242285195,-3.2693611249,-2.56306228653,1.16102728033,-0.0717835053039,5.54011999612,-6.16945481885,-4.87947379044,0.838223518423,-3.57052505769,-0.460801897688,-1.88100076519,-1.18882018468,15.7946063108
off_to_on,1.62222604729,2.50640558432,1.98629916381,-1.36422649582,0.340578640473,1.1470590662,2.49505804281,1.02018778241,-0.863407855375,0.0145880781586,0.368103188607,-1.17013294901,0.578153725795,-14.6715212148
off_to_on,3.74063237345,3.47333064308,3.40839943348,1.03534790632,1.12618248345,-5.36539305824,5.9163636647,5.31233627148,0.751248180047,4.56698174936,1.93269692724,3.41907001007,2.46548914305,38.3014074407
off_to_on,-3.1099944868,-4.18613139376,-3.67884204262,-0.286449801431,-1.55230151432,-0.615653402153,-4.0133830901,-2.97514169009,-0.761604328577,-1.27449428807,-1.85594782824,-0.46815465841,-1.94787537454,-28.8339446823
off_to_on,-1.50277015273,-0.876825773408,-1.3044253382,0.203588877204,0.43202402536,7.05696436276,-3.01907491157,-2.53161582386,0.882038985611,-3.0106578049,-0.166231447368,-2.24507966826,-0.909781185236,3.13627292238
off_to_on,1.13766558379,2.17987260851,1.76132036768,-1.23799803646,-0.245848008314,-2.76034098753,1.81393162836,1.14156930538,-0.880704097424,-0.403781731623,0.0831307501318,-0.627427240605,0.390959756698,-7.63386893304
off_to_on,2.94493444554,2.15461649081,2.9900548473,1.77163039205,1.390288334,-4.55685934855,4.06520044021,3.17521392544,0.791320634889,4.86375091182,1.66347910426,4.29239689096,2.51223635015,14.8026383004
off_to_on,-3.12693439217,-4.23481842627,-4.01042943152,-0.572019797955,-1.63785799183,1.53382332819,-3.7306671732,-2.76296509636,-0.818152340316,-2.08071082062,-1.86439177919,-2.60281347,-2.77188921991,0.912320794729
off_to_on,0.0566011020256,1.220084767,0.120964144177,-0.513727888163,0.666644240865,6.36946559729,-0.576326637388,0.517871571954,0.903602282474,-1.96887494393,0.832268818448,-1.13032766464,0.720431389649,10.2972974536
off_to_on,0.622654834812,1.40634367128,1.41000550388,-0.63833076173,-0.316551762706,-4.53572469356,1.15541630439,-0.573357082476,-0.868556735563,0.105173012004,-0.439821382093,0.989670939712,0.288301626327,-58.44536707
off_to_on,0.684803352943,-0.634813771839,0.649792644173,2.32689022623,0.795140373385,-4.09536830834,0.64422628505,0.0347704438104,0.792972363703,2.39360884571,0.265508184961,1.27086654546,-0.207036411836,60.7332409387
off_to_on,-0.836429248339,-1.00778698767,-1.38868306348,-1.58769284535,-0.83479726675,4.47120856004,-0.926840933332,1.357746991,-0.832783153782,-0.27594996364,-0.0881912599283,-1.20819028167,-0.17476668753,1.91526137659
off_to_on,0.777489651729,1.71915388025,0.520859879243,-0.408220118633,0.581675821724,3.47883234602,1.13640778861,0.719532945007,0.889743989024,-1.08720511332,1.0280578511,0.172211792226,1.55853453192,-31.1805343918
off_to_on,-1.37626091619,-1.62372944524,-0.878193375983,0.13433328504,-0.816942487881,-5.66623167229,-1.72409578348,-3.78439952028,-0.830131935235,-1.78595577677,-2.00452820558,-1.13136649997,-2.40856814068,-9.80613266768
off_to_on,0.785275183759,0.499606114663,1.32980538236,1.93697782707,0.964592561006,-0.733910829713,0.589308592361,1.76957150199,0.765217768734,2.97506231613,0.958456926634,2.14305134673,0.511192151007,30.2750552502
off_to_on,0.0331533090673,0.453105037915,-0.524689937693,-1.9867157559,-0.616904360763,3.67053134341,0.201201716894,1.64502750995,-0.806620557553,-0.0544693654291,0.365025463638,-0.705516746575,1.14994917674,18.4430895359
off_to_on,1.5696166876,0.921857576519,0.782737093212,-0.241422730658,0.756318454912,1.83024562598,1.77500383961,0.267665248719,0.835510547544,-0.908891454261,0.689911413523,-0.751983317596,1.08884397592,-67.7319291601
off_to_on,-2.96830064647,-2.86032105696,-2.15986255364,0.799544246746,-1.47932347997,-6.18686400168,-2.48344501068,-3.21344578924,-0.762807091532,-1.74524136644,-2.02378393059,-0.668501148831,-3.45922990697,60.437261105
off_to_on,0.610367474407,1.60623425453,1.26526907579,1.36557560654,1.33201716939,2.27372142025,-0.291605204297,1.01143927669,0.710187439288,2.36203302634,0.812810459078,2.84995151602,1.1787409855,-20.8277950273
off_to_on,1.74520362476,1.22321914834,0.993880449428,-2.39184880045,-0.204983126662,3.91658557038,0.890260802439,1.3601515209,-0.744345662404,-0.0444930270846,0.566798262291,-2.11359526023,1.76825035726,-6.44903936882
off_to_on,0.168612882221,-1.00397736821,-0.436106652152,0.401290647531,-0.225085131096,-3.64496903078,2.04120798154,0.847978881036,0.745286581859,-0.539309113956,0.540405740993,-0.958792853716,-0.112207000171,-0.67948456269
off_to_on,-2.18548436045,-1.26264604593,-1.54943163237,1.11723728872,-0.447662897096,-2.29440365112,-1.31180019035,-1.68825527371,-0.668464334167,-0.478361020147,-1.49546594811,2.35018342766,-2.26717336489,23.2690463695
off_to_on,0.243815747233,1.32818615746,0.839762401183,0.437324315864,0.959754119937,5.80182374686,-2.76528527889,-1.41418516449,0.628688163921,-0.0161788036114,0.13014030185,0.031254903275,0.545853753088,-2.67543840006
off_to_on,0.965848504803,-0.139726503538,0.469178814304,-2.23618999867,-0.906072748432,-2.27587541177,0.752884821824,0.726947973587,-0.649638841208,-0.059261397077,0.480977119119,-3.38335324816,1.06015706218,-58.5291860681
off_to_on,1.8617074673,0.959333674184,1.2038371734,1.19520632905,0.812292126814,-3.67708997214,5.52199349067,4.24414918373,0.625099881644,2.63883705921,1.30375010828,3.165540378,1.47149515035,54.209044584
off_to_on,-2.99035025192,-1.94209970833,-2.56401648537,0.747798339027,-0.568401184899,3.90008486279,-3.76222489472,-3.28328757715,-0.550983169683,-3.02374814592,-1.88817543401,0.415537178776,-2.99697911617,35.7715012445
off_to_on,-0.429214271752,0.379457728704,0.358196855761,-0.409782540049,0.21503596432,2.39708910829,-3.9197875476,-3.01824452394,0.522780748901,-0.816400263345,-0.0156522517958,-1.90533383777,-0.0659878184688,-57.5768874505
off_to_on,1.72603266905,0.815454403947,1.05976846415,-1.24969433079,-0.605843177795,-6.66213436562,3.07436001392,2.30955524747,-0.527445175936,2.24690266736,0.540378309647,-0.912275552208,1.6895386463,-37.4166381477
off_to_on,1.69143250385,0.868149114388,1.15055097615,1.44033593146,1.36223403925,2.50617283967,4.69143884464,4.40900235574,0.482347059347,1.4788317781,1.16377534595,2.74769934935,1.4548288218,59.3537344095
off_to_on,-2.53298545292,-1.61013441601,-1.70219816434,-0.320517793405,-0.742709648465,4.70007614915,-4.02157999889,-3.32717972891,-0.415392821223,-2.8971470397,-1.11631352382,0.139272020074,-2.61043808507,59.0938898921
off_to_on,-1.50917172057,-0.931662979465,-1.53316894616,-0.140333276822,-0.883550112909,-5.01460047041,-4.00402607098,-4.40843783858,0.395477566337,-1.12927201752,-0.883607636305,-2.68914836686,-1.33606336411,-94.9467842732
off_to_on,2.61046647956,1.91127719318,1.97732135817,-0.255886130222,0.855159809452,-1.7463410463,3.9411290509,3.87496293837,-0.383174558706,2.72394887968,0.568152198023,-0.0275144956581,2.81555695237,-29.2494595289
off_to_on,1.57491095357,1.25525604751,2.14560816597,0.493764483388,1.04996533445,5.81815638336,3.78836429588,4.35106281864,0.324399877246,1.46491390642,1.74053284468,3.28519016489,1.55640976922,59.2212732097
off_to_on,-3.1925722079,-2.98237606519,-3.0653916664,-0.485431160852,-1.73976903715,-1.94453574389,-4.53375861842,-5.11983316424,-0.267309318314,-3.42115110084,-1.39916339698,-1.11081024903,-3.78255365372,84.2714184422
off_to_on,-0.22744885346,0.12631803534,-1.12166918135,0.432052468517,0.144547819629,-3.29300922752,-1.97842854868,-2.14128970029,0.251317003064,-0.358442309978,-1.05751754929,-2.38852256904,-0.182898348308,-116.742943765
off_to_on,1.54064257164,1.7047416375,2.18558727732,-0.00408937139675,0.927615202065,2.20120680405,2.89953031844,3.58508132618,-0.223096409972,2.10075670765,0.764028583515,0.496497291595,2.73410643923,-35.4039311938
off_to_on,1.21712130004,0.781179738478,1.73563097202,-0.43368245139,0.129323564255,2.37014246789,2.22173085031,2.01257012513,0.158071321637,1.44674690102,1.71279531488,3.38803648667,0.566631004463,58.0741490014
off_to_on,-1.58894109895,-2.13072876936,-2.43842708339,-0.0392703445739,-1.13594796025,-2.66621933202,-2.69177689049,-3.03045402145,-0.11208143685,-2.62216948152,-1.40326141375,-1.8582518153,-2.94711139972,111.312455747
off_to_on,-1.49061826633,-0.735817560091,-1.58520787596,0.833169693284,0.347037290903,-1.14250595858,-1.74607701566,-1.54450048541,0.0959053196413,-1.47447131036,-1.30590792246,-2.77726234392,-0.0625954301666,-130.68049503
off_to_on,1.80997426918,2.36534321612,2.41540370303,-0.461358412477,0.749756852997,2.29356003269,2.48365506986,2.43522926023,-0.0543931398747,3.00669890234,1.50609003786,2.71828295562,2.69400117035,-47.6047178173
off_to_on,1.05884222316,0.17012447761,0.910407962343,-0.596700204186,-0.561152335644,0.495462177876,0.639565159219,0.66064491159,-0.0100759310608,0.921826254609,0.839267384883,1.29607482569,-0.666147188268,56.6702415155
off_to_on,-1.12486381974,-1.61457743483,-1.16042487039,0.533748179983,-0.113072796042,-1.5665924792,-1.31389857396,-0.778555671017,0.0451253489918,-2.4844859306,-1.25376098396,-2.03342376749,-1.51818540365,132.328124548
off_to_on,-1.54415832437,-0.559279472315,-1.47135362089,0.427299778604,0.175671542709,-0.929578551693,-0.310503113937,-1.13385941701,-0.0645179615304,-1.19577777017,-0.665745517684,-0.887004353791,0.320183406339,-130.795282767
off_to_on,1.12756532549,1.24796328965,0.294978091458,-0.431475414596,-0.0113483482451,1.91535391575,0.151804176923,-0.11239561998,0.115364830614,2.27323644446,1.09610992828,1.30392726488,0.795032015236,-68.7990310517
off_to_on,1.92527545099,1.37093906112,2.79925674351,-0.547304900682,0.0880224574676,0.962963778943,0.915749635719,2.08267281573,-0.1737742083,2.01549590186,0.530067362749,1.35515152183,0.526291431969,59.5852454049
off_to_on,-1.66207627916,-1.77557584541,-0.749687982887,0.797164241035,-0.0389565917935,-2.78449628782,-0.214625769495,-0.273307152837,0.199173701098,-3.26220758637,-0.944818171926,-1.43256556075,-1.02587422627,143.507478233
off_to_on,-1.70877741534,-1.5901924929,-3.38545406653,-0.0903334613757,-0.225156978849,-0.00282428502276,-0.967476824794,-2.23201972687,-0.223335247827,-1.8757360917,-0.629121530717,-1.69154756594,-0.905948808596,-119.598539071
off_to_on,2.30157994032,2.62287450436,1.68142070137,-0.163267449209,0.295212104352,3.22174451094,0.686861047745,1.19847298577,0.278681323204,4.43833738985,1.44492531764,2.25466337783,1.77685723739,-93.2991556224
off_to_on,0.373578593859,0.58937940154,2.64512120541,-0.345625046266,-0.308187343966,-1.98135951603,0.0207586038475,0.689481410459,-0.327165408171,0.303451131922,-0.397446247407,0.828721466454,0.0496382199285,64.4142026328
off_to_on,-0.977239344192,-1.69095576298,-1.05098474266,0.581760720502,0.66319291649,-1.13392531217,0.289788743709,0.133901356154,0.344921753555,-3.56927628336,-0.420409886612,-1.5065144756,-0.993701813335,145.746708499
off_to_on,-1.5616119083,-1.79190033064,-3.76615648938,-0.31875718971,-0.913531839143,0.755213817059,-1.24641037548,-1.63123504757,-0.373863459232,-0.786009457384,-0.301486218517,-2.11206495636,-1.02665031193,-101.167312079
off_to_on,2.34703427691,3.31267714992,2.89794449219,0.295171505311,0.417313981145,1.79652682154,1.49052526539,0.967061375065,0.428579516089,4.6077182209,1.06490630137,3.42110832928,2.42289138833,-115.937126458
off_to_on,0.510981294254,0.609850858594,2.28403757311,-0.584924547772,0.25910757273,-1.02916546273,-0.00267605307983,0.607916363231,-0.464950735651,-0.520531419061,-0.47963428256,0.967487854327,-0.215182724838,68.4116514046
off_to_on,-2.46401534866,-3.46391355761,-3.11990386058,0.619025632862,-0.0392366193408,-2.09315500732,-1.87173200293,-0.786329381007,0.477287594219,-4.11684435392,-0.326551354857,-3.98309384274,-2.20318478643,141.448835555
off_to_on,0.151295991446,0.12132657063,-1.09676754765,-0.424722787495,-0.831099548931,1.1317396669,0.851900668988,-0.396806294469,-0.509670385148,0.783509498316,-0.161482657574,-0.146837528896,0.498138514456,-79.3663926474
off_to_on,2.90996487865,3.87981453332,3.30140892446,0.449327139611,1.06103281616,3.30439516878,2.52863067138,1.35915069956,0.558959545002,4.28184230542,1.0496890575,4.83566450779,2.73248874574,-134.099773045
off_to_on,-1.96602372987,-1.96578853574,-1.0749182497,-0.614180037228,-0.39544916655,-3.09458812895,-2.89186510424,-0.928122073748,-0.582558144026,-1.90348497856,-0.697398681287,-1.92715785476,-1.95458890113,70.768329312
off_to_on,-1.09158483659,-1.98846750049,-1.0220205093,0.594306288325,0.0561890088302,-2.18047919251,-0.565235339326,-0.0507998270977,0.591443925735,-2.68588292194,-0.0202486994977,-3.29577460038,-1.30931883984,133.019218374
off_to_on,0.824506796833,0.721977154905,-0.0726994626806,-0.529017407463,-0.759047316164,2.76710125108,1.24774011621,-0.599430120251,-0.624913730479,0.072603879211,-0.761837001403,0.956735891613,0.665973538918,-58.0399343078
off_to_on,2.36467188385,3.44280018557,2.11350836297,0.651817316143,1.52845236894,3.36198877072,2.48268461284,2.36059122324,0.664837592955,4.94848390089,1.93135188088,5.04350996508,3.26510839297,-146.167713503
off_to_on,-2.80195358846,-2.88236080856,-1.97402944526,-0.743539568345,-1.23609930133,-5.46573794612,-3.10713373653,-1.74629289232,-0.676252459517,-2.33553212363,-0.987652388712,-3.47342044142,-3.11419383135,71.3850082308
off_to_on,-0.352745640334,-1.57016202205,-0.0242734911955,0.613220067223,0.325777438879,-0.365232474284,-1.3414930182,-1.15460345701,0.683060664697,-3.70804731951,-0.890077005901,-3.25465402903,-1.64165005514,122.585862651
off_to_on,1.59947202071,2.1979670055,0.988729670699,-0.596415532375,-0.00812367810415,3.74688157654,2.37075596253,1.48101287484,-0.714672279258,2.24770132173,0.310766444866,2.98757234848,2.77536192556,-40.0294768402
off_to_on,0.78631197888,1.72803157755,0.351867409875,0.935944994175,0.463201349113,0.324475122776,2.2157474963,1.54755773397,0.742495252583,3.90314302788,1.95239362806,3.46848587848,1.84598040666,-151.931989915
off_to_on,-1.97187517602,-3.05360973992,-1.76029080814,-1.15593422541,-0.900588644848,-3.06419763125,-3.22360735106,-2.41802671456,-0.743198229534,-3.63302493305,-1.85479124952,-3.84705463194,-3.95912709745,70.8674904651
off_to_on,0.217668661709,-0.0356977525241,1.12355981219,0.787862767881,0.908626908425,0.433101632082,-1.41219922009,-0.234481957173,0.7485397858,-1.82712861909,-0.462725068523,-2.0983564861,0.0340571782784,111.766164462
off_to_on,0.143562113257,1.27565815383,-0.0464922725545,-0.315705213033,-0.778429641031,0.048390400874,1.79453444413,0.722944081053,-0.775213829403,2.01071463152,0.64770973736,2.25809679785,2.3174373296,-27.0138014545
off_to_on,2.01173884909,1.60294588133,0.766298270838,0.498197487521,0.795631595933,3.00093926498,3.7604636573,2.30935749602,0.789544839464,3.08154709573,1.80967794048,4.09003902534,1.2101101357,-152.222814774
off_to_on,-2.24310923839,-3.09456930772,-1.89026947667,-1.04746615184,-0.940944031563,-1.73399989811,-4.33072790396,-2.85897087995,-0.781493814748,-4.00893332908,-2.51999148955,-4.65816025883,-3.88712441338,70.3370965086
off_to_on,-0.0912863802331,0.747105715563,1.33620095853,1.07264044064,1.08359388404,-2.51505660445,-1.78173616121,-0.370692855893,0.785219969473,-0.199197812772,0.308755444469,-1.89016039367,1.15484439926,99.7873478396
off_to_on,0.378236893938,0.72003170751,-0.442757689116,-0.638001912202,-1.03151823645,0.391707777051,2.8290691229,1.1532948471,-0.804174857613,1.53829950274,0.770755736612,3.1031545818,1.27884024289,-12.1617692883
off_to_on,1.55598316113,0.849297936169,0.617012260591,0.597184464374,0.650531104723,4.92180930774,3.19541014234,1.68664637577,0.804922993138,1.39112021201,0.927768502667,3.1597058199,0.69405199103,-165.111513455
off_to_on,-1.06078796719,-1.28913962531,-0.172313360611,-0.984227442314,-0.232690723185,-2.23149848386,-4.19087203806,-1.92501506665,-0.790189751987,-2.1169981471,-1.97891257651,-4.52377447542,-2.06686048047,90.2798621161
off_to_on,-1.14783352169,-0.658787411741,-0.958996330928,1.00207640221,0.373258784386,-4.46696888425,-2.05087321516,-1.09771550953,0.791535835663,-0.491702198936,0.638928736353,-1.89730386726,-0.270305025645,88.0997201692
off_to_on,-0.0751621425772,0.389321852988,-0.491374021653,-0.605314323225,-1.0671151119,2.27294322715,3.23949011486,0.881859275179,-0.800643461278,0.899508383138,0.297208982277,3.79231906035,1.12196920388,-41.5441684029
off_to_on,3.19834222829,2.79509659079,3.66248581538,0.591885118671,1.36986116567,5.36306187209,3.16134400114,2.75251210856,0.788829463809,1.82383791981,0.804416711828,2.7540469841,2.02781747116,-109.193175197
off_to_on,-2.16786939883,-3.14404801896,-2.78637582488,-1.01712812697,-0.727433419699,-4.84950079365,-5.11032607525,-2.86742817682,-0.769301048196,-2.80708334041,-1.79135799178,-5.88358429094,-3.41050416319,69.0497820021
off_to_on,-1.23514080936,-0.506475064853,-1.66115820748,1.01060652651,0.184561308186,-1.98165255539,-0.249188135998,-0.538248288799,0.767125454036,0.957722778466,1.28188478626,0.488073686634,0.30588239361,55.0041683747
off_to_on,0.270461287708,1.62300727573,1.80634684885,-0.416500846245,-0.91094564305,2.67397807258,1.95834407205,0.432467584487,-0.765151856177,-0.023348192467,-0.622750536561,2.9647445368,1.46816128187,-6.87118163112
off_to_on,3.26932930973,1.90918676702,3.09326667633,0.211065482167,1.88993241092,2.44039776587,2.23346162893,2.77546539926,0.742627200362,0.82797376868,0.50057918124,0.955068064203,1.15488273812,-103.197683224
off_to_on,-2.16660027273,-3.36808398092,-4.00898071187,-0.842696476185,-1.18255820216,-3.42202201425,-2.45283750508,-1.89730843465,-0.71981279513,-0.755494478107,-0.220463168167,-3.37504713372,-2.79124203617,51.8122752682
off_to_on,-2.00323418685,-0.331473605195,-1.20282071531,1.36316246739,-0.567748901028,-0.115897864823,-2.05095476009,-2.15710158721,0.712880867174,-0.160427276609,0.230104734845,-0.360003058357,0.241715574036,38.3072199945
off_to_on,1.75528221187,2.70162364489,3.32089201774,-0.898397926829,0.67250112788,1.26717611364,1.59417729643,1.6454675991,-0.69959317615,-0.247681844034,-1.15884185666,2.17917423265,1.65908916448,27.2566059216
off_to_on,2.05270819969,0.356832486338,1.0583195508,0.104914120385,1.1570024653,0.303749524643,3.35598742143,2.76215252525,0.668719161609,1.26212305426,1.49223189099,1.61817383492,0.428615509722,-100.767419966
off_to_on,-2.52679147102,-3.32125962058,-3.6576869544,-0.211351468592,-2.07653346072,-0.712534566759,-2.95871596305,-3.21159152007,-0.643672358831,-0.817463397793,-0.177991233158,-3.12877608106,-2.48093779563,4.48118802177
off_to_on,-0.0468990040249,1.57269229851,0.735062879308,1.02465430351,0.732472371376,0.563670430292,-1.74320190908,-0.420788093751,0.630936355137,-0.0340337796998,-0.588803859902,-0.68179038055,1.14342906881,88.6882859648
off_to_on,0.130502976561,0.842436022652,0.908177678432,-1.11140252327,0.595861563069,-1.64744172928,1.14176328786,1.22083908545,-0.60707847726,-0.681050745559,-0.879745346831,1.8390654212,0.601304495497,-14.7910010866
off_to_on,1.78896416335,0.275070260001,1.54942083493,0.167884729328,0.151592687343,2.0836085055,3.30827767413,1.43070479281,0.570412861162,1.74463642023,2.16370990022,2.39937268206,0.318488233109,-29.1768255376
off_to_on,-1.39624517079,-2.0496300945,-2.19171455461,0.241940509363,-1.65434868542,-0.544243338538,-2.52860756993,-2.21054852737,-0.543758891983,-1.17108746129,-0.920320026207,-3.94288668303,-1.89160217077,-93.8782116591
off_to_on,-0.355024238058,1.08660297116,-0.565406399028,0.735515109815,1.57369622644,-0.992613906493,-1.71216855128,0.512645136176,0.524592239204,-0.0619999468723,-0.731110189778,-0.320031190816,1.3562438251,134.124815555
off_to_on,0.137702702492,0.607446747977,1.15430128929,-1.49980407628,-0.0462660038837,1.0006971142,1.1578829012,0.270085593887,-0.491749346214,0.221720043614,0.12128923548,2.8597643075,0.375586466308,40.5855759109
off_to_on,0.734670711298,-0.533346092929,1.07603380194,0.572888119216,-0.854741876628,0.183442600517,2.07824070454,-0.191864777108,0.451778346372,0.148644144687,1.19584653763,-0.0156274042699,-1.02477262954,-119.768887076
off_to_on,-0.0296017062464,-0.189950746503,-1.03272972705,0.620112158213,0.150078577368,-1.81219589508,-0.795229477613,0.711211382294,-0.423820899845,-0.080670530767,-0.688965615765,-2.26569139139,0.207402753469,-54.8674405692
off_to_on,-0.332284432906,0.475948370518,-0.887700724758,-0.01754383775,0.952050513362,1.96445434546,-2.12652287584,-0.155451972744,0.398176585565,0.214327500154,-0.451528491706,0.671731568553,0.987404676745,135.142098943
off_to_on,-1.060637095,-1.10802844083,-0.0352640335275,-1.37787243483,-1.00894800744,0.735984764647,-0.0490023148457,-2.07875524985,-0.358560438932,-1.02233294411,-0.124580486163,0.431778594195,-1.51142282378,70.8312321717
off_to_on,1.58959572769,1.54811379053,2.26303346859,1.10236646599,0.332551484094,-2.62097745805,3.84046312144,2.53264955107,0.31750113337,1.45854306404,1.43270157338,1.11550860826,0.960711910484,-198.845613443
off_to_on,-0.142932712613,-0.376313048496,-1.04802026556,0.467611283959,-0.103797909673,-0.663902084563,-2.10911062687,0.0928429281552,-0.28837517277,-0.702543689378,-1.02638569834,-1.57680642855,0.110792127208,21.3438770212
off_to_on,-0.375480602254,-0.976537047566,-1.35282035678,-0.774452508567,0.303844035441,4.69248442237,-2.27758977726,-1.77036146899,0.256852414031,-0.44500571201,-0.561715947959,-0.406092599654,-0.541453773471,112.958357245
off_to_on,-0.892673705198,0.149995264773,0.202881561186,-0.51695506896,-0.181311015664,-1.78354004326,1.99857503528,0.0161375854318,-0.213045007742,0.620053791417,0.753217138263,1.19050291637,-0.16875171354,38.4578073978
off_to_on,0.90587441731,1.38862989563,1.79454801577,1.15628720149,0.0200484643182,-4.23569284619,1.58299109409,1.85706906335,0.172729058699,0.33761357789,0.621423051889,0.568734889231,1.10211132979,-159.977477087
off_to_on,1.00976556073,-0.61901767838,-0.0586212303201,-0.255057391493,-0.287862322084,2.94745079789,-1.84528179915,-0.558749573664,-0.14256450255,-0.901774695903,-1.03109421364,-1.44547025026,-0.766651084688,23.334365882
off_to_on,-1.60409822197,-1.46010200534,-2.27622629563,-0.538251695522,0.129117869745,3.43754499097,-1.23069057749,-1.86888625881,0.106382628294,-0.221299772944,-0.369296906713,-0.409048381822,-0.948733026467,84.9694850877
off_to_on,-0.158088146349,1.50033855786,0.573922160954,0.124375575465,0.757275546301,-3.17980615261,2.08340151285,1.56779060065,-0.0610750530695,1.54260798508,1.12416215437,2.02684963276,1.87103007575,34.3550455668
off_to_on,1.38619129694,0.493320385873,2.02864289744,0.462931671504,-0.624650794324,-2.93671176126,0.458695532896,1.19691813077,0.0229112775437,-0.462330141023,0.247760588866,-0.599831300086,-0.119708515639,-118.372123677
off_to_on,-0.588185335533,-1.61289954938,-0.952846497104,-0.177893504209,-0.956114812315,2.82754211013,-2.03250646036,-2.4317037266,0.00802365882612,-1.88700575038,-1.34308002339,-1.91855909448,-2.32343408051,3.39059669482
off_to_on,-0.410549725561,0.823737677618,-1.09332455475,-0.401385558401,1.21690947674,3.39155981265,0.535515371417,0.285876913464,-0.0471321291461,1.58264704699,0.0726825258362,1.76204237489,1.67379006586,67.5517983092
off_to_on,0.277638702059,0.345469729411,0.141935064367,0.339081205192,0.77565472403,-3.38377287826,1.01032952683,1.90510569308,0.0913741262944,1.07945282242,1.21428775739,0.670844751665,1.3592405946,31.1423417758
off_to_on,0.182162924462,-0.705091637763,1.2867783846,0.136297429266,-1.44092322886,-3.12143480064,-0.122747228945,-0.612421058465,-0.126371680646,-1.39725828482,0.0420595017496,-1.3762938415,-1.96622125784,-74.3714598723
off_to_on,-0.159858971033,0.428435053418,0.10831362517,-0.171689744642,-0.743384989943,3.56451081026,-1.02848325459,-1.72742823866,0.157570845795,-1.0243476298,-1.35646411857,-0.311531812321,-0.626170216245,-25.1463665288
off_to_on,-0.289134088445,-0.15207280643,-1.8176709181,-0.330954575836,1.52831493847,2.68331337332,-0.415471498206,0.372013432835,-0.197526372903,0.942858513596,-0.376745895859,0.366734058584,1.50157270173,58.9356076837
off_to_on,0.947625177408,0.366500885066,0.947626304676,0.586729147376,1.24226310046,-2.98992161006,2.64354929685,2.97208400766,0.238447399333,2.41558694585,2.42173382183,1.98651098037,1.08531486573,24.0778114966
off_to_on,-1.20925624355,-0.814429548447,0.34652037727,-0.174167944808,-2.75167717087,-3.59297567008,-1.66659349013,-2.30313148845,-0.269586320509,-2.89567131493,-0.807127112086,-1.82530277344,-2.38888089725,-31.9022662133
off_to_on,0.362821656775,0.522158862967,0.107580196066,-0.177952528204,-0.019857107457,4.35777078165,-1.70479407869,-1.75799839628,0.300263026541,-1.22290253656,-1.87634564515,-1.75289977889,0.0182102353353,-53.3075295595
off_to_on,0.833390053237,0.454280477821,-0.472246726082,-0.297675901847,2.18131140509,2.34302451388,2.2757068953,2.31322562985,-0.338837699135,3.18176861026,0.839899864945,2.29883699197,1.6552611304,55.4076037078
off_to_on,-0.650266671857,-0.495021798207,-0.301373948775,0.9599043697,0.0613096183476,-4.17653005635,1.1438106734,1.45377827336,0.374615882082,0.349850854826,2.01040847652,1.85064574819,0.140067109236,15.7672116449
off_to_on,-0.758715238401,-0.755044078907,0.139025887737,-0.697566705373,-2.3289425855,-1.51012094573,-3.16189248543,-2.62058427346,-0.401430531133,-3.25712939494,-1.64455708359,-3.07102937338,-1.66364757422,-1.10006144759
off_to_on,1.1848481819,1.09499437595,1.04782150179,-0.0155731003252,0.613699120733,3.71964352592,0.455962456171,-0.693982447285,0.430534833785,0.987696065093,-0.849835550569,-1.15638225602,0.232086636222,-67.5037783757
off_to_on,-0.00612239346429,0.34297966196,-0.684757028133,-0.161753614169,1.3288331237,0.621444385746,2.3913165251,1.93213612122,-0.465555931213,1.92174677827,0.81758836395,2.58414150613,0.937078111249,49.6974216735
off_to_on,-0.422523091296,-0.701952813985,-0.50537622141,0.920738018873,0.299289059489,-2.08090587949,-0.408941848787,1.49461255058,0.494862048331,-0.612036450026,1.28975536605,1.81175271628,0.588628661788,5.88686445168
off_to_on,-1.28509710881,-1.68080667242,-0.744845234802,-0.817864337889,-2.25104194087,-2.23518911145,-3.21022798058,-3.4625965916,-0.517019194463,-2.26693745823,-1.63532094009,-3.62504370353,-2.04788258159,20.5389287628
off_to_on,2.61411799102,3.22578383463,2.95639470978,0.0793926636683,1.04515997756,3.81412043001,2.52617689666,0.675699879872,0.543308444406,2.42919132133,0.359188444845,-0.0646296717502,1.21092128951,-68.4126497329
off_to_on,-1.01522739698,-0.750978861928,-1.64610678987,-0.208783501604,0.624775528561,0.56822538365,0.876641251055,1.52775181275,-0.572842393209,-0.679231273968,-0.206342659022,1.0642992396,-0.101296597369,39.8600140237
off_to_on,-1.33177726909,-2.22009446748,-1.69147080861,1.03719097921,0.269326984734,-3.16483956906,-0.968908740126,0.538312976682,0.594841504725,-0.246281342432,0.850196930764,2.35061473225,0.356560885617,-3.22455141017
off_to_on,0.713122250232,0.889230983031,1.44322881378,-1.04732067393,-1.59254955405,-0.519509240989,-1.70482816259,-2.32708775157,-0.61206439916,0.165248333322,-0.478651441637,-1.68506208445,-0.554887985906,34.0269608231
off_to_on,1.65451229263,2.33354151915,1.75163445671,0.31976634511,0.859326722794,4.22858616871,1.28800708033,-0.00232738251306,0.634213213835,0.00893849383905,-0.101446820212,-3.01748029854,-0.0449871674371,-60.0246210911
off_to_on,-1.59722562721,-2.01450021748,-2.15508738372,-0.26405902786,0.33699883761,-1.77612042757,1.87899912363,2.27097971405,-0.656711252466,-0.368886626917,-0.455215685172,1.87139084251,0.00386273492428,27.8498328984
off_to_on,-0.490276719642,-0.636701583012,-0.327356912975,0.878986909908,-0.0390538163061,-2.98548321391,-1.2247653924,0.117232361191,0.671019620808,1.09761628403,1.13591773018,4.17812984933,1.04621329069,-10.3096776163
off_to_on,0.354692636576,0.409613084194,0.510522601026,-0.999129500509,-0.880467087724,2.16407768059,-3.55733740924,-3.72816206933,-0.683042120374,-1.6960792514,-0.95515835267,-3.89722965473,-1.62727100468,39.7327491345
off_to_on,2.10693982096,2.15223198251,1.87451013544,0.591181929717,1.27141239911,3.77364683043,4.66916726632,2.82383029143,0.699773595001,1.51503637037,0.766585730317,-1.87075415567,1.15890778282,-45.8780851708
off_to_on,-2.50885328483,-2.22530266685,-2.16877669496,-0.440237658553,-1.32227406537,-5.66440432148,0.289414824268,0.948038769562,-0.714167846192,-0.419811386364,-0.885472630717,1.77981654324,-0.511271471383,15.9030030513
off_to_on,0.145352808964,-0.034033434671,0.0864531994577,0.527267362248,0.952029588857,-0.330731204294,-3.45803475605,-1.49321515927,0.720781235179,-0.431366947006,0.574003238362,3.27153250823,0.305768655063,-14.9862303668
off_to_on,0.724878739048,0.234248958778,0.19342683049,-0.589571816955,-0.101725409289,4.86644681422,-0.170755353709,-1.5907879521,-0.727336468098,-0.561468230616,-0.372906069718,-2.81158062591,-0.649374339249,38.7565676172
off_to_on,1.12186480331,1.62368325448,1.55555610369,0.917528220927,-0.000157704263225,0.359360609707,4.38885848937,2.83553018861,0.737555222873,2.32484663249,1.10119867986,-1.48761784579,1.33860297426,-28.9982063564
off_to_on,-1.77273619294,-1.39808464861,-1.43852409612,-1.26762625778,-1.04822401112,-6.76609272241,-2.37466480462,-0.309176484025,-0.743301560848,-1.54687307496,-1.36470434835,0.477793018298,-1.30204246827,3.18815327636
off_to_on,-0.234865876837,-1.00103417154,-0.813245525016,0.828145270544,1.33157087495,1.85654133675,-2.3492850294,-1.61051141976,0.74251140425,-1.44340166443,0.0920170323295,2.60825876006,-0.107021391006,-7.94174592918
off_to_on,1.11282929966,1.1750039905,1.17436711767,-0.0785250849657,-0.12068998238,7.02671468437,2.36954739156,0.0230692764319,-0.743352738436,1.71656990908,0.526963675796,-0.0619325161142,1.07195868599,15.0733393605
off_to_on,1.09754717271,1.77148044368,1.47322227388,0.377433063211,-0.19868650666,-3.01380328378,1.88981507162,2.13966547838,0.746262021396,1.96624704039,1.10589426563,-2.33252197657,0.428319667199,0.967068758589
off_to_on,-2.91604505427,-3.38910910785,-3.3292652762,-1.32835275019,-1.37166849125,-8.94156248341,-3.92396300453,-1.85642053957,-0.743333028935,-3.9176230079,-2.3542719142,-2.44718880771,-2.6671274843,10.3480612839
off_to_on,1.65493160173,1.32199100374,1.80740286826,1.24842294377,2.03696741731,7.91912731643,1.56485079523,0.683352004289,0.735644895995,1.07291786297,0.998598413964,5.69882599403,2.35471076985,-58.8764586569
off_to_on,0.218431550376,0.927070145745,0.615704231547,-0.288450680463,-0.425476064976,5.31610645385,0.867005377091,-0.778784346127,-0.730591562204,1.38314845248,0.440232686801,0.195562117384,-0.152981282829,61.0641606508
off_to_on,0.0639590603778,-0.0433418849984,-0.531174694039,0.145541202478,-0.490861910526,-7.85388384674,-0.173745414025,1.00762465546,0.725780468858,0.52500485755,0.488390323646,-4.59356077415,-0.509010467076,1.93922567974
off_to_on,-1.10179287378,-1.77456087366,-1.22335620331,-0.903121823069,-1.00092165747,-4.34716601966,-1.4536543792,-0.14497600578,-0.714617106986,-2.41340123614,-1.59598254995,-1.14002836527,-0.670692518377,-31.1207289478
off_to_on,0.787664684266,1.09007521957,1.42988297152,1.14663286886,1.94694185287,9.17432490041,1.06138954462,-0.235147955926,0.700682099258,0.308533630079,0.653862647031,5.75121312772,1.07609744449,-10.1310857022
off_to_on,-0.125541580272,0.660015269684,-0.0822140289447,-0.741596971411,-0.370994895339,1.01267485743,0.358071557309,-0.828014134998,-0.68967834164,1.66620607103,0.331461114105,-0.142049714986,-0.361690166508,30.5666122887
off_to_on,0.522690607858,-0.0619474203663,-0.00519089681355,0.651677394551,-0.916264992113,-6.85570155037,-0.275460884664,1.30051384265,0.677170430417,0.508591567824,0.5539903155,-4.55222805281,0.401124774356,18.0894567678
off_to_on,-0.856045351542,-1.77421544338,-1.15570260749,-0.770605236443,-0.36215490549,-0.748162710743,-1.07169126957,-0.158095993911,-0.658604337406,-2.87189232023,-1.46053138449,-0.611589670973,-1.03946643121,-67.0092735763
off_to_on,0.212501410983,1.33842212936,0.851514493054,0.496158342197,1.88887055448,5.95346287595,1.62846068074,-0.168590090414,0.639169384208,1.12430819959,0.792559806706,5.10850050654,0.706021206181,59.8385329831
off_to_on,-0.242156688742,0.358610960235,0.236014503467,-0.333407986218,-1.31096762921,-0.60021365526,-0.99216368453,-1.6019143873,-0.622344694336,1.27776464301,-0.135075342365,-0.833656100452,-0.108355381108,-21.1813765233
off_to_on,1.77882654646,0.411911366044,1.09605964869,0.734767177857,0.162268917516,-2.33970377111,0.38006124221,2.58845574943,0.602604963293,0.175708789468,0.676886879436,-2.54635667822,0.867466714602,-5.41071889896
off_to_on,-2.32129498959,-2.49283110757,-3.08964668531,-0.865776866328,-0.345327303984,-2.50400503099,-0.399279207714,-0.710873961944,-0.577764459947,-2.78625629056,-1.1378964105,-1.43290101404,-1.85335489946,-1.19580540277
off_to_on,0.189288220893,1.50242501826,1.04727392735,0.327234935832,0.907941381293,3.15614779909,0.751429926713,-1.26335092237,0.553642781035,1.85887435744,0.741706262632,3.54648624082,1.01596455443,22.8752544307
off_to_on,1.81084769202,1.52335590095,2.71833323048,-0.183232024992,-0.626488539538,2.82205129957,-0.940392648705,0.385595557359,-0.531361507855,1.12012415385,-0.323272397577,0.916580912836,0.612174506003,-2.68243590913
off_to_on,-0.616955987973,-1.40259367358,-1.5318300317,0.813621950703,0.175794532593,-2.84980252111,0.334084008541,1.40212924691,0.505264017917,-1.62929862977,0.139023981323,-2.81098565124,-0.587112155519,-56.6683014657
off_to_on,-1.79206882764,-1.48293430243,-2.79856726662,-0.987275663859,-0.202954691868,-3.73447424668,0.812748844091,-0.939162516139,-0.475476135476,-0.441085394028,0.0715682846147,-1.32300925043,-0.685490511728,51.3944453994
off_to_on,1.53834232137,1.71159065475,2.30305739066,0.261210450474,0.27061682001,3.49761444079,-0.665292915584,-0.636499574654,0.447535118505,1.66214668697,0.268668454245,2.79051994024,0.924971145641,36.7801839712
off_to_on,0.647949838593,0.785371176798,1.93919658249,0.0953676498455,-0.319553558921,3.28826075733,-1.3105798633,0.346718031751,-0.42042614854,-0.888231225485,-1.09677308738,0.710682028791,-0.0837042442097,-56.4178335054
off_to_on,-0.729166123108,-0.534447960025,-1.29626867883,0.486078449979,0.65237274181,-2.50405549634,2.35486622345,1.32998253129,0.389188875764,0.102094589175,0.967002976404,-1.22686840342,0.16298450722,-37.2756837636
off_to_on,-1.66202616222,-2.57024356049,-3.57849357988,-0.889630879028,-0.774389028134,-5.08007975522,-0.836793237428,-1.81745877441,-0.355887487146,-0.59684270574,0.0682859474792,-2.2946499515,-1.40314583657,56.2925088647
off_to_on,2.44084411111,2.43461875518,3.2746112626,0.44290867768,0.357173082396,4.50425980479,-0.414422892542,0.860575939869,0.325048380911,1.21502539262,-0.0554605402061,2.43049500875,1.61000218129,61.0886535564
off_to_on,0.0425831485201,1.59551077208,2.35678455921,0.0852912317565,-0.212867554521,3.87018496172,-0.444606223532,0.0899822693913,-0.294009083516,-0.517433630693,-0.901790747441,1.17889448497,0.169839522892,-92.9950676148
off_to_on,-2.00812959782,-2.75030710223,-3.34572489673,-0.046087273627,0.585064571409,-4.52595156563,0.450829421991,-0.685104697963,0.259105444032,-0.8176576536,0.550388257214,-1.8257510383,-1.6120758311,-30.8029343712
off_to_on,0.465938476361,-0.94639294736,-1.82511554254,-0.27320951189,-0.357819023791,-3.53581804663,1.50350253671,0.884504634714,-0.223752447319,0.883495268905,0.794943212819,-0.78779800441,0.480588017671,56.3509991307
off_to_on,1.68955038802,2.8486386681,3.47344032721,0.49676962531,-0.573632057113,5.05664258839,-1.21231039456,0.0166712302589,0.190994846837,0.38852795354,-0.546437329187,1.3385188992,1.47770354513,86.9050810403
off_to_on,-0.70723939721,0.310880502988,1.18888884051,-0.481707542181,0.598748709497,2.79333927342,-2.08041421439,-1.26834849593,-0.157167439345,-0.93014037411,-0.905895625231,0.368268461967,-0.980439465826,-114.085229205
off_to_on,-1.36761706576,-2.61526864832,-3.37588330219,0.0685209669179,0.61261176052,-5.76439635941,2.43436649193,0.819813864846,0.120225203889,0.0632701101842,0.833095932278,-0.601445400964,-1.1466900971,-38.3652881344
off_to_on,0.471873765766,-0.0996775128058,-0.651789059853,0.476511851433,-1.1475378092,-1.24350492665,1.5204845026,0.787898042742,-0.0842482870217,0.321295191767,0.409386643375,-0.593792879578,1.06488818216,55.3448345752
off_to_on,1.84531792721,2.87606523956,3.40267635932,-0.41649759962,0.154330232754,6.05953751525,-2.73785588751,-0.682303988057,0.0506123837307,0.486417819569,-0.34305533076,0.818338982913,1.23709684028,114.437620399
off_to_on,-1.27845261156,-0.989509012561,-0.603170931757,-0.267170328273,0.657077529747,-1.26786038313,-1.23260195372,-1.11689676271,-0.01533468033,-0.631335926514,-0.54867574207,-0.172843770427,-1.71557679713,-127.430141304
off_to_on,-1.04046935758,-1.80740050443,-1.93711528087,0.572152720745,-0.0923375616929,-4.44036721275,3.2899684185,1.39656093257,-0.0219672304424,-0.241705530467,0.278187336655,-0.0603346966998,-0.332187465671,-51.57019339
off_to_on,0.897506505078,0.90847515304,0.373606723943,-0.0151779216854,-0.557065202377,2.44308782441,0.0157115335077,0.535748717278,0.0572198772565,0.122134479319,0.337004968399,-0.073441909611,1.13812713094,53.9066629188
off_to_on,0.669660584468,0.916875772334,0.779869757453,-0.587943728717,0.01818366166,2.54655776544,-2.72262175899,-1.70681762853,-0.0906390954709,0.594267062234,0.0707398798847,-0.0491082864162,0.154558496201,135.79782776
off_to_on,0.152424566377,0.199403173339,1.07921047382,0.435316038567,0.744379895027,-2.19435354155,1.18553478028,0.705370131109,0.12590343071,0.6657091194,-0.115098138613,0.758045275207,-0.219174008862,-127.04767016
off_to_on,-1.76231862887,-1.73870869508,-1.57240244022,0.15639325241,-0.446687719077,-1.99557471186,0.53946915035,0.435895854352,-0.161931225173,-2.49335346129,-0.971237341029,-1.5290449394,-1.27968100239,-73.2639060056
off_to_on,0.466327641472,0.486900600059,-0.897550252399,-0.372305461,-0.145311378788,2.68822103693,0.0159614796738,-0.1162429075,0.195221372869,0.925141095182,0.968768675771,0.761567902829,0.99906379821,56.4254147336
off_to_on,1.40469729175,0.990892272944,1.34359365047,-0.0822931416715,-0.265498548847,0.764467059524,-0.22788771147,-0.673625871832,-0.227291717084,2.27174086474,0.658925193048,1.39778442648,0.88741601436,147.318405847
off_to_on,-0.0768905324793,-0.0679441805295,1.47360351183,0.731154657962,0.870338328159,-2.11376013743,-0.623958929827,0.454336127791,0.261036127439,-1.57454957374,-0.96931829552,-1.63239179751,-0.805392680702,-115.441808986
off_to_on,-1.48439357691,-0.577614645536,-1.78047459694,-0.791243339723,-0.103042291038,-0.507995825489,0.513642616052,0.70341390767,-0.294283719937,-1.78243324028,-0.699700980082,-0.990196974869,-0.855361397129,-97.9113608235
off_to_on,-0.43796394301,-0.811998611285,-1.81069551139,0.144961644932,-1.07818616388,1.7419511796,0.13062952508,-1.28817559685,0.324502435147,1.52825750668,1.18631104488,1.98016360178,0.578037927085,60.6368389364
off_to_on,1.92243206295,0.815991679262,2.54865157743,0.260455857163,0.343913536827,0.587463553465,-0.158638872542,-0.0717725181895,-0.354085152587,1.50450318096,0.147404427497,0.584175685189,0.822798638893,149.890132207
off_to_on,1.12456350222,1.87817125251,2.05156432529,0.269278960081,1.67271053892,-1.25803597454,1.00632409719,2.40680206571,0.384848051584,-0.672144895037,-0.174138299201,-1.4345058997,0.207368534924,-96.7075463895
off_to_on,-3.86630343438,-2.76765932122,-4.688079921,-0.913416448611,-1.86336366854,-1.99149021911,-2.2978092232,-2.65457266798,-0.414001809375,-3.13063194693,-1.38715398193,-1.87007567039,-2.27669732399,-120.46592344
off_to_on,1.049356659,-0.022527122367,0.764863534755,0.634336784232,-0.0534364451568,3.38591714977,0.726931940233,-0.0342741660351,0.440181940542,2.46796598991,1.24808343172,3.13568585178,1.29650893688,63.977961718
off_to_on,2.58066833666,1.66373385928,3.30683001391,-0.0422651150719,0.831335696414,0.0105595119134,2.11715141209,1.97190079372,-0.466174143908,1.96363521919,0.530981457193,0.559811349603,1.22756326098,145.840841404
off_to_on,-0.669844642057,0.562257980453,-0.946541114769,0.286556532719,0.706269888535,-2.29355242854,-0.405797811285,-0.035076977628,0.492623483719,-1.78753042621,-0.328061356224,-2.19904054573,-0.564542715569,-74.6934077821
off_to_on,-3.05058174439,-2.35603776892,-3.54963270221,-0.909163017734,-1.72067018666,-0.178522540966,-3.8781157429,-2.84533410434,-0.516607625752,-2.94615380773,-1.66576146217,-1.48965583148,-2.16741890366,-138.409833389
off_to_on,1.78445786735,0.477833713141,2.53852131703,0.783820118389,0.481763388152,2.17181847263,2.21816828363,1.78015341767,0.537933409762,3.10704252193,1.46353818264,2.82098303741,1.75247711981,65.7637682908
off_to_on,2.02374913781,1.65392782775,2.1536017294,-0.302815407093,0.789460239851,-0.272402652146,3.82749449759,1.83465403197,-0.559318927686,2.16032295947,0.848818182752,1.4380657722,1.38612275618,137.534872367
off_to_on,-1.55148299964,-0.431737762665,-2.56313652276,0.491519982694,-0.0197396705297,-0.898814361095,-3.02482848267,-1.96822856533,0.580326330827,-3.07608273717,-0.919689043945,-2.58973038754,-1.61315442915,-53.2273171933
off_to_on,-2.29041516633,-2.03441835528,-2.08464161903,-0.911758547858,-1.42580543131,-1.13888335692,-4.61719118718,-2.03174514234,-0.598329692441,-2.62511866196,-1.66127859328,-2.7517624462,-1.85401458215,-150.203598061
off_to_on,3.14615162198,2.14878469804,4.31381599054,0.634185275311,1.42064812434,1.88473820263,5.77645863809,3.82218707908,0.61414645296,5.04282328979,2.46168801623,4.78323568041,3.39644753848,65.9726932683
off_to_on,-0.292959117293,-0.448031405712,-0.923424375067,-0.224270540904,-0.312895537195,0.120528711036,1.97701817435,-0.632024496836,-0.630050251683,-0.163157416094,-0.302715745567,0.602541984383,-0.715229315399,127.089544792
off_to_on,-1.0621700776,-0.178486186449,-2.04092160699,0.589087157959,-0.103150656212,-0.196185558464,-4.54637448965,-1.79498759359,0.64474930486,-3.01075894521,-0.844545985969,-3.19289258516,-1.37963221973,-35.1363951794
off_to_on,-0.90722428569,-0.830654544966,-0.0962897914863,-1.06067875207,-0.75907160267,-2.29342603751,-2.77354092157,-0.696382270995,-0.656235811565,-0.748851119449,-0.764512756047,-1.81734016778,-0.450984475321,-155.694676632
off_to_on,2.22248172453,1.40483889245,2.89761886419,0.731395503859,1.65632857768,2.31021306464,5.99746134189,3.03198273065,0.666061316921,3.83969534592,1.89141604806,4.49225964547,2.41971088454,65.2324957319
off_to_on,-0.391670159162,-0.363394271498,-1.10962984263,-0.315470139202,-1.12618405122,0.692096737341,1.2702692544,-0.250693734084,-0.675801948016,-0.56998590071,-0.568050496273,0.271919608746,-0.702065659052,116.147120398
off_to_on,-1.52101253452,-0.705775942148,-1.99418709909,0.688487969691,-0.409051458932,-1.88065623324,-5.43564560453,-2.7562922718,0.683627362311,-2.76022222027,-0.645998054846,-3.21965609886,-1.60023789324,-22.0870171061
off_to_on,0.24508046125,-0.0426720502129,0.753972289844,-1.12641683013,0.760738810479,0.0130519643864,-1.31021748694,-0.0280271302268,-0.688333482357,0.262005248578,-0.30620455661,-0.660482494628,0.174144581912,-155.756358511
off_to_on,2.25625761264,1.57591232144,2.6794779154,0.813957509097,0.896813773451,2.01159382404,6.25394475197,4.07230848755,0.691871020922,3.22374169157,1.55917463772,3.24787681189,2.54171725854,64.6536153596
off_to_on,-2.16212127902,-1.57660031141,-2.48576573502,-0.400400194098,-2.32077933278,-2.8407786788,-0.783659639206,-2.2501395788,-0.695005651332,-2.04948664065,-1.16921509992,-0.470382671354,-1.8059802457,103.972581468
off_to_on,0.15003021768,0.45278593524,-0.388244049899,0.528482653535,1.4762075469,1.94924721147,-3.60632012021,-1.81612180378,0.695712147066,-0.520409160451,0.351419402079,-0.515427074413,-0.69666644288,-7.25134185495
off_to_on,0.0800120862798,-0.515745164933,0.4945987279,-0.678298706954,0.16218510471,1.05053891125,-1.46723933617,0.54686588551,-0.693634836099,-0.161572189512,-0.62358204409,-2.60604117867,0.0781635771729,-168.321685104
off_to_on,1.57550761984,1.51970208262,2.07404621838,0.594116256726,-0.129773961789,-2.35024359064,5.23709130186,3.30815399585,0.690786721448,1.8800459523,1.06083054475,2.53613947413,2.52651415476,84.1399971672
off_to_on,-1.66941765998,-1.06308726538,-2.33230849377,-0.805212061614,-1.04409142378,-1.59760089639,0.0434067137622,-2.22550639018,-0.687144102233,-1.20542328993,-0.601923604499,1.69910604706,-2.0438676494,92.9629058988
off_to_on,-0.295032699784,-0.593978507583,-0.399327392963,1.08388329478,1.30032522723,4.89878246775,-3.83636076127,-1.69391910123,0.680805809875,-0.240558232012,0.249600730511,-1.99470303687,-0.980769258068,-37.2277781417
off_to_on,0.967708689371,0.645291716209,1.64997479382,-0.658230622845,-0.648831724751,-0.597663922154,-1.05046701,1.29649245383,-0.672184137079,0.154371742015,-0.814822695621,-2.38672897045,1.3108762641,-112.785259089
off_to_on,0.639768585512,1.07054086593,0.332124806038,0.110171650962,0.35614646537,-4.55958818689,4.33951183669,1.85857548212,0.663063380974,0.36774352744,1.03383071776,3.00744429624,1.34233280597,64.0564617753
off_to_on,-1.60897530477,-1.67994910952,-2.28363049619,-0.568639536183,-0.384045490076,0.819761536109,0.365969225286,-1.57478023872,-0.652761430105,-0.429216675701,-0.150228357491,1.06691001117,-2.07890367198,59.5770065015
off_to_on,0.738803691821,0.509943891828,1.69061375705,1.30787386104,0.28021893473,5.1816325692,-2.88427912184,-0.478441447752,0.639754115565,1.09910469359,-0.125713006932,-1.63540448371,0.0912768524664,-3.28384161369
off_to_on,-0.313399410015,-0.07184639931,-0.0612128666853,-0.847338471101,-0.647259365027,-2.28803518076,-2.28018623241,-0.793451093718,-0.625047047675,-1.89715465569,-1.26310845396,-2.39563061819,0.267188386493,-107.306720903
off_to_on,1.21143098778,1.21394903298,-0.158726475791,-0.153355392287,1.51926392101,-3.03987909899,4.78003598031,2.7518864588,0.609984458531,1.05118882538,2.13907795001,3.28334357566,1.78549262849,49.4259723339
off_to_on,-1.4055970054,-1.69476689326,-1.02187643795,-0.0716820955553,-1.49619424548,-0.325552483734,0.354767337978,-0.689317750107,-0.593430746284,0.443284337543,-0.640357239597,0.33312526287,-2.01208424103,40.8648041072
off_to_on,0.332287617937,0.464942654099,1.64440472633,1.15748011139,0.293455174138,5.11089950681,-2.99429225023,-1.75277582416,0.574400163844,-0.182420294536,-1.0340885502,-1.54737679903,-0.417063171407,30.3533875852
off_to_on,0.0550274495445,0.496065418207,-0.641906058679,-1.22169180045,0.317840648678,-0.390622696425,-1.30373656342,-0.292063770578,-0.554262085726,-1.09103238536,0.0753610738982,-1.15693306674,1.13816540093,-104.10484268
off_to_on,0.589016987024,0.187499419047,-0.671024496246,0.171613248627,0.414429436149,-5.22878717707,3.09819542465,2.54131530207,0.533806096165,0.973552594943,1.85652311984,1.99479937036,1.06532412459,3.37656252181
off_to_on,-0.376570030012,-0.958378531807,0.572432830847,0.217885910744,-0.902272101787,0.440585247762,1.06966655873,0.0904331950798,-0.511681196437,0.237728497386,-1.31327678164,0.425457258479,-1.87674388232,89.6789909325
off_to_on,-0.636230633133,0.243325320971,0.459573212761,0.646399844301,0.281911444743,5.69091048509,-2.30361400458,-2.66556300576,0.487501327988,-0.611118991356,-0.830203449883,-1.3597761334,-0.357132193932,-12.2846454445
off_to_on,0.139914866751,0.611756755234,-0.915053460392,-1.26375936404,0.0262915597564,-1.81144831923,-1.91958660776,-0.537575173029,-0.46275599211,-0.127298350482,0.825907361131,-0.591845048613,1.41427301906,-31.1629898561
off_to_on,1.7618581485,0.445746542402,0.908274761707,0.536027559579,0.791355697378,-3.55740222855,3.23643413308,4.21701884088,0.437663041348,1.1260768922,1.35564801661,2.00058455958,0.936931753243,-94.688682872
off_to_on,-2.08225586866,-2.32725778006,-1.15918258941,0.445308430414,-1.25523631647,0.211312209163,0.230389619221,-1.58077605766,-0.410888240726,-1.77690876969,-2.05312067005,-1.49615969042,-2.73833087763,134.211193618
off_to_on,0.239256832371,2.02533366708,0.96491996339,-0.100144366715,0.38452290838,3.91185026511,-1.06599086838,-2.52182532765,0.382613153553,1.30423548587,0.307935848775,0.654975107926,1.03307705778,42.4183791726
off_to_on,0.733298292864,0.470211504265,0.0453433111142,-1.03704645471,0.363584090548,-0.563103452816,-1.71631273688,0.615777858147,-0.354226035192,0.243245697617,0.860141512778,0.0446404655546,1.0150649877,-120.269027065
off_to_on,0.351434789368,-1.72623592551,-0.449283502179,1.03653902841,0.250054394204,-2.44692797609,1.52347683745,3.14075252848,0.325440216825,-0.947388299741,0.0413005535972,-0.74178657341,-0.232682264255,-56.0959250539
off_to_on,-0.883123046927,0.19115262616,-0.172727146593,0.193006385008,-0.941105450058,-1.10320200826,1.70154574979,-1.02221348424,-0.295132296199,-0.0540250457699,-0.924523835585,0.429133086384,-1.04549117456,135.108952876
off_to_on,-0.307640095324,1.45277567703,0.193302960206,-0.565453547201,0.298776089426,2.97797224544,-1.68553979715,-3.20780455823,0.263944955183,0.617575100924,0.359196038114,0.741831418248,0.0453924628472,71.9173826253
off_to_on,0.730287890012,-0.863979164366,0.442687065441,-0.598861357124,0.580620798965,1.74938927595,-1.38185325924,1.40080746534,-0.23299355066,0.328891048214,0.309586794567,-0.78700204887,1.08216933834,-198.257224171
off_to_on,0.625369474491,-0.463971876481,0.130646722566,1.23324110038,-0.176585970163,-4.09708377378,1.67221215459,3.187215378,0.201615331128,-0.442208596372,-0.00257077329715,-0.433266809411,0.18860820198,19.7242321119
off_to_on,-1.08389739397,0.37602745366,-1.28487012212,-0.140680702527,-0.635763279436,-1.26140862246,0.792079801137,-1.98072013004,-0.169031955091,-1.08324129492,-0.429528973977,0.672926044934,-1.58947043427,113.10673373
off_to_on,-0.319726851056,0.522845643313,0.542797938371,-0.838685119072,0.423498511943,5.54358326396,-0.885292771157,-2.43809612666,0.136192699033,1.3138230355,0.334157469888,0.624197028862,0.470268338591,38.9928467266
off_to_on,0.582804110169,-0.836600942347,0.952596412225,0.146229125027,0.0113871108274,-1.55882124927,-1.55553610591,1.27603317806,-0.103834183739,0.477408646761,-0.219498029592,-1.48366271379,0.97752860175,-159.118581637
off_to_on,1.30086144613,0.756116301286,-0.0243936578522,0.80163718225,0.475497392712,-4.29252078978,1.9048969128,3.40409698306,0.0710791363909,-0.844108843486,0.249220390989,0.834501357398,0.0272078456075,22.0171953404
off_to_on,-1.66711647557,-0.508160861873,-1.78955912642,-0.373423248125,-0.688663449005,3.17247666289,0.67531239783,-2.34635092275,-0.0375587717762,-0.941846720858,-0.0295895400264,0.377509587514,-1.44156395844,85.0549365487
off_to_on,-1.10317041452,-0.538123888789,0.461111835732,-0.460769880321,-0.502740418323,2.62771229307,-2.25947560265,-3.25349933532,0.00435545110561,1.0816318923,-0.254593613646,-1.06106329335,0.306730167467,34.5606328447
off_to_on,2.74972250829,1.61938591299,2.37533481428,0.252984936647,1.30347338932,-4.0303139317,0.804010665625,3.6008630162,0.028208703591,1.15151954142,0.20698131562,0.790537520524,1.60102125984,-117.649580697
off_to_on,-0.282737445226,-0.837763763099,-1.76158356891,0.3350039821,-0.100299270483,-1.19259962838,1.36648196329,1.81508235708,-0.0610591723572,-1.6910304001,-0.0839003017551,0.14897205087,-1.05904347092,2.69420172631
off_to_on,-2.28566399347,-0.997990330083,-1.20999867945,-0.105848586646,-1.0543115741,5.14283320316,-1.31331814304,-3.49590510658,0.0941589088196,-0.339538486029,0.137423916848,-0.508778301699,-0.760467209269,67.4122087267
off_to_on,0.647950682774,0.871789739563,1.32560866606,-0.484787163658,-0.0106540337395,-1.40950564988,-0.935494010797,-0.989434368869,-0.126457809101,1.0136928036,-0.123079383356,-0.329198021841,0.668184829528,31.2327694103
off_to_on,2.06558354689,0.905800881105,0.833928816565,0.454223853772,1.31622523539,-4.70950374414,2.30857531954,3.39877411703,0.158020240054,0.383274183943,0.0164147009384,0.727774076681,0.717910460035,-74.0129580565
off_to_on,-0.786133774861,-0.766295495855,-0.511537486719,-0.0529843453542,-0.32100233865,3.7062623849,-0.229611033025,0.19858342095,-0.189673394311,-0.211296289631,-0.0117819623901,0.52019957139,-0.430851010251,-25.1490296183
off_to_on,-2.15633581455,-1.21983900411,-1.37334632855,0.045782409419,-1.16667070522,2.97013408075,-2.99765338232,-3.28580484058,0.221035416109,-1.41425714965,-0.0350682023355,-1.24835866142,-1.07103614943,58.5311179157
off_to_on,1.10460617549,0.877528559769,0.24579751774,-0.370742321824,0.342582539041,-4.76493857437,2.11909023141,0.79645263805,-0.251223886949,0.384627230154,0.0112244269945,-0.452451489329,0.605857155664,24.2017792372
off_to_on,2.35882080041,1.94200062068,2.23311890207,0.470369172361,1.2967852597,-0.850467674329,2.65920123583,2.94228041127,0.280612181217,2.48281180541,0.570579240479,1.93752127733,1.64639519418,-31.9874148699
off_to_on,-2.12643244704,-2.31150688284,-1.12223945003,-0.234537000679,-0.928772092514,4.24229941848,-4.35001335102,-2.39110092783,-0.309820416783,-1.91176558658,-1.14908589432,-0.501104417917,-1.94177288024,-52.7199733976
off_to_on,-0.962467616891,-0.509986554864,-1.39311262863,0.0411794555681,-0.258162571039,0.337439854958,0.188700238973,-0.533634227736,0.338222924812,-1.41589448922,0.572216923867,-0.952604221458,-0.32546494394,54.8038655727
off_to_on,0.760097238351,1.28641730693,-0.0529845070329,-0.188372485937,-0.266826989474,-5.39579675921,3.02387820456,0.935773544232,-0.365196356718,1.23296302166,0.384399246415,-0.774540026856,1.12530945955,15.9887725272
off_to_on,2.10929578322,1.24268267322,2.7667770311,0.505382027247,1.27548643755,2.69850415648,-0.367669303216,0.859342087153,0.391315151535,2.34725370415,0.0919322094811,2.26249240936,1.00728335725,-1.57850995264
off_to_on,-1.39379945323,-1.94370899743,-0.825798610036,-0.558847196963,-0.433945186267,3.55013376285,-2.69930675966,-0.993803671156,-0.416930988214,-2.36821384113,-1.20491003208,0.16487640861,-2.01615648332,-66.5564489712
off_to_on,-2.05257650609,-0.62364792931,-2.64937682212,0.334524360697,-0.795729658876,-3.76889253846,0.759881619491,-0.693027037949,0.441295073001,-1.82580196543,0.672197325553,-2.30821666673,-0.273979623818,49.0432856338
off_to_on,1.40335006894,1.55491760371,0.950814027794,-0.349652188434,-0.029714150341,-2.01708651979,1.73904670551,0.750611504514,-0.464084742558,2.75523978498,0.680721181961,-0.273253807342,1.84011515865,6.19577094689
off_to_on,2.49933069233,0.656747218348,2.90284319765,0.719929196611,1.4259339415,4.75399679954,0.194987027093,1.26409570323,0.485957378569,1.50098913464,-0.156944893194,2.88412126326,0.252527736918,19.7812602546
off_to_on,-2.32737897361,-1.73419800275,-1.80566348207,-0.781078505574,-0.852858640899,-0.594207658436,-2.41743305295,-1.86222908109,-0.50698372612,-3.6908339233,-1.49410435279,-0.578167916927,-2.38731586897,-67.3489475715
off_to_on,-1.23760223264,0.559953643399,-1.5130963009,0.288453894793,-0.321379328099,-3.48520745086,0.588289343321,0.123194378258,0.526412325406,0.579435263065,1.29942720779,-1.54380376059,1.13518265075,39.3008894101
off_to_on,0.716245763809,-0.596587189925,0.0850304803569,-0.0960623719506,-0.393998926745,0.811907190648,0.913241777406,0.42864367401,-0.544215200432,1.74784771216,0.191272030124,-1.45984590501,0.609045260826,-2.87327437041
off_to_on,3.11496953333,1.85097407425,3.3544025914,0.696473232157,1.68580969795,4.55045362279,1.65682363154,1.59548490201,0.561022855324,0.559767422622,-0.00679789917402,3.66881935999,0.502099219068,33.129808031
off_to_on,-2.53264285308,-1.03469503245,-1.92957760061,-1.11897182961,-1.09753163894,-4.10180022424,-3.18205411988,-2.52297913049,-0.576655738938,-2.82336708255,-1.43317223335,-0.103424425228,-2.06258168786,-59.0469106632
off_to_on,-1.75048148162,-0.915254364348,-1.81748849397,0.550024748596,-0.161685803438,-1.80345568326,-0.100042563631,0.250143538279,0.590463143983,1.10837643055,1.28868312379,-2.48928130908,0.896487649389,27.4816238991
off_to_on,1.83543241268,0.460958900094,1.25843969703,0.0180256972675,-0.249197144469,4.25189746094,2.53107741811,1.62933202665,-0.602666656998,1.29001590246,0.130298926808,-0.889079504442,0.991979359578,-9.96410987025
off_to_on,2.03680976822,1.32275442742,1.73087583309,0.594988204534,1.19907595195,0.538585622803,0.149757954156,-0.181975072836,0.613782731136,-0.642932263873,-0.21578851715,2.95916163968,-0.457316456541,38.8340655566
off_to_on,-2.39236687557,-1.15888580168,-1.60246357386,-1.4699402557,-0.573689078776,-5.1403716992,-2.59796444424,-1.64898606038,-0.623444303062,-1.20214774981,-0.895020992849,0.795527226894,-1.24599295128,-45.129970284
off_to_on,-0.884765751965,0.0012267463206,-0.185988177546,1.00600167439,-0.337551379347,2.26875109876,0.620770149813,0.795947623209,0.631175974957,1.25059833816,1.10088576276,-2.35247352924,1.32733664877,15.7663726227
off_to_on,1.07422553444,-0.317427636958,-0.295054644336,0.117422662504,-0.578234390564,3.56226162133,0.885608915544,0.183736583335,-0.637377261476,-0.384144019179,-0.557495119468,-2.24387142593,-0.291790002636,-14.6867841091
off_to_on,2.12636195217,1.16729713562,1.42961742264,0.0728474138246,1.89493603035,-2.73046274108,1.54670597243,1.43573657187,0.642394866548,0.76788502332,0.736471336493,4.12959910367,0.294041645648,37.9755342827
off_to_on,-2.81129142537,-1.11394769585,-0.847239119098,-1.29987046383,-1.24259036279,-3.99227408171,-2.81018791603,-2.56955837802,-0.645755282301,-1.77821299402,-1.11086353949,0.37645493179,-1.26031886208,-28.5623114983
off_to_on,0.340888451573,1.07265536905,0.598252764128,1.40256829941,-0.171099350187,5.94116455001,-0.0763946445332,0.245413473814,0.647198165811,1.33485339678,0.555182534885,-2.11884672824,1.48975015833,3.27903847907
off_to_on,0.641527058685,-1.13247065462,-1.59694248135,-0.215810724156,-0.131242773375,0.412595502482,1.55815133926,1.71833843492,-0.647217129461,0.314488630982,-0.0211306922553,-2.06415487506,-0.601201538197,-7.7200412443
off_to_on,0.529598638022,0.0931231956836,1.00176046792,-0.126660373442,1.29356440417,-5.17520106618,1.24660170932,0.555745819746,0.645967834601,-0.673050380706,0.623148646819,3.0794434749,-0.129044760875,14.5003590818
off_to_on,-0.685357986931,0.829568888571,1.11556159232,-0.914852912377,-0.941317142591,0.854211744943,-2.48235588753,-2.92030432534,-0.64295534932,-0.906986614581,-1.20262739909,1.33444129567,-0.145212321969,1.06284645889
off_to_on,-0.189574925639,0.245282939871,-0.944665373909,1.42169543101,-0.306766337246,5.26221523402,-0.741632281186,0.488312878937,0.638139157201,1.680472872,0.515224365971,-2.1349436384,0.685487513165,10.6495107291
off_to_on,-0.247312347442,-1.48857638061,-1.41191434033,-0.596665073443,0.117548179074,-3.23712819582,2.20425569947,2.49272960633,-0.632024662996,-0.0567412434314,0.274437819451,-2.08665586019,-0.522307561337,-58.8312458941
off_to_on,1.45081275719,0.728584602776,1.97182151954,-0.0382359598673,1.21611479112,-2.96871264018,1.469641431,0.00676387745493,0.624587141838,-1.00896071951,0.345454158934,2.6750708823,0.235167315173,60.9200320219
off_to_on,-1.40005601807,-0.121440408485,-0.634894055067,-0.383484856524,-1.45084627036,2.52611237726,-4.03184413105,-4.05694547363,-0.615386511065,-1.07680344568,-1.53044565857,0.74478437842,-0.952984194455,1.5463045521
off_to_on,0.596220744433,1.52376561374,0.577456354951,0.876013861029,0.445106812326,3.79710220049,1.12753998778,2.52541650827,0.604576618269,3.21980864094,1.51151450654,-0.209410849584,1.84321861008,-30.7269476106
off_to_on,-0.485414587705,-2.0019201723,-1.3140350406,-0.775932454438,-0.125913879032,-5.18312212148,1.94333799733,1.68080384211,-0.592605165779,-1.56830792179,-0.387774041719,-3.08673098969,-1.06969817224,-9.78240041944
off_to_on,0.703182340464,-0.220766690033,0.370195061756,0.535142993762,0.906879599736,-0.743139392744,-0.186657140841,-1.13475397978,0.579303004622,-1.36157281284,-0.239504482122,1.43352596091,-0.549535844422,30.1009389871
off_to_on,-0.572619894716,1.39886748428,0.722862878753,-0.369707912541,-1.19002009196,4.09417833599,-2.64385194231,-2.31364913736,-0.564342898818,0.962568030093,-0.287876348542,2.52352596503,0.291500132008,17.8795477384
off_to_on,0.465442539448,0.646532444219,0.444711755368,0.241363400095,0.395650788968,0.316137508703,1.55593236171,1.74473989295,0.548025568817,1.35507389226,0.949496262042,-0.872985293256,1.46931913208,-66.8068663894
off_to_on,-0.323218695467,-1.98176776993,-1.61494638821,-0.536464976916,0.161877880578,-4.31916224301,1.3168639101,1.49036511072,-0.530691973623,-1.36931988793,-0.713137206246,-3.08800830375,-1.39264569201,60.4373699884
off_to_on,-0.252747217423,0.13375367034,0.202901457575,1.06637746465,0.242919774489,0.767839820698,-1.4076654514,-1.12104296917,0.512080577345,-0.183092386843,0.0133482753262,1.53495850678,-0.68918840308,-21.6138146791
off_to_on,0.281515386633,1.17107732546,1.16341965535,-0.784574764418,-0.665699703834,3.79909141343,-0.879108369818,-1.81304939558,-0.492011207977,0.0938602377452,0.00594062371003,2.08081166706,0.988231651934,-6.43916762328
off_to_on,1.12842443335,0.637629027485,0.41440875871,-0.14660166813,0.495752156176,-0.640776141692,2.15758513473,1.94878062003,0.470871912397,0.92829300738,0.727321834183,-0.44532743215,1.37199071862,0.437312599841
off_to_on,-2.27453900672,-2.26755186268,-2.37823510018,0.15322996865,-0.499715627812,-5.08468785243,-1.52350509351,-0.16702991622,-0.448871820114,-0.807297256807,-1.14162937359,-3.05423911034,-2.46369727744,22.4996773739
off_to_on,1.16393350214,1.12763532268,1.47839182128,0.809909469546,1.0037728099,2.92749660647,0.414494930384,0.392899395573,0.425715020905,0.628250955971,0.692367090946,1.849657314,0.553656023094,-3.01057938125
off_to_on,0.749314264451,0.350895433492,0.464859384652,-0.945886286813,-0.945125327462,3.64396791459,0.284644841456,-1.15282391013,-0.4013775164,-1.24461381871,-0.0668899126943,1.06691795041,0.911332584332,-58.2628068133
off_to_on,-0.637809208159,-0.0465250208982,-0.420366712695,0.0804337709308,-0.0865782720917,-2.86140901958,-0.408686350381,-0.160562820707,0.376273140956,0.643236730702,0.0286446293065,-0.341103156027,0.259417347971,54.9663242107
off_to_on,-0.970377547241,-0.460343235615,-0.61171667686,-0.0252277059074,0.638942169667,-3.65940790902,-0.230924555296,0.904880833115,-0.350477586914,1.14553047244,-0.444069196683,-1.37304134642,-1.32389749135,34.8768653821
off_to_on,1.12905106568,-0.0560155565444,0.315731025891,0.854590885722,0.263044957016,3.59147543331,0.962495510644,0.773751326303,0.32371516128,-0.879764004889,0.649487531045,0.157238168384,0.0886512746456,-57.5921547391
off_to_on,0.539905055607,0.393849526857,0.661964798304,-0.697376819652,-1.17800890843,2.93220852245,-0.424602288644,-1.09850482727,-0.296104430881,-1.18243538698,-0.233971247774,1.39984508287,1.18924503398,-37.1691744422
off_to_on,-1.26497476721,0.0650052503695,-0.405690280105,-0.329958797325,0.507444862854,-3.51769435546,-0.946563878781,-1.26196243851,0.268030212678,0.979313327785,-0.424044896572,-0.359556686414,-0.223620126635,60.020620903
off_to_on,-0.359201837492,-0.586003970037,-0.928177054799,0.181168560088,0.696105052168,-2.8324786753,0.715250090137,1.30965280399,-0.239452882092,1.04347214726,0.285129394315,-1.30999062977,-1.41608873786,58.0028400196
off_to_on,2.1527429611,1.03956780884,1.63571507961,0.923284159885,-0.399689234664,4.16650483045,1.5207259991,2.17568587463,0.210160667903,-0.201982043711,0.889695297334,1.67309996286,1.42179220913,-94.6811837345
off_to_on,-1.59280604756,-1.29277516449,-0.850995502284,-0.745203758548,-0.972279206647,1.26119150607,-2.51120796066,-3.02579430826,-0.180383571114,-2.66597487993,-1.46978755093,-1.18336205858,-0.238456909378,-29.0011515205
off_to_on,-0.563346812593,0.36815899422,-0.517665871786,-0.532385592151,1.25098581705,-2.62044286549,0.376614086685,-0.623440309891,0.150435699395,1.80326754366,0.123247501866,-0.372226213372,-0.476189658703,59.8001564309
off_to_on,1.38619229262,1.12352405411,0.771904214846,0.567474351003,-0.0853459262845,-1.78373060034,1.77361030716,2.3830669483,-0.120193990449,2.18668486417,1.41024534444,2.13198654176,0.227338962302,83.0262131743
off_to_on,0.0637499633097,-0.769212403131,0.381163653074,0.624560593015,-0.742770359224,2.51008264767,-0.84664746543,0.209642457269,0.0895386394847,-2.5422839766,-0.605388700023,-0.697300980006,0.450083843993,-116.269293986
off_to_on,-1.33493216838,-1.12759679033,-1.0233127354,-0.784774629764,0.395873133068,1.45529123667,-0.982027495046,-1.54056093371,-0.0587692662514,-1.22982825091,-1.2731858641,-2.87379450625,-0.619149287995,-35.1270551246
off_to_on,0.168714436501,1.04295797795,-0.211883136644,-0.274367457015,0.0543970712943,-2.24702968009,0.489900282374,-0.538182836931,0.0281042015417,2.29578270031,0.890537356668,1.89327434955,-0.32827288365,58.5547413324
off_to_on,1.8495033145,1.46393104924,1.60458062776,0.58381252388,0.102979944693,-0.096846306075,0.838861814504,1.26600677032,0.00262439990028,1.00125720258,1.19028176326,3.48727516079,1.32022913203,110.018180806
off_to_on,-1.39209954008,-2.09919251909,-0.852968978228,0.147946603256,-0.205500274243,-0.0202231161398,-0.329035968503,0.564589989885,-0.0334338085276,-2.52935306846,-1.25317788354,-3.78594424157,-0.595939744518,-130.183338933
off_to_on,-1.28908610682,-0.785135401652,-1.13347110334,-0.316484880789,-0.134956472431,0.353681670809,-0.672865823445,-0.834235890188,0.0640000166955,-0.258727489534,-0.859551943362,-2.7413358449,-1.08920162695,-47.1820008819
off_to_on,2.27126806844,2.74323262691,1.63709726415,-0.377563342604,0.283883134359,2.35739163333,0.241861515688,-0.43779339853,-0.094208302889,2.44849760785,1.42862284331,5.01788527415,1.14844967831,57.0357816048
off_to_on,-0.0420243620875,-0.627219835434,-0.2254883372,0.635593580925,0.0469116460014,-2.18122438869,0.0265921751278,-0.328621921,0.124232704576,-0.932432296666,0.37324452629,1.01284524183,0.311040307412,131.025168099
off_to_on,-1.90406005011,-2.01478528928,-1.06209726783,-0.0895983880369,-0.264226915936,-3.15667998193,0.83137939354,1.4327301454,-0.154011209985,-1.14866698202,-1.26889554629,-4.40677431226,-0.628235756163,-130.388019283
off_to_on,0.774194589799,1.18531394569,0.882262949746,-0.284010886255,0.116116050352,3.90977036524,-0.277078000637,0.780633184008,0.183482970917,1.02292449857,0.0879854570502,-0.282846730285,-0.276480138094,-68.1325088253
off_to_on,0.902650780678,0.838329650676,-0.0777705389273,-0.0451312169206,-0.100822708931,2.59005525414,-2.02604654684,-2.95565718215,-0.213933275966,-0.23611261713,0.551912924502,3.09652777816,-0.163656130232,59.7886973452
off_to_on,0.0496810974154,-0.108317118232,0.118420661255,0.553412400095,0.391083349546,-3.90940619497,2.02617712764,0.561187321404,0.24841684244,0.388593775544,0.452146348043,1.45122285155,1.6360587033,142.254272361
off_to_on,-1.74131941021,-1.79744264929,-0.916498192642,-0.576857488152,-0.552427691102,-3.31393477824,0.945532494052,2.21192678434,-0.286758328602,-0.538575006925,-1.05122131861,-3.9814458741,-1.08507476575,-119.357830739
off_to_on,0.961520659537,1.03420884825,0.901622130248,0.0918180656672,0.46471635331,5.04392146797,-1.64368198088,0.145427967651,0.315558075897,0.139121989119,0.382838214249,-0.633043582256,-1.01723080124,-92.3486645824
off_to_on,0.764887349326,1.22898854048,0.329849358237,0.187349792404,-0.408252821438,2.53691294336,-1.43251157065,-3.23256302852,-0.314387192837,-0.139871361602,0.0679382545414,3.3174107512,0.881467942997,64.4372958455
off_to_on,-0.441990294832,-1.10280177119,-0.922194959803,0.376121521988,0.278029601165,-4.59655984353,2.32572623984,0.588852372074,0.296059776092,0.361512712968,0.0817266110994,0.70553268379,1.31999419071,144.590547025
off_to_on,-0.575586051235,-0.846549374596,-0.142077839221,-1.1660698217,0.124162700327,-2.70154613967,1.30694819684,3.56895840829,-0.323234619019,0.32332548748,0.114591814817,-2.93540185878,-1.33560341909,-101.139304629
off_to_on,0.00840230851084,1.17521323859,1.05557138614,0.917524784725,-0.213451610423,4.35594480028,-2.79528663971,-1.44944787066,0.418925635169,-0.863260039476,-0.0907067897516,-0.530944520466,-0.979719755061,-114.704906198
off_to_on,0.238623462215,-0.173527803664,-0.543369695059,0.108355658246,-0.582723050998,2.71368899517,-1.44201442138,-3.93592344094,-0.477496014042,-0.673519465719,-1.04728572412,1.69519100997,1.02140912701,68.2645605345
off_to_on,1.40341751256,0.393255529782,0.165625735307,-0.229227867444,1.37177466819,-3.29424113546,4.3267232023,3.60669941101,0.400211010898,2.51801708259,1.60833406901,1.90221679117,1.66059430576,140.41253859
off_to_on,-1.83881460118,-1.03160226663,-0.829368131727,-0.774314148299,-0.864424837152,-4.47706940457,-0.696093089609,1.73797402357,-0.315611563729,-1.20252316255,-0.0531885223939,-2.34307475138,-2.19276425244,-79.5586551039
off_to_on,-0.250799340773,0.332399756006,1.00909943462,1.11778269886,-0.191629945456,4.79355421051,-2.73399306564,-2.83758988782,0.43220789468,-1.50992871387,-1.14480374112,-1.13160631771,-0.193910976487,-132.625967791
do_nothing,0.616452423507,-0.205325387868,-0.494278723211,-0.219034863579,-0.116800288508,3.17455311144,-0.280738874247,-2.18265271239,-0.643673458025,0.532294985588,-0.624617533483,0.335637593707,0.639198589729,70.4826532726
do_nothing,1.81743354862,1.83559536444,0.841131275913,-0.186238540267,1.35497767672,-3.15000829767,3.58295554605,4.46668902476,0.628438855,2.90851052714,2.6471953377,3.51077242174,1.57806373098,132.106790987
do_nothing,-1.6206322096,-1.61768474298,-1.09539055795,-0.713662946192,-1.07220166956,-4.64096843856,-0.496032390417,0.342170932319,-0.420178150977,-2.28387102292,-1.09395415114,-1.30967907091,-1.54549825797,-58.4335592234
do_nothing,-1.88563791083,-1.67050473107,-0.60531113576,1.26339644842,-0.609248736384,3.58817594684,-2.98221247828,-4.20317748828,0.412983960899,-2.09074079593,-1.72601152292,-3.92988140418,-1.13939572881,-144.513528006
do_nothing,1.74101800226,2.45778920184,1.69444418117,-0.449617403205,0.613460261364,4.84357992246,-0.0847083130698,0.39637919275,-0.659708680027,2.58904419291,0.958411160345,1.55721895867,1.20262667984,71.0048205221
do_nothing,2.73606378464,1.6071507781,0.830519768633,-0.219918078424,1.38439864322,-3.44054789636,3.64239382266,4.46291426829,0.739413061946,1.83399738407,2.14343215746,4.66630270544,1.6940055289,121.783440051
do_nothing,-3.26291647502,-3.90899395007,-3.31239773466,-0.47196050643,-1.72804503457,-5.6239422766,-0.72765023708,-2.08334602267,-0.526521441362,-3.52521341517,-2.4116876762,-2.98689837016,-2.15610751095,-40.5852583726
do_nothing,-1.17418191782,0.669738628726,1.31388774096,1.29963381215,-0.386475395273,4.87632564475,-2.26444470581,-2.43385712611,0.433668852787,0.439632160517,-0.130240163351,-2.79841840349,-0.119737452495,-150.165797457
do_nothing,1.67235409924,1.80671368887,1.40446182028,-0.895839989615,0.737205918338,3.41056218894,-1.45931707705,0.277109048266,-0.631002779118,0.841830384247,0.846901701258,0.950105269697,0.0973784994665,70.4382237778
do_nothing,2.87600788967,0.754591166247,0.275121517949,0.0447873956842,1.96648649225,-2.65774112128,4.70166040238,4.22380975647,0.735299717607,1.37243068865,1.04234059558,4.46934407179,2.00998378097,111.04746453
do_nothing,-3.40203401439,-2.80136129659,-2.72878924467,-0.0921301724023,-2.82820893192,-4.45657333573,-0.468683159286,-2.03299797717,-0.566300920039,-1.52635818151,-1.8430361942,-2.30867658182,-1.50207505112,-27.6785103331
do_nothing,-1.11648930634,0.438162989876,0.852065960647,0.772017138836,-0.276389643429,3.02780983685,-3.55184619644,-2.86682813011,0.475949149007,-0.760240394538,0.450725485337,-2.94338323692,-0.711512835564,-150.412505073
do_nothing,2.03597933637,1.49117965245,1.73921273994,-1.03209550728,2.11384418345,3.2747157961,0.171244432003,1.3904266066,-0.631103867401,0.384168321187,0.495321106039,1.15536997397,0.264503549209,69.9015333717
do_nothing,1.28096998433,0.113613467705,-0.232815124016,0.751641818947,0.487992038135,-1.46289094808,3.22636799433,2.85610945762,0.707380049775,1.60714243422,0.127255064368,2.82762998531,1.30116837945,99.1122278761
do_nothing,-1.47181467995,-1.34449124647,-1.94280719906,-0.477304982349,-2.73478589993,-3.56155980217,-0.381398523007,-1.5599440456,-0.564797823385,-0.504901351386,-0.89677709176,-0.760098816008,-0.367296905877,-12.8622904858
do_nothing,-0.635871644999,0.584531843319,0.810376671199,0.378593555698,0.89367725958,1.0850874418,-1.44519338756,-1.45478779945,0.502795982723,-0.979257448299,1.10280982884,-1.5659445927,-0.476322510491,-163.317116817
do_nothing,-1.02652995405,-0.908840869604,0.294344158517,-0.351971393265,1.08586859258,2.33183598786,-2.08279546519,-0.818715572003,-0.625674245483,-1.54414181462,-0.976774656805,-1.82545436845,-1.59507337588,89.8038418344
do_nothing,3.2045652181,1.80101546095,1.32760501708,0.463706030129,0.380300193497,1.66062777668,2.87923999788,3.40248295221,0.656191926137,3.38043382617,0.377730199407,3.36667845093,2.50012745789,87.6003681904
do_nothing,-0.253936418308,-0.367028943603,-1.98990948096,-0.673287738085,-2.06356140295,-4.31885823581,1.43936901449,-0.277224677709,-0.530106767571,0.0363263058701,0.0898354814511,1.14994258163,0.284136535401,-42.4393148299
do_nothing,-2.30266347044,-0.846948476605,0.0445177077606,0.705474339286,0.893557961606,-0.92650231196,-1.32884373976,-2.16649680454,0.505054874915,-2.31145338592,0.658335189127,-2.25538831208,-1.38909677498,-107.282966886
do_nothing,-1.28338698442,-1.27339046768,0.510578525509,-0.556864016782,0.460900092561,3.32253212929,-3.99402606243,-1.46327240432,-0.605111034905,-1.52953307011,-1.52450342164,-3.07808730492,-1.69668767454,68.4612589605
do_nothing,3.83222726713,2.53917115539,1.10524646377,0.524205452452,0.364412829488,2.4383998455,3.13259148323,3.52492813754,0.590779493581,3.85206105319,0.612628216071,3.80914725447,2.75992896727,54.5769822817
do_nothing,0.608404624499,0.577209380903,-0.821685747327,-0.590472578713,-1.1094730949,-4.24856557178,3.88650553147,0.997942756024,-0.475207539939,0.760590834803,0.750393047123,2.44981188094,0.794943189291,-7.53054816365
do_nothing,-3.74738302388,-2.67617847841,-1.13132342188,0.508569580773,0.2155704719,-2.01059230341,-3.85474888019,-3.55147301694,0.480133340829,-3.85962415699,-0.100201282704,-3.72404932713,-2.37436610304,-101.842496017
do_nothing,-0.799929643555,-0.558515688739,0.324661250982,-0.453871899282,0.247807045724,3.36497977262,-3.75877022966,-0.925495319409,-0.560670438835,-0.636068066605,-1.29324669731,-2.33513293221,-0.879655697128,51.6555525108
do_nothing,4.62820928809,3.5724462767,2.40723957966,0.682827727125,0.630400837681,3.22820221663,5.34160808246,4.02677854504,0.514211843872,4.45224529865,0.944131193248,4.18327794476,2.86992477284,37.7528540576
do_nothing,-1.1001146967,-1.45345267426,-2.13989996681,-0.750341468794,-0.986170629967,-4.41428180609,0.79684400426,-0.930421365815,-0.411071653981,-1.22415406383,-0.0985365550334,0.290517954133,-0.793473065553,26.9035616948
do_nothing,-2.3767177712,-1.25328182496,-0.514545546457,0.223932995115,0.467392806931,-1.96302492339,-2.77613733067,-1.2044809662,0.432297845293,-1.90107739793,0.701355124026,-1.29942633786,-0.540814072048,-100.175118265
do_nothing,-0.216987480036,0.0841659805263,0.722371846417,0.184247948285,-0.611582104222,2.75781413665,-1.27542953087,-0.956401815703,-0.488380331858,-0.566618196021,-1.09021743752,-1.8816975159,-0.718972880595,4.94361082881
do_nothing,2.80533771073,1.61308950407,1.39041862757,0.343182190284,1.00601519356,3.3312777726,2.34615074197,1.34006273838,0.422552032131,2.43658643735,-0.0732713163879,1.33506111375,0.960119873636,88.174552165
do_nothing,-0.625931332693,-0.569011060123,-1.5685065457,-1.04164857128,-0.150578047095,-3.60092047853,0.259943537586,1.16754883005,-0.337971903672,0.335041879031,0.458851883785,1.57264674802,0.26336555436,-15.2475475258
do_nothing,-1.53829420131,-0.729922139328,-0.548905495508,0.69702749249,-0.825869410778,-2.87262119794,-0.371683460463,-0.757343006167,0.365174347863,-1.93211553272,0.824516326019,-0.307501089402,-0.107236572479,-29.2160152352
do_nothing,0.404435620236,0.257079613138,1.48759209743,0.107332983659,0.0151958535911,4.14326713432,-0.792806488011,-1.85570417951,-0.392696365442,-0.63410357954,-0.895471462523,-1.86080159464,-0.669104933331,-92.5204227271
do_nothing,0.661697802551,0.350326781978,-0.157643835305,0.0208222608091,1.28038546259,1.44173653111,-0.526816929041,0.887534537597,0.31768454375,2.04142749677,-0.614605802712,-0.238812374501,-0.0417293275426,133.616701064
do_nothing,-0.32274255521,-0.456605265188,-1.37811465914,-0.675140420633,-0.756725581242,-4.17113475206,0.932574561078,1.64150254768,-0.255436552635,-0.0756983667053,0.306581421409,1.55991904605,0.376691182345,39.1838465378
do_nothing,0.886231350662,1.00166443897,1.58960230183,0.452909141163,-0.554031117884,1.47289996383,1.70794653183,-0.0570266981837,0.281085777413,-0.814539016367,1.58957715728,1.69954410364,1.09087642184,-119.108318174
do_nothing,-1.4988276009,-1.09331754834,-0.595440674307,0.25668975375,0.206681438856,0.969141066301,-2.26789883384,-2.70606908802,-0.279940916944,-0.772764386928,-1.08098447701,-2.73131871475,-1.46797506946,-53.3180852648
do_nothing,0.0620521827214,-0.0203598424498,-0.547331527101,0.00512441289474,1.18279908469,-1.11862745916,-0.479197106138,1.15670101612,0.204101928855,1.43279133639,-1.12140246743,-1.18529585473,-0.210633784106,134.291001594
do_nothing,1.03315556413,0.368069409811,0.386826386038,-0.79675786838,-1.16284097497,0.393810989953,0.921611968048,1.40682848035,-0.164187639086,-0.47286440667,0.501019481684,1.87522865376,0.400816589549,68.9697226728
do_nothing,0.361144951147,0.666715720915,0.924011850382,0.46688542067,-0.221197949677,1.28454895564,0.974896599886,-0.209379424022,0.182791723676,-0.178707931772,1.82418467462,2.27305914122,1.2173089154,-197.043977674
do_nothing,-1.05118093833,-0.39003300123,-0.912813570447,0.584195819514,0.746847606896,-2.36013362636,0.124650268932,-1.10240992652,-0.156867520797,0.813759936799,-0.863414994653,-1.94311359539,-0.478860843438,22.0499286658
do_nothing,-0.885870952101,-1.43655220011,-1.11448898802,-0.440010048222,0.0921009371939,0.0770522417285,-2.31494919618,-1.07365915049,0.0869291819236,-1.52190464197,-1.95587888914,-3.26435681933,-2.11364917379,111.977905993
do_nothing,1.63736282065,1.19246674801,1.80722183754,-0.740037112161,-0.544913788231,2.95941272028,0.115033550606,2.05665843553,-0.0659899813213,0.142670499536,1.13552876858,2.70991719886,1.3044409768,37.3479310779
do_nothing,0.56783186537,1.34243118568,0.612327578582,0.857161384618,-0.131360271139,-2.01801211151,2.87699009305,1.20507152342,0.0738202071852,2.18789533074,1.93580870574,3.31005326608,2.17812909908,-158.61792627
do_nothing,-1.65020445988,-1.75441085409,-2.32682351481,0.368986539251,0.521973863497,-1.1259892579,-0.620710258498,-2.93029114003,-0.0299831652108,-1.06711510127,-1.49127137437,-3.12153053799,-2.01099765624,23.8284345774
do_nothing,-0.0695366938724,-0.67327702783,0.330030486296,-0.936991017027,0.23234660535,2.03349033498,-2.6147982524,-0.320286501022,-0.0287975707187,-2.14279123212,-1.41915634858,-2.80817706249,-1.62336625452,84.1939939634
do_nothing,0.801782840494,1.39404818911,1.8084180622,0.108109927687,-0.844592937223,-1.36332512239,0.533641846069,2.54969711749,0.0360894468824,1.23105256595,1.24678254786,2.5233847202,1.99727063966,33.6449089076
do_nothing,0.672091943524,0.827993703975,-0.275506492247,0.571427574139,0.198453190568,0.680214199673,2.76502451878,0.195282551124,-0.0410944855614,2.75955845854,1.25907911586,3.27983520101,1.53142059074,-117.586944751
do_nothing,-0.918102374216,-1.75974306204,-1.88473284303,-0.183081390972,0.657844751841,1.58188564696,-1.17851847812,-2.46414079081,0.0948028664744,-2.27365892954,-1.10705546118,-2.72800729709,-2.47310067799,3.96906138528
do_nothing,-0.779731632279,-0.444675169856,0.370330522843,-0.332986915261,-0.443519462154,-3.59708019715,-2.22211459307,0.0465305372935,-0.139008947889,-2.52266796726,-1.13178331049,-3.33248147938,-0.767442366993,66.8976457805
do_nothing,1.44297659395,2.41154217303,2.4716778008,0.263295484088,-0.118091659909,0.450441767517,2.30453517278,2.65025627118,0.138439388877,3.50543374425,1.25462797527,3.42515807548,2.70706720444,30.758111716
do_nothing,-0.621923313547,-1.56951813534,-1.97437965521,-0.0791384664041,-0.126841292957,4.49591267037,-0.387676407777,-1.46761234047,-0.156375530399,0.474255930403,0.223113981565,1.79460149945,-0.951929431988,-74.1451446268
do_nothing,0.170289397607,-0.601078886496,-0.765248020363,0.0630156468071,0.567730126547,-2.15969478327,-0.784962429033,-0.807413376154,0.212139240784,-2.12541195965,-0.160600702513,-2.10274627091,-0.948374062693,-24.4057774762
do_nothing,0.188732739548,1.58748032257,1.46685051829,0.00155074095274,-0.252308860273,-5.04436345332,1.15702163808,0.928065645673,-0.240533232769,-0.368633289422,-0.592685664081,-1.73971178451,0.761574825781,58.3501947133
do_nothing,-0.91071254369,-0.552441278452,0.0577670506731,0.130012795703,-0.137794472495,4.68434907627,-0.155971392419,-0.118991496237,0.23732774955,1.35604061617,-0.105249331165,1.34002309835,0.0483829661066,23.9776078646
do_nothing,0.231502893789,-1.21446680848,-0.812134029002,-0.636881791024,-0.182256992361,3.69335303555,-1.80658953576,-0.146202357057,-0.266276908408,0.509846572788,0.688421234041,1.74133965885,-0.485373880696,-32.1765014491
do_nothing,1.46679785783,1.27194640494,0.155851683874,0.733433452734,0.380160856885,-6.03577828941,1.01531093691,0.401684276136,0.317379550916,-0.865683897671,0.495619530913,-0.723161426439,0.730983320636,-52.3733854602
do_nothing,-0.86923558438,0.612577741107,0.165379996904,-0.0326741601847,0.129629157542,-2.02238382348,2.21652527884,-0.482439358903,-0.330797225127,-0.854322314253,-1.30460928366,-1.89870800314,-0.325214333157,54.8305034328
do_nothing,-1.26091351286,-1.13443669706,0.395283979844,-0.292426176135,-0.141416554926,7.0505202008,-1.32107923494,0.0769492767108,0.328985803842,1.20130389068,0.201104828988,0.760852080018,-0.382751009317,15.8734747816
do_nothing,0.288041738313,-1.23887878942,-0.923246263264,-0.483159926622,-0.950878307763,-1.03293417918,-3.70944781165,-0.530366995509,-0.365375900683,-0.196762542613,0.523926671227,0.796128014429,-0.244296480991,-1.67089018355
do_nothing,2.84163081506,2.73535898545,0.965252457529,1.04202951658,1.49864038356,-5.13450294469,3.66979040171,1.81033652991,0.406731951683,0.372715022063,0.591454994963,1.18349888996,1.71122378693,-66.5038486162
do_nothing,-2.24954575213,-0.657776693606,-0.710229974832,-0.378150626192,-0.464798248625,1.18790501609,2.26049397885,-1.37368557539,-0.407614717745,-1.18525233526,-1.45532577701,-2.39954661247,-1.47455749952,49.1216635963
do_nothing,-1.4227544594,-1.34159843495,0.374641725682,-0.217981010613,-0.484066843673,5.21649054874,-3.11583397081,-0.670260098415,0.409700621442,0.853542517046,0.72111289348,-0.0861472380507,-0.230031534344,6.16721546265
do_nothing,1.60539858971,-0.0417304524034,-0.187357955998,-0.402007445894,-0.0912779442338,-2.96217005939,-2.65709812616,0.886251135505,-0.448948229662,-0.0434233687942,0.119845286063,1.35096391639,0.572736900148,19.824019151
do_nothing,1.5483508298,1.55885260462,0.0898908455496,1.05947548269,0.903829870316,-3.53049638247,3.32688438075,0.81803443786,0.477347421822,-0.294734916573,-0.109681982201,0.717213776928,0.482879144193,-67.4791573528
do_nothing,-1.5826654057,-0.0789829793589,0.173425791516,-0.616078804516,-0.544159335728,3.3871010984,2.56912417591,-0.954198160622,-0.469060467095,0.378195053792,-0.149785072661,-1.20363319754,-0.548497927833,39.3207489937
do_nothing,-1.26995135494,-1.13895071773,-0.0637144238135,0.110203810847,0.0147691547355,2.11867920466,-2.77006732857,-0.291263264547,0.475937997672,0.344568396043,0.639392515817,-0.691104267059,-0.0332321803947,-2.81665087134
do_nothing,0.729566904414,-0.758308063861,-1.06255552329,-0.507099446728,-0.460381527477,-3.7750719971,-3.5550780479,-0.251166842469,-0.513211454577,-1.72786227439,-1.28446143259,0.0289010291291,-0.643586943627,33.2773997131
do_nothing,2.58365074767,2.31203225795,1.95539680086,0.843733370579,0.913183813939,0.542558959042,3.67010018829,1.58255213203,0.527338741053,1.3044474851,0.854956804496,2.41990624368,1.3919329859,-59.2385238973
do_nothing,-2.32421651267,-0.793850921596,-0.954893742718,-0.412996026271,-0.507648757271,1.20493564059,2.38107761758,-0.838741966412,-0.513461824999,0.792013909223,0.37661376051,-1.34818648234,-0.496107576979,27.3753024888
do_nothing,-0.801878322818,-0.435537464741,-0.511645134964,0.205127661027,0.381518860254,0.294764840563,-1.63751059393,-0.0292196748915,0.524542620857,-0.263559836934,-0.0755504884864,-1.20396531477,-0.00931603103073,-9.83161879464
do_nothing,0.734019876004,-0.877271373178,-0.157353660519,-0.718913884752,-1.15826228486,-1.58364031936,-4.48821122087,-1.28515531532,-0.555469424166,-2.80821521594,-1.58692476166,-0.363316129794,-1.39130855957,39.0353574182
do_nothing,1.71348297446,1.3808406858,1.68869879984,0.940951953946,1.25110089201,1.34912559158,2.62402387582,1.508444761,0.555726204545,2.15300152424,1.46080333819,2.81093471348,1.60642052417,-45.2811967837
do_nothing,-1.18068739503,0.449359161698,-0.865013731029,-0.515513201463,0.00529882551934,-0.491715852943,4.28739901691,1.0944629625,-0.53942903908,2.50800883345,0.527768319265,-0.197514002156,0.863166212823,15.5100424267
do_nothing,-1.00791942227,-0.864471857015,-1.17397061735,0.365059699131,-0.520255987014,-0.712822656218,-2.12620159559,-1.58436497426,0.552462691168,-2.82222855553,-0.72932984414,-2.9964488999,-1.6364442598,-14.4963885243
do_nothing,0.175163677274,-1.24196279656,0.658177564906,-0.661792811937,-0.731260382085,0.789309299353,-5.05439220359,-1.63119749165,-0.570960680726,-2.72826745117,-1.24228192278,-0.0826246479947,-1.39237856028,38.1734905753
do_nothing,1.6916815614,1.74770585,1.65103603453,0.660725351307,1.43753434892,1.58484015074,2.6791160309,2.38794504077,0.551901948003,4.4931326293,1.63884680847,4.35405268855,2.94920613053,-28.5999012182
do_nothing,-0.650155918249,0.258868398656,-1.82102823699,-0.462103860592,-0.327619049799,-2.91092907387,4.13753666703,0.586118039795,-0.528604218126,0.730514155245,0.0569847871001,-1.76894363186,-0.0139874586891,2.89673463061
do_nothing,-0.414488755993,-0.432117889883,0.19477542886,0.601531276239,-0.119598962272,-0.0613200458398,-0.636756798322,-0.344872574887,0.552592567718,-3.17661600554,-0.208506069054,-2.9742043413,-1.84710539106,-7.54288999886
do_nothing,-1.76379860022,-2.01347435893,-0.308314933214,-0.612703281265,-1.39434193071,2.21907608686,-6.72023930277,-3.26627010704,-0.598371160105,-1.72097060116,-1.56398835976,0.93632817393,-1.18477759696,14.7274472699
do_nothing,2.96666552903,2.42458620526,1.69366708778,0.167944933464,1.92377483812,1.66210250352,2.58355116399,2.0568528865,0.601402267894,4.80036902654,1.59298389118,4.2395400803,3.58829107507,1.1354405865
do_nothing,0.188668679343,0.361936999247,-1.05775739451,-0.238367975269,0.0696818698152,-4.9549425875,5.74131783236,2.89602733905,-0.546640487318,-0.439312749506,0.453082675592,-3.06285961973,-0.756622931064,10.070765539
do_nothing,-2.54265419069,-1.77362292584,-0.852126949632,1.09293340315,-1.16716799433,-0.0048709984123,-2.24215087818,-1.67870063907,0.489132058659,-3.45578892467,-0.826467093874,-2.55877846606,-2.34562414505,-58.4277164975
do_nothing,-0.0769187923526,-0.136972328203,0.646162206435,-1.22179275166,-0.682583950509,5.59043976391,-5.92782191158,-3.98610721934,-0.503190923087,0.590586849471,-1.06451020687,3.18197948196,0.565456681513,60.8822491459
do_nothing,2.78157586297,1.77998016565,1.0923889697,0.173789655233,1.98540340232,-1.07021386556,2.98458422119,2.71869233504,0.578030734129,3.08081015387,1.68416881625,1.57187571748,2.24849547774,1.82007301612
do_nothing,-1.04076630499,-0.862420004444,-1.16802461814,0.202522766971,-0.327277659236,-6.38550841525,4.44891024222,3.52242182648,-0.585489734947,-1.47036416452,-0.094575495758,-3.43692744567,-1.16124227613,-31.3795790056
do_nothing,-1.22966799251,-0.345546334774,-0.0474923295878,0.804484124723,-0.994006805461,3.35743358104,-1.82529272648,-2.37513703232,0.463471330158,-1.4078637407,-0.669450451157,0.209060097071,-0.954498772269,-9.26469170057
do_nothing,-0.0994527055718,-0.27459532915,-0.228711807655,-1.23734419344,-0.496574934082,4.70388036218,-4.67416840875,-4.32672998581,-0.367888156652,0.25662447798,-0.650354996153,1.56973682399,-0.180431265556,29.8731638378
do_nothing,2.11774226216,1.58931207659,1.62194805258,0.187059383826,1.7989218234,-2.77135713174,2.56683509286,3.98265120575,0.443127937559,2.46154370451,1.74068458294,1.2111998262,2.24010797281,18.0671742604
do_nothing,-1.45784930891,-1.65437106793,-1.46127369523,0.402950366546,-0.662650762148,-5.78743558004,2.12614071534,1.96255625655,-0.543791524144,-2.1524115006,-1.03041478468,-3.17921456812,-1.41172663504,-66.938046133
do_nothing,-0.0495414227389,0.301284094619,-0.208668149214,0.533384721227,-0.262214992639,4.98713938983,0.182273516764,-1.90647070362,0.467976608192,-0.420095720998,-0.23292460093,0.393765553949,-0.619355808903,60.4907594349
do_nothing,0.21677421193,0.948317833649,0.842077392539,-1.18091006887,-0.650201472394,4.20817160283,-2.72516465454,-2.46127021139,-0.332522103411,1.59638505306,0.457777072854,2.52132393357,0.549438048953,-21.9219706534
do_nothing,0.0152167470469,-0.549009283921,0.227262921971,0.36166544255,0.827613388374,-5.41453578741,-1.1429771057,1.18343131121,0.360980734223,-0.358793475733,0.307815595114,-0.476325919993,0.697524285523,-5.90331127188
do_nothing,0.0683423770695,-0.928807645735,-0.969084044296,0.353073052303,0.579732701745,-3.21995078758,2.99840320991,2.81609236656,-0.457564284998,-1.20736746183,-0.902972900466,-2.81326231695,-0.646827022672,0.281345272461
do_nothing,0.186619503168,1.11812007553,0.151016904272,0.251980024075,-0.63741366054,5.9504211409,1.87515604295,-0.701231603943,0.398560975084,1.05562586674,0.508851882746,1.28490454176,-0.181393940924,22.2876422942
do_nothing,-0.506899196637,0.303741671432,0.692645008416,-0.935707942997,-1.12544190071,1.55651292169,-3.73056651155,-3.45821536004,-0.270449883094,0.24558634964,0.219687643326,2.19598444562,0.0162495551956,-3.36061840314
do_nothing,0.478415702507,-0.54379324884,0.243562819693,0.509314870421,1.46751404772,-4.99107377365,-0.870812704019,1.60102271786,0.286465573887,-0.351432259921,0.0825916073012,-0.84450566062,0.827516527711,-57.132032087
do_nothing,-0.835663396343,-1.28880446613,-1.84698627203,0.226450902507,0.0664866748502,-1.56932214543,1.8811819146,1.82339231251,-0.361559092,-1.07893468599,-1.09708272775,-3.09077923272,-1.00459483275,54.1637012429
do_nothing,1.24082003473,1.95854640799,1.508167574,-0.213414994657,-0.401762126383,5.38223972059,2.47687245759,-0.0893663332196,0.299800866732,1.56832748536,0.981080311445,2.22693583256,0.513017633709,34.7812835331
do_nothing,-0.290140174694,0.020836321573,0.462446907825,-0.319238497389,-0.760748033446,0.238629408765,-2.22794433175,-2.1430020774,-0.190038176907,-0.245736445121,0.2715168524,1.72323382188,-0.222407349705,-57.6436837755
do_nothing,-0.936201142883,-1.22822922056,-1.00668336646,0.677655000316,0.751787564314,-3.91331189349,-2.38011066319,-0.0107740691882,0.206573666942,-0.470750383777,-0.498455984934,-1.2164909528,0.282868281357,-36.1632378703
do_nothing,0.207004922063,-0.252369034545,-0.396681418759,-0.517008149465,0.321078390694,-1.00025869837,1.42217888508,1.44853265203,-0.254262515289,-0.340035732823,-0.607894704763,-2.07836622696,-0.17858243689,59.0133828558
do_nothing,1.01720453419,1.0406426749,0.748973747505,-0.106475911435,-0.187854982058,3.72752066296,2.82308440512,0.772428747251,0.184259447304,0.304323362207,0.805350474751,0.647201354549,-0.232366835373,57.9861043382
do_nothing,0.0455400306808,0.81109099321,0.786466586187,0.464457692383,-0.495718662705,2.01788312875,-0.523892135142,-0.883252388543,-0.100345037413,1.10250242783,0.377988130155,3.18960661178,0.488792095913,-94.4563278808
do_nothing,-1.58733900869,-1.65930384988,-1.13937552305,0.168313292042,-0.204393339711,-4.93062677498,-3.964053855,-2.15072113712,0.124648189717,-1.0623002023,-0.77015534294,-1.34878245677,-0.216916087744,-28.2356514496
do_nothing,0.266418146663,-0.747359869313,-0.802206704212,-0.938384362576,0.90997230938,-1.83746745145,0.543043424248,1.33520466018,-0.143945330762,-1.01225966539,-0.237871366421,-3.52802835569,-0.417495036685,58.7290856954
do_nothing,2.04380782654,2.60266610154,1.87966433859,0.324602823531,0.329345849729,6.35162810479,4.88558777255,3.25261333394,0.0620830184806,2.04709539141,0.875056229104,2.62942440194,0.940460679368,83.0394287508
do_nothing,-1.43695429537,-0.840413981817,-0.420968439168,0.964465052856,-1.56321566024,-0.0972074443372,-1.72669233531,-3.1948648818,-0.000697692174798,-0.719507370758,-0.565738740626,2.06470900961,-0.83719871816,-115.773468057
do_nothing,-0.855546590825,-1.52109334852,-0.953226088395,-0.717744674669,0.448610795621,-5.58342184712,-3.73409377985,-1.79628124609,0.032213463308,-0.883171275234,0.221103602461,-2.10973001615,-0.101003829442,-34.6251029402
do_nothing,1.09488969938,1.03733130709,0.402709090339,-0.761066828036,1.1184225352,0.712322658436,1.21207640109,3.05423622867,-0.0301202530654,1.18016962282,0.272871564073,-1.31745792328,1.012993769,57.4876122511
do_nothing,0.250555900546,0.647872805679,0.299294244216,0.853044220728,-0.626427133593,4.9204238652,3.06008994937,0.607233618638,-0.0558494861568,-0.415636735244,-1.02847978946,1.37529759904,-0.488917747389,110.003010804
do_nothing,-0.379614000272,-0.653537427317,0.166437872873,0.635434352935,-0.474209440557,-0.813274052475,-0.0650923929778,-1.80728673648,0.0980987802809,-0.719798872892,0.603389266004,0.871714247035,-0.931927173415,-129.412117787
do_nothing,-0.502782740329,-0.456356368199,-0.53990057939,-1.00187173711,0.0545607711277,-4.91280404806,-3.56989839247,-0.748246205763,-0.0665754170422,0.848833356017,0.968405531238,-0.771356223132,0.639077334739,-46.9398296271
do_nothing,0.680783133846,0.87423873654,0.310540258772,-0.344171797855,0.69238887841,1.87362696731,0.205250677099,1.48655317794,0.0855282734594,0.922783251425,-0.898888853362,0.0949672255637,1.63958041916,56.0338761304
do_nothing,-0.399892132131,-0.588244128972,-0.563840016043,0.813051678422,-0.239401601084,3.53634597735,2.9151672941,0.143818245597,-0.166068793844,-2.20600106007,-1.24462669736,-1.20087824251,-2.20632175231,130.896394083
do_nothing,0.186318063002,0.0682323888406,0.714039953416,0.459601006521,-0.198578702717,-1.73451628431,0.570741331921,-0.301320075215,0.190724955773,0.227457625527,1.74587218432,0.673730517121,-0.642530365908,-129.339464785
do_nothing,0.611406490712,0.803561776372,0.757774180436,-1.12150532092,-0.333881392621,-2.54590326725,-2.74288258086,-0.199602036535,-0.165329370487,2.4756314989,0.621580039618,2.25960256631,2.73547593373,-68.0848312355
do_nothing,-1.25852928083,-1.21896933176,-2.05619097343,0.125428735244,0.410842712514,1.37582919797,-1.50290475046,-1.03733125747,0.197214145603,-1.43175957677,-1.79715667841,-2.05335038765,-0.546829436136,58.8337031539
do_nothing,-0.0683995942479,-0.00165726995052,0.162296159113,0.564823361281,0.438980351631,1.5888769234,3.17737635974,1.16436617736,-0.265375054385,-1.73615807277,-0.296130486671,-1.92851285906,-2.4931717657,141.977825743
do_nothing,2.078138706,1.70169373756,2.80928451223,0.122035813251,-0.342433805615,-0.482478379573,2.19493770802,1.705258216,0.274875900759,2.01388560949,1.94319267594,2.89768958835,1.68550720248,-118.042237961
do_nothing,-1.50275405231,-1.49785970422,-1.98453972,-0.713926490602,-1.02814842136,-1.50319141972,-4.56435942255,-2.71884525413,-0.259412494345,0.104769249463,-0.615337589622,0.389681571515,1.00508557948,-92.4369781213
do_nothing,-0.829863687986,-0.128067510883,-1.42701027869,0.33918463429,1.34968886818,0.64361151206,-0.775521039842,-0.488427167081,0.299486712512,-0.380186249231,-0.706029903761,-1.36243684257,-0.857247309386,63.5039281995
do_nothing,0.817926300391,0.434845299994,1.48424319454,-0.01950442965,-0.0229045074685,-0.106283339315,3.45148386851,1.9194265323,-0.350926053109,-0.969278368279,-0.33274869974,-1.30450016244,-1.41069927513,144.162841492
do_nothing,1.49302577729,0.732692024889,1.81827323646,0.277084812787,-0.554240953974,1.38858146884,1.63633935533,1.38102092371,0.348549423413,0.756223152099,1.29962095056,1.77507955631,1.67401181309,-99.5894775985
do_nothing,-1.72194974698,-0.80015602014,-2.26330210228,-0.431246350271,-0.537590454435,-0.651612200253,-4.2808282721,-2.84174132767,-0.344218103981,0.444050465372,-0.248648959157,0.864348865933,0.250327300035,-114.879549378
do_nothing,-0.810196587035,-0.496582273662,-1.08616338894,0.36501575561,1.12393729307,-1.78335236721,-0.968263624975,-0.941214624613,0.387193293693,-0.229631757488,-0.671391353767,-1.37152172496,-1.08838098806,67.3407839687
do_nothing,1.66686258833,0.538409998997,2.07693360708,-0.539210247869,-0.0990629373924,0.818363500952,4.1767108047,2.98142449305,-0.420443966392,-0.500374174271,-0.234942109489,-0.958445749248,-0.105153828479,139.841069375
do_nothing,0.648619052706,0.952852915384,0.968608104661,0.672675377121,-0.664561643379,2.4141519431,0.798960972036,0.819402407165,0.410274928163,0.195199744152,1.18099109633,1.62762158579,1.26061472097,-77.8226495555
do_nothing,-2.07129392404,-1.13287469162,-2.36702499327,-0.367977145546,-0.146586056117,-1.73553633984,-4.79557005766,-3.62323536903,-0.416016431401,-0.127163541031,-0.680578824347,0.1087491697,-0.989775472982,-132.842505673
do_nothing,0.549012258747,-0.29455095861,0.159390006948,0.158466838404,1.20013803607,-1.63527748966,0.909277234048,0.729810153328,0.456335793252,1.00635223024,0.000719849300411,-0.744416260087,-0.00667936461478,69.5635002224
do_nothing,0.435366915734,0.0666543612748,0.605747000342,-0.443799430674,-1.11923439281,0.785871038525,3.0852463087,1.76125270485,-0.472080896205,-1.17449569884,-0.297138760601,-0.75810471398,0.209377140173,131.409827101
do_nothing,1.20090320306,2.15845605917,1.66904748388,0.650016027975,0.440256283872,3.41166100194,0.0143834529148,0.816937829096,0.458388458828,0.532930326104,0.830984513487,2.16262934045,1.04703704637,-56.5692261461
do_nothing,-2.087534868,-2.23816951819,-2.08966194692,-0.475029931745,-0.120453798983,-3.23592476819,-3.92909924431,-2.94590574993,-0.471710616204,-0.645179954323,-0.819242993182,-1.7257144077,-2.20585278381,-144.734092475
do_nothing,-0.0211603444687,-0.850940592205,-0.606489786677,0.430928588284,0.212308821888,-1.86980904326,1.50745949128,0.209180352705,0.50442959796,0.726351008493,0.44317985003,-0.355031433008,0.959386238159,70.0902017176
do_nothing,1.62949606993,2.16964914257,1.42494008196,-0.582791940742,-0.463077481541,3.83465101033,2.44962109593,2.19222578287,-0.504796822792,0.427288798224,-0.0496786227959,1.79958469479,1.58669609446,120.986488454
do_nothing,0.0881522601725,0.65884824016,0.87400125613,0.468419174052,0.661296490961,0.599280519413,-1.20957885438,0.081531443011,0.491128413204,-0.692531984912,0.0190595844529,-0.129524187387,-1.48108773161,-38.6533463251
do_nothing,-1.88365552754,-2.69220371422,-1.49307133244,-0.355278195745,-0.469192153854,-4.53630352961,-1.81536834683,-2.28957632926,-0.508657873346,-0.998748736736,-0.552905163918,-2.58248992952,-1.39563615367,-150.358001135
do_nothing,0.540572039225,0.409950255391,-0.525840171263,0.712639131801,0.0444184815461,1.89282233367,1.02794968696,0.346137645954,0.530192344171,1.27746969891,0.870406754827,1.39928484899,2.32945712873,69.526118594
do_nothing,0.991492451532,1.62309696753,0.461494311664,-0.857127886102,-0.155149484911,3.05111764752,0.609582889495,1.30828899589,-0.518288487691,0.63246180676,-0.320252348888,2.05460991221,-0.0362140841235,110.18338553
do_nothing,0.693432714248,0.841647101063,2.22801676258,0.174127175741,0.835467812481,-2.31188018302,1.36535028517,1.17600047644,0.506970274941,-0.0313425100002,0.0724850929931,-0.601383984018,-0.797957656543,-25.7369786873
do_nothing,-2.74452276457,-3.50270110085,-2.49557837707,0.223160844411,-1.12741365543,-3.07693074126,-3.28347272456,-3.39949313017,-0.524957471144,-3.32054276483,-1.12784270547,-4.52371171959,-1.54638880081,-150.54727975
do_nothing,1.31786140222,1.29556161754,-0.31414663289,0.634405041434,0.749864538371,4.6222897161,0.529987866315,1.15089067325,0.533424153103,2.71635563594,1.70430333372,3.55547190084,2.34816257365,68.9409946077
do_nothing,1.20150783243,2.05244535729,1.1650447372,-1.36858740814,-0.43017184894,-0.318691480295,2.78893932851,1.82331910686,-0.512845204297,2.30302048405,-0.121665825661,3.41115823216,0.284080572545,98.5118067086
do_nothing,-0.669650389152,-0.766981973433,0.925796274259,0.560811294655,0.35086205116,-2.58313949171,-0.896213984598,-0.906371981019,0.504829979571,-2.97870373181,-1.34819512918,-4.22642415427,-1.4301958069,-12.0650937251
do_nothing,-1.43340587838,-2.49703951008,-1.58184282883,0.365188704307,-0.156043332022,0.671425625433,-3.0760135022,-1.65061288824,-0.51965367583,-2.53326804097,-0.070477684038,-3.24707249513,-1.12353207017,-160.833718463
do_nothing,1.26512865182,1.78841943554,-0.116404835107,0.415481853399,0.209506007416,1.0689606918,2.57011500441,1.61879091644,0.51488799859,4.45324605749,2.25342311001,5.74738394352,2.3969538818,85.3899462876
do_nothing,0.509261029927,1.46700438694,0.67847702947,-1.57148994307,-0.757651582017,-0.518242192052,1.34451027641,0.302098157058,-0.489250473079,0.93818570417,-1.40514123637,1.37387021687,0.275396309669,88.7007950097
do_nothing,-0.62467718203,-1.53798089506,0.462663530302,0.893801707806,0.823787346748,1.30107856284,-2.48309371929,-0.856963671989,0.484252244962,-4.10297527625,-1.11963316681,-5.16274566134,-2.05194921357,-38.880869916
do_nothing,-1.06852736769,-1.65120700004,-0.935833380204,0.561378869905,-0.124045350247,-2.41516399772,-0.567625982838,-0.569375842607,-0.492870134573,-0.525343999695,0.9667812945,-1.13911162574,-0.463816068334,-111.241649401
do_nothing,2.13982025348,3.21143633216,0.936197133316,-0.27624386711,0.200308606904,-0.323578481672,3.52700335532,2.00934425675,0.47617841793,4.98342647503,1.63345080251,6.08424742692,3.15428199214,69.8084548375
do_nothing,-1.48298533912,-1.33967917972,-1.543446857,-1.20635811924,-1.34513787974,2.69952085645,-2.97136212812,-1.76573366358,-0.448701165164,-2.44938220702,-2.38247138286,-1.64860678886,-1.88537727451,53.1507203765
do_nothing,-0.0288826771669,-1.09473326468,1.00415409057,1.30822698049,1.31440763455,1.26448629492,-0.289568672932,0.117003019669,0.445523689325,-1.9745469327,0.295785286115,-3.1809926308,-0.830937311861,-1.94500834971
do_nothing,0.931228028208,1.32866405653,1.10359340155,0.0596708298666,0.378556273303,-4.79667896123,2.70414056305,0.92033984122,-0.445835144399,1.7964126738,1.12329131319,0.636654899443,1.00152472779,-110.513160606
do_nothing,-0.283853947023,0.392314779956,-1.2530874912,-0.571171910462,-0.811282651402,-0.149727834169,-1.45271267456,-0.200841873666,0.419597542951,0.843826400842,-0.0960032971097,2.59979275896,0.521214089838,57.549889276
do_nothing,-1.01471744925,-1.61597527517,-1.20615606489,-0.469546856937,-0.915789559901,4.86066070044,-1.92738720354,-0.626781150327,-0.392784084393,-1.34302868824,-1.0990485956,-0.21718188894,-0.79274336726,38.1375010067
do_nothing,0.881831902813,0.557432335223,1.69405442555,1.28582749265,1.46312114438,0.422582664482,2.66875101782,0.0754336093421,0.389725171541,0.126649225833,0.658132881031,-2.27170962388,-0.0668171089927,23.6760921181
do_nothing,0.514728215636,1.07830200752,0.702629839009,-0.732227810569,0.41434237402,-5.32693855805,0.241621098557,0.10984368471,-0.380781557379,0.204752670769,0.0692613887246,-0.235711361798,-0.0390696088573,-99.5274700579
do_nothing,-0.514325010105,-0.136884621435,-0.855934447744,-0.20497441154,-1.03426645557,-0.759876620763,-1.87496907538,1.37990298059,0.34799994412,0.623614616811,0.364100326487,2.94171966297,1.11696883683,6.06969412279
do_nothing,-1.28895619745,-2.29204944535,-2.10023369602,0.259318106,-1.1937114418,5.06586741681,-0.497087644965,-1.8190240637,-0.323475548742,-1.24612555321,-0.978147427809,-1.26867389934,-1.16010117721,91.0167974505
