label,COUNTER,INTERPOLATED,AF3,F7,F3,FC5,T7,P7,O1,O2,P8,T8,FC6,F4,F8,AF4,RAW_CQ,GYROX,GYROY,MARKER,SYNC,TIME_STAMP_s,TIME_STAMP_ms,CQ_AF3,CQ_F7,CQ_F3,CQ_FC5,CQ_T7,CQ_P7,CQ_O1,CQ_O2,CQ_P8,CQ_T8,CQ_FC6,CQ_F4,CQ_F8,CQ_AF4,CQ_CMS,CQ_DRL
off_to_on,-10.7031005254,-13.8189295918,-3.30785802712,0.293315325254,-16.6823207113,-24.0615565256,-22.8991057764,-8.71088516005,-0.805470950363,-13.7894135541,-17.025876396,-24.5226668659,-19.6590619125,-0.223539570285
off_to_on,11.8529187398,14.9662744797,0.866374193946,0.842103710307,14.471899733,21.2429456494,19.3595405703,6.02011260609,0.629265777492,11.9031405508,17.5762043702,24.2843642402,20.7261315713,21.9170575094
off_to_on,7.26118773849,9.38842423868,1.96604797305,-1.571464881,12.2880806835,18.6039969935,17.0414826315,6.66528509293,-0.4478869874,10.092981749,12.0773888147,18.2058994531,14.0068837812,-50.345944191
off_to_on,-10.2151210007,-12.9141283874,-0.069249250832,0.578522546633,-12.4723494306,-19.4389300149,-18.3510626737,-5.23971632118,0.521681313882,-10.6254424512,-15.7915011556,-22.6375434785,-18.8458602048,-6.47449289579
off_to_on,-6.62747808296,-8.52326721575,-2.85412224771,0.391641683607,-11.2155935221,-16.2767119538,-13.3077934875,-6.70944917457,-0.669089662389,-9.09724157277,-10.4143939936,-15.1754518146,-11.9153795925,68.2217084348
off_to_on,8.41591274221,10.436009113,1.42493107053,0.217318834562,9.62925198885,15.0230922084,13.4369088807,5.17352897803,0.568000911475,8.88664153196,12.5030936405,17.5751057466,14.80515626,-28.0460479944
off_to_on,7.5639868642,10.2898379359,1.42370272226,-1.16425937342,13.3204966022,19.5359882298,15.9701538112,6.54096983871,-0.292663515594,10.0084383085,12.768692064,18.6393706908,15.00189781,-32.9545640342
off_to_on,-7.54796500053,-10.0308187243,-0.529715846153,0.858975904478,-9.49917445343,-15.4135197435,-12.9592536159,-4.64915106208,0.231091013979,-8.54874311976,-12.5086712601,-17.4902487039,-15.1255691753,1.33805266373
off_to_on,-9.43074076041,-12.5415071705,-1.84421481231,0.0210395003152,-15.4770500496,-21.7525187047,-19.0484347038,-7.67768169982,-0.406425018608,-11.3975214732,-14.955607457,-21.7480590308,-17.419727222,61.6913165059
off_to_on,9.8535053072,13.5538838649,1.10993194135,-0.139941608335,13.4029130272,20.4075987374,19.0665235729,6.89998221653,0.402361706029,11.5257316698,16.8314396917,23.1367231822,20.0767726668,-46.414423296
off_to_on,6.63819255333,8.47877652989,0.979636946568,-0.268631675273,10.7670692708,14.8131158262,10.8730716024,4.82871253708,-0.183372356321,7.14919635897,9.30956702319,14.7457059879,11.0693656978,-28.2278389022
off_to_on,-7.87322658218,-11.365515299,-0.641424368354,0.386244464293,-11.0620452593,-16.3148469788,-14.30921308,-5.56932654813,0.186507267537,-9.14004958646,-13.5999746554,-19.4683017042,-16.5314445983,73.7635440977
off_to_on,-6.24983921911,-7.09533950935,-0.779231663436,-0.335638688081,-8.90161334484,-12.5594982637,-7.87734232476,-3.56639842181,-0.319034171563,-5.3649603465,-7.27421430049,-11.8178889118,-8.81658584046,-43.7295267107
off_to_on,6.40009705744,9.01888389877,0.566939012724,0.382869650316,8.38188776276,12.0619941437,7.69639677844,3.75346579502,0.0279670188224,6.02711297164,9.62685723087,14.7038908575,12.4076667326,-30.8243973579
off_to_on,6.55611341629,7.17097132834,0.157071809448,-0.147912879947,8.83892145959,13.3319367365,11.2940482214,3.81315894772,0.377421084998,5.95760708671,8.34586229445,12.4785467489,9.47409666079,42.2640504005
off_to_on,-6.49469810937,-8.76256068,0.0319066113323,-0.335429751121,-8.23994323736,-12.4721266682,-8.73587127703,-3.56815317516,-0.0576795931549,-5.60884946804,-9.48218550935,-14.5257896308,-11.9251887791,56.955289523
off_to_on,-4.73073935442,-4.52853137144,0.0873704900158,0.295972648945,-5.46082257012,-8.41625378856,-8.43107261487,-2.72568885116,-0.523450763871,-4.03064359297,-5.61606862213,-7.88305431303,-6.11283489138,-107.363102404
off_to_on,4.80587694304,5.95361636593,-0.632762556881,0.247567059854,4.94571554369,8.06912914835,6.81824871165,2.67553836449,0.130403835204,3.30303437898,6.53160992767,9.81805771973,7.89421545344,-28.6975302393
off_to_on,3.31522956698,2.69013093074,-0.0485966335951,-0.260209014149,3.01841146881,4.55833947824,4.19196243496,1.39563829794,0.781922414546,2.47996581202,3.34395189065,4.49540006711,3.95629406822,148.676407696
off_to_on,-1.89213481167,-1.24646366005,0.979104857201,-0.407775659237,0.958394540906,0.394632685558,0.358780080284,-0.617908040711,-0.598845996222,0.827578732332,-0.991852266178,-1.36618907371,-1.23337878375,-11.3593393008
off_to_on,-4.01802644475,-4.60549177331,0.142104319268,0.661262758354,-5.54332514737,-7.8131279897,-6.99872985415,-1.49550927205,-0.412534811566,-4.33215642931,-5.73295159892,-8.39732853046,-7.53151868527,-164.202849784
off_to_on,0.609332517178,-0.294586564175,-1.63155535867,-0.19471731714,-2.93669297742,-3.33515677148,-2.11623697732,-0.824403655745,0.401850360982,-2.21382755391,-0.461166804822,-0.630237709453,0.0293557468145,42.8713341935
off_to_on,4.8091175525,6.21456099742,0.554391886109,-0.00182010512266,8.02777979555,10.6891319383,9.04596756858,2.51013185168,0.676889742078,6.33497083367,7.28865434733,10.9662809326,9.69410369774,162.248212851
off_to_on,-1.35055228919,-0.926731745349,1.10749931459,-0.393337662627,1.34666744994,2.09286299706,-0.337522651336,0.0701454642281,-0.990315828317,0.529114307732,-1.09489018794,-1.73133268061,-2.39821592419,-50.3429785304
off_to_on,-2.43228656058,-3.6085380566,-0.0212788111506,0.516205132668,-5.82617248801,-8.00443375401,-4.2065321309,-0.788871938666,0.207857856508,-4.35046020413,-3.53740119177,-6.44861519112,-5.50857050045,-173.049345338
off_to_on,-1.3396655557,-2.08533140784,-1.78537660779,-0.163236093297,-3.99644930788,-6.12805289379,-4.51930581599,-2.20819890629,0.0878354876722,-2.28301681722,-3.20676384691,-2.8279612222,-1.75446346773,64.3030877985
off_to_on,3.17897619545,4.76645737994,0.862979575447,0.203778489886,7.52594460437,10.6264700019,5.74948959781,1.91491605406,0.555911321499,5.43644231398,5.00453550825,7.46361263671,6.61322207544,172.799749947
off_to_on,1.95156873491,2.47101963765,0.823730119869,-0.781204873383,3.52507772035,5.95725484646,6.11413573974,2.27409069743,-0.919277489265,1.37640074925,4.51114876517,4.5012988167,3.07406188693,-67.6897892265
off_to_on,-3.5805362838,-5.46153492483,0.104454198913,0.97443851822,-8.53165606573,-13.2012704475,-9.61199619424,-2.49199499671,0.616075190276,-5.65523302108,-7.16479660502,-9.75961464784,-8.50744202948,-171.371132284
off_to_on,-1.67594139176,-1.39503586585,-1.85760937988,-0.556087762175,-0.961510285411,-0.991493712275,-0.863705405513,-1.93012355663,-0.495242876739,1.12232671184,-2.36255104638,-1.56209816552,-0.816633292783,59.0012427622
off_to_on,3.56237845615,4.76595242967,1.26266241628,0.347334242559,7.02161791756,10.1125703811,7.48904096521,3.45625060732,0.698355071122,3.73523018514,6.51522143263,7.83600991228,7.18703325058,185.803528035
off_to_on,0.0469727803965,-0.294963476363,0.258486443432,-0.637010755978,-1.60993246402,-2.46598704424,-4.3636874688,-0.804529250112,-0.643284324952,-3.88986786853,-0.388116760636,-0.897818290791,-1.41062092817,-70.777218566
off_to_on,-0.416496082469,-0.983830269087,0.019619696002,0.847952583477,-1.99277647342,-2.69765527181,1.21965123334,-0.36299080629,0.531126535726,2.13865801866,-1.73591310155,-2.00599963958,-2.12786907612,-170.833479717
off_to_on,-2.7596112769,-3.09274695989,-1.17296817568,-0.807302664619,-1.88203221489,-2.38374458748,-0.475154497345,-1.08289592094,-0.850803910043,0.0973539851494,-3.15497410362,-3.88260572154,-2.98771162886,46.6452274187
off_to_on,2.31978851973,3.46259433345,1.25360651896,0.87863824749,3.93094464834,4.53893002817,-0.233205103102,1.64862979153,1.09381804818,-1.16174045615,4.04419457713,5.17674777434,5.23023066904,193.37650443
off_to_on,0.485496742671,0.357943392738,-0.762902676854,-0.970338400436,-0.883524774261,-0.469103654698,-1.52087364761,-0.844697910643,-0.720205503672,-1.42912376867,0.237798272968,0.211982138316,-0.381199412604,-61.8797367835
off_to_on,-0.287893736778,-1.46005517886,0.626202766451,0.761961968133,-1.55237619493,-1.55137115477,2.67387351009,0.231813790772,0.414121086974,3.10771353357,-1.95447427026,-2.99058638625,-3.07713513698,-172.870298038
off_to_on,-0.604836276016,0.213436863012,-0.519984007539,-0.602068374487,1.77195424692,1.60767849176,2.96505303255,0.287244474776,-0.828035551904,1.13813719621,1.03162230542,2.4335644126,2.08692914992,31.4839028528
off_to_on,-0.625382166238,-0.226783465909,0.586539436483,0.9347678705,-1.0588225607,-2.53722136552,-7.11087727805,-0.319656802018,1.2671892595,-4.02332060809,-0.895969617921,-1.78906901787,-0.507883297939,199.753644602
off_to_on,0.117889707983,-0.454997723572,-1.28521158283,-1.2977966413,-1.55804785775,0.079453051961,-0.615347918622,-1.11974828069,-0.99334558827,-1.29125313267,-0.377847161882,-1.1731566556,-1.06131367319,-50.9692146854
off_to_on,2.80782695371,2.55500325046,1.62188918273,1.05306012717,3.78673746728,4.73076650932,8.95755517683,2.30411194709,0.56580398951,5.52288970452,2.87882139315,4.7049661352,2.75959808132,-175.692595246
off_to_on,-2.77663922816,-2.3619305501,-0.771492163503,-0.571030185065,-1.80318316808,-3.91149993514,-4.46672549052,-1.5154451552,-0.712755453166,-1.14443481638,-2.84846083449,-3.11936437337,-2.50724035652,20.917432715
off_to_on,0.267955259215,0.791235791365,0.119631861716,0.618319142617,-0.368065750033,0.0554219332936,-1.65313529516,0.902420421424,1.10064809911,-1.43014879104,1.76163097772,0.380681551102,1.84300320611,200.665850618
off_to_on,-0.873635399789,-1.86090669931,-0.790452252579,-1.09290287068,-2.29710580002,-1.91588694716,-2.64912903139,-1.74875369702,-1.14517203936,-3.79269092,-2.75584601991,-2.75781786621,-3.09675317419,-41.1246521738
off_to_on,2.75075065934,2.75905569353,1.47658803641,1.29912465249,4.21117393506,4.77691399146,5.10328253501,1.26778998164,0.945068573586,4.37683868144,2.02448151042,3.87360106483,2.42894812662,-176.384625294
off_to_on,-0.77977901686,0.232023893945,-1.14489943011,-1.05233571642,0.0150189999335,-0.133464558497,2.93320706707,0.787951085405,-0.813624704292,3.38874844713,2.04221790063,1.5530755862,1.81442162321,15.9171401074
off_to_on,-1.56806395084,-2.15271052512,0.834708153951,0.786362264336,-3.45061668315,-4.93628347513,-6.35883831809,-0.467017752567,0.806177698544,-4.2583226531,-2.36358094915,-4.09123180359,-2.75325075255,194.956884508
off_to_on,-0.24094346516,-0.558104851308,-1.01251482954,-0.840138882683,0.615653810667,1.93435888103,-1.14136823057,-1.78510042305,-0.933243207893,-3.8888837956,-1.88691151636,-0.552540494368,-1.1223462462,-32.6983059258
off_to_on,1.68385721517,1.76149368054,0.738691562648,1.08503369108,1.69259072076,1.89474011936,3.38790848094,1.31575474453,1.09948512818,4.17872805064,1.50748570454,1.2965823492,1.21279137606,-174.460348065
off_to_on,0.145395535588,0.752524267629,-0.380650763948,-1.15525101859,-0.0865492241318,-0.722182249875,2.20541362799,0.501257432794,-1.00737833661,3.35973645677,2.62157947361,2.94757702224,2.38285376585,15.2435700263
off_to_on,0.592174883668,0.45372828305,1.13860863165,0.927779642379,1.56702506529,1.97383395965,1.00821674746,1.30100680566,0.714897684053,-1.27120703091,0.650257831427,1.19600993496,0.839364731255,184.953190805
off_to_on,-4.43591061964,-5.34362522305,-1.90244067627,-0.724319019434,-5.64233489053,-6.25204865766,-9.98031955365,-3.83232251155,-0.738823325138,-7.16177871589,-7.90165523122,-10.1900874272,-8.14014089479,-26.6293532085
off_to_on,3.21853091498,4.09717429979,0.955651570153,0.831748233949,3.04760045438,3.43641878882,5.60283472906,1.49959077067,1.11198636107,4.18078708207,5.00277420822,6.01009300536,5.60146972115,-170.585413357
off_to_on,2.05878612076,2.03833390919,0.177446537039,-0.997139659034,2.88252713561,2.9264966014,5.34763122127,1.50238487543,-1.19122658162,3.50759524362,3.58346395421,5.61379356239,3.25186604528,17.9597226902
off_to_on,-1.19261378106,-1.54163498715,0.724446137195,0.880257937288,-0.491164002558,0.0862053559018,-2.15898181385,0.821681666345,0.831104599595,0.782762721848,-2.04750550043,-3.28668730091,-2.51834440637,173.090152626
off_to_on,-3.85748429916,-3.52483627244,-2.04611667314,-0.730172492805,-4.96583042076,-5.56585296825,-5.93856693186,-3.05449920322,-0.68723846735,-5.66444747822,-4.49578742334,-6.2733883829,-3.97876302867,-23.2618137038
off_to_on,1.75384640957,1.16977896699,1.26896314844,0.914362716229,0.314266159932,-1.41714063147,-1.2856772025,-0.761427692938,0.970722680639,-3.66296845912,0.409905876183,0.975351338963,0.524443651673,-166.034613241
off_to_on,4.23454682893,4.74898158506,0.0991022156598,-1.11699382684,6.89015810717,9.9064885389,10.7894691018,3.41822635896,-1.07644523865,8.9252563213,6.87252250066,9.6638301864,6.77886149646,23.1684535857
off_to_on,-1.46517736267,-1.18051375521,0.482409890796,0.854815994548,-1.24442810959,-1.28233324592,-1.07795105474,1.67975632299,0.78711572409,4.77875257561,-0.851904890223,-2.03259040825,-1.29989343862,161.728351432
off_to_on,-6.08515137447,-6.7435329723,-1.67675840601,-0.438586052666,-8.68891980846,-11.8462702996,-13.2107620756,-5.95930871339,-0.639960569342,-12.9078393097,-9.29442229648,-12.1999380297,-9.04173427726,-22.7119653549
off_to_on,4.518243311,4.52369587935,1.14346265771,0.497941154485,5.25995624782,7.01965136019,8.28468478403,1.49939179706,0.814908773219,-1.33353806172,5.21898564513,6.97712431724,5.63445969852,-162.055870166
off_to_on,2.85908787837,3.19016851494,-0.000365915181628,-0.874276190403,4.30692108506,5.54557049596,5.07844767148,3.31584851201,-0.832021703362,10.3845321096,4.86821088625,7.06522929604,4.50671353242,30.1282333237
off_to_on,-2.20389948173,-1.79975337762,0.17522965418,0.917914056462,-2.29196427003,-3.26450737015,-4.89640175613,0.0761368119122,0.563410170445,3.39043818842,-2.48391381848,-3.60494081767,-2.52397952327,152.504246678
off_to_on,-4.23178435866,-5.03335681598,-0.838181016705,-0.604965937403,-5.82744517896,-6.6911302447,-3.87960457223,-4.37218796691,-0.456319196378,-11.7746808318,-6.24333492846,-9.0098452648,-6.46989930846,-24.7339676454
off_to_on,3.66963238292,3.56553721579,0.806406495126,0.456781351156,3.76103526249,4.39512491791,5.37036427926,1.31480850381,0.630708707353,-1.82220059383,4.33792526354,5.96218694161,4.77642791603,-158.242758817
off_to_on,2.77112003107,3.78942574619,-0.74499881872,-0.578071168606,4.64247582366,5.34176637944,0.560768303239,3.09210110506,-0.709094954313,9.88926799418,4.54559312105,7.52232632437,4.97745727963,30.8533107325
off_to_on,-3.8641555652,-4.56968925845,0.827657352717,0.620333265016,-5.02142645323,-6.13277329371,-6.16320365794,-1.36665355771,0.546954004165,1.50378920556,-5.93470354437,-9.24430090743,-7.09949344969,165.192145213
off_to_on,-1.07117666431,-1.15264146058,-0.228523396165,-0.520785355688,-1.41785745569,-0.373365509521,6.30191801552,-2.25078465662,-0.365000731861,-6.91985384756,-0.123443995674,-0.892039514374,0.10268584508,-51.3501712686
off_to_on,3.70857256252,4.02135224828,-0.257888345951,0.505674697277,4.22329638749,3.79606423657,2.26166789444,1.93669991887,0.300587902159,-2.50044577683,4.30397705938,7.2044713873,5.37690326284,-162.554428395
off_to_on,-1.84147467108,-2.13538162472,-0.618880271741,-0.510011638572,-2.39089067968,-3.66960135359,-11.8220352312,-0.256061040338,-0.359546595696,3.19162452574,-4.08001168882,-5.1581587779,-4.68099123203,96.0236947771
off_to_on,-0.293892296861,0.13410028285,1.38725098415,0.301931175012,0.582386905905,2.52734842413,6.9203972957,0.540360083475,0.492121067302,6.9812088097,1.66098153276,0.515257787039,0.963851354589,89.161869921
off_to_on,0.355454590652,0.117713269477,-0.344585886607,-0.0622143358581,0.28848653389,0.0672686522336,6.76958716624,-0.994817232291,-0.466661622248,-4.79575727716,1.00226751567,2.03243804451,1.42849439152,-43.3431170642
off_to_on,1.07812830246,0.728064304299,-0.712394007347,0.17869398087,0.22828039553,-0.547925208888,-5.57256701885,0.466530594138,0.185645713475,-5.98605497514,-0.577243197854,0.222057360868,0.286658592546,-109.757282874
off_to_on,-2.025049345,-1.56767633973,-0.153625234269,-0.519013264415,-2.25504100955,-2.73471549668,-7.41318931267,-0.229203383928,-0.0602426238447,2.51981757903,-2.45435398502,-4.15160961162,-3.13355410569,75.5689478747
off_to_on,-0.0323549313806,0.0566691042033,1.05430048561,0.522021826596,1.16144884078,1.34586734171,4.27451918967,-0.360130296353,0.343443958481,6.47779188712,0.998846542028,0.811638736935,0.198274714424,43.5513267308
off_to_on,3.42265634458,3.2273418136,-0.166593946551,-0.0915078937485,4.31492737531,6.76896051079,11.964677141,1.77389123631,-0.472922423566,0.427743531285,5.13105500123,7.72033844131,6.18022175362,-28.5584029405
off_to_on,-2.4497528931,-2.97123243735,-0.536989291023,-0.154945305596,-5.40786258356,-7.4582277618,-9.41084040486,-1.14031828414,0.0144859626347,-9.26279051841,-4.95402748692,-6.45345228285,-4.77605114805,-17.46396144
off_to_on,-2.45209565474,-1.62766998914,-0.383958994637,-0.160894081434,-1.8199562224,-3.85219554882,-9.55484023437,-1.91686588561,0.371872562204,-0.44545606065,-3.35390697574,-5.02012929457,-3.89177663792,-30.5216853604
off_to_on,3.47363900837,3.54615343305,0.724974314466,0.445719564131,6.46129405084,9.28558011559,11.0115179338,2.53415943988,-0.013439383595,10.4124845607,6.20303652229,7.85186082045,5.79623918746,32.1159084059
off_to_on,0.681089378648,-0.367828441696,0.540585898085,-0.0294927809208,-1.41478861062,-0.397537405428,4.36509689017,0.522050125651,-0.489027042833,-0.729764161491,0.573412794507,1.43574879334,0.980604293337,50.397152107
off_to_on,-2.02146433994,-1.17017465586,-0.901551841122,-0.537818416524,-3.4424466687,-5.50097379942,-5.29978422828,-1.74868123227,0.235619218543,-8.28891599723,-3.44673112081,-3.8139510612,-2.44616506958,-17.9992088553
off_to_on,-1.36308192202,-1.35650334249,-0.376843208341,0.242283284472,0.167808540387,-1.3953502977,-6.60920041985,-0.73972097198,0.458459230719,-1.30800357431,-2.4339049288,-4.57954391815,-3.68600667548,-90.9272323762
off_to_on,2.04062926927,1.65959063884,0.601159183524,0.456098192384,3.18257849863,5.86696418057,4.54381521756,1.72042008042,-0.635651809443,8.23679050121,4.29844782493,5.11699184833,3.76150905845,8.68504868938
off_to_on,1.58522590137,1.9410416667,0.730003422496,-0.148979425458,0.329452310728,1.13278831065,7.04313655875,0.870414844518,0.170748689411,2.41363481403,2.48027670416,5.12886427635,4.00789508684,156.822930667
off_to_on,-2.88263045605,-3.42254957497,-0.932711743945,-0.889526297495,-4.15055454543,-6.84503777533,-6.13199869968,-2.60803114487,0.21716170271,-9.02631287522,-6.23722229542,-7.93314232966,-6.30325508473,-52.4124884136
off_to_on,0.819074734672,1.37225508699,-0.232805060613,0.85907303373,2.72238480387,3.68933020219,-0.461585375132,1.43206654186,-0.017491990367,-0.0494008513976,2.33530188199,0.622504346045,1.17658188953,-171.42572398
off_to_on,-0.194076058722,-0.0517495688209,0.247338491711,0.282270392128,-0.188809186836,-0.0231055896574,-1.63929572006,0.041541953288,-0.538560768337,4.65782139808,0.979205417301,1.89274470806,0.86333714027,78.8649903713
off_to_on,0.265624728931,-0.48787781586,0.819482526058,-0.437412878223,-0.825620137972,-0.996896868805,1.16882146965,-0.797153259111,0.799653953032,1.9969461733,-1.30716441451,0.480013918269,0.199598762634,168.856861678
off_to_on,1.60025233692,1.92697416426,-0.727820823442,-0.88427506307,2.1617389071,3.58489880997,7.55384116866,1.29423816434,-0.463191699905,-1.93627749664,2.72755219694,2.48740321762,2.40760978213,-81.6970868452
off_to_on,-1.3827489507,-1.05532834674,-0.0935485863399,1.52273144385,-1.85205138748,-3.57662401764,-5.65147885336,-0.114152637213,0.0492526257693,-4.90479600049,-2.18170156667,-4.62115732474,-3.66139559882,-180.962416326
off_to_on,-2.39828265742,-2.33041282126,-0.265557595544,-0.491088112097,-1.54212552715,-2.3761285655,-7.0645515556,-2.06609543859,-0.225689174137,1.39804778858,-2.76429261185,-2.06187024392,-1.80273904141,103.236500338
off_to_on,2.3198443763,1.56282213867,1.01773891579,-0.365708379212,2.2239458619,3.95034652555,5.35586273179,1.32464691753,0.734497719284,6.29370433383,3.44929178815,5.01767750102,4.02013506509,163.015124145
off_to_on,2.55596949445,2.76380383491,-0.599862211552,-0.222261736736,1.44448552726,2.55709765204,7.29925707591,1.31137030711,-0.789812387502,-1.33056344246,2.82120172501,2.96543463458,2.27992531126,-104.483909003
off_to_on,-1.66040872751,-0.818014275512,0.0872804811508,1.02957399985,-0.865425625681,-2.48077277619,-2.12720880818,-0.0724888026312,0.439705312306,-5.33748339083,-3.04945019923,-4.10445795346,-3.26080911676,-134.86239666
off_to_on,-5.69947178292,-6.27525366744,-0.647435836027,-0.956454514476,-5.41941874366,-7.67353765649,-13.1903677835,-3.67733152372,-0.421640523328,-2.26375114657,-6.3048664777,-8.160920372,-6.37573518161,73.477232562
off_to_on,5.8225655016,5.46778963988,0.992402950433,0.623749628412,5.8573292542,8.91128145496,7.19128898212,2.59359363285,0.763975605792,9.2050590024,8.71785104351,11.0165507958,9.19494691286,141.289127088
off_to_on,2.90893981159,2.93735039959,-0.414700986079,-0.560182785374,1.99839455211,3.50167014142,9.52325402319,1.91459173489,-0.820240100256,-0.248754730504,1.57128847383,3.27184146089,1.602718872,-75.7929485701
off_to_on,-5.08122478979,-4.37756488737,0.375804463726,0.482625063635,-5.08776214922,-8.30408203021,-5.3135173374,-1.57455791569,0.586307401894,-7.5633576929,-7.21239625849,-9.76679173494,-7.50129242651,-109.370587366
off_to_on,-2.28525051897,-1.95773319501,-1.09754902635,-0.604504265465,-0.63834281396,-1.14491207618,-6.93619646443,-2.28112839322,-0.632079554328,0.321186700074,0.499179468287,-0.529897472631,0.361607733901,35.7473472057
off_to_on,4.35935242879,2.54810197721,0.979374290081,1.19229899416,3.34577492682,4.97944460255,-0.655415316546,1.51162096903,0.882625972,5.17846306018,3.73184574861,4.79509549517,3.58236545913,118.158196735
off_to_on,1.62153585818,2.3491092336,-0.284131141475,-1.32101593855,0.668784230645,2.5608249897,9.89117987488,1.78556967446,-0.810547800013,1.13913513603,0.709173730264,3.0909868468,1.54197372187,-32.6706127872
off_to_on,-2.04138699853,-0.397451928176,0.724647597344,0.456946953413,-1.35405525051,-3.41715702854,3.68080591296,0.342380528564,0.58867137202,-2.67670730085,-1.23584047024,-2.1750385234,-1.24155468249,-94.0575096011
off_to_on,-4.1987885893,-5.57858417189,-1.56572424466,-0.022668677687,-3.13487693682,-5.58168169096,-15.4781041653,-4.56132008934,-0.747789147248,-5.41086751239,-4.71436056904,-8.22941789944,-6.06355726224,0.746128400028
off_to_on,4.07230943551,3.23387409603,0.939593988334,0.945624643683,3.88459732368,7.19469515266,2.09744707505,2.5630348829,1.0514378956,5.49717636546,4.80394112827,6.46720853969,5.28386133224,97.0159293794
off_to_on,1.85401809538,2.66784495419,0.0838753629764,-1.59710569095,-0.733432811216,0.098024532529,9.14835161161,1.83870270719,-0.957977764631,3.11311016482,1.03046934278,4.39116522091,2.42668365648,5.75336935646
off_to_on,-1.14714395012,-0.0165417331895,0.533123955759,0.755272870307,0.779925957231,-1.39872830733,2.25797198844,-0.492102489762,0.717495240524,-2.31466448956,-1.10281459209,-2.45290000729,-1.76532093546,-80.7368837951
off_to_on,-4.07121555955,-4.84458953984,-1.67781253618,-0.086718580671,-1.77610071112,-2.41268199527,-8.52881081391,-2.80565477233,-0.827509187153,-5.33038473449,-2.75995207652,-6.65117994755,-4.4077977039,-24.0762725757
off_to_on,2.15169904651,0.664420514207,1.33512015763,0.934828873231,-1.37372601966,-0.197135570859,-4.59338273098,1.09877411489,1.01171325498,2.55352881726,0.739844288644,2.3495407543,1.92813961002,73.9991864665
off_to_on,3.3400844836,4.52914766755,-0.418100282499,-1.6340148279,2.92861011828,4.21854923082,8.13600622443,1.49991886263,-0.860539262718,4.92276364206,2.87555496889,7.17932824281,4.53447851938,34.1729351634
off_to_on,-1.55967450237,-0.434163623566,0.550419147882,0.85151716969,1.47532281623,-0.240214231061,5.04027427083,0.350750110258,0.739625865295,-1.43785164176,-0.285680853156,-3.31515911553,-2.49792159452,-66.6549749202
off_to_on,-3.29243040428,-3.99140357028,-1.01911444456,-0.239429947509,-3.46670272039,-3.42548065676,-5.24317133483,-2.13439951117,-0.986231552284,-4.74403289179,-2.13789074647,-4.51339592008,-2.41121457644,-35.7001934027
off_to_on,2.2924943527,0.675936974523,0.907004106776,0.982368355966,-0.503654166402,-0.000535016919183,-6.1530189331,0.627145339522,1.07849077935,1.12903695844,-0.268494175972,2.2793222466,1.51980200559,47.7802667841
off_to_on,-0.317857361327,0.240186472264,-0.950282752362,-1.3912107768,0.140034761704,-0.721843255932,-1.52108613174,-0.976198672616,-0.664956491122,1.16342494668,-1.48064114589,-1.2921922956,-2.25787609565,50.0361600563
off_to_on,3.06037326539,5.70601906252,1.30422718993,0.521665251821,6.23387998505,8.24141417906,16.8723792896,3.72145044548,0.446851555867,5.81725693504,7.89810085637,8.28268730551,7.55721490569,-48.2185719371
off_to_on,-3.38995279619,-5.14166583111,-0.948874693104,-0.214635343524,-5.29929178895,-6.23349710495,-5.22990177137,-2.1038810665,-0.947144030289,-6.2289729184,-5.16325669286,-6.06917586368,-4.69871779227,-38.152905149
off_to_on,-1.89539092756,-4.15082391244,0.231704504305,1.23936300175,-3.79371482174,-5.7607069771,-15.2936653089,-2.44097451359,1.39679464764,-4.75535310502,-5.37787856831,-7.26373894815,-6.03780294192,21.0153199388
off_to_on,2.87138414161,5.20216661681,-0.507568483865,-1.59621895241,4.97233467866,6.59631195231,6.31494645157,1.35944538238,-0.99083158618,6.56286561922,5.67068246582,7.80311298165,6.15076754887,54.8171246972
off_to_on,2.71619723568,4.09931113817,1.33774660912,0.580861243633,3.19261884289,4.37511939673,11.6926103042,3.09985137716,0.346749128644,4.70055169579,3.48682460641,5.57331159386,4.41303469214,-27.1942472456
off_to_on,-3.4488894474,-5.31870079243,-1.32069864362,-0.225126008528,-4.09932184171,-4.52107514771,-1.68237297537,-1.76455832433,-0.507977269558,-6.44095771837,-3.68690322409,-6.14891234484,-4.9867646288,-34.591335169
off_to_on,-2.1275347435,-3.53546539309,0.728595369803,1.17758298368,-3.37362947718,-5.8159926005,-12.6416427523,-2.21648174091,1.18931590574,-4.03374735724,-3.26319340227,-6.20399812014,-4.47066827305,-2.73280860141
off_to_on,2.0804333781,4.06496815364,-0.525774541865,-1.46402523539,2.89665125263,3.70871312428,-2.11818486425,-0.256953578112,-1.25910197855,4.11423817286,0.605747034033,4.55472183391,3.41236139046,50.9425235163
off_to_on,4.09672443293,5.13499389066,0.522374651265,0.484710275195,5.66690622594,8.62267206614,17.3600438706,4.76386095546,0.604385970803,6.54128251086,6.42378749362,9.00602533921,6.88480729037,-7.25300882916
off_to_on,-4.55896429892,-6.56119483516,-0.556389558162,-0.100494769572,-6.29733876122,-8.03475316152,-2.29592876999,-2.19667195121,-0.278779396632,-5.99455924815,-2.49459597773,-8.13518739893,-6.58293546192,-26.8223933056
off_to_on,-0.577265436092,-0.762592802889,1.06043033542,0.929905517604,-0.893654271099,-2.56510635053,-11.6547497728,-2.28292287401,0.744162540533,-3.44019152591,-3.18597994281,-3.3182846286,-1.83462976747,-20.7301098467
off_to_on,0.950359984734,2.02299972587,-1.35283886329,-1.33784213655,1.96067682177,2.47731128628,-2.36690639056,0.148661402097,-1.12869008781,1.57801364039,-2.65388906769,2.00254601798,1.00311902813,40.7727321743
off_to_on,2.0181005327,2.16335762574,0.47435702577,0.637204972514,1.95189523211,3.6335170682,11.6274351442,3.03258756197,0.725751615411,5.74554386537,5.90177089601,5.24919603338,4.16529484636,8.72480920058
off_to_on,-0.261460189525,-0.511124372894,0.250155421244,-0.0941183586914,-0.214211327449,0.563993414263,4.66740043305,-0.214925048061,-0.207711794516,-0.441500389948,4.49643090031,0.681178436654,0.596102151721,-16.1730231271
off_to_on,-2.28096517056,-3.1083654801,0.755665536405,0.473926727962,-3.1119917221,-5.9436895796,-12.1715106131,-2.29431132314,0.44358887927,-7.27892809717,-8.49385330352,-8.05860996843,-6.43316597691,-33.516073096
off_to_on,-0.823801644824,-0.173028853533,-1.7827643012,-1.03757771015,-0.312250339527,-0.785239650507,-3.78698115324,-0.845361707408,-0.946169489553,0.496713937682,-4.160506898,0.38958681142,0.552101628803,34.4097473936
off_to_on,3.18915932358,3.50328354774,0.705558806835,0.989047553435,3.50804815744,5.97751428184,8.54016623853,2.57518565873,0.741116173038,7.17932881077,8.8404892565,7.06659217433,5.66924269959,1.06266948099
off_to_on,0.39908134745,0.0409646390351,0.626010786228,-0.368810457193,0.186155318333,1.37072336371,5.17227888753,0.469296051849,-0.147733145105,-0.463051624297,3.82398271217,-0.574614650104,-1.09533387196,20.2779953527
off_to_on,-1.66094241111,-1.39076524816,0.255178555592,-0.167105213743,-1.52915098276,-3.83685298198,-2.55363632849,-0.396477327301,0.204259554304,-4.09324556629,-6.09275922209,-2.7202626805,-1.79398400062,-49.0038681679
off_to_on,-3.27870583479,-4.02648693398,-1.4851121543,-0.137487194959,-4.24222844827,-7.09954179244,-14.5987749763,-3.83903407333,-0.757539516407,-5.79065063909,-9.16036119014,-6.23577516653,-4.71059727918,-7.49670609729
off_to_on,4.26236838765,4.57403571172,0.492625246075,1.07098362038,5.32735925015,9.68827053542,8.19465277912,2.69667338643,0.756833544763,8.25160773603,10.48828017,7.17738765592,5.8034185072,69.4043023366
off_to_on,1.91374728483,2.90381299159,0.831242515173,-1.19922358732,2.29813876391,4.21484619001,14.3121684872,3.4536623542,-0.189831324525,7.69850683608,7.94374088947,5.31106116304,3.68113075324,-29.1537090417
off_to_on,-4.01468498602,-4.79539020772,0.0908613551352,-0.0075432155383,-5.35218012414,-10.463473281,-11.2841022836,-3.33724109802,0.0500920932241,-12.7883022302,-11.7294156369,-8.01456816762,-6.57640152591,-32.3637491324
off_to_on,-1.00691268567,-1.75641598861,-1.38649905496,0.800363121843,-0.289209622502,-0.184231825013,-9.27827913308,-2.7156879817,-0.479071033849,-7.45843243994,-5.31651156225,-2.91744110768,-1.57224777858,0.670972510619
off_to_on,2.4282250779,3.0677783323,0.535164111943,0.205691337286,2.27618086684,5.4372603003,7.0892935844,3.06704170902,0.576817187831,17.5466758981,8.97637673833,4.21530901334,3.59129491078,63.2615725244
off_to_on,1.73602550233,2.80645230025,0.741435788544,-1.43815461502,1.94170804842,2.31774523878,9.34384671925,2.17549260637,-0.108384467117,4.92476036263,6.22754430213,5.48810566289,3.5546786162,-48.4231193592
off_to_on,-1.60583305836,-2.72819589611,-0.13100853184,0.795640400754,-1.0930286867,-3.46080767279,-4.12025603301,-2.09628255211,-0.125700774606,-21.7946625775,-7.83290268024,-3.66544362528,-3.37177325734,-26.9237611971
off_to_on,-3.11266447299,-3.97672142644,-0.876236871091,0.827899219994,-4.63515082855,-5.63585364304,-11.8555588597,-2.94734472591,-0.190767468648,0.0096894477117,-7.66738480074,-8.08204095501,-5.308109,73.2982554284
off_to_on,2.84057813849,4.56682057433,0.345775295173,-1.05811767608,3.58606813026,6.12049189418,6.48027353027,2.94872751934,0.358565596402,24.7046668333,9.5727861635,7.34373482581,6.25416566475,-43.1697320862
off_to_on,1.73922485169,1.31443972466,0.47617405859,-0.212125071424,2.66617143642,2.84696474301,7.77728937468,1.56445105196,0.0141370584094,-8.63520553091,4.20642402785,3.46879639555,1.3204112863,-32.2331710048
off_to_on,-1.81048784374,-2.57492484343,-0.176928439193,1.04026441197,-2.40419780654,-3.45290227208,-3.14896402115,-1.91341292956,-0.317857163993,-20.6871374419,-6.16754779211,-4.22658437811,-3.17858424119,44.3854470152
off_to_on,-1.31431132033,-0.653957681072,-0.196363668957,-0.441150505892,-2.35700968502,-3.11674102398,-6.76358155059,-1.07155610465,0.0719070921577,13.3273995087,-3.80618368885,-2.09391359705,-0.812040975095,55.0512512424
off_to_on,0.238260926186,-0.0949687115104,-0.1386734458,-0.692683741628,0.770102684987,0.853325016107,-1.03123697318,0.342470650969,0.195218277391,13.9391587615,2.29917875898,-0.311122780499,-0.410435443618,-106.717986246
off_to_on,2.79470278437,3.0239263166,0.211319746027,1.0212399977,4.61948769364,6.76685441832,11.3316156769,2.48239909541,0.108906136498,-11.4031059514,7.43205495851,6.10276725142,4.72386319175,-28.3012050646
off_to_on,-1.55021018328,-1.39413005259,0.125370392111,-0.173755743325,-3.58254012728,-4.60170363319,-3.88417756987,-1.41088294478,-0.534405045274,-12.3938622059,-4.53977978501,-2.55362846651,-2.61785803211,149.184004686
off_to_on,-1.35356484999,-1.77260155004,0.15530671155,-0.741476912921,-1.98552287884,-3.57501187985,-7.48993736104,-1.61025846795,0.348510687529,11.3412918081,-5.66989552902,-3.59992742129,-2.73532364833,-14.0474946746
off_to_on,1.09413341646,1.11591642894,-0.665749438478,0.253856498673,3.36208136072,4.51488279093,5.8382323387,1.5035547378,0.0914059028901,10.7754398281,4.73349115993,2.4706684899,3.08467071715,-161.289123559
off_to_on,-0.0279697375923,0.157870880727,0.269040946266,1.19411744423,-0.931199865876,-0.693048387699,-0.261141670206,0.298694445046,0.106649066948,-11.9652431279,2.15977093905,-0.325339466235,-0.684585026552,42.538162602
off_to_on,0.510323352167,0.922810169617,0.21264579081,-1.4256849224,-0.212553590551,0.452288225943,-0.134018195213,-0.565963324771,-0.710120265505,-7.28754050389,-1.24965874199,2.03121871697,0.3355685955,161.237813618
off_to_on,0.214346253151,-0.467403554489,0.495377740631,-0.00167577646448,0.542825322685,-0.575931299645,1.77821852416,0.552932363737,0.684398489758,10.248873405,-1.81543438588,-0.625827185908,0.258227923616,-51.8603618239
off_to_on,-2.02222220214,-2.13000492248,-1.21310502102,0.739906142282,-1.50703902944,-2.41692348482,-4.29112880826,-1.24160496179,-0.112865519049,4.31086567429,-1.11995872801,-3.75123316877,-2.01360997151,-169.433648844
off_to_on,1.20041530561,1.88311660014,0.445634077056,0.44812169719,1.23914984029,3.01942708959,0.276522518784,0.779107558562,0.123585357364,-6.07329786064,2.8106753474,2.48788326266,1.40927748559,63.353299542
off_to_on,0.42147620079,0.199487001295,0.441569766762,-1.51640932453,-0.544050747885,-0.518346764207,2.86036985772,0.128345980776,-0.781796166903,-5.54656617572,0.0575844579288,0.863829808502,-0.253897629109,170.631476888
off_to_on,1.36549679519,1.32972313093,0.302467088862,0.783266848544,2.12815264137,1.40663129961,3.89485061414,1.02517767923,0.933129202732,6.32570166307,1.17508761249,2.71439973309,2.78524691785,-67.8866748302
off_to_on,-3.04407301728,-3.58022434636,-1.3917568426,0.23277195166,-3.02305325788,-3.65729541433,-8.07619518566,-2.22413253175,-0.39113530721,2.34379518213,-5.09835677728,-5.90716776016,-4.40561698869,-167.527371791
off_to_on,-0.0852186697589,0.348217624926,0.951338400757,0.210128536885,-0.469348946857,0.130980056744,-1.31551916168,0.279801003708,0.261432083799,-2.04008451811,1.02020803012,-1.0285377991,-0.400642055972,57.6402118833
off_to_on,3.02106287505,3.96388823222,0.0131647936548,-1.15515569799,3.59597277932,4.60446082614,9.35211309395,1.96043704157,-0.792486884182,-2.62058151412,6.21644018547,7.59027711352,5.18831141126,182.626194911
off_to_on,-0.286313401732,-1.88207428519,0.249949410482,1.13067905744,-1.11494004435,-2.41910148318,-3.33227582101,-0.59091820363,0.981901923368,-1.56609184851,-3.60934471961,-2.42065667201,-2.65913912194,-69.7910818286
off_to_on,-2.75262324256,-2.49497337253,-1.06178247084,-0.614356480872,-2.24358636661,-1.60637028187,-3.59960158037,-1.76330309207,-0.578200649711,5.01823769343,-3.58211477831,-3.98110362012,-1.70737697826,-166.849306476
off_to_on,0.774696386835,2.03415918696,1.03943413009,0.526736682087,1.1613319932,0.669379748799,1.63469372504,1.53324625385,0.429768156077,2.98477337603,3.02735530675,1.45651147838,1.69693269867,44.931640575
off_to_on,0.752837510051,-0.196582907636,-0.64043078397,-0.642535936299,0.005635020256,-0.665392014539,-2.0372408444,-0.907396269388,-0.727016132559,-8.49746168738,0.00454797616243,0.105060771272,-1.81758430473,189.460570432
off_to_on,2.35125865121,1.94110659214,0.73569247005,0.710240001618,2.62401321235,5.2944552581,7.45792473722,1.88337972121,0.830445243537,0.712522247075,3.06753425088,5.06670724714,4.43725966392,-60.0727823013
off_to_on,-3.81490768983,-2.98131998507,-0.88528182419,-0.960327873501,-3.8828997766,-5.55593587217,-4.19450512702,-1.70513816221,-0.718794875803,5.02736676593,-4.43353697977,-5.04851597125,-3.12666913074,-168.751862834
off_to_on,0.239393960001,0.257038227134,0.676676628213,1.03400670568,0.710516951263,-1.03789977601,-5.07459475475,-0.232863832427,0.831518817952,1.88922386997,-1.33903419331,-2.32230780046,-1.77513437526,29.6533849708
off_to_on,1.57412457624,0.747426896499,-0.668574249896,-0.546928020284,1.34429959683,3.26477841015,3.23536473618,0.221394223227,-0.918936502976,-6.45760100343,3.15223661878,2.60602759252,1.26769288072,195.185170103
off_to_on,1.11511504093,1.59138049257,0.994461150764,0.37254708729,0.0846163061569,1.16085743279,4.67133942632,1.55098743729,0.651867615878,-0.800546307517,2.72069563396,3.8794216453,3.12743956259,-48.7410576819
off_to_on,-1.66424065769,-0.947489376942,-1.00826394968,-1.1300839338,-0.123288063892,-1.21608169328,-0.813483856038,-0.905611230623,-0.569777725088,5.65064173594,-3.07701045601,-1.27585494801,-0.973398755673,-171.253922314
off_to_on,-1.30409715687,-2.59147153329,0.728016058688,1.52042717604,-1.54382887567,-3.3751382529,-6.98076000186,-1.06086847466,0.997621134331,0.234480780443,-4.13774721954,-7.08280324105,-4.89020630646,19.0657936008
off_to_on,0.918218876788,1.28108298843,-0.773709944532,-0.603962932135,-0.141927945855,1.43888574118,0.899641472921,-0.268659282959,-1.18100977517,-4.48657282721,3.95220641569,3.15853785504,2.41813870563,195.500964478
off_to_on,3.06109220237,4.01630584289,0.974418672841,-0.0564539808896,3.60518072414,5.12906711899,8.65675370214,3.03908732513,0.744805008969,0.859473647399,4.95049387142,8.28780067332,5.43239143811,-38.7348994001
off_to_on,-3.37111407986,-4.3806681561,-0.780507463934,-0.820589108786,-2.96098286979,-4.59458292244,-4.21029299852,-2.19034898436,-0.529628005246,0.439720150798,-6.95336931851,-7.54780486855,-5.85297614647,-171.519181212
off_to_on,0.035269305142,0.153219057761,0.560763214644,1.63759877923,0.347207520108,-0.257116567806,-2.70685074294,-0.225374001777,0.917485370665,3.52200235404,0.403160129984,-1.64542630318,0.458799043696,14.0915006079
off_to_on,0.233986186239,0.365247983957,-0.861383585727,-0.904163892568,-1.34201944273,-1.28222683011,-2.91855082096,-0.653259773679,-1.07029708359,-3.35143357169,1.10281498159,1.37700166729,0.00675774988053,189.288642211
off_to_on,2.1477039294,2.36263430173,1.14862776611,0.0940194958339,2.98406308776,4.76084973473,7.39417550212,2.44899442558,0.696327332853,-1.30689574031,2.94972380998,4.54192490093,2.65997964771,-30.3121808452
off_to_on,-1.41764751468,-1.21345991843,-0.804654027948,-0.699289236391,-0.16713552341,-0.305027049902,2.23988666878,-0.628975594584,-0.638162569563,1.56029462977,-1.4329227386,-1.31407448782,-0.311071168988,-169.18433621
off_to_on,-1.35942448451,-2.38459127278,0.439348761319,1.41816019595,-3.05688904445,-5.79207061196,-9.91585307355,-1.96375293322,1.05110162042,1.45873883129,-3.8273358607,-5.46961289206,-3.58512607634,13.5150656003
off_to_on,1.03877438776,1.57844318605,-0.785853130636,-0.942375893264,1.11964977485,2.95017765487,2.08973347371,0.539482558886,-1.04582885321,-0.374490083874,2.57943818296,2.65219649684,1.71665632586,178.874594715
off_to_on,1.36834175727,2.14451578605,1.27020015284,0.423177329577,2.3137892441,3.36830784678,6.84980277431,2.54681211107,0.570555456309,-1.70509900173,2.77212490423,3.74832892876,2.28629550564,-24.3325438497
off_to_on,-1.82590148737,-2.43974516638,-1.0377653497,-0.846918884055,-1.90802207728,-3.26020984093,-3.96217386418,-2.52063798255,-0.553772594238,-1.27405200411,-3.35044755753,-2.58452816762,-2.2024241277,-165.000025048
off_to_on,1.05799323873,0.232377299092,0.492528054172,1.12242973895,0.317008734299,0.264243933745,-0.857623448444,0.424332307814,0.986555019447,4.18491512504,0.776083708447,-0.560462694595,0.771455374758,16.4035691853
off_to_on,-1.37904594787,-0.650111422329,-0.520011772486,-0.598243267303,-1.62964461016,-1.6249105716,-1.49365614806,-0.0462022221434,-0.958303754376,-1.61512489778,-0.896559451719,-2.43302121639,-2.00208375885,166.697940694
off_to_on,1.77793016051,2.94699959675,0.935754144166,0.371264537126,3.44219316033,4.32778158593,4.43045351061,1.39530591659,0.544622350102,-0.45224054071,2.26521894961,5.56146063461,3.3788892719,-21.083190013
off_to_on,-1.13896628667,-2.72670339016,-0.938814910169,-0.865824672755,-2.12132096009,-2.78436649685,-2.55399867723,-1.89412413143,-0.588145000601,-2.0061143955,-1.97830631582,-2.36950396377,-2.2832294493,-160.289549944
off_to_on,0.435712584151,-0.130879764712,0.567026807475,1.06077978927,-0.90913653617,-1.18122681033,-0.941826685873,0.65157928249,0.895603492623,2.1804915719,1.01630846885,-2.1205008426,0.0481619772656,21.8548425367
off_to_on,0.217784886359,2.15272158226,-0.53283940723,-0.700072933779,2.31873832952,3.200841019,3.83838226319,0.932701134203,-0.692651686867,2.22360286679,0.825490742778,2.99610343159,2.19357541811,155.112791157
off_to_on,-1.06698812563,-1.50088666777,0.881110146236,0.582947565283,-1.18277517569,-2.18995585737,-4.36070846804,-0.941749515898,0.34906833539,-2.97423121114,-3.49467098574,-2.21924053738,-3.28636113775,-20.6438686686
off_to_on,0.393788172792,-0.792930855253,-0.899718690248,-0.736627920758,-1.20242285371,-0.75214621628,-0.608286545189,-0.844090573062,-0.633980190225,-1.65416416491,2.25943939485,0.427325669806,0.744021530342,-156.30287713
off_to_on,1.92371499519,2.28253318005,0.414768139099,0.624964951943,2.35376446964,2.77584866743,5.86326113052,2.03787584601,0.991893328387,3.04253412707,3.49282055342,2.89282996179,3.47414099414,29.1012661249
off_to_on,-2.33178739929,-1.38724871556,-0.190956596433,-0.473627285608,-0.873186191028,-1.29671642351,-2.48072036503,-0.927660954501,-0.5810561465,0.176163384877,-5.11036228967,-3.54930936405,-3.23801241904,145.750127037
off_to_on,0.0632654130688,-0.083619098095,0.640088573851,0.556428314716,-0.519362606252,-0.59893744573,-3.25782864484,-0.204337825951,0.0991146948385,-0.147932081363,-0.13606836906,0.206738222944,-0.510900884192,-22.7981187019
off_to_on,0.445586882644,-0.915502263387,-0.977598401333,-0.444811811649,-1.53499433891,-2.03555077982,-1.40083593554,-1.06520359737,-0.510787576547,-3.27262715035,2.00926410519,0.193842184783,0.000418257811459,-152.396205536
off_to_on,1.95273676621,2.97504638613,0.454507728276,0.18563596363,4.17410818855,5.50385347796,8.97440968587,2.23014259711,1.03711369153,2.65313902046,3.36220756419,4.12293216406,4.26170178839,29.646493909
off_to_on,-2.27353906632,-1.74490572504,0.231271384836,-0.413465599381,-1.94099478458,-2.17840463481,-2.99755049106,-0.218379960231,-0.555215053832,1.30940618833,-4.72156306946,-3.93458064335,-3.18919580158,158.98070383
off_to_on,-0.979081333453,-2.03988802737,0.0614204369504,0.767140286226,-3.14651749223,-4.76526851016,-9.06782117109,-2.18498097881,-0.167874650336,-1.84960963933,-2.62376264045,-3.38241671061,-3.37519167698,-49.8294446006
off_to_on,2.56849091797,2.9481914486,-0.921451904186,-0.43428277123,4.01892629594,5.46702876949,7.45624674075,1.00697009681,-0.137280816775,-0.0692843188991,6.58613510451,6.86230073479,5.34600502239,-157.022688913
off_to_on,-0.277918189816,-0.0760511644807,0.930518248783,0.028078488062,-0.210768696772,-0.259846629678,3.43172273936,1.48194761788,0.82437756477,-0.382452527779,-0.650686255137,-1.37354086206,-0.514875817799,95.4839912832
off_to_on,-1.54903437323,-1.78721745175,-0.05997671003,-0.393442870367,-2.30916616065,-2.48369860058,-4.73375669644,-1.14416571579,-0.570275854863,0.962503292757,-4.47772859611,-3.66080991841,-2.64779359145,82.3843683932
off_to_on,0.671227892858,0.780678229991,-0.273211039393,0.624373261195,1.51170248566,1.49907772319,-1.52400723499,-0.459410540064,-0.151612628276,1.37407959946,1.46259976279,2.03568164075,1.03404473596,-40.7224942441
off_to_on,-0.104513201576,-0.0929416113939,-0.334566033025,0.0408405111633,-0.546771291683,-1.3513026084,0.447275649784,-0.134040133001,0.0875744822128,-2.53255659239,1.71616366198,0.140408914261,-0.175855545804,-106.244326982
off_to_on,1.17168535853,1.20034515535,0.687580591735,-0.288606783104,0.723301576508,1.85032918685,5.33859413188,1.556340708,0.447524161673,0.337194340699,1.12974580468,1.71586652729,2.00392403228,76.6801878533
off_to_on,-1.44271169434,-1.87549584997,-0.194933704297,-0.57400776665,-0.867885917539,-0.982969555703,-3.95271201047,-0.99553953276,-0.38126041204,0.126307304548,-3.85443947341,-3.32715224957,-2.66245570637,36.6598875403
off_to_on,0.090548949698,0.836849971808,-0.256477619537,0.759747236519,0.860178717602,0.65138713998,-1.67791600672,-0.42986875856,-0.0581942778525,1.96321930629,1.31114181829,1.29036785078,0.860539680546,-26.4623730795
off_to_on,1.09810824184,0.90164231739,0.0838887167264,0.469865548753,-0.407114746626,-0.742799955751,3.15052250007,0.74556003439,0.0415825393326,-0.409220604911,2.38614141576,2.05003857644,1.44394755018,-13.9040926396
off_to_on,-1.32750619831,-2.24996339846,0.122100332198,-0.909086035728,-1.58135802374,-2.13650173221,-3.01642228647,-0.70145460243,0.190575522529,-4.02036034282,-3.15710591236,-3.96716242989,-3.20958921096,-29.8274659342
off_to_on,0.885704843087,2.13974240948,0.0371419342468,-0.362755568668,3.28355747943,5.16033818861,3.58255367603,0.845423167907,-0.0339271456953,3.07796163304,2.06265506289,3.29752773294,3.10419020846,26.8665007742
off_to_on,0.213340559048,-0.000580736796728,-0.121759172885,0.927320630904,-1.4705848084,-1.99962252182,0.173667970485,-0.134009551166,-0.203503927345,2.36011295998,-0.177341583036,0.0798082324983,0.0348633491236,51.0322844422
off_to_on,-0.93599016777,-1.92409817061,-0.0571892781643,0.345606824668,-1.94474518183,-3.58465255518,-5.08827695017,-0.807255403829,0.0938088720396,-2.76030938923,-1.91138451965,-2.88584750328,-2.8103305561,-14.5823795621
off_to_on,0.0500127340795,0.910035307266,0.0370209076285,-1.09015854031,2.13011078152,2.90282912112,1.70564748435,0.346359506891,-0.0193682590846,-1.6867146541,1.78402585479,1.55354521778,1.25885171658,-89.6043414256
off_to_on,0.784837261953,1.07867950065,0.349218152972,0.116732607823,0.0781262154306,0.954995609004,3.95035305694,0.345912456602,0.269459988042,1.6077023292,0.40546454542,0.847561767579,1.19010084294,3.71439632236
off_to_on,0.54000939777,-0.251641346042,-0.614056495415,0.409973277754,-0.146178168182,0.435889222959,0.803394602427,0.382148725741,-0.387219751871,2.78668569582,-0.540964249566,0.587654869411,0.543934244425,157.269435429
off_to_on,-1.79259338786,-1.79082017617,0.357654647537,0.538837225483,-1.18809434462,-3.23194342019,-7.43816173353,-0.612504921026,0.169005079275,-2.39206352413,-1.59206415277,-2.77105225705,-2.906398341,-50.0823630902
off_to_on,-0.0463646584862,0.787100843089,0.141132487124,-0.947106626282,0.0108656419151,-0.362700592056,0.364983140759,-1.18121437689,-0.124809590403,-2.4704702577,1.10707469057,0.343370887933,0.359814616902,-168.927300159
off_to_on,2.60931824864,2.11946162428,-0.145732355985,0.00581700119763,2.42881522005,4.92897899257,10.0195808769,2.07501745755,0.43582814395,3.15297706237,2.42683543523,3.56870012021,3.53611140979,74.0286154244
off_to_on,-2.17318593078,-2.82613363881,-0.609880023708,0.359128388847,-2.52386572567,-2.77761275852,-5.32476118435,-0.375707820001,-0.595719178721,-0.0254010660345,-3.93199593652,-3.8212660256,-3.35184829423,168.582797957
off_to_on,0.394116478455,1.7050522511,1.21683392177,0.546297222305,1.38681789347,-0.108750779353,-4.38755073264,-0.3868720398,0.400199355121,0.504876506755,2.19616669477,2.65857484297,1.83895197318,-78.9366225807
off_to_on,-0.230867275594,-0.942073602104,-0.674082956549,-1.03172269325,-0.998040456463,-2.07164973168,1.06451900875,-1.27007844366,-0.272567967528,-2.91223199472,-0.306666680924,-2.02275496431,-1.84033741177,-179.218106026
off_to_on,0.126238489667,-0.634968026413,-0.260476236746,0.526295936097,-0.518575020766,1.60938406523,4.7516706554,1.16389692561,0.449306063631,0.213158414274,-1.34247537626,-1.7031439134,-0.534565153276,99.4973545511
off_to_on,1.19337181797,2.85785182696,-0.0498404140224,-0.293263714891,2.79884516164,4.68238094576,2.50507662767,1.62580308824,-0.666435284813,4.15179574216,2.94836543593,6.19029382182,4.87737831566,162.622013499
off_to_on,-0.738583232859,-1.54284145416,1.24887162103,0.595206331208,-1.27795505524,-5.13006388312,-9.0023065085,-1.70078888967,0.683670284633,-1.86169556799,-1.50581249694,-2.78514870592,-3.23280395637,-102.502022847
off_to_on,-1.89230447972,-2.80524663617,-1.38058324578,-0.607651447711,-2.82898749198,-3.12049446769,-0.218914870984,-1.86724597022,-0.555732663801,-3.52466919519,-2.34171246587,-5.14666982238,-3.6548885252,-133.210296691
off_to_on,1.95809618214,3.15802234081,0.353399447669,0.523563548705,2.22036929795,5.30605119988,8.89048769665,2.74893314012,0.470045255046,2.71732095422,2.43005802469,4.29692096604,4.45307749995,70.7712265536
off_to_on,0.888272011954,1.12634563965,-0.0437220000376,-0.834617739346,2.0813801354,1.99972908906,-2.15762705374,0.269075169667,-0.578903330603,1.59735080768,0.986266843927,3.2051634342,1.56851453764,140.763401754
off_to_on,-0.521989436366,-1.52510168063,0.758593529706,0.874463718246,-0.588764473684,-2.35157625252,-3.2176319023,-0.550091039685,0.791061191636,-0.23296402925,0.102850846495,-1.67351987574,-1.88474076243,-74.6788518159
off_to_on,-3.60859920152,-3.76780049292,-0.944861642944,-0.392481465023,-6.11364176804,-7.52720962455,-5.18856417677,-2.92759394971,-0.782684041224,-4.60913263685,-5.36496682457,-7.71878926697,-5.20373744374,-107.658869854
off_to_on,3.98053081487,5.21767770033,0.452034339619,0.471601561097,5.91314129769,8.64447084923,8.33479113144,2.94465944681,0.53925181734,3.62228528723,4.63556247507,7.31609668031,6.41667919297,33.8717985792
off_to_on,1.04714557149,0.675547604687,-0.563450458641,-1.14920541544,2.82264903183,3.95708332142,4.48459597491,1.5509822997,-0.526548879349,2.02069529591,2.67485072556,3.70823716726,1.4689187709,117.581296807
off_to_on,-3.34595804332,-4.40663879591,1.06802087975,0.970935872974,-6.46849285756,-9.62645066379,-10.6111039798,-2.60664082536,0.867478775794,-3.11463650109,-4.88256263007,-7.17207426699,-5.55384410704,-32.2438707806
off_to_on,-0.397940708625,0.569126361917,-0.800600957135,-0.116899106683,-0.364707939917,-0.440850005899,-2.06315909059,-1.637972205,-0.983805125719,-0.959641371523,-0.772352915787,-0.586867904943,0.714274675274,-92.4616303366
off_to_on,3.02960152722,3.05594159695,0.331039911464,0.438632081109,5.46811041418,7.50844606079,9.40658170845,3.28992609755,0.645928587772,2.35990647695,3.39844433009,3.82044710518,2.70937088394,-0.387712852359
off_to_on,-0.56220150671,-0.69597401429,-0.786099693431,-1.60514489234,-1.02188467871,-0.341881453089,2.65683792275,0.277929265479,-0.513886712758,0.494788269895,0.773253544426,1.62403317632,0.217365886463,96.4905218788
off_to_on,-1.13399111639,-1.47178032282,1.33634763165,1.31449433796,-3.34518803172,-5.68012445633,-9.76445319003,-1.75019922704,0.917078989601,-1.07328568809,-2.17003017837,-2.29616644415,-1.23447613666,5.61667046144
off_to_on,-1.65731385572,-1.72514807435,-0.893061053534,0.179057051066,-0.834747473224,-1.27200745411,-4.45551566759,-1.95301115415,-1.13946898567,-2.62057158766,-3.04010046844,-5.02342188303,-3.34460308331,-79.324572035
off_to_on,3.7040549164,4.67932415924,0.378535694392,-0.21914977657,6.00328435993,8.82271244198,15.9584703696,4.15925983664,0.746759795513,4.58182058077,6.03059224698,7.39187063327,5.70140571666,-24.6509091972
off_to_on,-1.39168977728,-2.17924819155,-0.700845159486,-1.30730020367,-3.50529216607,-4.80354471214,-4.33449858928,-1.23909325437,-0.460172476153,-1.67268662556,-2.23932490835,-1.00060019754,-2.01810874926,73.5960412705
off_to_on,-0.789074321182,-1.1855690431,0.951648763216,1.75816495558,-1.38303012713,-2.36706313883,-10.0923477651,-1.36198308242,0.803639638687,-1.28094566287,-1.44119839694,-2.75212465284,-1.22304228037,33.714260155
off_to_on,-0.431198428391,0.497691001482,-0.653946413375,-0.594390333058,1.07738386261,2.17431997878,4.60997620705,0.0219993811859,-1.11021992237,0.466281565064,0.716328448459,-0.217235049438,0.474744314678,-65.5881666531
off_to_on,1.28464798576,0.922347471134,0.801430019589,0.0251192232878,0.779233702966,0.255954954634,6.12312887043,1.29157540019,0.816289422136,0.818202826072,-0.0897003759837,0.899594104605,-0.310754514044,-35.8362457312
off_to_on,0.553059035789,0.401457080227,-1.29704264659,-0.783913756783,0.961627123635,1.66856869475,-1.23075520458,-0.0202424871652,-0.50699214473,0.460541245638,1.47933564957,2.99042670568,2.10262133566,47.527779402
off_to_on,-1.08930038228,-1.02719121654,0.841337308177,1.2827294906,-1.85951944797,-2.43919708559,-7.26111248249,-0.373659766203,0.738125947835,-0.982304069659,-0.52038363983,-2.58707514108,-0.951063418174,49.4861457247
off_to_on,-1.59697481483,-1.59028472402,-0.0257202224927,-0.87963969758,-2.04333070962,-2.45223639206,0.289729812664,-1.70239359949,-1.0061159019,-1.79933351112,-2.87333091849,-3.41824343641,-3.10709758536,-47.6334951204
off_to_on,3.03969062657,3.21390332656,0.605809414589,0.580925973135,4.64210500079,5.71743287072,10.5598657858,2.57821197957,0.785894237654,3.5544306431,3.10296850954,5.21999787189,3.63523977232,-37.9251879974
off_to_on,-1.01775453148,-1.1745584735,-1.7140260876,-0.750423743078,-1.34001585277,-2.04495526206,-5.64058425613,-0.788537970171,-0.513462630198,-1.08084484731,-0.189276139398,-0.648461928027,-0.255840877728,20.8760155768
off_to_on,-0.153218644999,-0.0815264693996,1.1278001311,0.79547958175,-1.29066474294,-1.33225653976,-5.31531273338,-0.17516575791,0.700868676181,-0.777934576071,0.307714832202,-0.746296373934,0.0388422592968,54.3737041979
off_to_on,-1.68870329458,-2.09938296468,0.276103528193,-0.660669217646,-1.81393108567,-1.55690700599,2.45834457054,-1.11729170509,-0.98480741877,-1.8289222574,-3.46244532246,-3.67305494282,-3.78745906342,-27.1446460543
off_to_on,2.19425532724,2.82340417889,0.0325993254702,0.720964805765,3.76060340177,3.94990265726,6.64249946135,1.55909003613,0.819928409097,3.46422139553,2.6849700744,4.19578806771,3.60027736585,-34.077952289
off_to_on,0.732215703803,0.932179818379,-1.37789553761,-0.872969943324,0.993950232037,0.631978540397,-2.60684727742,0.135391518836,-0.435310376203,0.674308490636,2.65378596587,2.86452855018,2.4900521441,-2.83300981723
off_to_on,-2.29637731769,-3.63309161982,1.24838010501,0.89078959635,-4.92688109547,-5.51637710853,-8.32725573257,-1.0554507795,0.416929384341,-4.47839754202,-4.53055637204,-7.15763408805,-5.74326997848,50.7680976512
off_to_on,-0.381008577751,0.629447256073,-0.138424189427,-0.815065609432,0.816750278126,2.40705931605,6.12048855133,-0.346801322966,-0.750982868629,1.0954962763,-0.0459562476145,1.56680081923,1.1276411902,-7.73146054944
off_to_on,2.8553368978,3.46721518476,0.243481666213,0.569346827792,4.670492408,3.89277139559,5.86548666139,1.73770927549,0.879079248335,4.29956481526,3.99127563278,5.75469789468,4.46293881602,-26.0943950554
off_to_on,-1.52415522942,-2.81405350511,-1.01834256059,-0.22271018376,-2.98260905337,-4.13145699773,-8.1450911105,-1.34350477174,-0.584160888214,-3.39857163087,-2.41200879552,-4.93106430629,-3.86370228333,-20.8817218662
off_to_on,-0.296046502159,-0.0726740453024,0.657655722248,0.339968231379,-1.35871371475,0.301369264753,0.528767629135,0.576549199168,0.317806743976,-0.744020984665,-0.0143250566626,-0.374920558213,0.290068595733,40.9768541997
off_to_on,-0.742455968943,-0.102744069665,0.0130379119142,-0.898433811748,0.190923272864,-0.410172703511,1.13884944955,-0.870327478291,-0.477896771529,0.316368363048,-1.35790349205,0.801375109173,-0.118549018153,7.77961839976
off_to_on,2.00866729861,2.03658489529,0.537512726616,0.833501884327,3.45574740221,3.3881854722,3.52512613228,1.20450098659,0.764195375791,2.74338568679,2.97115292041,2.91452253854,2.25045626133,-15.2910733202
off_to_on,-0.652510799108,-1.38464989815,-1.13364558759,0.0288135230645,-2.2776924664,-2.07214556554,-1.77967147513,-0.33429651665,-0.679755358474,-1.63933756311,-0.564092331372,-2.81951891318,-1.68802736499,-33.8224975145
off_to_on,-0.953771793103,-0.898051003487,0.367170219669,-0.204173931846,-1.76890420345,-2.60657062503,-4.46609779737,-0.778396140585,0.373231921079,-1.76647901789,-2.49932893488,-1.63095258791,-1.16047469041,35.1033549788
off_to_on,0.383627260747,1.13689460942,0.329029088677,-0.804561983654,2.45217570375,3.46454568953,3.06691983354,0.572536662327,-0.347728094062,1.34689078074,1.55992276289,3.45419859822,2.09233976212,-0.396318814095
off_to_on,0.142169405546,-0.180748144372,0.39459506046,1.24374974594,-0.642293432744,-0.592981787064,2.26239089759,0.411866494005,0.537239543987,0.85103213561,0.648113870473,-1.27962535249,-1.08466734476,21.493410712
off_to_on,0.979185987411,0.756893465803,-1.01627688824,-0.192976451556,0.333110143677,-0.00375359395291,0.332214306128,-0.54267498759,-0.461703020506,0.406186506357,0.395492920182,0.511217972857,1.15006049768,-49.7470027386
off_to_on,-0.689627174015,-0.910997048654,0.309055280506,-0.583910164526,0.00826871381095,-0.81183328792,-4.55500377442,0.121539666737,0.176629274316,-1.77415106387,-1.77092115329,-1.13508787184,-1.02500226432,-6.33055782392
off_to_on,-2.40843158011,-2.16793273024,0.238080419575,-0.218910069071,-2.79442969394,-2.42015290711,-2.50473916329,-0.793066208422,-0.175478279368,-2.02422488326,-1.48700484859,-2.43097663438,-2.6477945847,68.0106265401
off_to_on,3.72997306068,4.8182461314,0.35053104402,1.0868976724,4.37652359938,6.50176825589,11.5548016241,2.00911037407,0.406273508406,5.75032495455,5.78831113203,7.67235475263,6.52967368605,-28.6775117616
off_to_on,-0.38168022237,-1.93348031558,-0.622820400969,-0.497171128684,-1.18093452128,-3.32554286319,-5.24528505846,-1.32279095864,-0.336658776074,-1.95570784924,-3.79287625339,-4.88405577285,-3.65342720768,-32.1896020971
off_to_on,-2.80069130934,-3.1509895254,-0.0789873923604,-0.460842222325,-2.83277452719,-4.02519167577,-8.2762058577,-1.08359326445,-0.0151283757075,-4.19356706791,-2.63622961835,-4.68597902948,-3.77917651468,1.22300820992
off_to_on,1.09642816474,3.01172938455,0.268218876076,0.272354735185,2.19944761997,4.39074027529,7.93756285578,1.8383021589,0.0862911900581,3.03308650693,4.59354386408,7.37765578295,5.42065247213,61.8188438899
off_to_on,1.93429345701,1.34461624031,0.482838755303,0.495117871131,1.15957347625,1.92013469184,3.16334782955,0.110200069357,0.179500471913,2.34837484437,-0.454578911869,0.493009677466,0.585382398134,-47.0062076111
off_to_on,-0.836802177617,-2.10217451468,-0.644684816709,-0.602396657575,-1.3672480304,-2.80706853639,-4.77608698514,-1.3201095673,-0.248900581261,-1.97417542916,-2.06606820234,-5.21516804423,-3.63949569291,-28.1175307512
off_to_on,-2.31725856853,-1.8810067209,-0.175995098103,0.100640105487,-2.0459361336,-4.09973378229,-4.16794800186,-0.356227955243,-0.000569943831102,-2.97680910869,-0.793481674618,-1.18280362317,-1.54611117735,74.8386286565
off_to_on,1.97856858251,3.3273877916,0.566095349599,0.341379935011,3.4875410653,6.20117836606,6.23414199792,1.77730063468,0.126885429188,3.08963947208,3.03380462571,6.93266658719,5.44332714206,-45.4815081732
off_to_on,1.3791404289,0.735491600412,-0.0279363069331,-0.445796359917,0.289481177635,2.21495047012,2.67399730236,0.109180519821,-0.0120159214026,2.10678779666,0.26391786369,-0.966378456187,-0.0943731817167,-29.0652753955
off_to_on,-2.68530959967,-4.11068172606,-0.399275919038,0.132110326956,-4.787565884,-8.87443751486,-8.49149813215,-2.55487070749,0.0169138916144,-4.18045795021,-4.37858049283,-7.81013973367,-6.618017688,41.0456475176
off_to_on,0.664349912796,2.02405972288,0.110936280874,0.308287958142,3.60229148762,3.58806264285,3.79731150016,1.43101946234,-0.202027303651,0.766136622105,2.88539064441,5.85855011888,4.19455301785,57.1679170136
off_to_on,1.18762184131,1.61424302285,0.464329481833,-0.107292310737,1.74256267221,4.74486587316,3.15799293539,1.58902043781,0.227556553589,1.96699196317,1.68230372789,2.6418438688,2.77071546248,-107.618712005
off_to_on,-0.792822345605,-1.59234858926,-0.716669356102,-0.671822550343,-3.51664606577,-3.71754212819,-4.06398180959,-1.89287456514,-0.078023303054,-0.795653910281,-2.38739383946,-4.5430116507,-3.30095423537,-26.5916521005
off_to_on,-0.0475008108754,-0.33939847382,0.285671936671,0.768367177588,0.23032534622,-1.9559824292,0.964482597747,-0.154574507187,0.113593318768,-0.60065698824,-0.386654184643,-0.0339200817267,-1.04062388727,146.333229093
off_to_on,-0.64277198625,-0.362945171078,0.431309304738,0.116822161021,1.01597274841,0.617433817949,0.129150643651,0.379176361942,-0.36525703183,-0.849133327857,0.226385099214,0.52193723602,0.482614351339,-12.9521985218
off_to_on,1.91881565542,2.83360141823,-0.261777386684,-0.490331440463,2.29843333735,5.00441252902,1.94483236219,1.44370364479,0.483671638181,3.03172992825,3.41615947462,4.17499558204,4.53944880527,-159.795428336
off_to_on,-1.4903910022,-2.42722016035,-0.869684284212,-0.348013748249,-3.2731076253,-3.89706391882,-3.18008079986,-1.57446022115,-0.387500508402,-2.30847177702,-3.80643575793,-4.49710934834,-4.37360834612,42.4021100939
off_to_on,-0.701239886801,-1.1943828635,1.18096191792,1.00433338296,-0.9929543154,-2.55634918801,0.590414892025,-0.491847995583,0.321780502811,-1.32786258146,-1.19701127579,-2.10072606029,-2.21725081615,158.131272898
off_to_on,1.92588871192,3.12647087731,-0.00875004514162,-0.545135353693,3.34527887888,3.96742520544,3.51659425744,1.34774053269,-0.344724047702,3.53244332913,4.81602126113,6.32405833129,5.66205494275,-49.9493748761
off_to_on,-0.478312222893,-0.872309029662,-0.539096584039,0.0411622647909,-0.26782957473,-0.229541283709,-4.82743789413,-0.113075004495,0.353617335862,-0.969271499813,-2.29975437065,-2.3564811751,-1.67136427569,-167.443358085
off_to_on,-1.47253772155,-1.90291680233,-0.741401437073,-0.361552746393,-1.62302860633,-0.383914749305,2.25843515993,-0.678520599149,-0.441399612489,-2.89905682984,-1.86799259495,-3.18249453732,-2.74691939984,62.3602844686
off_to_on,1.17608944421,1.45194412584,1.6565354278,0.73782640459,-0.656403429097,-1.58240274802,2.38473931089,0.496704309237,0.6461658225,2.0911742673,2.22289942254,2.57659382913,1.93206137779,167.092619973
off_to_on,0.0963545812809,0.297437482069,-0.569253983095,-0.547040320236,0.573380770847,-0.896114715196,-6.18048203958,-1.10742863528,-0.66071038816,1.53883645018,-0.630762237614,1.02482830619,0.324611501573,-65.0118710928
off_to_on,0.598785843244,0.389069403809,-0.478259044451,0.369915604634,3.69943510066,5.48319416707,5.19065713819,1.94269005534,0.385581170733,-0.594749007039,1.13691988467,-0.0332031573904,0.849677667611,-165.512782871
off_to_on,-2.35742903885,-2.59653113966,-0.365262760428,-0.556914375458,-4.50648237732,-4.22702888027,0.543426262542,-1.06034990879,-0.304493753091,-4.17929567357,-2.5979596188,-4.52763328801,-3.36742769146,56.1778227591
off_to_on,1.97597515487,2.663954978,1.35258028416,0.651338706264,-0.0728443519482,-0.672131199379,-3.07174561134,-0.287835582505,0.669450758543,4.130668743,1.95052463632,4.98988447429,3.0594967359,178.747766135
off_to_on,0.143739703339,-0.426701683553,-0.70629182519,-0.547086127763,2.08973143988,1.27296659446,-1.864381205,-0.219682805138,-0.918549042802,1.40732652689,-0.0341967342993,0.0694281587075,-0.46707628832,-66.2556415018
off_to_on,-0.861725009883,-1.13623211177,-0.06392018263,0.588245482862,0.605970604216,0.730646322392,4.16561785599,1.10427846272,0.619020348523,-3.35365447421,-0.81328864835,-3.88011639927,-1.49763977346,-164.788985203
off_to_on,-0.014447781526,1.02801775041,-0.596396704275,-0.672182500514,-0.931907256026,1.03788284527,3.70693617489,-0.0644256592569,-0.297715601035,-0.427547156438,0.962003564,2.69827809595,2.15408659604,43.2033889979
off_to_on,0.24484128006,-0.543177138098,1.30187612171,0.601382878241,-2.05978852718,-3.40175301681,-8.6810061605,-0.922899973971,0.540471174983,1.95785671767,-1.24165672992,-0.285337593852,-1.85296492284,185.23688774
off_to_on,-0.0173136122797,-0.158191396723,-0.711057652837,-0.694398516373,1.27510129309,0.170013071306,-1.14360569837,-0.610384715487,-0.955686140616,0.783799154003,0.430612580627,-0.375089900113,0.0635932691332,-56.0947726955
off_to_on,0.978395152705,1.58503687492,0.12404317588,0.969888039774,3.11509225992,4.13851849621,10.512727665,2.27153006498,0.871003671825,-0.686218717322,1.69721250714,1.35818862939,2.4933688926,-166.550459923
off_to_on,-2.10967697202,-2.54632610901,-0.728877233219,-0.820294099369,-3.43853999504,-2.5978242357,-2.7727336038,-1.29581740257,-0.470247814989,-3.33961428351,-2.89422000223,-3.49416667853,-3.40645964652,27.7111437394
off_to_on,1.61565695557,1.92842683427,1.32573895018,0.338669716868,0.0432934852267,-0.206774654653,-6.39864716804,0.113535280404,0.426543182452,4.0507378027,2.42699142844,3.76986781399,2.33230558228,190.745902881
off_to_on,-0.711137594858,-0.936259020254,-0.795315844132,-0.457317520683,-0.330295313975,-2.36759051731,-2.4790406769,-1.32803237645,-0.810676095091,-0.338022599852,-2.03455480526,-1.50019150707,-1.47339028969,-44.6750657866
off_to_on,1.00505060216,0.709082378815,0.154272153444,1.12384406216,3.36646880651,4.97890805844,12.4505485769,2.15735086076,1.05833487745,-1.13450443127,1.6282855757,-0.0385894749072,1.25284248914,-168.629359291
off_to_on,-1.08443042175,-0.38003592308,-0.500215187908,-1.18740281237,-1.85561882509,-0.612553629438,-0.852064536759,-0.0504375106332,-0.851415617766,-0.821382602361,0.47933723322,-0.132342878918,0.0118258012508,16.7666567838
off_to_on,-0.267098191245,-0.409447015102,1.11582571579,0.556294475555,-2.83603745131,-5.05732574008,-14.6102490717,-1.74638539457,0.535220913602,0.948429135702,-2.63075559766,-0.528315748182,-1.73200783486,191.067159889
off_to_on,1.07748335093,0.462487372949,-0.980564688239,-0.380977331835,3.10865528901,3.77412064572,6.87806212024,0.228329866537,-0.584108415735,1.10946057246,1.50889852648,2.15369650164,1.50248451634,-34.8975662033
off_to_on,0.123616790601,0.256553840561,0.50458165167,0.839816536358,0.78218811302,1.13668605226,9.9661615491,1.78847736055,0.902224316519,-0.922079423694,1.46180963019,-1.7030677597,0.205561623502,-168.248818273
off_to_on,-1.5598650964,-0.608649612513,-0.592622884327,-0.97101157945,-2.72526024989,-2.93129831233,-8.29725706075,-1.49114667265,-0.962868840192,-1.36529176002,-2.14478753286,-1.27175601094,-1.06400020529,11.2970783746
off_to_on,1.69982250463,1.01071105896,1.04552906148,0.69575415606,2.10947335687,2.69443760874,-3.17391786401,0.900098397135,0.658360480645,2.18075923577,0.942894741259,3.54862152308,1.41536844486,185.062903553
off_to_on,-1.43374934903,-2.2255794965,-0.968022785238,-0.725480683957,-1.86699276141,-2.82051022499,1.98980231788,-1.46355338205,-0.510281043503,-1.72048959397,-1.20484524297,-3.28157956121,-2.57753591869,-26.9120226073
off_to_on,1.35858820421,2.75819330635,0.36338724079,0.817584984088,1.45793031534,1.42642692924,5.41164199393,1.09279347517,0.767512479675,1.90169280243,2.55535637906,2.00035266447,3.11425340454,-165.186404264
off_to_on,-0.887709054061,-1.40108654759,-0.260959440106,-0.424383793815,-0.365059221044,0.323455440306,-3.5983065354,0.165957943266,-0.933896088628,-1.64149690806,-2.31146381144,-1.39218852662,-1.72650146472,10.1780913632
off_to_on,0.300367568873,-0.142995818012,0.976355432411,0.290740974009,0.764644882138,1.32152708138,-0.726850311282,0.49620660098,0.665265941508,0.0566751744893,0.635227777029,0.890799514912,0.159438106997,174.990732687
off_to_on,-0.159140324342,0.495069388057,-1.33833814063,-1.06259106892,-1.50273916696,-2.60491625071,-0.378008170985,-1.86218791838,-0.420046124895,0.879220968503,0.933773042026,0.840267037088,0.642690405075,-21.4758558434
off_to_on,-0.169273992859,-0.688495483036,0.589618716323,1.52073453411,-0.896717979542,-2.08320828286,-1.88767919073,0.204839498677,0.614584913756,-0.418468274689,-2.11193219811,-2.98178602402,-1.96243208434,-160.303060291
off_to_on,0.622044096662,0.774425145616,0.0912290748897,-0.622160784475,3.39418533717,6.27456437678,7.46946048425,2.23478296792,-0.871954309393,0.175557450243,1.82106981961,2.62112832767,2.53312742512,12.558578169
off_to_on,0.222726922303,0.629020241291,0.500089451531,-0.265728122947,-0.394637186026,-0.969424789865,-1.86531463752,-0.316013530814,0.751695816182,-0.0398205328867,0.988882823656,0.890756514785,0.339926021766,163.209357719
off_to_on,-1.83200288506,-2.31291395585,-1.3675799977,-0.338786903962,-4.39114712013,-6.82374340976,-10.3031811786,-3.56558126857,-0.499393481791,-1.31262378541,-3.38097917219,-3.71860973531,-3.92381629514,-18.7779911323
off_to_on,1.80353859008,1.86858038283,1.01084533203,1.30669151103,3.40686641091,5.00148168164,8.03290013525,3.00950541455,0.488034885393,2.63233658969,2.22615343865,2.962267835,3.26297433715,-155.005233136
off_to_on,-0.526374398022,-0.661862618618,-0.104176711043,-0.980632350071,0.590976104697,1.45614589695,4.48308607309,0.557807486107,-0.60766812323,-2.08758838089,-0.536253007045,-1.33031970428,-0.497982947778,17.5957448246
off_to_on,0.616700536223,1.12130936988,0.154994130567,0.0843354173028,-0.0443899469822,-0.445657796177,-3.9806448287,-0.869634612987,0.649870873806,0.720670770489,1.78162982206,1.68364430021,0.843862131743,152.003347026
off_to_on,-1.47935469574,-1.45277824702,-0.761176762435,-0.119553853903,-2.7557850191,-4.1630013267,-6.27008206772,-1.41736239085,-0.643980230911,0.0369451859225,-2.25717687085,-1.4625955814,-2.17371729144,-18.8227803236
off_to_on,0.481623760168,-0.337162462089,0.670814624952,0.708174288655,1.00191675841,1.3573331876,3.9197248879,1.16342005548,0.577235842539,-0.565094332361,-1.23937754267,-1.32509290883,-0.135064593902,-150.586573769
off_to_on,1.25627837656,1.4916788165,-0.258679868637,-0.731340444939,2.83545720182,4.88109515616,7.16530978867,0.851257173111,-0.404506286292,0.615978029652,3.28195159417,2.77835564226,2.90472241271,24.5472997968
off_to_on,-0.805155013401,-0.100244735589,0.494293510022,0.40351398029,-2.29593163469,-3.77204890543,-5.85265839498,-0.530376896708,0.333454082042,0.378476245217,-0.0419372861257,-0.731540972158,-1.44167457972,142.95254886
off_to_on,-0.702633961719,-0.58436900741,-0.817034473927,-0.405768566023,-0.848712809904,-1.80652993112,-3.9807875406,-0.979009415438,-0.494288947962,-0.570841250459,-2.11021329391,-0.318705709633,-0.763208496696,-21.308227422
off_to_on,0.687356315972,-0.65919891398,0.373246842155,0.504499752591,1.53622183092,2.58564336456,4.03239568141,0.623894824547,0.563304645271,-0.880437889991,-0.761079311898,-1.09504440704,-0.093962754467,-146.561257013
off_to_on,-0.477643576937,-0.257978254314,0.068943365741,-0.338468366705,-0.987472721275,-0.447715850323,1.36944128371,-0.100310643466,-0.315260811073,0.352658934668,1.34439627634,-0.683297887033,-0.25296548444,25.2459934894
off_to_on,1.74537282019,3.59684089413,0.387165211072,0.194845371523,1.85791246488,1.75518138002,1.85377473585,1.42379953234,0.114261207337,3.37910065006,3.91390933343,5.79144125848,4.06083456592,156.049780134
off_to_on,-2.00793761742,-3.41576003247,-0.857690286153,-0.249854659591,-2.01740428295,-3.64655735477,-6.7315091061,-1.93624482176,-0.260074337832,-4.30017524412,-5.75930101315,-5.30886829435,-4.60611314541,-48.7273874702
off_to_on,-0.285603121934,-1.03834426694,0.318014316511,0.269908635885,0.125742461475,1.23995293674,1.33024842209,-0.0602053740659,0.419696633054,-0.598223054655,-0.52894611605,-2.10882453533,-0.766598950232,-149.864102192
off_to_on,1.62481040659,2.79617523331,0.332710398047,-0.265052620936,0.916217834512,1.86155106459,5.67260360106,1.40185920834,-0.272535541412,4.01347021025,4.93542520233,5.253998212,3.80842400676,89.1822493724
off_to_on,0.0562544407468,0.101913559205,0.108973396456,0.344374977248,-0.276160671952,-1.44456749955,-3.27259117913,-0.38677757036,0.0731374324558,-0.711119694554,-1.04996253096,0.00405356393031,-0.531639002454,80.510150792
off_to_on,-1.04026212167,-1.28140018125,-0.809996975582,-0.239192746658,0.684011507522,0.776208535618,-0.786081205207,-0.184920828015,-0.0917120903966,-2.44396508136,-2.35030038441,-2.79720373394,-1.31096810144,-38.8341142014
off_to_on,-0.934662857507,-1.42308498675,0.328245571462,-0.0725845438736,-1.99465942401,-2.46659271232,-1.41884111942,-0.669393304657,0.170307524789,-0.624052410484,-1.11965917314,-2.44399892239,-2.14838638987,-100.539028542
off_to_on,1.97931601666,2.23890871541,0.662978630546,0.0512556216154,1.18858720139,2.36797334166,2.17419522936,0.26586488216,-0.167652447981,3.36510735395,3.49509429915,5.29716290123,3.25691750307,70.495633639
off_to_on,0.583507459035,1.05408349978,-0.423945102371,0.290440633812,1.44437628167,1.9154399315,3.22460549983,1.48883693807,0.161413190677,0.656446208005,1.24830490795,1.25211538313,1.79503201646,35.6012550032
off_to_on,-2.97397142348,-3.26990510352,-0.671794783932,-0.176292124268,-2.85471517015,-5.38848018754,-5.67798949658,-1.45168131118,-0.0831799112427,-4.83968800312,-5.36644395947,-7.546760256,-5.2600381305,-23.7966580859
off_to_on,1.59961483251,1.54095753399,0.600381081197,-0.367009334527,2.13398756013,3.48069486695,1.16601918507,-0.401083179375,-0.148017639664,1.80797932766,2.10481354651,4.13647756498,2.16865973036,-11.1385562566
off_to_on,1.11732226937,0.790732967968,0.693809248104,0.345522439741,-0.190964249493,1.23903295535,1.82910122118,0.934973287861,0.241572951419,2.84732031677,2.43544453761,2.74403957435,1.62378937269,-33.5648859493
off_to_on,-1.46844956672,-1.03558594301,-0.990967679693,0.247876897546,-1.95175449903,-3.32549030492,-0.0569343146022,0.100836226498,-0.0119449641859,-1.49501681541,-1.46787663806,-3.24011737951,-1.111293848,25.7816380618
off_to_on,0.0934766385354,0.363233807646,-0.268882133682,-0.255446005183,2.26394765853,1.36625193225,0.171382662491,-0.205360930292,-0.109390867064,-1.75507678856,-1.13694553195,-0.43885785023,-0.338969151943,52.7657658051
off_to_on,0.22522386815,-0.380052435136,0.814888688127,-0.405774028718,-0.15197102063,0.864408289546,-3.41197018766,-0.843196999339,-0.202829821657,0.0341398447115,-0.332443356222,0.352476221572,-0.978403989799,-11.8518997773
off_to_on,0.971075110672,1.35936357766,0.391100415062,0.514180518055,-0.706636336941,0.626955280126,3.73507574258,1.25268040204,0.48570029804,3.46139853433,3.46283966673,3.45424304731,3.15458770841,-93.0963080406
off_to_on,-1.68003985114,-2.21393147021,-1.16141819508,0.0612267657418,-1.66547083706,-3.78474986354,-0.469654343008,-0.6967268801,-0.311055663061,-2.37543115104,-3.00954877675,-4.15741227282,-2.87742800373,3.662748591
off_to_on,0.384800147464,0.717385493342,0.10752141799,-0.0938856920299,2.45271443115,2.41728721617,-1.75696521783,-0.145289713808,0.0836214406527,-1.50533360579,-0.838257753371,-0.70909626339,-0.377099943257,157.512863852
off_to_on,1.60904934331,2.62436083138,0.684829730083,-0.563285260805,1.29549396076,3.29302529065,2.15215556921,1.00513426625,-0.239094484008,2.68854304038,3.65558498305,5.30344209232,3.88742593434,-47.1185207427
off_to_on,-1.47039629366,-2.89588042735,0.440692244579,0.716912604197,-3.69308823745,-5.1957474018,-2.31939686969,-1.03964780435,0.450305980639,-0.929773969108,-2.54982786151,-3.47188397244,-3.40006013291,-171.763371698
off_to_on,-0.708671059642,-1.21788096734,-1.47913636122,-0.213003567569,0.635626886702,0.642762120056,1.59946987461,-0.31706419431,-0.367496629977,-0.589833995667,-0.747735325554,-1.90213232567,-1.08435148505,73.9536738897
off_to_on,1.3943587558,3.06560406394,0.4898863488,0.132178244345,2.05743149919,2.57323397935,0.0620654804415,1.3478099314,0.290716574941,0.796979771312,1.94877428139,2.5863457768,3.07492744035,168.312514948
off_to_on,0.241081862257,0.504478939971,0.682717188422,-0.570097574978,-0.411543653734,-0.733926208904,-1.60936599587,-0.701128810763,-0.455897170718,-0.657772358748,-0.360918199031,1.30402310598,0.243835441359,-76.1381050274
off_to_on,-0.253531786101,-1.98187149023,0.168727645248,0.606661381917,0.130465858682,0.574786984421,3.81212308212,0.309839096787,0.535520887496,1.05933145901,0.316737408699,-0.72227506636,-1.52971511629,-181.223376078
off_to_on,-2.48033966103,-2.79492107847,-1.49153766641,-0.291975061754,-3.59109157438,-4.33016528747,-5.28336567384,-1.45174351614,-0.380501511093,-1.90667273437,-3.08604134813,-5.30306008543,-3.43684758895,98.8561459741
off_to_on,3.06758914638,5.23420529409,0.914161044676,0.400019003866,3.58833777941,4.1206299354,1.55824398539,1.59080682804,0.368321226767,1.79773267674,3.32955150325,5.85713850538,5.91651917649,162.659238893
off_to_on,0.340837796192,0.0309243215607,0.381201196596,-0.699220507898,1.50171140157,1.555661395,4.21555435844,0.32316180381,-0.616365073269,-0.103949220912,0.734784243832,1.63478451468,-0.0735117014683,-100.295866016
off_to_on,-2.26752311878,-4.00668062815,0.0362482113561,0.554405423025,-2.9600699636,-3.38219097141,-2.49340692134,-0.894715816117,0.720378939035,-0.955028328706,-2.51694169525,-4.93131979658,-4.63740534217,-134.674694485
off_to_on,-0.0158195644577,0.429162348694,-1.41049589553,-0.399120450193,-0.895087682547,-0.38164582361,-3.63190462845,-0.875859573794,-0.533160795606,-0.0203839748248,-0.434311764014,-0.130469448676,1.14731182077,70.1467608459
off_to_on,1.47736319772,2.39854413657,1.35066401764,0.728860023277,1.23856939238,0.603492577791,0.743662499579,1.02784479424,0.397428897671,0.310782635441,0.94699401761,1.60477299684,1.71990869479,140.77165646
off_to_on,0.255315825182,0.861703040199,-0.126477103594,-0.86511926253,2.3802533023,2.99724352402,7.39264190896,0.962438289005,-0.496344609533,1.27804959087,2.74825341003,3.52500418815,1.74355784183,-73.0201731838
off_to_on,-0.296463086019,-1.72352552575,-0.0541687268664,0.397629654601,-0.607585958536,-0.669715650971,-2.69869541411,-0.29658585387,0.656514184318,-0.547398433679,-1.68995989991,-1.94334282714,-1.77174955874,-108.561316766
off_to_on,-2.57712974498,-3.5837927104,-1.02422695154,-0.250091367472,-5.20888576966,-5.91451991358,-11.0472101487,-3.00761853854,-0.738224237886,-3.59886175217,-5.35116432296,-7.47487550497,-5.26756524949,33.2357901529
off_to_on,2.65664799834,5.04088094574,1.46561704424,0.822720389818,4.01117875454,4.95687647565,10.2278064704,2.91581364441,0.709740926831,4.6020616582,6.48769771195,7.64722443256,6.56147316249,117.633120444
off_to_on,0.566842354972,0.733105644164,-0.591453296867,-1.01245568866,2.25780942315,1.60903448206,4.5978820488,0.680578649926,-0.566673776418,-0.0336942520876,0.908218513901,3.08580208888,1.42491493305,-31.1871968325
off_to_on,-0.553440303667,-2.73083638783,-0.162434471908,0.409781993542,-1.400067847,-1.11022150223,-7.62793195597,-1.1354145286,0.477943865467,-2.42830369458,-3.69593272446,-5.05766461543,-3.78311540838,-92.7920476504
off_to_on,-2.62003179176,-2.34832702443,-0.278176828886,-0.253853199954,-4.34983155097,-4.0957439927,-3.92292404697,-1.75687854383,-0.619206992861,-0.906604274342,-2.01037889493,-4.54254121514,-3.3057872081,-1.09009309088
off_to_on,1.69553115367,3.33118648094,1.14218595705,0.987261899917,2.21385752121,1.07197876892,5.6801865356,1.41571648066,0.805528350775,2.52622573156,3.35751305911,5.13446039643,4.05522234054,96.6821353208
off_to_on,2.56411830103,2.46642519094,-1.22061707579,-1.26925226969,5.03768704429,6.47090563449,5.47013496314,1.69143213963,-0.796952953197,1.17590773345,3.06015395879,6.14682282987,4.69256969806,6.05216388652
off_to_on,-1.91043980539,-3.60002957459,0.565417103364,0.552823198512,-3.65742861046,-3.99677540038,-6.68770914748,-0.751082330555,0.738950590357,-2.60055390103,-4.06355752537,-7.60517218901,-5.86512706829,-79.1251005808
off_to_on,-2.83218357304,-2.33701902496,-0.165433090081,-0.154541075719,-4.17174678774,-5.11521809099,-4.36230105765,-3.00424316299,-0.744281304881,-1.50311163322,-3.14708689905,-4.34220880753,-3.73534082196,-25.4390962116
off_to_on,3.05109519516,4.30392882628,0.469418965885,0.725926111369,4.8126472906,5.60257357105,6.84637064619,2.32799973927,0.604078612004,3.61880769535,5.08487974388,8.2336670627,6.72224834024,73.9680932618
off_to_on,0.447503502598,-0.303674398693,-0.900448281389,-1.1241410148,0.504177327039,0.597778852628,-0.0471208821041,1.06466047663,-0.443615839818,-1.02034666072,0.498730393553,0.116797274895,0.280003002897,33.5892369482
off_to_on,0.398768462296,0.0471206579804,0.845726418195,0.694696963631,-0.0453811503638,0.0367788410102,1.34251593924,0.154914479479,0.715576155101,0.424085472754,-0.550752956663,-1.63846733451,-1.30359702499,-64.9404042149
off_to_on,-3.73097336449,-3.74454066319,-0.533502950904,-0.338070602359,-4.19183064015,-5.0921979162,-6.57051373751,-3.53311404647,-1.10778870829,-2.80908736592,-5.38953057255,-5.72961116818,-5.2508538614,-36.7535753261
off_to_on,1.50228661996,2.11254427942,0.513091059058,0.606695241051,1.88849630963,2.44292302923,-0.113253454525,1.53373489722,0.816317386854,1.57998484541,3.63194633053,4.12097546301,3.96450641331,48.1535493197
off_to_on,3.16644487529,3.21653056294,-0.707080104483,-0.86071910696,3.54197125654,4.24452594075,8.53203309844,2.70685660762,-0.188699164039,2.32474428687,4.87524238726,5.77055084082,4.75643107745,48.8595559984
off_to_on,-1.4148398543,-2.37818628788,0.662684847015,0.739787170978,-2.04555231819,-3.10976280459,-1.50991287859,-1.2371516212,0.335170239138,-1.7032123906,-5.02382527641,-5.61279920929,-5.00518247821,-46.6390551026
off_to_on,-3.38270834533,-2.55443875713,-0.483047821194,-0.643847947832,-2.62512177855,-2.10524977387,-7.03718509539,-2.78621473563,-1.00204331542,-1.63372239708,-2.75378421568,-3.18967363361,-2.51855874816,-38.9812341275
off_to_on,2.02394596951,1.99445833895,0.647100258415,0.669027033457,1.25349328886,0.865179226706,-0.789059645919,1.69512026167,0.944643193241,0.852644954951,3.8134691592,3.4185405239,3.05476616439,21.7873132268
off_to_on,2.22804700448,1.66914247186,-0.97505403292,-0.570016437313,2.07029882449,2.34548644511,7.78545518018,1.29138305598,-0.3270398386,1.03882929447,1.59503167676,2.59067020855,1.95470983068,53.3287716812
off_to_on,-0.431274664959,0.248919599007,0.782516762282,0.494908040102,0.780356849975,1.67606706043,4.28024254185,0.61499238267,0.372677763123,1.94228210256,-0.571696843305,0.189868295912,0.21858361077,-25.9118191261
off_to_on,-4.11959864736,-4.5060871241,-0.198703796112,-0.602879680726,-5.02091002144,-6.83177356273,-14.4660948504,-3.566000462,-0.907892640999,-4.67153552731,-5.28606604937,-7.06876452736,-6.02715918806,-35.2545741457
off_to_on,2.82670615422,2.80026046318,0.169971683124,0.598444465542,2.8879657123,3.58591609463,2.36686642492,1.39105986996,0.780084381753,1.01941315175,3.97210870633,4.01946868779,3.57832435081,-1.65686096923
off_to_on,1.38103706872,1.49108078742,-0.788889858729,-0.440214461589,1.28251757196,2.21494868681,10.3585274149,1.67595819195,-0.247184815234,2.54095721976,2.0338108429,2.94800133283,2.40920371394,49.4185938428
off_to_on,-1.03552895837,-0.993835996014,0.956198158249,0.528604612374,-1.00360270603,-1.72401643869,-2.42497777203,-0.273229479521,0.400600655738,0.200577957442,-1.9645876607,-1.48478170844,-1.32121829198,-6.36929753866
off_to_on,-1.07948076579,-1.0464694132,-0.320892052643,-0.742157062623,-0.0460797042234,-0.172145528729,-6.30758042941,-1.31379669151,-0.884805186803,-2.24004076578,-1.1609762388,-1.52232151607,-1.45692882578,-27.356858821
off_to_on,-0.483481964433,-0.715289052134,0.0247593059743,0.557710700356,-1.76319911086,-2.30473487502,-2.08844794032,-0.606668341603,0.656273872103,-1.58704074029,-0.81732465707,-2.79609112617,-1.95718107224,-19.4988858425
off_to_on,1.70210001662,1.94213245078,-0.622432485928,-0.24259380474,1.37509727701,2.55464035176,7.40324660669,1.00545784073,-0.132078840075,3.03793757537,2.74715391103,4.44915030865,3.78472865882,39.4508211221
off_to_on,1.58345640383,1.272974515,0.971202821023,0.427798032735,2.88697303461,3.17939288777,3.98368641816,2.11395370945,0.288149476854,2.17507435142,1.63066964118,3.23241866523,2.21457110495,9.17099818472
do_nothing,-3.61607186473,-3.21354738611,-0.35523987698,-0.704556915506,-3.59741500701,-5.26508348391,-9.37315865349,-2.37842179164,-0.692643753301,-4.3859266716,-4.53380689355,-6.73162877198,-5.65863936843,-16.5953018071
do_nothing,0.269439258113,0.535969497455,-0.127978351894,0.341360594717,-0.824102021955,-0.3915465107,-1.99570271676,-1.14010397535,0.496654737617,-0.351803897493,0.422734925607,-0.227816885571,0.509326292061,-32.3040319912
do_nothing,1.86187878972,0.541627750109,-0.332794615707,0.0978704389289,1.5244393495,2.43404348613,5.21323581714,0.913757606733,-0.143512933802,1.70656600999,1.36490623202,2.55324702338,1.9045197482,33.4750330436
do_nothing,1.42578211378,2.29368386359,0.725549600796,0.279348359826,3.38104676396,3.87238743368,7.75018271572,3.12081910407,0.317059853215,3.34868191033,3.47537838665,4.72728544825,3.44260003703,1.0713097256
do_nothing,-3.24598893552,-2.14990972953,-0.261089012549,-0.821866680638,-4.01561095784,-5.85840413359,-8.9687841133,-2.29138882999,-0.546548965365,-3.51884183929,-3.79382232156,-4.95914595444,-4.20287398284,20.0177357874
do_nothing,-0.674768599211,-2.3606592732,-0.089261889704,0.438165483964,-2.42518557289,-2.64089540316,-8.52201791436,-3.05219787258,0.303435656921,-3.49144019938,-3.86938165026,-5.45073414271,-3.68108736658,-48.11942347
do_nothing,3.55730865076,3.38603646485,-0.365232345382,0.257211702456,5.66888276022,8.47689896567,13.7875134869,3.2493801773,-0.0622915739544,5.1432323247,6.39534225441,7.88597345206,6.52987131632,-7.70200903247
do_nothing,-0.820959732793,0.601151768863,0.606236899795,-0.00755673168491,-0.994593119787,-2.69237273239,2.45457716971,1.83516739754,0.198142777662,1.39305906284,0.52565454038,1.62185007472,0.313436231962,68.9303894879
do_nothing,-1.96705973308,-2.03726660831,-0.0444575988148,-0.710371683697,-3.18154254553,-4.38298258561,-10.5022326906,-2.80609913989,-0.27845978132,-3.89074800182,-4.17320780842,-4.90590007741,-3.98273408091,-29.7034786216
do_nothing,0.804512956161,-0.424946323917,-0.188321180884,0.525541845009,1.50058272196,3.1058612556,-0.406080644482,-0.779774031778,0.126251408399,-0.695777721624,0.0932817357233,-1.57398703581,-0.0543498571818,-30.7804760585
do_nothing,0.23481994412,0.273721178179,-0.429291690191,0.328312345757,0.461216869525,0.297292546842,5.01619351151,0.864507259977,-0.134190054995,1.65932723539,1.0797761226,1.59268112624,1.0635550519,0.0891332465269
do_nothing,1.12705748419,2.63229826557,0.59699991289,-0.45723541739,1.13842491846,1.16461631265,4.95981542618,2.16816600151,0.233207354303,2.84013498255,2.98554141315,5.7977865275,3.42565420761,62.288394113
do_nothing,-1.26882499523,-2.08911303435,0.24930945294,-0.245822574665,-2.10965951831,-2.91358690626,-7.01097169973,-1.26768180849,0.00742265920095,-2.99637600118,-2.69162967794,-4.82014853559,-3.57615107334,-47.5568376407
do_nothing,-0.690581860036,-1.30718773289,-0.684285422066,0.540643631362,0.00301213870679,0.32918523573,-4.01692266617,-2.04184285636,-0.291511887992,-1.84600602208,-2.0291729965,-3.69438585352,-1.48922269659,-26.7930501625
do_nothing,1.21754674782,1.74913970887,-0.0351441061423,0.00507780481637,1.79352783555,2.5992520082,6.86193558102,1.23041969616,0.0305099953084,2.61870189962,2.09240353325,4.44872056958,2.78256595564,73.2037388255
do_nothing,-0.185491841352,-0.107470537475,0.574800078333,-0.473923717375,-1.55333152991,-2.41612335061,1.6101523711,1.39047673477,0.388024982587,0.520464517396,0.835790989594,1.04650255772,-0.437123661891,-44.2416231556
do_nothing,0.54510455773,0.978799870885,-0.0282256720412,0.238678805621,1.16272974114,1.53343433361,-1.98670855959,0.118095323791,-0.14220225898,0.162570205282,1.32609617097,0.331083535251,1.54795426496,-30.1125369864
do_nothing,-1.37729243299,-2.36166692223,-0.604779074559,0.178430218526,-0.824395256838,-1.2698718464,-6.06087289799,-2.6530070128,-0.527239529656,-2.98176708216,-4.52178593767,-5.01392211534,-3.62862269853,42.3974585678
do_nothing,0.0553391233644,0.137356389763,0.432089200284,-0.111821527249,-0.464104660635,-0.0875609661032,3.64182079044,0.536972740021,0.636530936825,0.78361804773,0.546303379683,1.15473219444,0.107858721027,55.7436110779
do_nothing,1.53611023311,2.73957785056,0.0108390698267,-0.307002594306,1.31366987442,1.84888692689,7.52802042078,2.74403052156,-0.0593228675774,3.53463149757,5.08603714149,5.85290324634,4.62839437866,-106.591739498
do_nothing,-0.655227958916,-1.72174552253,-0.07896390536,0.529644157405,-0.749230415673,-1.9294798794,-7.73462569981,-1.48296108286,-0.286200873486,-2.55208752787,-3.25304167967,-4.16763047993,-3.05794399091,-27.4385919723
do_nothing,-0.614867752713,-0.852416205657,-0.148169864043,-0.369223886254,0.672735019436,1.34558444267,-2.32757464779,-1.48435503992,-0.146100078823,-1.34181802117,-1.62996486764,-1.56874315297,-1.21737991911,147.353951978
do_nothing,-0.0956881991549,0.939394867519,0.48222284254,0.117712696422,-1.307021802,-1.24252920389,4.58669514514,1.20953662831,0.746057449134,1.58011668808,1.5767775023,1.45808716662,1.36450655618,-13.6808300597
do_nothing,0.459624419702,0.0548567393984,-0.686764260893,-0.117925374311,-0.143204185186,-0.367508712807,1.13178582945,0.278442640784,-0.668326405266,0.290831143897,0.316552078889,0.72969247137,0.32189395806,-159.853949936
do_nothing,1.40555950994,0.55170425894,0.378089353893,0.371447657999,3.20494705485,3.65475168428,-0.246727197147,0.47044317572,0.0855319291556,0.358225058575,1.11408145995,1.50724455925,0.772494651759,42.5145963597
do_nothing,-2.62282480907,-1.73393696664,0.118014056904,-0.550787219438,-3.44450064438,-4.48888807865,-5.81508284126,-1.59721258915,0.0490741638095,-2.03360037701,-2.67637417038,-3.84694432608,-2.63522267765,158.851121805
do_nothing,1.05519499871,1.91075568145,0.113383106847,0.433477588488,0.422739167171,1.38624231057,4.0887159953,0.86248222594,0.525899651074,1.72093480776,1.42439244905,2.13867926548,2.45666058193,-50.7031202978
do_nothing,0.737022576203,-1.31218062136,-0.86051614156,-0.245254743067,1.17054064406,1.37912444303,3.00888256133,0.0584598180041,-0.923251555726,-0.654358520558,-0.46205904184,-0.412135153762,-1.46667591262,-167.891640572
do_nothing,-0.574640266542,-0.15204376129,0.853176049989,0.343141480422,9.95370000823e-06,-1.13179382225,-3.45526566828,0.0114452598941,0.550084976315,0.00191418181328,0.465506161025,0.0134886954124,-0.0391365113485,63.1504529309
do_nothing,-0.0210461297027,2.06603707383,-0.112173004423,-0.636648594739,-0.197545012161,0.547735502026,-0.730498299506,0.202672279436,-0.1213610957,1.26171076064,1.4605749435,2.46745895155,2.73625612571,167.582488266
do_nothing,-0.115440567749,-1.8625213732,0.0696196408848,0.707053570494,-1.41575499839,-1.35501911873,-0.122906077074,-0.521360968679,0.406705409203,-1.94796820897,-3.11882334321,-4.2524490516,-3.4161094441,-65.907952655
do_nothing,-0.107531596942,-0.919206973321,-0.865985877866,-0.479865903,1.20372906123,1.23777802527,3.24635901122,-0.358048331705,-0.864219130783,0.0228699125914,0.463425467327,0.415425855339,-0.146550579509,-166.186686724
do_nothing,0.803703294824,2.38240528098,1.04385001196,0.319167457506,1.39928152812,0.762427059267,-0.407572405973,1.27889460598,0.662354259331,2.22767740007,2.95238435372,4.03376219918,3.15890572646,57.5182068861
do_nothing,-0.943177593204,-0.949536882573,-0.351904493137,-0.426507320136,-2.56999265982,-2.31185639543,-5.16864074021,-0.872658986882,-0.222917739069,-1.87951116229,-2.22080999743,-2.65791277377,-1.96262486032,179.071400658
do_nothing,1.07455374368,0.434942937771,0.145857159006,0.608568927998,1.33374912099,2.55775554325,5.5223676639,0.748914655594,0.400073554507,0.973793812127,0.785603470281,0.44499022201,1.00649656935,-67.3173640887
do_nothing,-1.80950990456,-2.22794972279,-0.692448315393,-0.665720355482,-0.873432047169,-2.80311120459,-1.74386074856,-1.69500826765,-0.864902062438,-1.65946560888,-2.40488277035,-2.67983319615,-2.97819733354,-165.636999977
do_nothing,1.55555523838,2.23869102685,0.835734863199,0.601147724195,1.87619534771,2.4160142739,-0.78096442568,1.23560425155,0.755484488633,1.45222737738,2.62985707327,3.31888315692,2.56851799599,44.9839167126
do_nothing,0.22864753557,0.514943135055,-0.441537756587,-0.49970943804,-1.35534535668,0.0516571683557,1.30304900035,0.915516775181,-0.304521101444,0.64295283024,1.17560153687,1.32801000107,1.72492389627,185.47731252
do_nothing,-0.96308127527,-1.46781933462,0.450851914392,0.51998555422,-1.16788184523,-2.64947289476,-1.10363323082,-1.11417550525,0.361665996953,-0.993591518759,-2.92385414085,-3.35413708325,-2.80014288524,-57.3293258664
do_nothing,-0.269778801144,-0.267247328666,-0.731016375972,-0.771764938161,2.36812901268,2.4791099221,0.773895970115,-1.09559555438,-0.816469796929,-0.819732232691,-0.0485026540604,-0.215555102331,-0.802747738493,-167.526854229
do_nothing,0.662409495973,0.383917799008,0.522032396049,0.96087651124,-0.772478378486,-0.537585579478,-1.50368373797,1.53928755685,0.886047512378,0.468875421911,1.30827557479,0.774773167487,1.19485078559,29.7861402156
do_nothing,0.458196439998,1.03551884625,-0.362159329098,-0.670212852988,-1.32188864604,-0.753608639136,1.75822652015,0.311076602914,-0.546081050048,1.49232289943,1.12403944245,2.79015289992,2.47052423937,190.997063388
do_nothing,0.187166652229,0.529424402488,0.957825163845,0.222508000477,2.12562819687,1.88542965477,2.46426641466,-0.107770990573,0.41929738807,0.318223745903,-0.48268466411,-0.439954993919,-1.21221730035,-46.0292851692
do_nothing,-2.86720408877,-3.8164126761,-1.2577127349,-0.41004574345,-2.29339627059,-3.55723092969,-7.78235270764,-2.43191496911,-0.605497849197,-4.44407668156,-4.14441673569,-7.07328854159,-5.36856039615,-169.781762756
do_nothing,3.15392471775,3.14473545912,0.323284342643,1.05349552122,2.2180416494,3.54277952907,5.02169223549,2.57294678979,0.706811212513,3.6999852253,4.79588666477,6.8259453559,6.47101261847,19.0678754847
do_nothing,-0.100810880929,0.399185669172,0.374305813778,-1.03314471465,-1.17374964624,-0.889593343322,3.31962763972,0.105578755012,-0.668693550262,1.04314930597,-0.171620321949,1.39438794153,-0.0492534387936,191.379755699
do_nothing,-1.44896574478,-0.839174369061,0.65922022904,0.247602470464,-0.299250689288,-0.983182117196,-3.75256123819,-0.847940272309,0.694476810961,-1.80489856461,-1.75578835088,-3.87506927879,-3.31615453066,-36.3129436497
do_nothing,-0.464507124389,-1.24367050881,-1.91485433121,-0.0297143390794,0.448510159882,-0.0991919096429,-3.8689417701,-1.02051365565,-0.694822595537,-1.58418511862,-0.767852370351,-1.25695172913,-0.0722084085094,-169.617240913
do_nothing,1.63917757936,0.65777717392,1.21002670265,0.858791799658,0.488550518214,0.830513256375,3.8089768105,1.21688897885,0.552999625277,1.60299536391,0.836194373548,2.07659760485,1.78500673247,13.7756253524
do_nothing,0.158989515141,1.68586858726,0.482525775564,-1.37135260769,-0.205933331537,1.53807626701,6.38930511317,0.794231278068,-0.512822423862,2.15390264303,2.51360376572,3.05463840882,1.57964097348,185.454957044
do_nothing,-1.31395459939,-1.01124916834,-0.540248383021,0.690616660711,-1.36773379274,-3.38802808089,-8.56135875358,-0.933023681502,0.708543880459,-2.3191154166,-2.30620082703,-3.52408049361,-2.88109560233,-28.3356859028
do_nothing,-0.56520735186,-1.73916238166,-1.08439220334,0.0242184390109,0.994932467531,0.349996567395,-4.10237138972,-1.53607918059,-0.800379970668,-2.15656880644,-2.47557253994,-2.19382528042,-1.13186088432,-166.775243261
do_nothing,2.48833539685,2.33818976543,1.92692668908,0.363516979152,2.39824296492,4.76227036657,12.7817523182,2.82537535515,0.587165601393,4.26603827535,4.63535464106,4.88189837977,4.379897096,12.7755004747
do_nothing,-1.82994604742,-1.29408368142,-0.81621624187,-1.04400363803,-4.67648445818,-5.59871105256,-4.36517550032,-1.42690450791,-0.434228682549,-1.5962055512,-1.71567253469,-2.46621986721,-2.99620341591,175.466803821
do_nothing,0.497718274317,1.34998101905,-0.600846976486,0.848802253108,2.52894182429,1.82993693215,-6.32645091573,-0.0856529707235,0.608211833631,-0.564268737064,-0.518886746744,1.21073019775,0.745763054099,-22.8673028968
do_nothing,-0.659102802917,-1.54731476265,0.351526432704,-0.277696086894,0.961021255083,1.12093875036,2.72681428219,-0.0244841507342,-0.756076851403,-0.602350827115,-0.949564932987,-1.94484518732,-0.793032200636,-162.086449128
do_nothing,0.961554145051,0.121147344705,1.16156393984,0.385202734394,-1.44960112918,-1.03436983222,5.56810968316,0.585463312949,0.554322017588,1.5252729006,1.81020023095,0.247273662204,0.883794053525,15.2123988469
do_nothing,0.254006204462,1.38470405757,-1.75450433043,-0.845647637902,0.238277349331,0.905499260262,-1.82246238974,-0.343107076766,-0.329074081307,0.285327775586,0.899541423454,3.0160103857,1.12824548134,163.764856487
do_nothing,-1.47262786345,-1.23726365524,0.572308395663,0.714452444414,-0.489307970145,-1.80940946667,-7.43160901917,-0.234410173554,0.465336907174,-2.07401549403,-3.34847693412,-3.21372912914,-3.02393894874,-20.1136150464
do_nothing,0.547019986093,0.207322029772,0.555381758057,-0.232041718449,0.819167817382,1.02724834578,5.04438295814,0.13976780014,-0.685560819665,0.997080619543,1.51214813507,0.479527079657,1.8294539485,-156.931928214
do_nothing,1.55958884799,0.937562394196,0.121197351969,0.295050625718,1.00450547956,1.51842108064,5.49851241901,0.717229792065,0.548234980413,1.47940936935,2.25756028027,1.77166341134,1.5959285861,20.2428858308
do_nothing,-2.21987565598,-2.121534866,-1.37750508763,-0.714352754489,-2.53044063839,-2.3314570671,-7.22628840223,-1.44184495988,-0.258017331608,-2.40924615383,-3.2617702259,-2.80261762527,-3.68700739772,152.630074097
do_nothing,1.0366023948,2.10998419773,0.989211870192,0.569874503513,1.29727091475,1.1949687787,0.192658725106,1.27490773005,0.285475969594,1.56562594873,1.53193997134,3.15198813504,2.73142357436,-20.095634361
do_nothing,0.0107999563613,-0.491543673367,0.410557084026,-0.00371260475731,-0.128462172003,-1.53544604813,1.29221584979,-0.614929326693,-0.512516943237,-0.780530528209,-0.61046572829,-1.98959913895,-0.673242314281,-152.593376648
do_nothing,0.307942740442,-0.202368774516,-0.406849936132,0.0576803215231,1.53100092175,3.08352258043,3.57629441873,0.350494055024,0.49474267444,0.761786062681,1.34941863492,0.0237584844726,0.169753643593,27.1344347241
do_nothing,-1.05069524577,-1.16652173484,-0.874133443208,-0.719718952672,-2.27731788221,-1.86366118733,-2.94879256336,-0.381252496764,-0.28782412923,-0.537859014313,-1.26322637389,0.148681554135,-0.98811937981,143.635798422
do_nothing,0.711578968817,1.26415216919,1.02589586325,0.78851024015,-0.442547958553,-2.02802939265,-3.34248442661,-0.0498223907419,0.255049047163,-0.484458511965,-0.755993313312,0.668564933255,0.54720428489,-22.497924391
do_nothing,0.796103537037,1.67817399299,0.200799617076,-0.0289522569621,3.20461399537,4.07616979057,4.89277789193,0.753243576181,-0.338654908182,1.48467630567,2.72772161311,1.17605529283,2.00582815637,-148.686097449
do_nothing,-1.8368742617,-3.35498372512,-0.504064017431,-0.246967355483,-2.22481943732,-2.61844274622,-1.53643534908,-0.714480746565,0.271706287874,-1.34329138929,-2.43798839871,-4.30704422054,-3.7308812584,27.9514194436
do_nothing,0.792073275313,0.395659348291,-0.636218389654,-0.508370049993,-0.554017711959,-0.045095865664,0.397996526363,-0.284943642439,-0.178385138598,-0.0484895443236,-0.136148381704,2.75846006183,1.49752021559,156.538842886
do_nothing,1.5312998212,3.10987880946,1.06622849005,0.919227511443,1.80314266418,2.30812629127,0.673042407288,1.29528089676,0.250956316164,1.58046280456,2.67765142647,3.11169789544,2.84910591062,-49.8498336108
do_nothing,-2.31890460514,-2.20657866017,-0.0242273222972,-0.0495740645695,-1.77698278388,-3.42155191104,-5.40521588943,-1.33638151548,-0.26587776922,-1.82058804907,-2.41496645861,-5.25882319358,-3.99212622424,-151.636944329
do_nothing,0.739477555275,-0.560109788861,-0.620786793087,-0.754121125877,1.61707526523,2.1313505425,5.96595369161,0.42788343668,0.0775265337897,0.740001192451,0.0131745947556,1.35248388127,0.997582938436,91.342018835
do_nothing,0.491684757051,0.0501395806045,-0.0125318785536,0.104806280157,-0.904550652622,0.234280498837,1.74036101558,0.297235330041,-0.0187272201179,-0.187813479227,0.103687476052,0.842665694875,0.695331789368,81.3132891623
do_nothing,0.316775828795,2.19362935705,0.48727261892,0.87099237851,-0.133540136316,-0.200816070503,-5.27033124348,0.0753136804576,0.213380827257,1.03490307452,2.73450174204,1.99657769196,1.53696082415,-40.2526555993
do_nothing,-0.667218500299,-0.900574529928,-0.099168083445,-0.428076026922,0.579016606204,-1.11836318951,-1.58823793289,-0.546837191159,-0.216621192285,-0.907343895126,-2.02359599968,-1.85472583505,-2.07022157111,-101.615387183
do_nothing,-1.26497121884,-3.10584461298,-0.087334884153,-0.659333944711,-1.0588665579,-0.941358004137,4.1360435165,-0.483747116087,-0.113484562779,-1.91681650066,-4.42551653204,-4.74946573164,-2.88241394455,72.0619421504
do_nothing,2.34702946574,3.67366083155,-0.174642969671,0.478411549384,1.95691728164,4.71667971737,4.96636537625,1.89590410916,0.242126893657,3.90109595066,6.8271361115,7.33831048631,6.34105468591,36.0140086588
do_nothing,-0.0178117544479,0.354718539382,-0.0783129229778,0.545276612797,-1.46004759351,-3.43718020219,-8.9038592714,-0.997864180231,0.0388339364259,-1.07093011684,0.793277276485,0.371397151703,-1.48706361702,-24.1854384354
do_nothing,-2.08622956139,-2.91418380545,0.562478498121,-0.483952227195,-0.751070916446,-2.00436516392,-1.44149307694,-1.42688991005,-0.171245637524,-3.10757851289,-6.85884142014,-6.74071609576,-4.99266649074,-12.6595412385
do_nothing,0.318182533253,0.654177380421,-0.0972181559014,-0.526657712629,1.71479466438,3.61771931948,8.98187458099,1.71781899019,-0.133574672276,2.34049248748,1.01923778891,1.617704047,3.21610265995,-32.2949716615
do_nothing,1.71398189842,1.67181713677,-0.685458323171,0.652746941875,-0.594604861438,-0.785077218005,-3.18504075224,0.241662353713,0.36930253091,1.3948505056,5.41773810604,4.63095685065,2.37706556049,26.1916796715
do_nothing,0.411662441027,0.356666584899,0.223096865417,0.179003712606,0.464866578215,0.489286011598,-1.81234776076,-0.788944501156,-0.181715532302,-1.04942381721,0.633323037058,0.343228731771,-1.04863981144,53.0574839886
do_nothing,-3.03212923363,-3.02012874975,0.835992158043,-0.299992144992,-1.71278214144,-2.71497597011,-1.41721485241,-0.536094519909,-0.0400721474122,-2.37771944739,-7.97540975688,-7.36928266644,-4.28180410718,-13.919584109
do_nothing,0.654605060768,0.967101579775,-0.674026087198,-0.473167474864,0.576008699094,0.667772854931,0.196743626739,0.309163003119,-0.0927244787397,1.5292433703,1.14343975946,2.14040479149,2.50913912707,-92.0195665648
do_nothing,3.56806456143,3.26517154741,-0.269429557956,0.640517409411,2.97591836404,4.49775529853,7.09248155684,1.69248504705,0.363402312547,3.14391643552,9.09807368409,7.94887801403,4.68458962457,4.72781842048
do_nothing,-3.08316352171,-3.50516983747,0.232838076251,0.0323635200034,-3.81502098574,-4.71490264556,-5.00176341094,-1.87162852069,-0.399736150017,-3.83111918491,-4.9903984245,-6.87931502307,-5.84553516447,157.180581957
do_nothing,-0.642881446639,0.262639170442,0.508603054067,-0.181411605845,0.726602347553,0.182746898542,-4.84280678162,-0.0382405709749,0.223788187382,-0.125503948123,-4.81376003884,-1.61298849194,0.419134519755,-48.9242572264
do_nothing,1.4942041695,1.08048632652,-0.484535534272,-0.495256883299,1.33525601783,1.52494971835,3.77830926587,0.534340399508,-0.149031811208,1.57357761947,2.60882475239,2.92684368756,1.93983077151,-170.417626869
do_nothing,0.514523236668,0.150980498785,0.0281480005099,0.785160694581,-0.243634573394,0.217341270449,5.75003055869,0.666354472307,0.352929408931,0.671150222481,4.76446739132,1.60351444357,0.253557705867,74.5788156781
do_nothing,-0.927243691423,-0.229922492567,-0.324396994587,-0.295676035457,-0.411072108542,0.0836043041048,-3.63141967458,-0.508828438652,-0.611462395297,-0.803402131135,-1.59084198781,-0.700221814642,-0.183980849608,167.886925394
do_nothing,-0.456430957196,-1.06333749078,0.83205597355,0.0203871440465,-0.89363973531,-2.03267152719,-7.34575044337,-0.847887730751,0.541990493154,-1.67655141823,-5.47744854355,-3.80939502034,-2.27795272766,-77.3505400792
do_nothing,0.668607425866,0.75224859015,-0.501308459905,-0.401148901137,1.19798822478,1.40606274524,6.63913487169,0.512530775706,-0.226607377231,1.60879107843,2.65099211162,2.56119163361,1.67658703992,-180.151180489
do_nothing,0.278716830933,0.836262164488,0.0203391043688,0.696414384024,0.371870633686,0.382073202468,3.7580186615,1.06614327619,0.218320496135,1.06155932772,3.52249476581,2.09153965645,0.999730179744,99.264721516
do_nothing,-0.794861514395,-1.17871531207,-0.357011541835,-0.477083950667,-1.34577889219,-0.523695595052,-5.60929893058,-1.25770959519,-0.623669066822,-2.01886142676,-1.9589816738,-2.49528504208,-1.51183188851,162.11691673
do_nothing,1.37248472128,1.04989897149,0.796516317219,0.248594281771,1.51333066175,1.84410408397,1.0842941757,0.711633907585,0.804753507643,1.52451392175,-0.369446748706,1.31713049067,1.73514055143,-100.764792512
do_nothing,-2.22365340138,-2.22392239434,-0.516695860333,-0.393796722706,-2.54363111405,-5.34048863436,-3.56889034969,-1.37770314846,-0.468689062763,-2.14508590649,-3.89061377997,-3.49518431217,-3.83306555017,-134.157616738
do_nothing,1.62744931588,2.59129835525,0.212525318359,0.621720669688,2.87121100584,4.73589284262,6.3545296267,1.70957066527,0.232978270227,1.95726983552,5.07593280136,4.07658265474,3.34607007201,70.4552481995
do_nothing,0.384796494047,-0.00771095772614,-0.506223850023,-0.623051117851,-0.142248159474,1.94296158966,2.10221214894,0.190696311691,-0.503205387201,0.745126308106,2.36276257574,1.03038458617,1.51079514541,140.351314531
do_nothing,-1.2763674973,-2.4501185331,0.7345615666,0.518334008444,-2.88869306103,-5.96674064536,-9.81909627865,-1.85197690401,0.752900080782,-2.12912116481,-5.97387192534,-4.74361828315,-3.95550001665,-73.1510694212
do_nothing,0.334971953965,1.27141184929,-0.485306493807,-0.543135740762,2.02686294436,2.04529975976,2.72286268001,0.467304569538,-0.590240616283,0.0365405276274,-0.386871269806,1.72350150385,0.782706283481,-108.374742252
do_nothing,0.634285470892,1.19266158519,0.374699193115,0.684716049149,0.940016825051,2.55107000844,6.61148980366,1.78142100055,0.463025206427,1.23862075643,4.17781287822,1.62007436894,1.4908624841,33.4498959402
do_nothing,-0.82855752114,-1.08593906424,-0.650936717008,-0.712099642159,-1.43197432792,-1.25534233413,-2.72657032261,-1.53484386676,-0.631076976203,0.338148615218,0.687589175351,-0.0776594797224,0.428000791465,117.373988298
do_nothing,0.84460280287,-0.138247994866,0.821212012337,0.520066460019,0.184253154172,-1.08131286753,-3.75049554292,-0.0139149162596,0.628629454649,-0.328921430576,-2.77647787922,-0.95531716846,-0.708895695332,-31.191797168
do_nothing,-0.883475764681,-0.970184542358,-0.744808520851,-0.367346129067,-1.10148896574,-1.32241885371,-1.04456486435,-0.18470750086,-0.378844674207,-2.63955054631,-2.86612064715,-2.69085053661,-2.97670344209,-92.7724613641
do_nothing,1.15859164393,3.11603996207,0.613941874225,0.497545239685,3.29155345136,4.68111763742,7.30022896961,1.64852981094,0.512112133046,3.42550327773,5.61258243754,5.54244465901,4.52569726721,-0.921360768911
do_nothing,-1.76664424586,-2.56736788464,-0.396078375711,-0.655111139563,-2.52627828579,-3.32835106892,-2.92377533302,-1.79684323936,-0.985083032734,-0.554271292034,-1.19629768457,-2.87550562451,-1.52441899732,96.4982003603
do_nothing,1.39199092425,-0.155645668561,0.343556034883,0.54598510033,-0.674921078395,-0.537802590191,-2.95625445124,0.467098832426,0.886208560395,-0.800146417256,-1.44420896694,-1.29123100464,-0.679005249096,6.10758934613
do_nothing,0.50067223926,1.31374401082,-0.833730827152,-0.503060901164,1.5701556156,1.65236605485,0.473457579395,0.453853634655,-0.212758821738,-0.824463852979,-0.596516419442,2.07157435909,0.00371120152241,-79.1644487423
do_nothing,-1.3882835012,-0.263902644735,1.17901308797,0.829999167276,0.469486104607,-0.325826843665,1.40997255407,-0.333256000612,0.152014982861,0.65270194777,0.176360502868,-0.955336986653,-0.511962487358,-25.2985000582
do_nothing,-0.208065172042,-0.335330769033,-0.525832019375,-0.961067996423,-1.05562832129,0.379683672967,4.14238480742,-0.0222787914856,-0.916817148988,1.95737228756,3.04140828217,0.900630705068,2.50833876208,73.7899245525
do_nothing,1.38213003855,-0.167078476052,-0.122291995938,0.447613936893,-1.05897295772,-1.89275004877,-5.62295337716,0.377609833634,1.1552589221,-1.58631369557,-1.69116944673,-0.899800610767,-1.41421189434,33.6879346228
do_nothing,-0.228669643062,-0.131357399326,-0.57780373791,-0.0975336551827,1.61986849152,1.20716702939,-3.52909084087,-1.01917037147,-0.351485443825,-2.31654554005,-3.34882556674,-0.703083613364,-2.30987670781,-64.9832590707
do_nothing,-0.166050592902,1.38112713515,1.42785312158,0.653735995296,1.51275744115,2.65063162491,9.35876974312,1.50201137906,-0.130707471682,3.49693210368,3.88343463466,2.38409912615,3.13224690906,-36.6290887553
do_nothing,-1.99976182896,-1.91362511726,-0.654230227787,-1.20347577229,-4.42018118228,-5.59451106603,-2.67743194733,-1.2752230352,-0.553714592185,-0.553507438323,-0.15944777779,-2.52181395739,-1.02365332351,47.9312262402
do_nothing,3.01210086971,1.78548210941,-0.437593039894,0.675435940465,3.35440336636,3.87932003244,-3.59266981544,0.808373279432,1.20709973196,-0.404651373929,-0.142873556566,2.42560613614,1.28507958415,49.01956927
do_nothing,-0.655919765919,-1.83981079692,-0.297789842312,0.0778425283454,-0.0765123159119,0.471677016889,-0.922971240665,-0.66289928508,-0.723220315251,-2.28342495173,-3.05043817391,-2.7919727912,-3.49379937761,-46.6938904019
do_nothing,-1.2937057668,0.884535304027,1.56500761098,0.273071842702,-1.5892600818,-2.29317674513,5.21796710666,0.443352456293,-0.00852261508333,2.44482485093,2.57414274658,1.15665469465,1.83211851026,-38.8396233329
do_nothing,0.257933647111,1.55737117353,-0.945210057513,-1.07401150797,0.964257257136,0.611987015598,0.867063987786,0.13808186028,-0.234619473703,1.73448187247,2.0796768842,2.94142127433,3.05395739063,21.4908750125
do_nothing,0.661017724291,-2.48113394131,-0.408252874117,0.909118577947,-0.0779091056076,0.308739796564,-7.49417189852,-0.440220799638,0.915908720796,-3.51119426231,-4.01025023644,-4.72535638322,-4.07458739675,53.5638234516
do_nothing,0.493170146163,0.19649578961,-0.033795036176,-0.208121101114,0.191169527019,1.61416390641,3.78906472655,0.0840837371139,-0.838813401533,-0.0543587928262,1.09289757617,1.31034565748,0.297511999924,-26.0065070111
do_nothing,-0.690953106373,1.9372664832,1.34493348809,0.27954111785,-0.400846723454,-2.32122993775,3.48227404373,0.484766327256,0.224938426034,2.75087812354,1.83161792076,2.71816596371,1.97780865955,-35.0594674293
do_nothing,-1.46036262005,-1.29478818766,-1.06189852497,-0.793074112367,-0.7116594432,-1.38194520354,-4.40172380675,-1.06573553391,-0.147879851117,-0.998673165036,-2.17559692771,-2.70311187347,-1.17171417396,-2.03632036253
do_nothing,2.59310824745,0.542662287974,-0.16609218406,0.611172195587,2.57856648764,5.2937057126,2.15559724953,1.63179861387,0.614620078241,-0.135425455422,2.0911974445,1.39566670066,1.78226867431,49.7251357073
do_nothing,-1.08409300841,-1.78956442147,0.140115195524,-0.0997912645505,-2.85785917877,-3.99370033399,-2.70507408287,-1.40926189512,-0.703840449013,-2.2226519494,-2.40848103825,-2.48815988647,-3.72907423121,-6.52514970396
do_nothing,-0.182091093045,2.16883674077,0.738839839346,0.28212713223,0.929083144624,-0.195369535541,2.81921221476,0.119071109639,0.273604897327,2.95199041641,1.42972130857,3.02069934891,2.21954697194,-27.0825960102
do_nothing,-0.35106080588,0.0790269854013,-0.714010046405,-0.733837989055,0.776540857901,1.35954894387,1.11158088325,0.698011857849,-0.130632216665,0.549923904767,0.573175194799,0.169439266294,1.7355921133,-19.9556142828
do_nothing,0.643907831249,-1.58867729246,0.0851460810683,0.5138538286,-0.588287988423,0.15355949559,-4.21498010475,0.004167135453,0.50340223183,-2.72309480849,-1.28677390453,-3.01457078923,-2.21296115542,39.8149555161
do_nothing,0.24273609414,0.325530456197,-0.149199652291,-0.0739541993026,0.130346710453,0.272437489068,1.9650982671,-0.634909664789,-0.645445322366,0.356782636978,0.54039608713,1.42625601025,-0.489883654392,8.94395505861
do_nothing,-0.809457329646,0.572314458584,0.599977605882,0.2379252885,-0.923515555433,-2.48449012825,1.34547014855,-0.190835990298,0.238556243685,1.44210228866,-0.392426915606,0.686710207593,0.543966987548,-16.2305465215
do_nothing,0.547489417948,0.743999061005,-0.511636074994,-0.53009263123,1.47387964732,2.3661807,-0.425787136679,0.825662997364,0.016413597901,0.62008123975,1.16765203353,1.00757389058,2.21892759756,-32.8302492726
do_nothing,-0.0290232970909,-1.17307436978,0.167156876443,0.293485820958,-0.1106937312,0.551377937615,-1.77022020708,0.385856570854,0.290333188268,-1.75212737786,-0.687429644148,-2.43088079285,-2.08468254293,33.9058449478
do_nothing,-1.0973259092,-1.14721128915,-0.142391618097,-0.0415571929948,-2.06932163221,-3.09855482729,-0.373332877201,-1.79495154522,-0.520982252818,-1.35987674792,-1.87995547546,-1.35876648062,-2.06899717709,0.723653370675
do_nothing,2.36633196461,3.16009863904,0.222483009387,0.208136996911,2.96931385955,3.7211674551,5.02565427543,1.33925376383,0.210199358715,3.94242771878,3.78267354,6.07376425673,4.9871979515,20.4922906744
do_nothing,-1.62948364157,-2.20728402753,-0.218226455454,-0.216211054847,-1.92431985711,-2.5898934023,-5.37217965037,-0.0733714689214,0.0681510050459,-1.8694384888,-2.24804612691,-4.67513270792,-3.43151176532,-48.5800438532
do_nothing,-0.849131916604,-0.179268254814,0.278550277151,-0.0647827212841,-0.276732035248,-0.139685776594,0.175313424692,-0.2069666092,0.157906770983,-1.28122155188,-0.978933952497,-1.11776906974,-0.358365805394,-7.51689270279
do_nothing,1.63515419532,1.58785027079,-0.169933512535,-0.101746973329,1.86553338459,2.53421132676,4.43457122947,0.0677335036049,-0.353048356712,1.33609249385,1.86322852274,4.10155323846,2.90124048637,68.7238489761
do_nothing,-0.0333460972057,-1.60397030436,-0.222444273331,0.533563954316,-1.36678686828,-1.97114482212,-3.85539355146,-0.487408743572,0.0759691209394,-0.230476429264,-0.469113849946,-2.46272348301,-2.71632873551,-28.9738397718
do_nothing,-0.595004542502,0.763292841135,0.202130679853,-0.234016309714,-0.0393967764689,0.126653708742,0.630052980126,0.717307569237,0.135143841492,0.745385779166,0.52453732872,0.334951247999,0.71701549225,-31.6944618931
do_nothing,-0.703494051417,0.128967396512,0.417357215745,-0.390500651607,-0.246080313952,-0.836901569781,0.405018320013,-0.24159262647,0.115204497655,-1.27103358482,-2.20675385606,-0.327248156719,0.432685479677,0.198746744309
do_nothing,0.954108632508,-0.175169953209,-0.520451515402,0.0897660972572,1.50007969369,2.39907786467,0.763279083595,-0.124223656182,-0.242201608914,0.023300189526,1.42821075511,0.919623359266,0.409334257966,63.0290331069
do_nothing,0.572302766673,-0.0710265600333,-0.268294280131,0.567210714278,-0.323883598532,0.048375760148,0.116920383078,0.376041433875,-0.112442600506,1.33448921733,2.24752835607,0.158958013125,-0.496789732627,-47.6294531955
do_nothing,-1.26963612982,-0.782083993188,0.585674877331,-0.115007678854,-2.78056338993,-4.56382926929,-4.16502378624,-1.18677407784,0.283740106827,-1.33408291902,-3.82510196894,-2.74349016163,-2.11258491041,-28.6083930493
do_nothing,0.641982805452,1.84071477799,0.117329228168,-0.753125903145,3.16212524632,4.34914142237,5.78340003988,1.37241242489,0.0794853420608,0.909348778445,1.24580111265,3.87466523467,3.77030014888,75.7153885437
do_nothing,-0.442019632564,-0.971202889143,-0.395484836039,0.376100113228,0.0132949457087,0.356602461096,-0.544711771204,0.370935780441,-0.224543012414,-0.494206655912,1.28160251702,-1.2608328656,-0.993128178143,-44.9780373994
do_nothing,0.263356645858,-0.833457189875,-0.329672424677,0.525240829655,-2.04114499982,-2.55057871837,-5.65825992609,-1.85496391516,-0.231404473634,-0.445354800886,-0.76419560884,-2.37166518286,-2.36485033111,-31.4604099755
do_nothing,1.08875896509,1.00638188836,0.558591796314,-0.192209047889,0.929930249942,0.824316227905,4.01313522402,0.596566242935,0.480328237402,1.15747738526,-0.140576341937,2.38965764227,1.44700987258,43.3249307447
do_nothing,-2.06055708144,-0.673814659721,0.193626753524,-0.699359112855,-0.422090479175,-0.872463578922,1.5735187584,0.914989869057,-0.095358791033,-1.09276891959,-1.34224789035,-0.449787243299,0.203885512113,57.1626593945
do_nothing,1.21748026532,2.1718667171,-0.301654311962,0.458116849997,2.24943139777,3.80046992198,0.142792250092,0.656836839451,-0.105086877243,1.54310850569,3.36782446728,2.01739967635,2.62456722879,-109.305193396
do_nothing,-0.110187243052,-2.87151771007,-0.61344009117,0.251810612998,-2.47529270445,-3.53615672794,-6.1400299778,-2.48116258606,-0.333624348629,-2.08074998995,-2.6023597625,-4.67065233881,-5.1690304,-25.9912631588
do_nothing,-0.283021349287,-0.653105933607,0.752001194523,0.0794412953903,-0.948581282282,-1.72112852594,2.35862357291,0.258535903261,0.613295823339,-0.0532978429489,-0.985423665105,0.643166427263,0.150677831232,148.635346517
do_nothing,1.00332547089,4.34437341039,0.201245114584,-0.720950022615,3.51338088536,5.11900261371,8.55931761184,2.93692803709,-0.265534904871,3.42164913274,3.84016384833,6.87376784812,6.94526119507,-16.2820111244
do_nothing,-1.2582603013,-2.05417079498,-0.26961435328,0.377420774375,-1.48762510721,-2.17084108005,-8.01765427985,-1.46711339165,0.0270713927927,-2.48309127233,-2.70335103713,-5.76913661346,-4.86006690639,-160.013339646
do_nothing,-0.487472174163,-2.91599003869,-0.856809082857,0.095786374255,-1.60640989622,-1.91907334534,-4.30086626297,-2.23731736457,-0.34378944138,-2.06136205214,-1.02090930306,-3.0847479999,-3.50585233684,47.147513138
do_nothing,1.81383342252,2.5703121073,1.07164707474,0.40328824616,1.09698859588,1.24734862816,7.24360391638,1.86284394632,0.569271078106,2.75659423805,2.43760567698,5.20630751784,4.85849110173,155.233422257
do_nothing,-0.213698348273,1.55823129153,-0.0289725989212,-0.878134354535,0.831404453922,1.0978901441,2.70599143205,1.04371940541,-0.332739077668,0.991970849757,-0.45801431685,1.47681448593,1.45388905644,-53.7373151172
do_nothing,-0.927438641953,-1.22671774819,-0.146052147395,0.349453125125,0.479606572256,0.722326021251,-4.19062847039,-0.359235958141,0.195830770593,-1.12479244138,-0.166041119352,-2.60235971744,-2.67156149749,-163.832943859
do_nothing,-1.46056166772,-3.18382431714,-0.843239430796,0.123153173421,-3.32554067089,-4.42391537049,-7.17324026441,-2.6382153902,-0.42310853798,-3.37433160165,-2.49128995799,-4.8268827192,-3.77234726641,67.4136179618
do_nothing,3.10389639791,3.64096595289,0.86846912648,0.367269458789,2.67216444006,3.65122281445,9.08344439738,2.00460965494,0.525010497212,3.82273779397,3.3911976524,6.39247548622,5.89617178602,160.306314938
do_nothing,-0.477104444391,0.353305897892,0.193929548352,-0.875750447586,0.466982238884,0.51190051412,3.75399264429,1.12369671842,-0.357220604548,1.12096072998,-0.109988676865,1.30960269807,0.111013030067,-68.5088771747
do_nothing,-1.73488269581,-1.71036368815,-0.0612836200887,0.649024845966,-1.19701943004,-2.04083661475,-8.6071636532,-1.1207387722,0.354202159355,-2.59086692513,-2.0870786945,-4.33141127471,-3.62003715224,-158.44416868
do_nothing,0.130468683575,-0.0977363219827,-1.24948652253,-0.372683270289,0.201603303146,1.2386523776,-0.920574924423,-0.966106487943,-0.555645238311,-0.760429088843,0.646892119404,-0.24548979485,0.683321818319,60.7919052494
do_nothing,0.639365015591,-0.528278331013,1.15448906508,0.457495343293,-1.3225516412,-2.21737960211,3.94636001085,0.366181114885,0.591089802843,0.70076486784,-0.445081182012,-0.0906708085709,0.0193664406491,168.945945824
