label,COUNTER,INTERPOLATED,AF3,F7,F3,FC5,T7,P7,O1,O2,P8,T8,FC6,F4,F8,AF4,RAW_CQ,GYROX,GYROY,MARKER,SYNC,TIME_STAMP_s,TIME_STAMP_ms,CQ_AF3,CQ_F7,CQ_F3,CQ_FC5,CQ_T7,CQ_P7,CQ_O1,CQ_O2,CQ_P8,CQ_T8,CQ_FC6,CQ_F4,CQ_F8,CQ_AF4,CQ_CMS,CQ_DRL
off_to_on,-0.133162574152,0.537596261341,0.740198130431,0.844258052144,2.00936167125,3.64265509276,-0.660631607484,-0.613248295255,0.654263315381,0.939755612599,0.964550794347,1.29279346141,0.787707926575,-71.2440591591
off_to_on,1.9161990689,0.0826587864347,1.56229796629,-0.0602141427806,0.0899864236356,7.589366363,2.01384166811,-0.266351401627,-0.679626609144,0.453478650543,-0.541056010074,-2.81478006875,-1.01255062548,64.5959917353
off_to_on,1.23160222666,0.930540612712,0.254443307414,0.267868267168,-0.33776070624,-3.4469464699,1.36777529587,1.93080566452,0.714866152297,0.515511221338,0.380792057155,0.684141028417,0.80815227195,-23.0048242662
off_to_on,-3.51587252616,-1.73124928468,-2.93452567855,-1.32494643612,-1.39934628751,-8.28081972096,-3.5954707837,-1.58212217671,-0.750572104658,-1.82769445439,-0.892353877537,0.992409071563,-0.512337355933,-7.75872178312
off_to_on,1.501794513,1.41861924905,2.26169452139,1.36151968258,1.94219813929,6.62178385857,1.26441436628,0.572852582036,0.762090753981,1.51584285084,1.60208355455,1.45615877188,1.18651258017,0.437731409848
off_to_on,1.15290349603,-0.210992004445,0.699685244402,-0.278124387056,-0.606956571017,4.45041539109,1.82252546993,-0.141580889806,-0.760587913102,-0.0910247939113,-0.924546928902,-2.53568633212,-1.1639042492,26.9255017439
off_to_on,-0.965455530237,-0.837232729509,-1.87957257239,0.156577806812,-0.244816958909,-5.73737059285,-1.15583573548,-0.46181423354,0.787216062767,-0.740645512784,-0.60856960412,-1.25763821867,-0.577646178453,-8.69323100419
off_to_on,-0.768837183981,0.219852230722,-0.0477408020512,-1.35270464743,-0.342229106616,-2.58299970481,-1.59636092105,0.500208290892,-0.84010906194,0.0365732918456,0.251001793168,2.55780566698,0.903851867546,-56.3738348752
off_to_on,1.65230081592,1.72662558172,2.4522617622,1.64981363575,1.07023843966,5.36450284716,2.18208197863,1.38657663663,0.858797530294,1.56975069211,1.88849787046,2.67039873457,1.67538130338,55.5361027134
off_to_on,-1.50246663216,-2.45591706945,-2.52784432522,-0.405099177148,-1.25342643249,-0.814547868376,-0.920599147335,-3.06548067532,-0.825729758556,-2.33965117143,-2.32165397692,-5.32076759906,-2.94602227087,36.9634808717
off_to_on,1.27539765433,1.11287956534,0.761789574408,-0.124380754898,1.29109723351,-0.820260126042,0.944971775406,1.72157242919,0.820061946828,1.36721099324,0.411238243214,-0.0801545642161,0.625955299969,-62.0387476133
off_to_on,-1.3494072041,-0.138450241409,0.103988848278,-1.04280487481,-1.15911305581,-1.72109951387,-1.9588897192,0.440339405723,-0.88674486704,-0.136894772891,0.324678113803,3.68830933357,0.744823446224,-35.1463285038
off_to_on,1.27710930663,1.05491481831,0.978984054717,1.79759534589,0.76699767935,1.76416122643,1.49597394206,0.401953085415,0.934792934222,0.672383116147,1.31445470683,1.58342416973,1.59093162094,61.0272467514
off_to_on,-0.61575519842,-1.90051836128,-2.02556933907,-0.867201422955,-0.672330693078,0.387392364102,-0.108397191433,-2.48124418961,-0.89294819444,-2.08965929226,-2.1965836557,-6.06417127908,-3.03969215025,57.7468770236
off_to_on,-0.00686728359313,0.888941793309,1.13335804568,0.0268192334897,0.935359048637,0.144040974718,0.000490314461986,1.49426411636,0.856389162623,1.52510061213,0.809219817522,1.12531864083,0.534416327676,-96.0762723051
off_to_on,-0.415486412508,0.536499900007,0.608443761731,-0.712254443208,-0.808552432346,-1.94538227561,-0.818574609834,1.17674701879,-0.910673294144,0.843602714617,0.308610846799,4.63014410868,1.49155484535,-28.7356413224
off_to_on,1.28445021955,-0.295240185808,-0.665179125286,1.61920069998,0.415431440376,1.06885821678,1.02346257775,-0.74284835052,0.953594520163,-1.24954827825,0.496356916656,-1.32021660771,0.337425670125,61.7321945093
off_to_on,-1.11956338579,-1.19606757009,-1.24233443266,-1.30925935732,-0.725290854735,0.635035884959,-0.7787125233,-2.16806226912,-0.894185006595,-1.42521627409,-1.49378155171,-4.60829927336,-2.3160506274,80.5658328118
off_to_on,0.41734387642,2.09310060019,2.61986788931,0.498691234675,1.41549592471,0.205297820139,0.706609303718,2.68634928534,0.848874070346,3.18167648562,1.24956750255,3.27456671963,1.35273451877,-114.402215105
off_to_on,-0.926599506786,-1.67725452352,-1.77215607193,-0.38285166388,-1.18010417853,-2.08445115708,-0.826866971827,-0.536724378311,-0.911964585566,-1.61446996568,-0.798423033318,1.10470258343,-0.377511330299,-36.9006615207
off_to_on,2.11622299407,0.806824409862,0.349864271308,0.826691672224,0.392992997863,2.42263229733,1.58581271747,0.00271024698832,0.946587493178,0.0554377362838,1.07020360743,-0.0213595575014,1.55158896347,61.3321146946
off_to_on,-1.86483257913,-0.564492681436,-0.675289202226,-1.12913049711,-0.723666842088,-1.70453813306,-2.51439210429,-1.74508742731,-0.849803498403,-1.06716041027,-1.23109477086,-3.24033667269,-2.02953777466,105.568869284
off_to_on,0.456383012918,0.913270112103,1.80124551458,1.03806815097,1.91015180695,0.70131462969,1.41048407592,2.09871029742,0.777802886724,1.70905774773,0.618814028133,1.51949405289,0.328704740621,-125.093099816
off_to_on,-0.0734489236115,-0.909415975508,-1.20950227564,-0.70714316512,-1.83745318981,0.524480405936,1.2296259651,-0.241205249039,-0.849589558682,-0.0659323563496,-0.161619400379,1.77836283618,0.488122468075,-51.1292850864
off_to_on,0.719653295925,0.336652292087,-0.438078406829,0.572968154581,0.183415775768,-0.446631480373,-1.13623108558,-0.78420322052,0.900911228304,-0.416417603921,0.719807642296,0.000480883023776,0.937118655753,60.7567776973
off_to_on,-0.577540209924,-0.0735248964328,0.348670970096,-0.874768286438,0.815296345118,-1.36366879182,-1.98708483759,-0.0535348464358,-0.796927068047,-1.6187202271,-1.35775039273,-3.14880015197,-1.63362857293,124.862439681
off_to_on,-0.122727422431,0.416560098049,1.15828360851,1.01354856218,0.196529494385,1.82076216172,2.4809785954,0.875125052924,0.696645337671,1.76460052495,0.771625098319,0.935896852504,0.264659544249,-122.808022097
off_to_on,-0.454458158527,-0.726286710197,-1.35237155185,-0.52273395991,-1.7804011463,0.0916787256285,0.732183030173,-1.12905425562,-0.74290083105,0.972310853337,0.190599851862,2.5720132169,0.44039606955,-73.5589476242
off_to_on,1.92698938519,1.02686701983,0.475945442654,0.291204861449,1.89300230318,-0.379025495471,-1.09979725363,1.55795919283,0.792352415536,-0.882623844891,0.413105694976,0.125113370553,0.971049550783,64.175286564
off_to_on,-2.08784380586,-1.69241400311,-0.954161593875,-0.977137691604,-0.530070703212,-2.1615078189,-2.90708493062,-1.4891534171,-0.708385484517,-3.14691385668,-1.98690727932,-4.97653136792,-2.21324515107,134.693326934
off_to_on,0.803719305138,1.80139747681,2.07118848672,1.2703062176,-0.412816638816,2.768062696,3.83023690691,0.513332912366,0.617717191407,4.07620937478,1.83079718767,3.15768156859,1.57457306847,-110.122490662
off_to_on,-0.0809033402538,-0.612398871076,-1.28194484677,-0.234314153043,-0.398907025271,-0.0741358842047,0.57113601937,-0.264510991067,-0.639435125097,0.208354720942,0.0618978996312,2.39312047012,-0.398085434063,-98.3192945411
off_to_on,0.462625728822,-0.36138321788,-0.434920928698,-0.353481458308,1.72747890797,-0.92263637624,-2.46150610744,1.05967973958,0.658615984696,-2.44855863255,-0.563727461608,-2.18942012301,0.158309119169,68.9759965772
off_to_on,-0.542888778212,-0.119788551862,0.402701995506,-0.90048626394,-1.25502701598,-0.999552476652,-1.14428218992,-0.674225768055,-0.578047946351,-0.384044413553,-0.935360597817,-2.41076788605,-0.33924266284,136.061662019
off_to_on,-0.0335131817721,0.519561621651,0.528037864148,1.90064719985,-0.620361778873,1.23507972967,2.7971426704,-0.875733183173,0.505112428144,2.04964996759,1.29634138727,2.47040141878,0.116268394996,-91.0233057266
off_to_on,0.0630912192378,0.183840880598,-0.233185228037,-0.672907894854,0.87564864689,0.501692474281,0.647992009587,0.600166913845,-0.515239510814,0.120150223165,0.229548466512,1.52595615909,0.120723358445,-120.442761006
off_to_on,0.636442171142,-0.0806777252535,-0.0692079600889,-0.718475934807,1.07550187279,-0.0857037020972,-2.17750619983,1.41519664596,0.507276456652,-0.814335936229,-0.417358105001,-1.57735073739,0.278165969948,72.5150960119
off_to_on,-0.827874195873,-1.42032575986,-1.10848278017,-0.116751256983,-1.90623020535,-1.26592106085,-1.35896401449,-1.59898240736,-0.42693130316,-1.47659870688,-1.34191292093,-2.07111004494,-0.981562282608,131.368348816
off_to_on,0.318609692987,1.55403565355,1.64319456665,1.40308444064,0.130101586523,-0.0632949126936,3.41365030271,-0.0703422290697,0.369831595375,1.74959048322,1.48767707198,2.38533755218,1.08925654139,-69.2641156709
off_to_on,-0.429780347997,0.197215555097,-0.183332920441,-0.691260658843,0.936316912328,0.649017507424,-0.672103298777,-0.152114707658,-0.370969970582,0.369100445701,0.486632438271,0.302639469165,-0.4955646786,-137.54486242
off_to_on,1.42125869622,-0.292956401827,-0.378695303316,-0.509297945769,0.856768579497,2.98412804545,-1.32353972209,2.04413099882,0.340756423631,-0.0023875681516,-0.626608001644,-0.150756136321,0.16236829278,74.1178866395
off_to_on,-1.52199755156,-1.73855656916,-1.24294557633,-0.059770444032,-2.22753932448,-4.21201270768,-0.347687605113,-1.36121914881,-0.261882958697,-1.9888649987,-1.48263174669,-1.70763323876,-0.521860793437,122.984287731
off_to_on,-0.299931019776,1.43203299133,1.32689158676,1.01966787774,0.291965980174,-2.22873564726,1.07823420518,-1.69007614611,0.217900273931,0.480480799091,1.39845193473,0.224728491352,0.520057869692,-48.5512419868
off_to_on,2.07090876125,1.87864304072,1.47409753044,-0.396146678213,1.97345557977,7.0543416063,1.04801702259,2.11137731486,-0.211364799442,2.54543427494,1.34551053057,2.26411440561,0.430679136493,-148.240921716
off_to_on,-1.20153126724,-2.58473365037,-2.36935689181,-0.460684355225,-0.915328218887,-0.803609187435,-1.46725746017,0.779330163093,0.165820511209,-1.16276150051,-1.76246089439,-0.629371032195,-0.882929230867,73.8237931619
off_to_on,-1.38240984642,-1.04087442386,-0.750411143895,-0.11735613,-1.40437987344,-7.6001979424,-1.10081257473,-1.96526674127,-0.0908839318769,-2.32255177727,-1.08485356126,-2.14632875203,-0.142663711784,112.982982868
off_to_on,2.01319517548,2.96136730893,2.56052805183,0.74632760309,1.12943910889,4.21072302643,1.68499437767,-0.241491867154,0.0551770547699,1.35922600023,2.07877637325,0.621475777526,0.932717381021,-31.5947938521
off_to_on,0.191744136002,-0.0621773420215,0.0554358968976,-0.0273362661939,0.785913006528,5.79582620142,0.950624458095,1.47569580197,-0.0401370221814,1.96793354705,0.354170330119,2.11454660354,-0.130210866357,-152.499105075
off_to_on,-1.58379213602,-2.2009263419,-1.94993035516,-0.648933543131,-0.966875677809,-6.03232727251,-1.42812389256,0.545225763111,-0.0133416257169,-0.927344967947,-1.5785543155,-0.345608637101,-0.460774900343,72.3331740039
off_to_on,-0.244926107185,-0.167661577222,-0.626620378119,0.140131209144,-0.450729009819,-3.78467992315,-1.76082188584,-2.14975641638,0.0797365476548,-2.71693253712,-0.319146434176,-3.04159086347,-0.611222901785,102.91637207
off_to_on,2.1366455325,2.58761814979,2.72726908255,0.255564430344,0.893524282447,7.46560954525,2.68505038188,0.469270269029,-0.110002191241,2.07327832644,1.45970837017,1.73171182747,1.2302217881,-19.9435343407
off_to_on,-0.388786218401,-0.414969708263,0.177190282621,0.2275412424,0.0455413350193,0.89229461061,1.10902100423,1.823366183,0.134099691012,1.99773020556,0.151309900531,2.59396397028,0.356461655143,-151.265361058
off_to_on,-2.66506745532,-2.92078115285,-3.58486022986,-0.369891614491,-0.788634867957,-7.70649944684,-3.58835099523,-1.51036058298,-0.190063654984,-2.95635428804,-1.53537632702,-3.35996455276,-1.89890346413,70.8131734093
off_to_on,2.15207159901,2.21648286738,1.83013342568,-0.099752767173,0.676682155134,2.5074833289,0.973090153673,-0.0581705569712,0.244926124872,0.264919380058,0.797441909788,-0.0396919798764,1.11804139648,91.888336239
off_to_on,1.00098404955,0.888558999858,1.94038058689,-0.0976004909952,-0.215070350726,5.43170087216,1.62586813874,0.057785929234,-0.271274156226,1.08501770474,0.156201755184,2.14397359085,0.321549552908,-6.41600194833
off_to_on,-1.41150564974,-1.38696109375,-1.40927736011,0.76532357164,-0.00984692384331,-2.99712023653,0.05313595031,0.983036329224,0.302958647062,0.149137879885,0.111592665289,-0.231078430086,-0.16553734106,-163.14500477
off_to_on,-1.42506898666,-0.852486625989,-2.04717111341,-0.468502096871,-0.380815078129,-5.23624523468,-1.84951699346,-0.707861131224,-0.356745418459,-0.89784653347,-0.568959529522,-2.29164910623,-0.674545229055,90.1912907494
off_to_on,2.11240390822,1.65273210976,2.11744665366,-0.207927312891,0.889993727138,5.10550565237,-0.190202123739,-0.795191911228,0.399051708211,0.117749812134,0.345370889447,1.36463596534,0.517612826755,81.5836755703
off_to_on,1.00248244084,0.307617294573,1.40282352241,-0.380844072672,-0.304973452377,3.40641707714,2.01541846071,1.19647590706,-0.422633132586,0.417368962863,0.0379065840078,1.71362342247,0.135360075652,-38.4936642841
off_to_on,-2.48193497488,-1.54404215442,-2.34007531183,1.3368975651,-0.868369237118,-6.31261109189,0.392211861435,0.388501469301,0.459045504046,0.136366802095,0.0814713938321,-1.92128789072,-0.107316971326,-104.844283048
off_to_on,-0.737531243325,-0.348581832584,-1.18480268461,-0.712727294904,0.274012128943,-1.11401589145,-2.97448504128,-2.05462374336,-0.506655734566,-0.913208238405,-0.733275975406,-1.60508081595,-0.503243811347,68.5725978509
off_to_on,3.66740783979,2.57949896251,3.51772577334,-0.447035960004,1.96399549803,7.00781569884,1.22446522125,1.71135373476,0.536748922366,1.03599275792,1.2252426749,3.34939709126,1.01006249372,47.6198506123
off_to_on,-1.83806287414,-1.72412107088,-1.20844800335,-0.149547991134,-2.33704989702,-2.82258360369,1.26921055316,-0.0305297144266,-0.558245028396,-0.604561754386,-0.78633481211,-0.431653405547,-1.11052293726,-4.50859623358
off_to_on,-1.08119213756,-0.400987113156,-1.21353868463,1.53935176439,-0.0340808163295,-3.54384039603,0.271890849852,-0.309372062316,0.595709101136,0.643889024834,0.0945545564545,-1.73363373857,0.945442396103,-94.5500027905
off_to_on,0.224969837227,-0.0122653828956,-0.420207508175,-1.16975905082,1.16663032419,2.02707581142,-2.86280702412,-1.34145182342,-0.633996609325,-1.51932408911,-0.60687506135,-1.06471551868,-0.902453189086,45.083848417
off_to_on,1.99349966335,1.78156197705,2.50544171382,-0.236951202646,0.873086261084,3.47552348056,1.61613103909,2.17151154496,0.653143694128,1.58190317448,1.58334481602,3.5430184209,0.875924067392,34.3143762179
off_to_on,-1.18489798997,-1.05162219082,-0.703919959837,-0.00836422973957,-2.33922745987,-3.20016679003,1.23951732961,-0.375924711086,-0.672781575735,0.204243833238,-0.888910570295,-0.52202064895,-0.206432266259,31.4535235752
off_to_on,-0.806230086729,-1.11075708546,-1.79884330884,1.5091409046,0.673411750417,-1.83664108162,-0.989597693656,-1.36766575499,0.707472454942,-1.40334119475,-0.63180735782,-2.95235028328,-0.58510063005,-94.877733077
off_to_on,0.204083268283,0.609040242537,0.403308613563,-1.55123129476,0.954808442595,2.59534638793,-1.08451854768,0.260490312234,-0.734284607835,-0.192566797979,0.104727306415,0.835796669231,-0.130057432822,-4.4014107113
off_to_on,1.40461929966,1.73331075028,2.28072629684,0.153583455163,0.195081639478,2.12380541276,1.28073862783,1.66047832314,0.744099654054,2.16035843398,1.77006892438,2.94686333322,1.79000064076,90.1712367646
off_to_on,-1.12426696996,-1.93338420933,-1.80736150123,0.0669037997107,-1.72804042043,-4.1863849727,-0.647660600055,-1.48164255154,-0.761537632545,-1.68824604912,-1.71843986147,-2.64912902839,-1.71895771117,-11.774662243
off_to_on,0.730866381947,0.664344342346,0.242702884358,1.2316389834,1.25521380547,0.612624353078,1.55231727404,0.822398075028,0.79002751242,0.74700607898,0.223142099441,0.734169957012,0.146885943533,-28.9064921599
off_to_on,-2.00075857341,-1.1329820704,-1.16347643623,-1.61183841836,-0.480564645881,1.70538014883,-2.06857190642,-1.82054200297,-0.804366860812,-1.48780443954,-0.388134986246,-0.833544221724,-0.338665353584,-96.8431714249
off_to_on,2.11096110448,1.93590455749,2.24319216954,0.434129414111,0.991138689807,1.18657292521,0.450507645072,2.08464571369,0.806456680715,1.55348062213,1.55678902655,0.75966539013,2.16602444646,135.450258807
off_to_on,0.182154873615,-0.434800049392,-0.623988842033,0.0409350153504,-1.35683894219,-3.4701069178,0.297196138323,0.16616565201,-0.820763600633,0.235714855192,-1.0186526064,0.326440025942,-1.87637651013,40.2062087729
off_to_on,-0.833872867188,-0.756499313883,-0.707468074607,1.11665952729,0.732824324652,0.756934272091,1.41816438653,-1.28762823624,0.840319540932,-0.308986391851,-0.00321082683943,0.886597047914,-0.408161904568,-118.013285927
off_to_on,-1.47330700231,-0.973434001727,-0.825596637779,-1.83791113323,-0.426813723295,1.86997363767,-1.65568330436,-0.935127277006,-0.842296553623,-2.0009239634,-0.866388332259,-2.90512972953,0.529005009052,-56.9222801368
off_to_on,1.94958696619,2.04323408392,1.79991238959,0.887466253388,0.726394569192,0.282158182574,-0.969794531773,2.21311476934,0.838069105049,1.85941858984,1.681559033,0.629628511751,1.48919097934,136.63806908
off_to_on,0.676428608083,0.140763486947,0.0393194541597,-0.0393554573372,-0.63946637278,-2.85106972597,1.21056533421,-0.115718407509,-0.847908140527,1.13417663087,-0.321755125935,2.8004595554,-1.49419912577,67.98022338
off_to_on,-0.89513160638,-1.06361343356,-0.760829656914,0.720677314957,0.614668146077,1.11231336808,2.63417971357,-0.619712527068,0.856682608708,-0.967072273078,-0.476381770589,-0.208057495371,-0.281458728045,-194.299505115
off_to_on,-2.61016096709,-1.99157039521,-1.82792326666,-1.49647204237,-1.39952818143,1.17000134821,-4.08397723681,-2.23752762071,-0.847306962636,-2.81030055283,-1.37727739381,-4.66468484229,-0.244353499168,17.5822246077
off_to_on,3.63609077279,3.70444083047,3.41189108926,0.93865080489,1.66727142867,0.649943572431,0.414094467078,3.16245364997,0.837854960512,3.43098147857,2.58885801321,3.06183749379,2.4755151268,115.582254428
off_to_on,-0.399043810531,-0.907110227623,-1.35634696823,-0.240568353189,-0.598579991709,-3.39134008828,1.61224066519,-0.00249032458551,-0.841758305734,-0.186348462507,-0.955433024261,1.51503459919,-2.29560397025,34.468414815
off_to_on,-0.912017413774,-1.00742445455,-0.539924263281,0.715472714577,0.169159994644,2.43091630022,1.52705510722,-0.912953884184,0.838882580426,-0.375712178297,-0.262924568677,-0.107782977946,0.318646941811,-154.371094085
off_to_on,-1.60667684273,-1.1000383404,-0.364616292348,-1.27899618652,-1.32584400637,0.218507920938,-3.392819808,-2.46981903672,-0.819783734748,-1.91432912176,-0.802097221215,-3.48178032232,-0.0998216064718,18.6170005074
off_to_on,2.08616195538,1.98925276395,1.21445374642,0.783648075841,1.61047364263,-0.798903523555,0.193687870017,2.87078340946,0.805850049226,0.95091168749,1.16808387795,0.679646957742,0.78422259516,88.5137019754
off_to_on,0.884673918922,0.751032826986,-0.190990098298,-0.346123430321,0.0334947248517,0.165601960032,2.07387089364,1.78770134527,-0.80251588378,1.95772957764,0.0245758579596,3.43588899059,0.039425115529,29.634284368
off_to_on,-1.2644056035,-1.37800905343,-0.205565133224,0.974612929575,-0.675491398055,0.106327393057,0.398313329044,-3.01369131191,0.788097285165,-0.336349273205,0.335193358198,0.0526560374704,-0.31904822379,-112.173177529
off_to_on,-2.09766805371,-2.08797825036,-1.1108821849,-1.40105764802,-1.08197559126,-1.30905596168,-2.36307018337,-2.13902542965,-0.761233132717,-3.36394102473,-1.96556787058,-5.06327198009,-1.73513098416,-2.10571299233
off_to_on,2.92629373513,3.2519017242,1.69016060869,0.61026458111,2.15089013523,3.03668086971,0.703544920822,4.82695209419,0.743244500253,2.13719189491,1.23738051993,2.00687714324,2.58451539516,71.8993506871
off_to_on,0.0350737104478,-0.0273166573274,-0.751443994041,0.0330926259058,-0.755816469076,-2.00549237058,-0.175117526157,-0.985071233901,-0.731793386465,1.12401574656,0.695318429395,2.86649156588,-0.236763001255,26.153339944
off_to_on,-0.722430057309,-1.12067368623,0.440945242207,0.593324452289,-0.264773711344,-1.13962577519,2.50955408819,-1.69220177013,0.706825199173,0.304133953522,0.349282363545,0.0656851037381,-0.933216063651,-68.3270683223
off_to_on,-2.05455994949,-1.88768118319,-1.23445530922,-1.22837940123,-0.934151160876,1.25661994852,-2.34066597971,-0.785749718908,-0.674231676596,-2.97270081706,-2.57485700689,-4.55847597884,-1.37516438474,-30.74891036
off_to_on,2.53403388189,2.87434046862,1.32723190667,0.754172793491,1.82996767795,2.17609716243,-1.18348092526,2.30795394139,0.652391546445,0.989670471438,1.31112380119,1.5106730188,2.58924748223,63.6320672577
off_to_on,0.407144992969,0.0788854096102,-0.425334870541,-0.229564890565,-0.693538607365,-3.32998536684,1.64009899745,-0.223811831806,-0.63254072024,1.35158535904,1.2760489545,2.75531324523,-0.384386828316,19.2125962045
off_to_on,-1.45807182089,-1.44691318483,-0.165796964992,0.58511997031,-0.297173264435,0.112788357472,1.82245326339,-0.482849193976,0.598733361035,0.734162751524,-0.262749772273,-0.0341509183706,-0.94956053155,-26.5367110509
off_to_on,-0.523242744029,-0.315450644825,0.24462554937,-0.902474328764,-0.309429760965,2.32305932354,-2.29353799729,-0.950180290557,-0.562338372323,-1.9167188132,-2.03080601041,-3.10901987803,-0.367718984068,-58.3490925434
off_to_on,1.18816575416,0.914176270616,-0.175240671152,0.507318089612,0.738732279858,-0.748925628863,-1.17006908546,0.218132125216,0.536761761951,-1.21625711503,0.859256474308,-0.346678122302,0.541508986665,59.8407140462
off_to_on,0.0376357965742,-0.0730288141149,-0.561771297933,-0.240678720911,-0.192465675338,-1.71622549471,1.58405997305,1.19657578814,-0.508906050658,1.78483893794,1.16971651712,3.05530323605,0.734191602948,11.3936511638
off_to_on,0.413419554892,1.10294483446,1.76571129768,0.52642326279,0.376347438153,2.30985105234,2.01989059951,1.09975532899,0.468465944587,2.75141135113,0.343546220916,1.39009177264,0.599434156328,3.38540006082
off_to_on,-2.12914536611,-2.33507417198,-1.80732388492,-0.599229149462,-1.33025963549,-1.76371206563,-2.90225303058,-3.62069124196,-0.429973562466,-4.01417022268,-2.37890677531,-5.00063123958,-3.18894782187,-71.708282832
off_to_on,1.48590927708,0.42890917783,0.366518273208,0.288904988875,0.950878995044,0.307292566742,0.0173839752236,1.07426450235,0.400834956016,-0.533486115811,0.801362600242,1.14668878113,1.62621670209,53.48657765
off_to_on,0.807664933842,1.52141211484,0.668233747589,-0.267438779135,0.393682155341,1.62768081415,0.886112211725,2.27903023838,-0.366036457574,2.25643471861,1.18534544429,2.90091655382,2.15163173961,2.27856649212
off_to_on,-1.0089372744,0.193746390044,-0.246359000389,0.445338656479,-0.146248395901,-0.798429882965,0.655025828021,-0.621830930968,0.321426603914,1.09343232952,0.0826544694965,-0.795188572574,-1.43836859854,24.0476076666
off_to_on,-0.629114900447,-1.79409040212,-0.422404436888,-0.299226619899,-1.17123737143,-2.67813813648,-0.110493866188,-1.85562729853,-0.282268646329,-1.57401185737,-1.33222596521,-1.81781564118,-2.20435441049,-71.6772735694
off_to_on,0.896038248484,-0.433298230205,0.22258929557,0.235342014245,0.646121948003,2.13608534147,-1.50164658921,-0.119473310097,0.24993409704,-1.71864790288,-0.291127718005,0.170710586067,1.63592112005,42.8060778886
off_to_on,0.403729864971,2.11347633889,0.316343211849,-0.562994672157,1.10924683739,3.531292868,0.0684729398452,2.04785016371,-0.209832826688,1.2055286616,1.16484331551,1.19059715793,1.96755867682,-5.9192957006
off_to_on,-0.870434131256,0.499152299506,-0.264987954629,0.386482912978,-0.759502620681,-4.23349952637,2.09421212136,0.624754242501,0.163546764589,2.47723577678,0.879235725291,0.595575604942,-1.45398519528,36.54692509
off_to_on,-0.174055263805,-2.69193980044,-0.425311161557,0.466257356042,-1.27910021202,-3.54089240029,-0.779793926941,-2.80605106597,-0.124890692771,-1.6930389805,-1.76253016163,-1.45028029722,-2.28553318532,-62.3498102451
off_to_on,1.39912424688,0.571476835605,1.00158612421,-0.450733542577,1.41192431741,6.83463466473,-1.15917119312,0.294281225854,0.0900108060879,-1.88774547777,-0.373627174811,-0.0534340368265,2.19634427301,29.8833489614
off_to_on,-1.54714818564,1.43947849839,-0.732662113798,-0.699737058168,0.427284843433,1.50613602305,-0.271958537449,1.65086298795,-0.0466758000779,0.735909300125,1.31176200564,0.327953924013,1.26683444955,-12.043843495
off_to_on,0.241999651249,0.242342939329,-0.0556004303577,0.794887835304,-0.894129056661,-7.29642658405,1.89455648418,0.623672895356,0.00104958492152,2.75427455569,0.625459229245,0.890392612114,-1.47464422693,41.3017381987
off_to_on,1.3604801433,-1.56017986403,0.293542561598,0.755530303053,-0.376132506568,-0.342726301281,0.00735156978292,-1.7942707706,0.036153565479,-1.24573621482,-1.4053388608,-0.500692342626,-1.41665497669,-47.3136473658
off_to_on,-1.24117251257,-0.548149879397,-0.112576286072,-1.22229379223,0.560563277794,7.55425285198,-2.16552496129,-1.09705604596,-0.072603957351,-2.64988420476,-0.502550076453,-0.979106665074,1.26842002928,17.0399283912
off_to_on,-0.254632146009,2.28259855638,0.736306274337,-0.516811810007,0.679680443902,-0.483161973167,1.04289957964,2.52889863095,0.116859700392,2.04378387475,1.56062684558,1.02845323795,1.95116001494,-15.790886485
off_to_on,0.347148343239,-0.835258414986,-1.60097446871,1.40815607942,-0.96275857557,-8.29655221064,0.607141108754,0.0500879460539,-0.15978328532,0.885070088806,-0.388819721629,-0.449947762924,-2.40157142621,39.4383908324
off_to_on,1.16455810072,-0.709756904882,0.666572266778,0.356946046626,0.01468546736,2.82952712378,0.145218948315,-1.249798406,0.194730170594,-0.528255967529,-0.392382360571,0.658817031945,-0.459693587256,-29.6000635576
off_to_on,-1.13028480866,0.084218463675,1.31894824085,-1.77592885014,0.253265107766,6.46524079646,-1.14526160017,-0.969423743232,-0.231469495905,-1.22332674435,-0.0863553227731,-0.390401384802,1.40044680205,3.47833873249
off_to_on,-0.8484138396,0.443114597007,-1.17759132759,0.452623402418,0.314825834014,-3.05289513504,0.228542748576,1.39908850889,0.274285525399,0.351385818143,0.189265986249,-0.725829393544,0.525179249178,-7.89028120519
off_to_on,1.25581417708,0.4459385667,-0.88964897055,0.989576231314,-0.33762004378,-4.9671761225,1.04247374382,1.39273282233,-0.312836518202,1.23606491968,0.0473777360161,0.833070369172,-0.936051621615,14.9298420605
off_to_on,0.589266463159,-0.704471214432,1.22952873922,0.0842400651634,-0.0460746068201,2.35797253932,-1.02830508874,-1.99204996355,0.344801340559,-0.65019597732,0.41920963882,0.119507732522,-0.903221683996,1.20110318655
off_to_on,-1.20396653293,-0.530698327252,0.45429459439,-1.4676171533,-0.166460908252,3.94213735496,0.022219018669,-1.14019862563,-0.380310741522,-0.781613327701,-0.734734950844,-0.614111658442,0.834530678554,9.75838251736
off_to_on,-0.0971988900078,1.41904814249,-0.537508442729,0.598361924585,0.550360443917,-0.815929349544,1.50808484797,2.80899521501,0.419464194959,1.43959630047,0.196341225186,1.02159287696,1.74278197341,-57.9378891496
off_to_on,-0.0270479662295,-1.02585264376,-1.43643802784,0.562514545217,-0.423012297934,-4.74670703388,-2.52137526425,-0.974393646106,-0.452373139123,-1.53725626902,-0.217996567928,-1.62401555236,-2.34325398908,59.9337126428
off_to_on,1.98490643115,0.470771876024,2.03335236347,0.360071522855,0.525821777546,1.75417828953,1.32322482498,-0.307561617702,0.480652515664,0.719648056268,1.19324150918,0.717981956287,-0.107900040232,3.38910538927
off_to_on,-2.17792693841,-0.58395300873,-0.700919385366,-1.46931855211,-1.25949292893,2.27668999242,0.980735246089,-0.7601516769,-0.51328513873,0.529558789307,-1.25537827526,0.882078539663,0.994343238785,-32.6412132989
off_to_on,-0.105668794738,0.936431507979,0.159557368506,0.542337545513,1.32887262895,1.13254917181,-0.913835046283,1.12167202005,0.546845911106,0.135168051145,0.137823509675,0.290179188478,1.35748081533,-9.64085551471
off_to_on,1.32720866354,-0.753048217309,-0.451793117077,0.48431290777,-0.130760891498,-3.11040346461,-1.32077857984,0.279576986062,-0.57323000837,-1.95693659635,0.141970553595,-2.68182609785,-2.34960278933,31.1470783265
off_to_on,0.0092257500864,-0.158815671382,-0.312370416014,0.580074875401,-0.695775805984,-2.23310223998,1.7334735154,-0.603817820236,0.597114050005,1.02727494988,0.630597608265,0.975739470018,-0.235459791136,18.9343496643
off_to_on,-1.37658603517,0.771445119831,0.791310808472,-1.78657799058,-0.113884281792,3.46753133171,0.166824034094,-0.901529206412,-0.625227723905,1.68142138533,-0.735860773908,2.85111761192,1.81029826901,-70.955867143
off_to_on,1.03493107558,0.215500580326,0.978939635446,0.879601260536,1.35835108728,3.86670176866,-0.630206908742,1.41401240734,0.651671619503,-0.908425762766,0.307715793816,-1.45037448257,0.517385424634,63.8318785748
off_to_on,-0.275749056379,-1.95618485757,-2.45463200502,0.319329684541,-1.43484807366,-5.60837867779,-1.05252865152,-0.131796338744,-0.670992938994,-2.54787565916,-0.668331078999,-3.71446236377,-2.56086401311,-21.2337725065
off_to_on,0.521509458029,2.01229269501,0.949032477337,0.451078576373,0.653657309279,-2.65061536216,1.68464028048,-0.111881864095,0.689767375569,2.72619053863,1.12450282621,3.88303901856,1.11523697403,-7.08998374083
off_to_on,-1.38857491131,-0.38152604742,0.598205215238,-1.55293560508,-0.256559701091,4.87575922495,-0.800031968174,-1.75937068489,-0.711862676975,-0.0308905292181,-0.683701083465,0.837542596708,0.23768474841,-3.75368015771
off_to_on,1.80444229543,-0.102501957625,1.01559725343,0.836533653381,0.628724954409,4.12882894954,1.03013988545,2.81631561866,0.730137276144,0.0603154003047,0.59859657111,-1.74098178182,1.30260290757,29.6475754827
off_to_on,-1.26510495914,-1.32749896802,-2.76615013722,0.130756788297,-1.27369356223,-7.6312827703,-2.05649391214,-1.18457324732,-0.742147289181,-2.13626107069,-1.44772998796,-2.17113165886,-2.23312770366,-7.06052842165
off_to_on,0.185747254947,1.88595857558,1.02461976386,0.726041138649,1.46394032798,-0.890194988319,1.01918457439,-0.752070795274,0.755125195327,1.25438509368,1.23404961779,3.18638724887,0.196661201576,-57.4879656734
off_to_on,0.34689063782,-0.22882701799,1.44100836476,-1.8108374064,-0.807107758274,5.67161223992,1.36372787665,0.511061187378,-0.769971906664,1.13228279813,0.340171690293,0.300792749408,1.05475972265,52.2585908908
off_to_on,0.214610792296,-1.12115463736,-0.650352300647,0.951247314943,-0.0400337938775,0.79151387756,-1.32271465423,0.732560504144,0.779516298529,-0.254787621714,-0.37824355218,-1.94044315002,0.730512979654,40.4546365481
off_to_on,-1.01103326026,0.146638953314,-1.55047881763,0.293450547739,-0.0851588104945,-5.20880686144,-1.38055437273,-1.00095414554,-0.784199501239,-1.96850255221,-1.58775321084,-0.35103898255,-1.85092922951,-61.9511826446
off_to_on,1.02992034089,1.61237833774,1.63156892364,0.463528231308,0.989672069514,0.478305129941,2.80242006121,0.816375458485,0.790775979906,1.184143512,2.09351677059,2.16771568304,0.330230486895,-34.8483454572
off_to_on,-0.692307795186,-2.04817006841,-0.581745499417,-1.84525054443,-1.29154351179,2.66122423639,-1.23238697252,-1.220722838,-0.797514043019,0.285736586833,-0.317918583695,-1.5061378843,0.225554484781,56.6595971102
off_to_on,1.02745356162,1.36622721615,0.830298553842,1.24114683794,0.889353616296,1.62555924671,-0.273023015857,1.53141007099,0.798238709402,1.35347506754,-0.192913055434,0.722221140465,1.70884978055,62.5617081653
off_to_on,-1.81511505152,-0.751940464058,-1.60793041,0.276756785821,-1.00024113383,-4.45789561712,-0.840156512198,-1.16709472227,-0.795764970942,-3.12261238161,-1.51868139443,-1.03157062449,-2.41091764979,-98.1006676728
off_to_on,1.80098576213,0.623308851361,1.38405563824,0.0886964396476,1.43132456544,0.906122987776,2.41398895001,0.880785984748,0.795484667032,1.21217846911,1.99118857854,1.31229974575,0.546587576766,-26.0643479327
off_to_on,-0.611699879881,-0.83193777852,-0.745887013452,-1.68935985045,-0.817935615806,2.01542269772,-1.32405552102,-0.81446881043,-0.793690241886,1.25409540549,-0.265554208417,-0.872515129386,0.288856105895,55.6749252707
off_to_on,-0.515486097619,0.942501847935,0.316150765814,1.66728243954,-0.20959132149,0.0400386840507,-0.942408436695,0.255702933959,0.785926749506,-0.190403282663,-0.368297090753,0.12473230317,1.01712582998,86.7435878515
off_to_on,0.269289274422,-0.487539002718,0.275007674734,-0.211103287419,-0.293428487828,-2.21709942388,0.556521884606,0.183222397458,-0.776617998556,-1.96487485859,-0.99931647545,0.0941937729303,-1.2260545747,-118.49228335
off_to_on,0.92083528068,-0.0977310148148,-0.34856318769,0.0656257509384,1.64149134334,0.936202247937,1.7680067781,0.579189208517,0.769243803315,1.27295371254,1.38447715041,0.656875295871,-0.25872377407,-31.8521962467
off_to_on,-1.42119127375,-0.203535559042,-0.970826912142,-1.37252359644,-1.32819241258,0.699885232632,-1.65812843793,-1.41630545059,-0.758956153655,0.726374599359,-0.0946451611351,-1.31102750838,0.29519688734,53.7350798335
off_to_on,0.815945907964,1.22500889763,2.13261638862,1.5393106206,-0.228914757762,0.435445163233,-0.722014980635,0.826171487924,0.743387772995,-0.377867737215,-0.0800507558381,0.758485786772,1.46198356567,112.833780204
off_to_on,-0.488911669943,-1.7126389003,-1.32280620033,-0.22533942212,0.177371591656,-2.50031407107,0.330418586092,-0.223377095268,-0.727700450901,-1.93325883077,-1.41242324933,-0.416660079652,-2.04365533766,-131.005577191
off_to_on,1.18017830177,1.34750463563,0.0141913224273,-0.0669375470398,1.55004310773,2.00782555567,3.0798782561,1.33162484233,0.71327215282,2.94449633451,1.90338761858,1.67556838309,0.979384178364,-43.887724339
off_to_on,-1.67389383737,-0.921859780435,-0.478708699908,-1.16317269398,-2.06936792901,0.417394778685,-3.39412699799,-2.32276031371,-0.694982029635,-1.37619468199,-0.657831952887,-2.21422238937,-0.450315753514,51.7372136922
off_to_on,1.03287692542,0.704276426876,1.6711821322,1.46498203336,0.683686198917,-0.332355837639,-0.612912471597,1.03106941843,0.672566096798,-0.738887536324,-0.135324373142,0.131675726155,0.725994598771,133.100276712
off_to_on,-0.245183299634,-0.395347691157,-1.33147990521,-0.188990653439,0.222281597238,-2.68031484058,2.20895156315,0.671197795569,-0.651087121637,0.807863616307,-0.400186041842,1.26369239186,-0.565957876966,-130.177685691
off_to_on,0.237411098641,0.159050370442,-0.0661259626401,-0.244615748331,0.385343733781,2.40511583346,0.957986600978,-0.347841867143,0.629960741044,0.981833185064,0.865511569219,0.720459728708,0.283518595047,-64.8001807036
off_to_on,-0.251021664936,-0.17904768728,0.717137162064,-1.00663458033,-0.87371329933,2.69170467069,-2.41312679975,-0.50980056598,-0.60456508675,-1.74838190689,-0.59638033185,-2.15788384875,-0.475717355559,54.3625624147
off_to_on,-0.220293726986,0.172796993066,-0.35466454406,1.62897950998,0.36088817059,-3.64924011652,-0.453190803164,0.060221107861,0.576456228016,0.175328718648,0.319063053792,-0.26154855182,0.329788838968,143.502815089
off_to_on,0.00468792078853,-0.35103003467,-0.59926408969,-0.534294846776,-0.0540909750922,-3.16930917497,1.34463411544,-0.0813859061542,-0.549907520447,1.089309852,-0.357734218875,2.01523958436,0.117164379036,-118.445544233
off_to_on,1.39766352309,1.17445231298,1.84108016656,-0.345116353689,0.724687573915,6.2155575238,2.07218737428,1.78199225666,0.522769146015,0.372867639462,0.485974320626,1.02225032536,0.559352844394,-88.8354753749
off_to_on,-2.16022142815,-1.70510885494,-2.01195719033,-0.145033990082,-1.3643353939,1.00351059262,-3.15527053131,-2.30974581127,-0.491499876701,-2.460405588,-0.70775013426,-4.02632656378,-1.83482793353,59.1221813001
off_to_on,0.941346352627,0.746859663359,0.285247439759,0.733369331845,0.908475427917,-5.46295768673,-0.504368291089,0.0477261403092,0.458980627209,1.94306797575,0.863140330758,1.65604901851,1.46029761789,144.919447991
off_to_on,0.59384981174,0.415175668514,0.988091097948,-0.672163438459,0.13688021233,-1.78116046501,2.05180120955,1.47721404793,-0.428225817404,0.169037804868,-0.590646605277,2.06558960469,0.160881190053,-99.7271401926
off_to_on,-0.338912671502,0.199140140548,0.391285279314,0.598644806368,-0.334606974302,6.9833323828,1.29778732631,0.406741099267,0.396077379439,-0.72143959263,0.168260908807,-1.16438104653,-0.364474063616,-110.974687771
off_to_on,-0.862282442528,-1.26662198663,-1.83774516979,-0.376737306264,-0.676194499841,0.48633904033,-2.87691805041,-2.33178068764,-0.360413536574,-0.219274610991,-0.105464083746,-1.80162955195,-0.779045067549,63.2577056994
off_to_on,0.75654213911,0.174640500501,0.0855243947909,-0.330691252896,1.30053767271,-6.61150100585,-0.647745742572,0.481376592191,0.324835949682,0.327510754633,0.141645572588,1.25455372732,0.638538906289,139.807131336
off_to_on,0.622977606059,1.748219182,2.27673655616,0.272174451568,-0.15318046581,-0.093139510417,3.20691025844,2.59564087746,-0.290882758865,0.395485394541,0.0166001982006,1.40963337138,0.865322711969,-77.799386182
off_to_on,-1.06593358566,-0.935352808334,-0.803697342233,1.03308663779,-1.23182523644,5.79555468522,-0.485136492846,-1.79302884228,0.255000770862,-0.0863085063301,0.164798167442,-1.25500468715,-1.00788261475,-128.731962076
off_to_on,-0.430985255622,-2.03426092231,-2.64875365927,-1.29037655461,0.316478855842,0.441354400504,-3.19882125448,-2.28337775565,-0.216573507293,-1.12237976086,-0.811798214668,-1.41337846955,-0.856915177519,65.9512408766
off_to_on,2.03343867534,2.81287124338,2.69747795856,-0.48508099355,1.78809725052,-4.5050765651,2.85777319548,3.80626202165,0.179312571825,1.30164391027,0.873933943694,2.35033089403,2.15079452506,130.612459418
off_to_on,-1.39857949943,-0.137652513238,0.58440710605,1.26898353619,-1.4864351744,-2.93547821711,0.226570712061,-0.416145925124,-0.143305386175,-0.183166708945,0.023908209147,-0.453040819331,-1.04877922624,-56.4215707114
off_to_on,-0.82164257871,-2.12861038932,-2.09887438165,0.558542918469,-0.877394369734,6.10846763849,-1.98427500275,-2.88446188722,0.105176788728,-0.45433620261,-0.540331537708,-1.26045828902,-1.04703715098,-140.588383182
off_to_on,1.36993566163,0.798210719538,-0.0226103542201,-1.63305946137,1.06903508819,3.26117079458,0.83991960933,1.11137493673,-0.0656756846272,-0.178093702693,-0.133901361515,0.457987176862,1.41188854266,67.0781730386
off_to_on,0.595311849104,1.90955041552,2.13416863372,-0.1849607689,1.20436564123,-7.15571035737,1.33758598917,2.56265286278,0.0280931367003,0.613370871649,0.667790967132,1.32109823952,0.459660536726,119.505673562
off_to_on,-1.41579896453,-1.5319987149,-0.915217358932,1.48300756467,-1.2009728606,-2.97284893584,-1.34235056794,-1.52936454325,0.00870783764267,0.39413480631,0.136634211343,-0.766729841666,-1.72264593405,-38.381410944
off_to_on,-1.07760675622,-1.8436975534,-2.11393956976,0.158998049846,-1.79022559183,7.64238273416,-1.27586867549,-2.84543139741,-0.0474663279175,-1.56187218884,-1.07172657962,-1.99637082808,-0.0646095856047,-146.3790711
off_to_on,2.88954746687,3.15469304959,2.7856021105,-1.41570746921,2.24433311889,2.82110617098,2.7166918919,2.87471997871,0.0863789001232,0.914729898398,0.524587251537,2.54728501815,2.54444690736,67.2036080569
off_to_on,-0.322789350871,-0.0740013806281,0.0717812005767,-0.220390629302,1.26855738095,-8.78990731343,-0.51411672166,1.79898032021,-0.122963221457,0.760512109412,0.598551331963,0.82593886004,-1.55908473549,108.122769286
off_to_on,-2.80610632448,-2.87864503545,-2.69853046609,1.61301608473,-2.5248363007,-1.01215767138,-2.02437375119,-3.01970940554,0.159217500874,-0.975549877845,-0.411188665594,-3.03141673982,-1.71633731425,-25.3174599842
off_to_on,1.38286329978,1.53935245252,1.60611602642,-0.324547059363,-0.974948572805,8.61802386339,1.40552553976,-0.942821607988,-0.196948879645,-0.107470202164,-0.519929600124,0.335696199317,2.2186547571,-146.923790158
off_to_on,1.82712480024,1.24621746585,1.16552410575,-0.837415823391,2.85142595268,-1.29760796809,0.328803447636,2.17628973734,0.233710820623,0.172882646692,0.299466667868,2.46729585963,0.455326317029,67.3840538178
off_to_on,-1.43168523435,-1.32936693464,-1.58095877721,-0.258378539947,0.325062186473,-6.81256405824,-0.484010367854,1.33569441936,-0.268043485254,0.432319903722,0.502358143001,-0.472059876685,-1.783666484,95.7152114143
off_to_on,-0.791482327596,0.21432659408,0.171940176648,1.1751148684,-2.45595264993,2.98036741129,0.529197533265,-1.75203210451,0.302379432641,0.526023547767,0.12723463718,-2.03178183929,0.529327067442,-10.4640288245
off_to_on,0.204589887148,-0.4716274484,-0.0219527155668,-0.300912502295,-0.440513417008,3.72824012207,-1.35028421451,-2.516678329,-0.337476852258,-1.84549852324,-1.40570479791,-0.225917989648,0.159384431994,-160.01084487
off_to_on,1.66747767893,0.59783608921,0.844688102772,-0.257078688702,2.8357295347,-2.48598019194,0.855546755827,3.18080500272,0.370684556323,0.823201376694,0.94999188316,3.19766325845,0.62423582455,87.7281746168
off_to_on,-1.21283998057,0.0352586313884,-0.757913665812,-0.470271453816,-0.759094403409,-2.69833994562,0.311711061498,0.981640150353,-0.4016020811,0.481484005994,0.356747629221,-1.51202801696,-0.962214361639,83.7545185429
off_to_on,0.122553289803,1.03750288037,0.602223350766,0.67172636345,-0.908342652242,4.13626536288,0.737424542258,-1.43552072799,0.432676394114,1.10311547413,0.155332322919,-1.20439801481,0.772539112518,-39.2132289752
off_to_on,-0.689505300192,-2.42394527956,-1.03315344189,-0.138605861653,-0.987057951847,-0.982262917457,-1.85588688664,-2.31416281251,-0.463667370439,-2.26621278398,-1.39346540862,0.16670013751,-0.820503193015,-105.550100371
off_to_on,0.475898109383,-0.172900317416,0.0492141680014,0.495654547304,1.60776901841,-3.33019459841,-0.580903813762,1.54891958828,0.492118806718,-0.898275196726,0.434036248787,1.22312979413,0.00603077861053,68.160579267
off_to_on,1.40712477503,3.53846757038,1.79288897564,-1.1498202463,1.05731382738,3.60184149746,2.52441063667,2.92706733314,-0.518572489907,3.30718129341,1.15980696379,0.485829205318,1.30578120864,49.402207865
off_to_on,-0.86630800419,-0.533955925523,-0.489458426879,0.481375647547,-1.29078913524,2.28170145756,0.967261511372,-1.5062628906,0.545135295524,0.767053076617,0.115973696956,-1.1163299944,-0.208221272101,-3.78653314278
off_to_on,-2.48675602995,-4.98206259599,-2.97731249956,0.25562043005,-2.38163396624,-6.41023058057,-4.24752016183,-4.19941436517,-0.570753860367,-5.08702121859,-2.37810399639,-1.83376774188,-2.50762887309,-98.895349863
off_to_on,2.87820999969,3.0111853911,2.48885094663,0.644610685162,3.11938416125,0.882617937019,0.71672976703,3.54175298653,0.593477718099,1.5041104087,1.37799902548,2.9570776081,2.10303058967,48.1578076855
off_to_on,0.527339100744,3.1951986668,1.37363848282,-1.49870328316,0.803537715818,5.62058674565,3.0789242391,1.99251485045,-0.61456076506,3.80526514161,1.0532525996,0.13553033097,1.00245591245,35.1765346032
off_to_on,-1.12272666281,-1.78393095547,-0.99072923722,0.56661924561,-1.92375703281,-0.471083203408,0.88753017168,-1.58170953292,0.635520736634,-0.649117166234,-0.138295783497,-1.27731390096,-0.854139363329,31.3975753099
off_to_on,-2.43352527811,-4.94681874505,-3.55901012075,0.232422797171,-2.02494079779,-7.98835234775,-5.55187603017,-3.55379486724,-0.654763508971,-5.6550597369,-2.51545843656,-2.0001556823,-2.76572350445,-99.3608488599
off_to_on,3.1678645903,4.1033956069,3.40960516234,0.760355371809,3.56406599446,3.62698938136,1.50384803174,3.09592478515,0.671036519061,3.40889537357,1.84708310877,3.10796297427,3.14989922136,0.605714005556
off_to_on,0.855487799508,3.1685212271,2.14969950527,-1.52662363143,0.0669508749864,6.36876659511,4.38227575295,1.94046646497,-0.686013062631,3.70609164117,0.907456827674,0.598404527927,0.910553644452,88.707849794
off_to_on,-2.7040496752,-3.73502703271,-3.36749356418,0.615279481504,-1.94334866031,-3.83692388106,-1.61168349615,-2.17229179511,0.700496901118,-3.40563060503,-0.772809934007,-2.38171940586,-2.65515357555,-10.5373514724
off_to_on,-0.535667875255,-2.70107545347,-1.84335068338,-0.045340741261,-0.884318682787,-5.79537943653,-4.20005085079,-1.77174252407,-0.712660969519,-2.90345183447,-1.4490291575,-0.80110021424,-0.449778772786,-33.8855095254
off_to_on,3.12109808582,4.19050113212,4.09680335786,0.921546888465,2.50784656493,4.41749009687,2.79957942719,2.31390781937,0.722015833284,4.02905125719,1.46737890933,2.78245041664,2.94123231217,-90.9342337682
off_to_on,-1.61940295864,0.350963828841,-0.297589166144,-1.24642693946,-0.421937295828,3.72932739099,1.61893056431,-0.133575776755,-0.730350196908,0.294635497335,-0.0872798101968,-0.617677748455,-1.68305818245,132.356809575
off_to_on,-0.341085852155,-1.1755341176,-1.56443425443,0.346783664627,-0.447462730182,-2.01661284662,-0.392422598123,0.505192247322,0.737751425406,-1.09986083434,0.673496247807,-0.297221964518,0.0144019088368,42.7939925027
off_to_on,-0.111761214562,-2.32155902735,-1.56682386809,-0.219807263517,-1.50390293829,-5.41081459698,-3.06607658682,-2.01554593237,-0.742453730736,-2.23372097747,-1.83732150914,-2.18492381614,-0.377155474248,-123.413991729
off_to_on,1.52288333369,2.52690619704,3.19676777239,1.11002793725,1.99960497157,3.67330900803,2.29016265745,1.44727302932,0.744679904243,2.81627511131,0.830170700362,2.72318789974,1.23676594925,-50.6185746035
off_to_on,-2.27561867766,0.0465682351152,-0.862023603135,-1.03931931518,-0.325589335195,2.83122698421,-0.296562825185,-0.838313925627,-0.746063534245,-0.234151731615,0.285871298497,0.335882707282,-1.46561349537,132.22259526
off_to_on,1.66099241412,0.202485477706,-0.568224746588,0.197487394021,0.155594565828,-1.1880977502,0.621484620584,1.07799132441,0.746076694447,-0.50135740176,0.857075367201,-1.37310872658,1.27149314626,72.0793603258
off_to_on,0.724560968484,-1.21204295879,-0.237129553519,-0.570238529006,-1.25352238484,-3.81244310806,0.0856017150681,0.535074396053,-0.743256085247,-0.594358492949,-1.68997593257,-1.41942585536,-0.262440168255,-200.224777074
off_to_on,-2.32580938519,-0.68195163698,0.148955715331,1.57179418609,0.528240674585,1.36953860656,-1.82315390511,-1.94651771891,0.738395133036,0.426602821741,0.252972248023,2.42193102723,-0.839674316059,23.9470819807
off_to_on,-0.211216734338,1.16392203682,0.118287982149,-1.11290928707,0.594938596669,3.04919028901,-0.612182508507,-1.18695513006,-0.73276816148,-0.00513727505244,0.418738008645,0.536954971548,-0.0131022858353,110.260813528
off_to_on,3.86961673912,2.36273142119,1.60955330632,-0.0526065500137,0.826566684702,-0.150330550839,4.44335600081,4.35267506508,0.725405973343,1.0940528874,1.2704350595,-1.88540420443,1.86547524118,40.1077185687
off_to_on,-2.59600331898,-3.39940919654,-2.43733252647,-0.198564503771,-2.36265552901,-4.44019801031,-1.71477157821,-0.944769406146,-0.715310162585,-1.63869924868,-1.92553433438,-1.36178347432,-1.50598864503,-161.269284384
off_to_on,-1.43700506076,-0.492883384412,0.256865493401,1.19180615492,0.845845723052,2.44844414238,-3.51893886873,-3.23960082245,0.703646685456,0.567810951688,0.278235484249,4.04182691491,-0.184845034434,25.368031923
off_to_on,0.883089976981,1.52657980911,0.610694990728,-1.06249678601,0.825555092895,1.47294992417,0.756293824707,-0.366603965621,-0.691211117793,-0.510113185823,0.101353865426,-1.92391328867,-0.475639368422,82.4868151829
off_to_on,2.96939278598,2.6651487296,1.91645629706,0.408853392744,0.686577210364,-0.483531647324,5.85373206456,5.56424751508,0.676803756502,1.899083463,1.61551740856,-1.28631519447,2.38727041208,36.2976400567
off_to_on,-2.54495497904,-3.58033681379,-2.56770416756,-0.583508997755,-2.37422966025,-2.21098718518,-3.76019117337,-2.29493325254,-0.659964002609,-1.54854690447,-1.65583159974,0.823388440532,-1.45122188999,-119.705852856
off_to_on,-1.33233629606,-1.15735797787,-0.676861865484,0.859559798497,0.852804550862,1.57532073423,-4.07248736092,-3.8329306116,0.642012435165,-0.737491162081,-0.467688948094,1.41414807315,-1.14126598402,4.93908900524
off_to_on,1.48011765201,2.86894568244,2.000082538,-0.449226974921,1.029648484,0.667604325186,4.18357430628,2.23118390109,-0.623234451103,1.35363005492,0.811078121525,-1.22193785216,0.985971383997,65.397627144
off_to_on,1.38941458282,1.08366084757,0.695403365238,0.447838169807,0.0189756909475,-1.21063244988,2.76971673691,2.96484456724,0.602411610718,0.458380418837,1.0734888822,-0.504313748549,1.18060690817,33.3201571512
off_to_on,-1.21839725666,-2.9458359789,-2.01651317009,-1.22504918924,-1.60160063946,-0.0806285692354,-4.66002263908,-2.47995753107,-0.579608112645,-1.77783602409,-1.52107275604,0.221004281752,-1.55848524097,-75.9878813248
off_to_on,-0.496331750037,0.403851132862,0.476263738057,1.15449296825,0.888302421453,1.99604483549,0.262036406049,-0.55319820254,0.55609512297,1.44099989791,0.225445438321,1.57359296615,0.613449278551,-23.7214689743
off_to_on,-1.10317670172,0.328642971244,-0.533847861273,0.0548543036602,0.134691851476,-2.57917051007,1.50930761509,-0.520291698425,-0.531694837161,-0.722422966494,-0.224913172964,-1.64532150104,-0.713549297974,56.9932334553
off_to_on,2.87461354266,1.73519217012,1.95841549729,-0.358737993564,0.645209417492,0.450500480532,0.76134085568,2.18542811699,0.505352530352,0.197259962812,1.27245127996,0.192391542509,0.805543860032,26.3740478203
off_to_on,-0.407708759229,-1.46860710689,-0.658555921746,-0.757805541648,-1.37452532459,1.38463276529,-1.65084054414,-0.179053495822,-0.477573352708,-0.110606647529,-0.809157990018,-0.244088215771,0.0474641522316,-33.8370763134
off_to_on,-1.71656443016,-0.63131853947,-1.18922654682,1.2318498873,0.515981449168,0.719764713297,0.797478120391,-0.989327912106,0.449415257573,0.999808449401,-0.255621688145,1.62672005643,0.376492504497,-51.6866694353
off_to_on,-0.733119501202,0.141142638717,-0.631380439814,-0.362645961373,0.214306325763,-3.11753407871,-0.544074725928,-1.15824754605,-0.420343371226,-1.48790672392,-0.337761097451,-1.06044618019,-1.86586486438,53.4272936111
off_to_on,2.18477117279,1.22388998182,2.23458068082,-0.101259488583,0.226519934636,0.336701392091,-0.431398972194,1.22597897574,0.389598355115,-0.215962985999,1.0894087184,-1.39124984287,0.66669556803,18.0888031548
off_to_on,1.16376031751,0.251923357996,0.858917483833,-0.445175946879,-0.385264025693,3.4392436518,1.90279866479,1.75198235466,-0.357994301389,1.9243008423,0.0245619791876,1.69203200517,2.3147150755,-3.12474526956
off_to_on,-2.65776674495,-1.60225486071,-3.11552863384,0.612828237131,-0.112749678787,-1.00430954961,-0.323429670962,-1.48091916129,0.326268879439,-0.406247457234,-0.907200767054,0.962787918386,-1.511711538,-65.7609741052
off_to_on,-1.42496025504,-0.612807337469,-0.77722856238,-0.0997868346482,-0.133653526266,-3.52170963127,-2.70072437844,-2.11939496181,-0.293670811693,-2.15743257289,-0.473094468588,-2.26594873512,-2.4863811464,47.6647128656
off_to_on,3.72039089498,2.60217413168,4.38200520778,0.0401273557882,0.915831446642,1.87521631773,1.75205339615,2.30298447038,0.259806085512,1.64310306488,1.66288673427,0.39193936864,2.89728034299,8.1323967741
off_to_on,-0.152439681558,-0.819194355105,-1.23677610034,-0.403358329781,-0.658835421515,2.21219525576,1.36444164285,0.692412349743,-0.225643439188,0.383427793798,-0.463648094915,0.869121231673,0.748835377794,18.6234418829
off_to_on,-2.27720836692,-1.0992750917,-2.72007051243,0.247375930184,-0.214141188551,-0.44859118099,-0.675870260074,-0.654013546631,0.191555771384,-0.124255517842,-0.774002407082,0.521406853515,-1.77183711484,-66.7080313216
off_to_on,-0.427089927327,-0.0171491740061,0.74407592572,0.110299632437,0.0593208036369,-3.27435371464,-1.99297458604,-1.60236678785,-0.156724943954,-1.01573178693,-0.0888434470647,-1.25420633729,-1.02459637805,37.8882349218
off_to_on,2.21223424737,1.02254030822,2.34483706006,0.0823261003716,0.672476399948,0.797541793827,1.08653689253,0.748142935109,0.121129944112,0.114998546862,0.980516613429,-0.306631705917,1.85989906956,-1.19140853053
off_to_on,0.264891913944,0.403159536575,-0.581101947935,-0.283010107615,-0.355151502016,3.52502042641,1.52106216063,1.67076523791,-0.0857425101532,1.04863033082,-0.0248473392762,1.01404550437,0.582217607628,32.3854412478
off_to_on,-1.97611871345,-1.36497058147,-2.10838811195,-0.0144296137504,-0.676529469055,-1.29729529323,-1.35863691567,-1.17245811942,0.0505849459323,-0.417634861164,-0.974106053044,0.085024901607,-1.66533006813,-58.5225632674
off_to_on,0.41203637742,0.190957603678,0.955984784713,0.0693663083416,0.846085665991,-3.16743302533,0.142296935966,-0.409045935468,-0.0149077856803,0.102108664899,0.367793888665,0.106872818554,0.273081615985,26.0957071329
off_to_on,0.644635431152,0.620339967038,0.851140718815,0.298319154793,-0.0636479220433,1.34317728701,-0.130032789328,0.0292758044481,-0.0209832394564,-0.856492345105,0.491453855929,-1.30661070413,0.430325191558,-8.62851182967
off_to_on,0.0599062761142,0.0124614286379,-0.133472429413,-0.0893988116127,-0.532497634892,2.98967816753,-0.832780344973,0.040262002572,0.0562417526082,-0.170509711223,-0.302452448382,-0.185540206405,-0.126134018297,38.4876435155
off_to_on,0.224734681907,-0.102844424174,-0.213440957634,-0.570915945492,0.459934300034,-1.48815020181,2.09987982403,1.395694342,-0.0911347998459,2.22356590863,-0.161324925169,2.74114513775,0.574108825379,-44.7172246124
off_to_on,-1.19856522802,-0.710328983032,-1.2588130253,0.409535610758,0.0127695701408,-2.94064929133,0.214372501203,-0.863407424861,0.126238961123,-0.859911542756,0.214354989646,-1.07476368193,-0.651413842381,14.5250700166
off_to_on,0.359582891119,0.622634941019,1.0996057293,0.216851127317,-0.50885918993,2.39545213249,-3.19592311281,-1.60914208168,-0.161007299255,-2.41865521435,-0.210136699713,-2.80373241756,-0.69904651757,-13.7816961427
off_to_on,1.07312320666,0.398468130726,1.22950168721,0.114328375144,0.478796276987,1.65947587482,0.567299579609,1.1965673305,0.194809765607,1.42244898829,0.149161552485,1.89745316882,0.935728457589,37.984643431
off_to_on,-0.729344780646,-0.841622873303,-1.72346554321,-0.732465221149,0.169475071379,-2.68433879929,3.5934746246,1.55954771113,-0.228110849864,2.38937570041,0.0275008181401,2.40975212065,0.759317924329,-28.2676029193
off_to_on,0.182583009767,0.85225542246,0.0643747038984,0.129755418366,-0.26933136476,0.810856174259,-0.617553525597,-0.683701688181,0.261251500396,-1.27908021866,0.414275526826,-1.8295047554,-0.528323978927,2.31393175515
off_to_on,-1.23966653256,-1.31389726445,-0.11466734551,0.514803696374,-0.944143764165,-0.0332307789481,-5.32063909521,-3.21559194918,-0.293550481344,-3.92406006295,-1.31521011145,-3.55835576867,-2.4812241411,-7.34230061203
off_to_on,1.56201385129,1.2049637615,1.53563402959,0.543255646762,1.79375177151,0.011218086919,3.4153328689,2.91883373195,0.324641012777,3.93854278511,0.950281791437,4.47973784184,2.7970646511,14.9008409901
off_to_on,0.588787818887,0.491741135858,-0.432098794444,-1.54590103445,-0.451858655115,0.887594547757,3.49481992317,1.90193008013,-0.355080593471,2.21408997926,0.746685219988,1.38691947104,1.43722461136,1.12774190312
off_to_on,-1.98406912143,-1.74151755253,-1.86099292865,0.264550637362,-1.33321666911,-0.501012249016,-3.80018529091,-3.33034053061,0.384955928287,-4.5140583193,-1.06169953653,-4.86572589616,-3.45122784414,10.0250986833
off_to_on,-0.133388468343,0.158133209898,0.565472126944,1.10092901908,0.501531014426,-1.95091654776,-1.76540346914,-0.798076781691,-0.413561612587,-0.82585639057,-0.883148151683,0.506706223644,-0.682508953701,-58.581650444
off_to_on,2.58418529112,2.27154038626,2.57499747122,0.335885130807,1.77086553769,1.9740446287,2.95135199961,3.25307269667,0.440797643847,4.78600975098,1.88136514588,4.4716063801,4.13919187421,60.5341873861
off_to_on,-1.24436308847,-1.55845286919,-1.58830851477,-2.21614808826,-1.5497373404,1.92571736707,0.516818579087,-0.390224197161,-0.467214580805,-1.11832128689,-0.0971340841585,-2.28297732687,-0.849069807358,3.24573028681
off_to_on,-1.76148481868,-1.30815822725,-2.03666131705,0.979956897367,-0.825224722284,-3.05204522031,-0.675414696173,-1.99304276661,0.492666378514,-3.35945921323,-1.21566631135,-2.7562054581,-3.35642291601,-32.6274108432
off_to_on,1.1100286156,1.0853209592,1.13514903668,1.20833769529,0.936335975455,-2.32417411053,-2.22474309598,-0.511462139113,-0.516521022931,0.857202036152,-0.6558700959,1.75126909839,0.716338766947,-10.2675422064
off_to_on,2.93453595129,2.68393732099,3.66417022137,-0.333123321849,1.76289382845,6.16820056533,1.94701727192,3.53253882562,0.538911955111,4.42900324994,2.68595514909,3.7654943559,4.57788238205,33.1480970486
off_to_on,-4.25755014491,-3.78897588362,-4.10393513285,-1.90389717675,-2.6738163754,-1.39924794842,0.359350688878,-2.09432533505,-0.560300985947,-3.84050151466,-1.3128188234,-4.41403097986,-3.60088853916,15.1796514992
off_to_on,0.377249232953,-0.186261630186,-0.992266259665,1.4597949232,0.273612585128,-4.3472352754,0.16665726734,-1.19075423164,0.58036180836,-1.50915375718,-1.10661277854,-1.0351462916,-1.77115695404,-66.4861676454
off_to_on,3.13270518412,2.84951344313,3.30482711959,0.406691299101,1.22152751113,1.08356174988,-1.42860292936,1.3790644557,-0.5986091993,3.19905165728,0.51712563212,3.53392306498,2.60767786905,60.4812273065
off_to_on,-1.18303117792,0.129869290198,0.36512581322,-0.0117071403285,0.370817180804,4.9579857782,-0.100798882748,0.803834145598,0.615350568206,0.686435176636,1.66255297305,0.595642057302,1.48566949212,-18.4450340158
off_to_on,-2.68382151591,-3.09575312076,-3.04918106202,-1.56068673398,-1.66645531656,-2.06044319871,1.06262344969,-1.52535682694,-0.63090419986,-3.32961298177,-1.49637788218,-3.68061219218,-2.86353139836,-12.3806340864
off_to_on,2.3678408732,0.744164268621,0.655909505227,1.10348143235,0.551859954272,-4.55455337169,1.15370501485,0.508230479307,0.644834889566,0.926308118519,-0.308246017436,0.771395111743,-0.054258607767,4.2248754952
off_to_on,0.679364859761,1.97354671159,1.42539433346,0.236482269118,0.253710433485,1.66356811658,-1.96255716869,-0.121951455236,-0.656847030778,1.75611593436,0.265352777619,2.08148840819,1.22821544692,23.4681219508
off_to_on,-0.762114896629,0.627163157361,0.799121625562,0.331564449289,0.857886035346,6.27161625711,-0.603276439756,0.674779780548,0.667349032565,-0.189982597643,1.31439364274,0.267172183404,1.11257042569,-4.89591777355
off_to_on,-1.91466206627,-3.97941916036,-3.01519919853,-1.51982555937,-1.46437650124,-4.29836417088,0.71559209246,-1.05930645597,-0.676491512912,-2.76391613814,-1.54035164655,-3.2196652867,-2.30375689891,-59.7129255859
off_to_on,2.54932218231,1.9916403158,1.48732079927,0.885491584365,0.518082870291,-4.33087618075,3.27637475884,1.53754429413,0.683807666307,2.65906017332,0.592690211442,2.13006373128,0.93865855937,57.7258753373
off_to_on,-0.645431398112,1.52984958386,0.507222641128,0.175637743428,-0.32331414203,3.31692561062,-4.02393907696,-2.05803781514,-0.689202597658,-0.51945004659,-0.585818417103,-0.0812495116153,-0.444150176137,35.0124211212
off_to_on,-0.305180533952,-0.622712865345,0.178824824613,0.445805479583,1.32917546948,5.5437755919,-1.01079507667,0.914120879699,0.693111750504,-0.448095806007,0.960784553543,0.116475815185,1.16145820685,-59.5659645933
off_to_on,-0.292196994651,-1.87143455121,-1.22430833948,-1.35570520464,-1.13725437229,-5.16988388793,3.73995795639,1.42126992737,-0.695523217274,0.246623211871,-0.20289598522,-0.107737395375,-0.317660205263,-37.2768523752
off_to_on,0.497582660834,1.02998530953,0.506069149442,0.896488372721,-0.242851352937,-4.10464431556,0.228382973407,-1.3319197599,0.696010003898,-0.0513683829587,-0.328161406239,-0.508347212558,-0.976704739433,61.9765678333
off_to_on,-0.395996378343,0.707686292786,0.168078969728,-0.404386422365,0.201992661112,4.84791396088,-3.93726189114,-1.60066264135,-0.694660729178,-0.697874545473,-0.86577141757,-0.741889078581,-0.378007664513,57.3339684551
off_to_on,0.811925025829,0.317909468539,0.409822021134,0.866910567004,1.1558783581,4.28458680144,1.80667968795,2.76987544784,0.691873512503,1.82301519046,1.81315558174,2.34326868068,2.37710732806,-95.3644815583
off_to_on,-0.898493206929,-1.69123030008,-0.961815116987,-0.864256075225,-1.35033626879,-6.35147070434,1.45353010929,-0.573634663922,-0.687502995098,-1.4797230162,-0.722552947574,-0.835390082231,-1.26533322856,-29.3876270715
off_to_on,0.698372440331,1.00514389744,1.27541840554,0.159012903621,0.560871010462,-1.53793926169,-0.402219508249,-0.531241463055,0.681218324144,0.0449723512587,-0.256106628331,-1.0215180226,-0.751252529163,61.5422951099
off_to_on,-1.57557015963,-0.778920986484,-1.96102887023,-0.449267480386,-0.761080037666,3.86771647709,-2.41971357622,-1.42721693438,-0.673252966232,-0.227609314801,-0.834511452501,-1.05418003227,-0.482736993491,81.5411713774
off_to_on,2.2839278025,1.96901837,1.6524490661,1.35367171942,1.29427918339,3.07781929422,2.44765442142,2.29542385002,0.663920474077,1.86105093065,1.84438220348,3.47797743318,2.77307679631,-115.424282533
off_to_on,-0.493081243238,-1.36540814395,0.291757718966,-0.879270390863,-0.548672576853,-5.43346927551,-0.259959892809,-0.215984964569,-0.652987087933,-1.73861831221,-0.751804032214,-1.18453724728,-1.56663245275,-36.1151184006
off_to_on,-1.62156426159,-1.01880458341,-1.06705363618,-0.111848634924,-0.199054841204,-0.980224091041,-1.05806199477,-0.953916304854,0.640253654134,-0.414887123516,-0.451926554426,-2.12339536618,-1.36548079008,60.0975795229
off_to_on,0.440881101812,1.03432464669,-0.661849861336,-0.538014741857,-0.599099109263,4.06562150017,0.511785063511,-0.346890821859,-0.626047068751,1.20709508766,-0.178690345714,0.96972325667,1.21006359303,107.858618965
off_to_on,1.81910747553,1.27980619954,1.53896080535,1.48840380607,1.26948916767,0.782882214175,0.900822297674,0.885307718553,0.610570036616,0.405856222976,0.984886682962,1.6904035223,1.27771229194,-127.747135427
off_to_on,-0.974144605908,-1.6101190801,0.126097144102,-0.510971988892,-0.298514409277,-3.72922967177,-1.63999202867,-0.0199787210574,-0.593552395581,-1.57154657158,-0.464124128766,-1.1967184093,-1.7713037835,-49.0897777525
off_to_on,-0.809372434092,-0.0643832257986,-0.680817904282,-0.516629112614,-0.397027450575,0.30745445079,0.844814931448,0.539290248555,0.574939552805,0.778667495678,0.144636022423,-0.0843103335789,0.123490289604,58.6647369962
off_to_on,-0.611535607452,-0.128306114987,-1.62775253061,-0.7104931984,-0.690850694856,1.78617231546,0.195367225285,-1.80702641523,-0.555096748698,-0.0284967704838,-0.96669270158,-0.86123888509,0.291193298976,128.29111971
off_to_on,2.71308415154,1.86277962705,2.7044742595,1.76132063634,1.60259788169,1.48379628741,0.509163589036,1.05818385328,0.534110740051,0.894910237717,1.25681211988,1.56984074408,1.15591882062,-126.843053301
off_to_on,-1.24303732924,-1.56294838001,-0.401158296301,-0.182564273953,-0.844162888859,-3.9742228479,-2.07063816632,0.0302392677623,-0.511725261292,-1.99979995026,-0.444715943792,-0.559170307221,-1.94379162431,-70.5446315437
off_to_on,-1.13053684706,-0.271402230624,-1.20627258307,-1.11398025473,0.104418959178,1.23829022504,1.74062049204,1.1437944444,0.48802197362,1.42031383948,0.277542658589,0.437846603844,0.931447523839,61.4169906546
off_to_on,0.123485095484,0.431743055252,-0.414787385628,-0.579262693544,-0.549106402594,2.6902442232,0.388438066281,-1.7115162936,-0.463353830472,0.478511205342,-0.888157358664,-1.12924458031,0.40687353747,139.069476339
off_to_on,1.80288037603,0.655147763246,1.71639406608,2.10827428779,0.722375259101,-2.34992984668,-1.5014734449,-0.888872258656,0.437704862948,-1.46588133543,0.419614207178,-0.116515222061,-0.574349416087,-115.210506501
off_to_on,-0.667065068802,-0.459680704408,-0.116764438397,-0.531653880399,0.0426792003153,-1.87312711815,0.588196659473,2.41474764475,-0.410874203647,0.261130885447,0.651236726022,1.53125673293,-0.239766920059,-94.679122296
off_to_on,-1.44202080134,-0.560267167446,-1.50869353026,-1.0642337911,-0.293536594153,4.25073612853,0.779422630453,0.386088537218,0.383054523081,1.50295268899,-0.00416382784015,0.13243855119,0.763315325984,65.7719908942
off_to_on,0.974491511787,0.40928584897,0.523656528957,-0.249556275321,-0.389776062934,-0.471594138924,-1.37448268424,-2.76817090732,-0.354546480523,-1.26860278239,-1.48941025843,-1.95500038232,-0.31307047704,141.171881011
off_to_on,0.980417452477,0.802790962035,1.45397301207,1.58411884721,0.763701058829,-4.78388887304,1.12760615745,0.890493227654,0.325257887216,-0.415719340756,0.897868178522,0.450262781453,-0.168057022954,-96.8229832565
off_to_on,-2.06804137611,-1.74906359,-2.16956528717,-0.28619533345,-0.636760811535,2.07472335303,-0.393063197944,0.911428937913,-0.295071199916,0.463295537941,0.849306972089,0.741550243175,-0.497452105356,-116.515570668
off_to_on,1.97147920026,1.58882687107,1.35692179715,-0.910178174592,0.695852952725,6.440496579,0.0693408884113,0.75191540601,0.26425383745,1.44872923173,-0.353597094976,1.36312960612,1.47298442439,69.0893971466
off_to_on,-0.340312194193,-0.0266300688605,0.407905272457,-0.261633545065,-0.422129193806,-6.22469428436,-0.56303644926,-1.7091046371,-0.233028448149,-1.97256570852,-1.55436552167,-2.05885684991,-0.996862523054,136.966566749
off_to_on,-2.12969587085,-1.57169185551,-1.58033601057,1.20093496267,-0.496538941557,-4.89809826962,0.622543450398,-0.507342900776,0.20126025948,-0.111931275637,1.13648550377,-1.03382671096,-0.46552381962,-75.4267246828
off_to_on,1.82844344134,0.81363864209,0.354816057701,-0.0851396582626,0.493659278176,8.50928673934,0.37486161287,1.39476718131,-0.168927266195,1.71590019525,1.0710119735,2.00356412197,0.882745027025,-133.635128027
off_to_on,1.68332935588,1.3407090659,1.62158805593,-0.622543915196,0.876923399255,3.0761796874,-0.73742382164,0.734725098292,0.136330880924,-0.883581381948,-1.2319461867,1.0767523292,-0.170550080561,70.6781316177
off_to_on,-2.49064999373,-0.972816373553,-0.605816818464,-0.392043374824,-1.10257580329,-9.63982773599,-0.133779156302,-0.97703635185,-0.103605365258,-0.378680677279,-0.615846604378,-1.44727637047,-0.111136372014,128.810280491
off_to_on,-1.42709694097,-1.59551936737,-2.12440352006,0.752160219635,-0.792407981065,-1.74726777132,0.111493606924,-1.58814807114,0.0706079187776,0.43606338669,1.05372650405,-2.00314034782,-0.0722359376163,-54.7420607123
off_to_on,2.99664734226,1.49357904128,1.37384031241,0.352782393104,1.67071931991,10.7096597848,1.00266110881,1.45809856993,-0.0374089804191,-0.274969220911,0.204858930208,1.60338688424,-0.239604409857,-144.608029473
off_to_on,1.06544339893,1.55749728958,2.1811495352,-0.561948007382,0.260239399178,0.0509730055953,-0.251714328505,1.88392035222,0.00430482958556,0.324575989995,-0.505531307744,2.81699910694,0.470057878387,70.5593668392
off_to_on,-3.41470469309,-2.25107592989,-2.39189528622,-0.531742322823,-1.85826880734,-11.2673406069,-2.26031136396,-2.4787007226,0.0286549827875,0.0180177567328,-0.417413075446,-2.51196909897,0.0393998467961,118.773847469
off_to_on,0.130174206587,-0.247056580229,-0.895793751105,0.547131483113,0.60687252667,2.48581138911,2.26438046076,-0.37948588378,-0.0615911775341,0.147681683906,0.669687205264,-2.1582220895,0.00585072094132,-37.5102724807
off_to_on,1.99331508348,1.10907185467,1.56040659344,0.697022077669,1.08018901565,9.34920803077,0.963225722992,1.39950884461,0.0943567708024,-1.18299595872,-0.0610314809049,1.9618994913,-0.981247543633,-149.351580725
off_to_on,0.317987766789,0.19430132829,0.759011878075,-0.825069043146,-0.730227850686,-2.88558375882,-2.76471762044,-0.232167932781,-0.126693184813,0.490113573108,-0.424810291766,2.08084384613,0.515761927761,69.4126381789
off_to_on,-0.713978908127,0.378338261946,-0.413109474866,-0.379809973807,-0.0645056120725,-7.1591262574,1.08703356746,0.730777718463,0.158620916884,2.35354221523,0.785150563286,-0.782584818143,1.80067834611,108.42100084
off_to_on,-2.39338439321,-1.94803122387,-2.23009063108,0.741754275812,-0.340651080917,0.762583737104,0.727116650684,-1.5024145126,-0.19021683604,-2.5978196356,-0.837300306336,-3.62147388868,-2.2261367973,-25.3247946768
off_to_on,2.09986504407,0.516670436358,1.46235101417,0.207651030309,0.603605412947,7.88942943398,-0.44500307722,-0.537143895962,0.221282188411,-1.18972882725,-0.0863872379142,1.7641904104,-0.484990298591,-148.761053815
off_to_on,1.88657369709,1.59769457969,1.60750504682,-0.887837911116,0.0128007774184,-0.506677630368,-0.390349008945,1.72749369351,-0.251618862663,2.58299737317,0.834107211796,3.02994861549,1.75426918139,68.3670029198
off_to_on,-1.92325886247,-0.0164023494748,-0.992677720684,0.667494526819,-0.0308471329063,-7.91703206778,0.632666603096,1.22973220611,0.281295872354,1.36692205951,0.27945524641,-1.18875944787,0.752762793098,96.9949696298
off_to_on,-1.71233885484,-1.90869953431,-1.71674320852,-0.217915124682,-0.610277901563,-0.026434593131,-0.621890606215,-2.74556994681,-0.310334874311,-3.34951802694,-1.61464515641,-3.21778700074,-2.2464233025,-11.4776064039
off_to_on,1.49929914375,-0.357310691916,0.552037498222,-0.0451519267184,0.286618512977,8.54935340994,0.0241637088819,-1.23835739731,0.33851440463,-1.03897572952,0.469303149389,0.719587296521,-0.44457433028,-160.48083259
off_to_on,1.46593696248,2.29107512068,2.09274823831,-0.0468561861008,0.443609147171,-0.438474382378,0.847586601623,3.61293009465,-0.365708401796,3.99324386107,1.4233913084,3.74979756971,2.42335629115,87.2812772901
off_to_on,-0.247802048666,1.0195433383,0.00769209136322,0.61155005255,0.252346575458,-8.4284587178,-0.110205432243,1.07753622853,0.392010403,0.632535551521,-0.414611274852,-0.470753180094,0.429419860218,86.1042078413
off_to_on,-2.72523727448,-3.97131185284,-3.64363925795,-1.0075040993,-1.31426899022,0.623084285922,-1.81768573235,-5.12640373031,-0.417386150078,-5.35258157962,-2.14021016506,-5.14720748809,-3.42561293949,-40.9091635928
off_to_on,1.00712282144,0.823374784212,1.82606194684,0.540044678647,0.689580866757,9.20635798056,1.78492997922,1.41154799716,0.44162030372,2.17644901103,1.94704291436,2.66600109669,1.40765054837,-105.705274024
off_to_on,1.47474813225,2.47717030224,2.12153471939,0.104208801217,0.203579362309,-3.62568079965,0.0848208871749,3.10325870877,-0.464659633248,3.05144465455,0.448013426455,3.20100307509,1.75388467175,67.6438722092
off_to_on,1.30213944767,0.438071375519,-0.672036123362,0.108404587231,0.79127343162,-5.73669862321,-0.118211830216,-0.404291073678,0.486599768041,-1.46783266024,-0.784099507039,-1.79019921517,-0.343892596777,52.3280420751
off_to_on,-3.6328980799,-3.7148501886,-3.13349879953,-0.740717833159,-1.81554874084,3.07817364222,-1.40979708705,-3.7938459506,-0.507359147448,-3.24131105,-1.09879564027,-3.57735859196,-2.68004170451,-7.17013202947
off_to_on,-0.635187974197,0.603828743848,1.58236096512,0.861187568868,0.405464920556,3.73965246529,0.435862174539,1.30499367731,0.526753350159,2.45204694412,1.43428916477,2.74391653142,1.39443590392,-97.1778700916
off_to_on,4.20911978053,3.38176513322,2.68921429982,-0.684422909457,1.32352128656,-2.69352921576,2.07024245938,3.35941534524,-0.544793751719,2.02833627938,0.269597978829,2.51826839449,2.01484595941,47.1129524277
off_to_on,0.0764649987179,-1.02088037474,-1.79933191875,0.657288227783,-0.29375531852,-1.15362388766,-0.900839999875,-1.80626642685,0.561577591845,-2.27592827321,-0.692946341015,-2.90127938285,-1.34998540265,37.6517566784
off_to_on,-4.77309218846,-3.39064022406,-2.66642685953,-0.461208420446,-1.9057182697,0.4997409241,-2.97824936618,-3.36967169771,-0.577236736929,-1.72146174223,-0.9961660628,-1.8378405761,-2.32118528279,27.3933380058
off_to_on,2.01611903469,2.77476697764,3.26582881319,0.170582258396,1.96711544377,0.980531096714,3.19784315,4.06786894466,0.592938575749,3.32986777724,1.94147931408,4.07094391129,2.89070526534,-95.3603414854
off_to_on,1.97541484586,0.471509111612,-0.0959106365929,-0.494872416484,-0.311622776763,-0.459790716261,0.379095084124,-0.122691614283,-0.611684259853,-0.976809843639,-0.757217427383,-1.47487487615,-0.0583008972105,-2.47544308245
off_to_on,-0.0911268120468,-0.640885524856,-0.929966458499,1.071111084,-0.477229728583,1.31536192372,-1.43108932949,-2.08976258056,0.63391241196,-0.690610424986,-0.486093611692,-1.15080112434,-0.92837276117,91.4376600903
off_to_on,-2.77711878726,-1.46484726901,-1.12043144469,-0.789266670205,-0.267322089977,-2.75766984543,-1.35515640301,-0.120231024306,-0.647964080573,-0.518583117808,-0.143790155382,0.433455046728,-1.17841055356,-13.9536994821
off_to_on,1.31175707173,2.13204870389,2.27887802857,0.114850690551,1.47490125803,0.85116599813,2.80277467085,3.23288278176,0.635305519138,1.82119310577,1.66063981958,1.83920220517,2.31213931925,-29.7379430622
off_to_on,0.551586767967,-0.904514464618,-0.939689290222,-0.426280917765,-1.89942441417,1.66937649931,-0.866621439054,-2.80532705868,-0.605405764143,-1.04845264823,-1.69612262086,-2.28026545243,-0.680398032183,-94.8082576391
off_to_on,0.197286472763,-0.87182901895,-1.06199782207,1.20781963148,0.651882054857,-0.531221566314,-1.20932372647,-1.20716571891,0.60878973404,-0.50070606646,-0.153289205646,0.123240032313,-1.00154763272,135.585434091
off_to_on,-0.234379508824,1.69364502884,1.54756918713,-0.92948590953,1.1995464437,-1.16971747749,1.2778388088,3.63834451082,-0.662233831472,0.923911113571,1.35925879168,1.90904887692,0.721811937599,39.1656201121
off_to_on,-0.707830814734,0.166720038974,0.389672813602,0.155924724406,-0.808511182368,0.302866561506,0.139059453107,-0.362759983256,0.681486469157,0.0160000570665,0.195811934767,-0.961942107765,0.557174131212,-118.765462015
off_to_on,-0.882691414241,-3.22550859943,-2.88169896998,-0.470366732393,-1.82231100291,-0.380651674016,-2.26030675308,-4.60370530848,-0.59939778001,-1.5809161236,-2.57113753262,-1.93443302522,-1.58491595494,-55.1646629774
off_to_on,2.90350038321,2.78026630061,2.3950998068,1.22765468501,2.65398280913,2.54597796002,3.23120069044,3.92582814624,0.532633749446,2.59170595166,2.1819757315,3.16665870479,1.89056368856,135.781568732
off_to_on,-1.16591484829,0.941662540688,0.494303337926,-0.855066850779,-0.318976666774,-2.01296101323,-1.11193809412,1.0996979781,-0.629177978033,-1.67919083827,0.353020999337,-1.53595378381,-1.02545450275,68.3918129552
off_to_on,-0.827916179601,-1.49200927655,-0.763807961177,0.0985464500592,-0.96697193423,-0.922606333284,-1.53990021867,-2.23924693604,0.753861515984,-0.633018369155,-0.893725700082,-0.614971031109,-0.274900465788,-195.303592532
off_to_on,-1.22994308156,-2.32918073882,-2.16065834127,-0.451770539678,-1.02047964679,0.245497921801,0.309016293044,-1.60611219018,-0.65280890504,1.1770193826,-1.27519832393,0.832918078417,-0.00667659721643,18.7763647318
off_to_on,2.61512920497,3.35694909205,2.51271932204,1.05906567962,2.30566004569,2.78702474212,2.79066501307,3.04294651798,0.457586018178,1.35965820445,2.24067546975,0.886538938137,1.63742611199,114.496869063
off_to_on,0.751380683322,0.780667949724,0.967486534239,-0.6459541172,-0.347185355957,-1.37108179829,-1.92963003498,0.112310586898,-0.543841530183,-2.98274736259,-0.378887411375,-2.27773339079,-1.56871435115,36.0363638927
off_to_on,-2.73913623634,-2.8912366627,-2.06276439425,0.301791514482,-1.16158371265,-2.31867862451,-1.76349591492,-1.83030677856,0.812972603511,0.188897738344,-0.988333881425,1.07762507901,-0.700983832938,-156.353158982
off_to_on,-0.94957416881,-0.421275128489,-1.03152851385,-0.969939106261,-0.375522169704,0.807031332622,1.8881211353,-0.174473735201,-0.764307713856,3.05061832224,-0.259280335642,1.55772495037,1.47688999528,20.3357023373
off_to_on,3.52075093023,2.96557769691,2.353358232,1.0370070237,1.71216644607,3.12091386004,1.588433688,1.51609626948,0.420667533458,-0.897350321404,1.60747558396,-1.47281563622,0.766523342035,86.7827229251
off_to_on,-0.561865492824,-1.18890949036,-0.260561315821,0.241995844582,-0.629815123865,-1.66357171902,-2.84135829784,-0.880796808842,-0.373735557314,-3.89792944441,-0.959864010189,-2.114354782,-2.47575066367,32.0512333509
off_to_on,-1.40032389341,-0.279582824983,0.0637399993511,-0.474921988782,-0.0335782995739,-1.94736504026,0.890914078479,1.20240350336,0.701978734769,3.78871577329,0.110697104108,4.02232106575,1.30999237741,-114.881819796
off_to_on,-1.27356337989,-0.938713762258,-2.14658165344,-1.30075370954,-1.09430948398,-0.0586594570608,0.215513165303,-1.78060819779,-0.781863789238,0.796364544538,-0.674161017058,-1.00468949364,0.160306603196,0.278056719248
off_to_on,2.43509925116,1.17766067722,1.27572993519,1.99131658169,1.16443813994,3.89913304246,0.42197791775,0.114195974628,0.442784826309,-2.29515115464,1.12743606886,-2.25306217106,0.237096258873,69.4164509561
off_to_on,0.227589302789,0.276646124466,1.40807171367,-0.0159071288814,0.306965471316,-1.63969870885,-0.795202838138,1.09387129198,-0.282039572392,-0.944832293846,-0.31711818775,0.700494537215,-0.849275297263,29.2046108393
off_to_on,-0.868231190161,-0.0084898996999,-0.239267958491,-1.21914636128,-0.132056655991,-2.86983634131,0.754202258776,0.88064567934,0.522575091471,2.63492562669,-0.255852304951,2.40856627293,0.35384708376,-71.4797240813
off_to_on,-1.21419988566,-1.19034529804,-2.3857651822,-0.616937514139,-1.47548820849,1.54076312233,-0.275324117575,-1.80115967012,-0.629571878638,-0.0088966623128,-0.296815740584,-1.37820878161,0.0242823897116,-27.8501802113
off_to_on,0.475071262729,-0.10097342941,0.369051002347,2.26357652828,0.873983249986,2.59123333313,-1.39680760858,-1.24038651961,0.382797583611,-2.19534451125,0.602749751894,-1.91813902914,0.140557124085,60.5722411701
off_to_on,1.72981656097,1.55374493786,2.64433311388,-0.78036772675,1.20231338735,-2.10304538413,1.58157571093,2.39912965679,-0.254744938665,0.518084466166,-0.168876211685,1.60875959141,0.0492833151528,22.5974268439
off_to_on,0.392189357772,0.799115747449,0.137591518157,-1.09099420517,-0.528134450722,-0.979279418204,2.33216430255,1.85653520355,0.426398017539,2.24842879351,0.320515905829,2.00380500005,0.0983593962196,-29.8447280854
off_to_on,-3.57682852323,-3.41726723698,-4.15600745945,0.190742149896,-2.03895911094,0.651566329166,-4.91518758645,-4.36875722313,-0.473210808815,-2.39523680549,-1.0199137058,-3.34871326604,-1.39177938478,-55.1478065822
off_to_on,1.2144418081,1.19213777187,1.70994799263,1.33940176538,1.82208716947,1.77198942032,0.266509986352,0.370536670055,0.26688033436,0.234484171615,0.692448477878,0.685782853975,1.78932539186,56.4347763303
off_to_on,2.41518714165,2.14337723227,2.57531945926,-0.55481668972,0.657271979454,-1.89836538644,4.81624170693,2.88211171054,-0.193733837304,1.29414437102,0.274454538247,1.90762783972,0.0530879664198,14.8388832777
off_to_on,-0.177070766652,-0.612269455391,-0.68810796213,-0.711223464603,-0.865376868145,0.247025736616,-0.8973518135,0.119967434528,0.326554091898,-0.266373520127,0.0222502826388,-0.975145530604,-1.14836180283,0.188819063168
off_to_on,-3.14852287436,-2.53456246909,-2.97767885545,-0.159988191253,-0.967068776869,0.909667313713,-5.51092825845,-2.83470601589,-0.313327232854,-1.84164400225,-1.01212371157,-1.87898499548,-0.5992561565,-68.4911435106
off_to_on,0.304963062792,1.02928799132,0.688580111651,1.32630544673,0.914607044673,-1.40197764033,2.44902025993,0.0485701486202,0.136398198651,1.44749449682,0.475799336266,2.29773877639,1.72708572845,50.0528717073
off_to_on,3.6316851054,2.57306862066,3.30062369156,-0.301533603202,0.729884684503,0.56615988798,4.85296459984,2.37939244825,-0.116066376676,1.6806044253,0.943738361394,1.04946513369,0.53375939389,5.52554457346
off_to_on,-1.25192009994,-2.00712181386,-1.53979039801,-1.01452860167,-0.667474695254,1.70253971718,-3.44971112249,-0.165491029314,0.218939435085,-2.75783206424,-0.678313044616,-3.70771159224,-2.45921429252,21.1440492821
off_to_on,-2.90447594613,-1.42005158374,-2.43242041811,0.0824314684827,-0.656686723196,-1.79693129563,-3.10296733335,-1.43278641005,-0.155314546121,-0.525700840793,-0.839325614586,1.00414921535,0.358045097847,-68.6677431147
off_to_on,1.87774648832,2.33655761386,2.01349113083,1.27910866182,0.609102237946,-1.55076534053,2.94644804415,-0.259181809627,0.00338523533821,3.22249716447,0.956474948972,3.90218528592,2.52599131913,39.6300603113
off_to_on,0.998404008795,-0.683164654878,0.468253105284,-0.427314146347,0.19227265051,2.34221206854,1.09635647018,0.113508395269,-0.0233754084326,-1.24906916196,0.195180911815,-3.47325147202,-1.74390945706,-3.08672273203
off_to_on,-0.450017354318,-0.343755952798,-0.46108960712,-1.08927606413,0.111356789028,2.32186321192,0.187972272396,2.47086477937,0.101852270886,-1.4338704023,-0.269315794143,-1.83108927662,-0.882267192187,34.0585496753
off_to_on,-0.949638655832,0.40533900561,-0.33200276009,0.606739919458,-0.578270112777,-4.63037219638,-2.44406771791,-1.37952688109,-0.00913288053981,0.414837338084,-0.586203442195,3.37322267591,1.18634109982,-59.6999043206
off_to_on,0.0770493079783,-0.378331660592,-0.1492707962,0.752754864861,0.00787871266009,-0.594272854918,-1.51146077678,-2.76220387257,-0.116233383285,1.11001548667,0.284624133972,0.999030021918,0.4045287118,27.1651744905
off_to_on,0.705785198547,-0.054444288862,0.138543563415,-0.505594213794,0.412422012317,5.13041535999,4.41018741821,2.59583205541,0.0773799827399,0.623355968521,0.882770640829,-2.95737586362,-0.755769940869,-9.76355111377
off_to_on,-0.238788902556,0.145575358803,0.19091246061,-0.650994064367,-0.145725250405,-1.56453711128,0.810019373156,1.32942872163,-0.028394694454,-2.14980814574,-0.859998689627,-1.25474376893,-0.504845842178,39.2993769123
off_to_on,0.730691491786,1.06154653907,1.14567743158,0.581777939116,0.51413199623,-3.34035808725,-4.64469868344,-1.53902521485,0.130430206859,-0.00479917532514,-0.225256191261,3.87506463869,1.2230102958,-45.1248179332
off_to_on,-1.41037291081,-1.53465520107,-1.8956806117,0.303079517502,-1.14413648092,1.39102806772,-0.942083916337,-1.65068974566,-0.22143371498,1.82970187479,0.523726647529,-0.0850320043829,-0.474359213595,14.904103815
off_to_on,-0.0857179890255,-0.266572054506,-0.441588485476,-0.210138363361,0.218093085972,2.7940027705,5.6138315702,1.57945995561,0.177339052224,0.350438765672,0.167277415065,-3.10526813637,-0.45819090897,-14.1293514945
off_to_on,1.60332980915,1.46532987383,2.15116601734,-0.648755934843,1.21540773266,-1.5961748183,-0.137071262762,1.32120050673,-0.161354274268,-2.17971221276,-0.549358124075,0.368494868254,0.343592960653,37.9531995914
off_to_on,-0.548566653224,-0.159753689746,-0.188483797578,0.729998429691,-0.555276362182,-2.29894534249,-5.73755824785,-1.52547585457,0.260051469019,-0.413560902689,0.24835479479,2.17363900064,0.18901127247,-27.9416367213
off_to_on,-0.685735879848,-0.659650408185,-1.39795140992,-0.0307409706807,-1.2137455523,2.09237148665,1.73232417717,-0.512174909583,-0.314403445145,2.78941264016,0.0979721969892,0.298733637705,0.0106118561294,2.03594876465
off_to_on,0.354685264358,-0.204762576366,0.0726757373142,-0.120726277951,1.13258249994,1.79792701475,4.69320453511,1.05909645991,0.273749153746,-0.0371254459259,-0.100308734176,-1.74196067941,-0.225711534707,-7.03627102537
off_to_on,-0.795087813866,-0.466177626918,0.0643557961331,-0.488706308535,0.270643053094,-3.5515282624,-3.33420047385,-0.783925847979,-0.287870148508,-3.39479568372,-0.283027687432,-1.78014883347,-0.812037320724,14.3215318792
off_to_on,1.71502452889,2.27969397549,1.93653170317,0.718044048355,-0.341710567994,0.648337078278,-1.73715004187,1.00044391217,0.373857459813,1.62508475623,0.857616356979,3.22413342573,1.76782891823,1.96498458003
off_to_on,-0.148223082969,-0.963867568302,-1.31118479459,-0.176310863289,-0.752795088887,2.68433564198,2.05321454506,-0.209781322194,-0.394982451583,1.74802136047,-1.03579456326,1.00850509839,-0.678387007153,8.85077120945
off_to_on,-1.42677874397,-1.71699258803,-1.31266202764,-0.122781415919,1.08220684641,-0.818708124408,1.53270434614,-0.526763848894,0.363879437903,-0.460781109227,0.541623448708,-2.55079306691,-0.726418012951,-56.9530865353
off_to_on,-1.01184281878,0.241759512798,0.342162696859,-0.406289888963,-0.655978558707,-4.05272033253,-3.17736729638,-1.32928030949,-0.400752390914,-2.63116342844,0.0354155532903,-2.37199984427,-0.199593957305,59.1176159162
off_to_on,3.11267576868,2.68279417554,2.33916004003,0.899647665438,0.384755245204,3.23684714881,0.88859441574,2.36364365042,0.467455637253,1.16184756738,-0.131870741354,4.11263142592,1.47916084403,3.53001595241
off_to_on,0.251878224831,-0.658206369614,-0.61771913544,-0.616877086515,-0.0521083743577,3.48902714917,2.51318934005,1.18627127434,-0.462568229388,2.44883264463,-0.131049656021,1.76179733679,-0.095678227432,-32.5582179995
do_nothing,-3.27577922118,-2.71089259526,-2.46385893555,0.191889822502,-0.211489632596,-4.6579635285,-2.41191666863,-3.54133483342,0.444540680175,-1.50195370358,0.529548003151,-4.68133729113,-1.47203557391,-8.35993818778
do_nothing,-0.222679903463,0.302167645013,0.395752826162,-0.328563069077,-0.407403195553,-2.84450850772,-2.01371390371,-0.955719066916,-0.494071746418,-2.39498251781,-0.888269633814,-1.06489969472,-0.260700459486,28.6014343042
do_nothing,3.80778615406,3.68917281994,3.10562821608,0.591070302184,1.15720592388,5.94248188243,4.5067251693,5.13431909931,0.537477079292,2.63277180241,0.783190710786,5.30587665771,2.42092334148,19.7047452273
do_nothing,-1.0255882689,-1.80152915529,-1.69438049359,-0.525483579533,-0.739531977881,0.798090338068,-0.702600976301,-1.48040420307,-0.515613375435,0.103531125762,-0.290349416568,-1.46174261634,-1.12933881543,-68.353388055
do_nothing,-1.46065473301,-1.54349780396,-0.633155028253,0.505247547072,0.246763603343,-3.67268202344,-2.74060128848,-2.75468054767,0.511998448572,-0.101372689294,0.319478608423,-2.0179549542,-0.585558508829,61.2182537219
do_nothing,-1.89214158313,-0.602735389193,-1.20149434097,-0.592498659731,-1.03509499586,-3.43849878662,-0.825209642937,-0.516920823853,-0.563811829049,-2.06571022608,-1.01688400543,-0.651926698736,-1.04201995144,-21.8843189091
do_nothing,3.40842623573,3.23676439459,2.27272569086,0.344370611176,1.41214701551,5.59114314176,4.48285395735,4.03062591522,0.582562975208,1.44635643198,1.17262508491,2.50854179915,2.45505148115,-6.29314217898
do_nothing,1.54922255445,-0.191945093338,0.981211508115,-0.227174917905,0.0407108681021,3.25478512706,-0.256633593489,-0.027484771021,-0.552424540482,1.05503448386,-0.372472977129,0.339135786644,0.00563382919245,0.0571215037882
do_nothing,-3.70013247322,-2.67403611746,-2.00492555013,0.927469709227,-0.839755524616,-5.80175640654,-4.360000694,-3.65875136392,0.562160145037,-0.733495333198,-0.119123726578,-1.37976758203,-1.99728341629,24.0457537918
do_nothing,-1.69390977328,-0.205028830587,-1.88571579212,-1.3581477818,-0.8249404499,-4.4309577535,0.250643676156,-0.51067596355,-0.60735453169,-1.4536504803,-0.316876779492,-1.49954582667,-0.400656449332,-6.37703160174
do_nothing,4.50232387112,2.54242890572,2.71787572362,0.343364326923,1.93708757843,7.54568414003,4.8573085525,4.22335843697,0.602964613542,1.08083232823,0.680797125846,1.69432711597,2.41615588148,-54.7319026659
do_nothing,0.41187928985,0.137316025183,1.59778892723,0.490994327666,-0.198082527571,4.01998802666,-1.23893200082,-0.127655212981,-0.571743559997,0.852455329253,-0.553178951914,1.49484688204,-0.0637784144014,53.8903762744
do_nothing,-3.0104459449,-1.03852587168,-1.89620856891,0.695835470475,-1.15690970927,-8.00996377079,-3.46892512732,-3.21375719996,0.591492096392,-0.0703742029831,0.754459257255,-0.968459804513,-1.46983690814,34.9306177486
do_nothing,-1.89433938505,-2.83605167734,-3.58763058989,-1.9653811115,-0.657695398966,-4.96585539863,-0.326305423994,-1.38802625625,-0.623452440584,-2.49804235578,-1.2281369628,-3.27730133925,-1.71646505891,-61.7563835402
do_nothing,4.75479322674,3.53952429005,4.61220648858,0.794440696539,2.55080984503,11.1803973364,5.11405750546,5.37595660179,0.599855579729,2.46281793102,0.955830264022,3.56269542477,3.74272826197,-28.9708427614
do_nothing,-0.436152445219,1.11307450199,1.06790887984,0.847982464849,-1.32207624542,1.25095737982,-1.88934859464,-1.40241659937,-0.572676353439,-0.0219872226531,-0.24438139158,0.555911402827,-0.330292181399,55.5882408064
do_nothing,-2.58944930383,-2.25854408401,-3.13906734909,0.0876779438622,-0.631751720388,-9.1382994956,-2.36341895986,-2.99334166355,0.597531534126,-0.904249648193,0.331957762993,-1.8657573207,-2.37339041343,55.9671589477
do_nothing,-0.321133793423,-2.00235826727,-1.28808489987,-1.87191790115,0.24095458612,-1.09510958287,0.226755950914,0.814915472813,-0.612301550382,-0.265888498044,-0.863028620583,-0.666673200504,-0.378419422297,-95.5200992383
do_nothing,2.17661928956,2.69176103013,3.0401708179,1.29121594508,0.965115952561,8.4288550445,1.79337104941,2.21918623432,0.574989480498,0.843421643493,0.58167274757,1.42883079805,2.84710541084,-19.9399357135
do_nothing,0.297144817638,1.53013415283,0.589057762451,0.260488658052,-0.747683903153,0.448323178579,0.81846944109,-0.777561114939,-0.554713170952,-0.317646914776,0.0257928231568,0.186391332915,-0.38966420158,53.1929643483
do_nothing,-1.08015813473,-1.79473021626,-1.7824277671,0.134296770271,0.233648682378,-6.64466365678,-0.708948507675,-0.681513532143,0.579143101013,0.330883759469,0.341265393676,-0.013703735986,-1.78109007799,79.1165020654
do_nothing,-1.53769111677,-2.59087036179,-1.45174623114,-1.21759396137,-0.690314926407,-1.72452209544,-3.70877157158,-1.06786024429,-0.575429403702,-0.850129432195,-1.12629469905,-1.55439235935,-0.481148350404,-113.541228144
do_nothing,1.99926246421,2.98671563934,2.53202102332,0.64568481059,0.940676142549,7.36097824366,2.9426406578,2.01465614548,0.530443081399,0.842948121739,0.986603507464,1.14666233213,2.53946566023,-26.1455973441
do_nothing,0.101300121041,0.779214650335,-0.315939701475,0.138025086901,-0.41507873442,0.0474447248739,2.86740887455,-0.494097734377,-0.517787175977,-0.859978042312,-0.371026634586,0.0458395960623,-1.05493249457,50.5625413726
do_nothing,0.377688287441,-0.678382416892,0.0686196343027,0.637806931412,0.439753674289,-4.8499710235,-1.99257020012,0.0334226880292,0.536604995838,1.37941967859,0.421015942595,0.793809159275,-0.0686024007154,104.207766532
do_nothing,-2.43910856206,-2.67072276055,-1.66831537305,-1.16886887929,-1.11236048481,-1.55453589652,-4.72208274213,-0.996317551203,-0.515505051968,-1.08895277108,-0.724475811566,-1.82412849553,-1.04578401905,-124.236604147
do_nothing,0.875292470253,1.71361588048,0.689335086298,0.183942352781,0.913364341129,5.31920313677,3.67649794745,0.489399475105,0.468500930209,-0.340382502423,0.460229859888,0.450648084749,0.778562431869,-38.4163226053
do_nothing,2.26077153107,2.23017595401,1.52884195651,0.09745257002,0.105758756516,0.424016255527,4.36475995097,0.583435517883,-0.462388460824,0.912305960713,-0.120637919143,1.24552148116,1.07817582331,48.1795596289
do_nothing,-1.18976213605,-1.76451467277,-0.713142064744,1.12761073447,-0.363139193397,-3.88213563333,-4.38687349116,0.142036248989,0.471541963027,0.0763910698641,0.247547383346,-0.654053436004,-0.522444666487,123.432291467
do_nothing,-2.13764987629,-1.94799131992,-1.53460647153,-1.1511685219,-0.301838514775,-0.240854674354,-3.89692070725,-0.834776285231,-0.436063441291,-0.757006762855,-0.342639502557,-0.770117710249,-1.60854063393,-122.026705705
do_nothing,2.01377244093,2.28222617522,1.37619995217,-0.457221074965,0.750927334854,2.85930427157,5.21730857414,-0.101918704106,0.391629662943,0.486453033344,0.283371951093,1.07687348453,1.05558181793,-59.2990828255
do_nothing,0.293518285882,0.133221588476,-0.0755429411585,0.457501183979,-0.731215696703,-0.639571175451,2.0772121934,-0.0686649128188,-0.389721525003,-0.734164996607,-0.646784361393,-0.979797368534,0.714244798366,50.5191919303
do_nothing,-0.227712937019,-0.337670016813,0.357950554707,1.3778890405,0.624713043575,-0.184777563847,-3.6812779432,2.10530318747,0.386788395971,1.42616829945,1.03039027841,1.03338565365,0.378839997845,132.970009823
do_nothing,-1.20140346817,-1.1136256065,-1.12026478908,-1.31410761824,-0.387330618941,-1.27875397161,-2.98479874554,-2.15135374074,-0.341192064412,-0.935914673547,-0.52359174103,-0.480221425099,-2.18336682353,-109.559587418
do_nothing,0.913049913345,1.00125533835,0.753949487602,-0.85794499645,0.199905021183,0.875919577884,4.94800465452,-0.447473615828,0.302237054806,-0.248717415894,-0.207384172438,-0.187373328196,0.790665844109,-82.8059162216
do_nothing,0.017505845201,0.0227179430145,-0.084564232672,0.981236817667,-0.445827222837,0.417213442314,1.35179725361,1.52329635799,-0.300444716509,0.353635210571,-0.0118934747374,-0.113120675793,1.27796045,54.8497508217
do_nothing,-0.0296683448743,-0.331328186416,-0.337730011138,1.38436974748,0.556562567781,-0.106914028226,-4.72085256294,-0.240169862368,0.282338995307,0.159675640064,0.470706833253,0.487181106559,-0.430845699716,133.819936341
do_nothing,0.401793353464,0.497237313035,0.683355166435,-1.84714933789,0.0748824659157,0.0567414995541,0.284699097171,-0.334858752835,-0.230444593848,-0.0684982223346,-0.064471221794,0.0881906224205,-0.947117519885,-90.6681097554
do_nothing,-1.06253953918,-0.42490048854,-0.116130755751,-0.513659381226,-0.522365184661,-0.743186285872,3.67684760163,0.146684108965,0.205325199403,0.0901387391325,-0.300416183133,-0.480612210168,0.188089379636,-104.05751292
do_nothing,0.0520540649864,-0.553765429642,-0.973072904749,1.42310170044,-0.0686115135264,-0.383431231184,-1.54255658383,-0.708803678585,-0.214816233949,-0.506649255055,-0.321005469619,-0.0334898832391,0.501322235456,58.4270639609
do_nothing,1.52361694667,0.916073066944,0.430121202553,0.595002330946,0.657862074207,1.82385380853,-1.97662970168,0.389034171111,0.18790938322,-0.0587812507865,0.698428370695,0.293642521262,0.238256218022,128.450452316
do_nothing,-1.09579206668,0.0299600121658,0.721962251822,-1.73224418997,-0.347884569125,-0.323286921769,1.44950142873,0.93629969684,-0.116243339161,0.727903092421,-0.0245753303121,-0.297146891001,-0.398131445559,-68.9761415144
do_nothing,0.019596664071,0.258441851166,0.827422604465,0.0282432735463,0.115903146728,-1.27406105751,1.88153692912,0.422016108244,0.0784907647835,1.05754763344,-0.11258409369,1.24035526451,0.248972607649,-120.806187704
do_nothing,-0.469755567084,-1.9144058287,-2.93071896562,1.44002915871,-0.480833719785,-0.502636182246,-3.30622226818,-3.2149488979,-0.0943534621029,-3.17935181224,-0.909078942421,-1.78068411554,-1.49762360437,60.5637411387
do_nothing,0.522385865717,0.906668334113,0.438884842578,-0.358127728927,0.285785469397,1.84181119303,0.556134122069,1.06927880148,0.0870224854169,0.853245864011,0.908861964646,-0.243310653694,1.48888689777,119.242898689
do_nothing,1.16981644259,2.60606138538,3.79658528758,-1.16045745252,0.530687202074,0.494608886322,3.34525569437,4.10965207394,-0.0204267700265,3.68513487985,0.85657962451,2.64078038064,1.93527692894,-48.1002305156
do_nothing,-1.45589837544,-2.72890826072,-2.27738209661,0.697095148001,-0.408856414374,-1.98891860268,-3.08653784875,-3.08961926753,-0.0418821805064,-3.1473347674,-1.58950872109,-1.60467892689,-3.54183145566,-131.702422142
do_nothing,-0.693479277459,-1.30361677237,-2.79247147862,0.720234832107,-0.441483095119,-0.0715964509157,-1.26316413004,-2.90336806455,0.049351247444,-1.93329118785,-0.108756642798,-1.36457188212,-0.580871865181,61.2275382344
do_nothing,1.0525314094,2.67659834928,2.390827132,-0.928502189969,0.122945157062,0.851986478258,3.0873033308,2.93847075038,-0.0423352981386,3.21548815708,1.36495368645,1.63457813746,3.8040915914,108.284783326
do_nothing,1.3433255557,0.827332401351,2.58824232471,-0.0239868399501,0.920333988152,1.23270002502,0.572922453597,2.87537136053,0.0750634464929,1.01736343198,-0.0685632687105,0.779720518316,-0.12543964684,-30.684492635
do_nothing,-1.4549385503,-2.73159874777,-2.72552711976,0.542410115267,-0.437998181685,-0.78058390208,-3.43262405864,-3.17574962941,-0.129338006896,-2.98366115301,-1.32514573,-1.67021688106,-3.84374765638,-136.699086959
do_nothing,-1.69931148759,-0.311816494285,-2.28689450943,0.000909823703235,-1.01051780121,-2.53262562424,0.228528887557,-2.78611323784,0.157088260064,-0.62687302809,0.279286648019,-0.252488777488,0.639742319586,61.0285186642
do_nothing,2.30093841567,2.82464713062,3.2291085846,-0.706438455923,0.782310649214,2.0614705507,3.9773133724,3.85550608113,-0.165545482434,3.14025128889,1.26925178783,1.86720374857,3.88528787207,97.1436861539
do_nothing,1.12708098236,-0.637820019128,1.39534423166,0.611412160359,0.806936072915,2.337716827,-2.03526417615,1.66030502424,0.195994605502,-0.12171605373,-0.461345364796,-0.831388050529,-1.48481941608,-18.2551472737
do_nothing,-2.52998195274,-2.28419556709,-3.20064300218,0.0520658370645,-1.04220404745,-3.12263216889,-3.39055685694,-3.73916422657,-0.237569651016,-3.03606937845,-1.39272033649,-1.34947332411,-3.22141647064,-136.665602883
do_nothing,-0.176903002535,1.51136801932,-0.201282678805,-0.290652142578,-0.116070182477,-0.697813396407,4.13490742303,-0.0177876026889,0.243872330756,1.04425950426,1.19507845493,1.84327554693,2.02484920945,60.9933567873
do_nothing,1.29875318772,0.575889944327,1.65147307481,-0.190234012524,0.234641062445,1.88940722794,0.69937102938,1.64933386525,-0.238983753245,2.00513414663,0.52737135469,-0.399295678217,1.71547634856,85.1772833534
do_nothing,1.45164458032,0.0650226365163,1.55094510074,0.607016442621,0.911387443364,1.34775748768,-3.72299701793,1.04297090779,0.299236276809,-0.163471670312,-0.659715079489,-0.451017256741,-0.580859043133,-4.54271937894
do_nothing,-2.615402801,-1.85919567284,-3.06725230898,-0.397432012886,-1.19093893638,-2.79706328393,0.48209946514,-2.10962185754,-0.396970688338,-3.46476037554,-1.04232524017,-0.594361237477,-2.72576298094,-148.091822664
do_nothing,-0.467535997401,0.786641555646,-0.34673062678,0.0792119736647,0.134546493026,0.135145875641,4.01787176487,-0.0727161984646,0.40213269405,1.83129801536,1.5667884567,1.27601624807,1.4442697498,79.5947510944
do_nothing,2.64953202537,2.02149762242,3.07403357425,-0.268949606995,0.545495970967,1.77654610279,-2.67666839693,1.32821100452,-0.311019206571,3.23174711397,0.14605742379,0.324136798788,2.21790030066,74.0360227202
do_nothing,-0.419895639671,-1.70258778196,-0.690551625922,0.645678855705,-0.0163189077978,-0.422106674235,-2.73008419532,-0.412159707578,0.302043624246,-3.23054779752,-1.34574072331,-1.80477191734,-1.75357298566,-32.0472244283
do_nothing,-2.2597853072,-1.84905642066,-2.78130403923,-0.606530248715,-0.800626616401,-0.883394968576,3.60567727432,-0.636334850164,-0.442409908743,-2.35968207398,0.00172891342415,0.173488296998,-1.75317717166,-95.8117460037
do_nothing,1.46749256891,3.11228947421,2.08093543386,0.292512293909,0.944164657049,0.17043880191,1.79145480474,1.26088456935,0.53619898393,4.59041261635,1.91480343037,2.57859969438,2.47292206769,60.0732805314
do_nothing,0.496034911614,-0.137075318078,0.926402443395,-0.223597463992,-0.387429176108,0.0197634223129,-4.80617497344,-1.27812488356,-0.44350013624,-0.241600605755,-1.63917542595,-2.3224225074,-0.101345545022,41.6004231197
do_nothing,-0.145300369122,-1.78874307537,-1.00260652064,0.413198113558,-0.0729481882442,1.7551959593,0.927468223979,0.129191214427,0.33999659399,-2.79894438748,-0.116204975393,-0.377849404102,-0.943434515211,4.26582603462
do_nothing,-1.55039683441,-0.842531015294,-1.8993475446,-0.525483173609,-0.493937985065,-2.70458226031,2.15065706361,0.177968235521,-0.421415555998,-0.496662067454,0.520399716771,1.14277854809,-0.620310931228,-94.6494327038
do_nothing,1.8294871648,3.42143372906,2.91163613135,0.533240239514,1.6052421168,0.577263158459,1.04038167076,1.84597050941,0.559967761788,3.94753251153,0.893068481006,1.14512920153,2.00220662817,44.5008220222
do_nothing,-0.506091851027,-1.1724044902,-0.168293176319,-0.594687848553,-1.3719421549,2.0352051307,-3.03703846336,-2.25102723165,-0.541890427146,-1.52593287263,-1.67204470722,-2.58325325426,-1.23393791038,28.9061142883
do_nothing,-0.715723415281,-2.3490948261,-2.26016974227,0.594504773729,-0.399898166809,-1.17724644263,-1.60057234481,-1.49742703994,0.448508255897,-2.60207440755,0.444026592604,0.423668815936,-0.661542069489,35.7448686882
do_nothing,0.751951082142,1.42604170537,0.838689740642,-0.431094609935,1.07611472588,-2.15635255131,4.03083653201,3.29950671131,-0.480473080569,1.97425150947,0.885457995671,2.35418770933,1.29717425511,-94.9749701741
do_nothing,0.271822475416,1.95176419319,1.89419563143,0.434519566816,0.603743779816,2.87435549362,2.02496403927,1.22184828029,0.58232942515,1.74797322701,-0.185560874207,-1.32680559524,0.295093729921,-1.52301345865
do_nothing,-1.3328854912,-2.04705094154,-1.70412661211,-0.778212413312,-1.96278609516,0.318011730843,-6.04672468694,-4.6708120854,-0.575436855779,-2.75152846761,-1.45650062939,-2.21331814381,-2.00798995174,84.1414996018
do_nothing,1.30749724768,-0.443570576521,-0.315503780771,0.876196952137,0.884722765417,-2.22913468394,-0.103744570227,0.711436333795,0.504217198517,0.444210212943,1.53191501884,2.867664485,1.32341409358,-9.74261219023
do_nothing,-0.488703609177,0.352543231548,0.0636846873943,-0.32596622303,0.435479218772,-0.573998807696,5.06104803258,3.10022121214,-0.524469914846,0.870430483312,-0.225776745858,-0.0677362649636,0.290789745352,-28.3406544544
do_nothing,0.393028378681,2.21801739922,2.09542332278,-0.0509497158563,0.402180792022,3.6231118921,1.27068325409,0.71871009032,0.594819371644,0.759202694323,-0.0882841663297,-0.813917447608,0.437408828253,-92.9234208267
do_nothing,-1.22204593423,-2.3873291437,-2.15535349207,-0.550759658723,-1.69311911003,-1.96940287798,-7.37913904607,-4.8435535807,-0.581968605303,-2.48493323305,-0.978655198815,-1.72950875741,-2.25897568247,129.61232679
do_nothing,1.27669098273,-0.402481795759,-0.121786539546,1.2290399638,1.07347040765,-1.17007678048,1.33146523785,1.27002601956,0.528895754163,1.42705346279,1.35069076546,2.30772897646,1.30912107272,41.4456771287
do_nothing,0.0409261471346,1.57597306119,0.952964491109,-0.743344378132,0.193445792624,0.447329415421,5.98642590891,3.23737115131,-0.54698304928,0.972963431855,-0.336637644763,0.885457604478,1.16183556644,-118.459119221
do_nothing,-0.856959943235,0.350776256543,0.490993456929,-0.0688569343214,0.0115799225436,1.77213768796,-1.30159830021,-0.804213738512,0.588671743679,-1.25167342191,-0.304716835719,-1.90197236624,-0.705655939693,-51.1128309621
do_nothing,-0.0615961516656,-1.68292555424,-1.08526066432,-0.384082047134,-0.817609851475,-0.389883141869,-5.78914831901,-2.71075529859,-0.5635112459,-0.66055671534,-0.287397348572,-1.49780730243,-1.54604718914,130.11036568
do_nothing,1.14447407295,0.428027520184,-0.0571824460021,1.34922136974,0.581355646266,-2.11063686478,1.71981117356,0.654700030406,0.525863955057,1.53115013343,0.811315820313,2.78503168243,1.01723200581,69.3092994785
do_nothing,-0.854474174638,0.656295088621,0.267743963509,-0.904283318257,-0.0527435402451,0.19118792,4.914151505,1.47814512231,-0.547663421685,-0.435537566165,-0.589374891453,0.734956011627,0.914479881359,-195.257520948
do_nothing,0.349332378835,0.629220868737,1.2697952074,-0.322801096742,0.488190038604,3.68874974766,-0.615117903001,1.36266715531,0.567219736959,0.115370980553,0.592428084294,-1.9786529415,0.350331365037,23.5705516794
do_nothing,-1.02297567375,-2.24907447594,-2.04545385177,0.0891047866403,-1.13883926914,-2.88885020195,-6.7123598626,-3.34336216313,-0.527820937338,-1.53522077006,-1.01291953229,-2.25131940814,-2.80464968206,109.113874858
do_nothing,1.7126720957,1.66466091102,0.931214752705,1.21308910343,0.928972870711,-1.33033649567,3.33796372746,0.433573927094,0.496795773949,1.90227286717,0.7842015598,4.33767415569,1.47571749193,37.0146087957
do_nothing,-0.964045111649,0.0596250516041,0.0899432869374,-1.14825059485,-0.441711502291,1.91440407136,4.18937866057,1.49818784021,-0.51842828148,-0.169972976261,-0.0587400801915,-0.171847174869,1.2659534918,-157.292142345
do_nothing,-0.204247431602,-0.415411448693,0.19916245724,-0.15969830041,0.444687682784,1.47918036086,-2.51150672036,0.664795918225,0.522881993888,-0.699942238698,0.183094478227,-2.89465562268,-0.209063935034,25.2095219436
do_nothing,0.377464462626,-0.372252402963,-0.408015004225,0.232201486629,-0.409952498409,-2.38792791926,-3.52303864163,-1.43830775099,-0.476891491821,-0.515196195023,-0.884031212557,0.14148909323,-2.05622984381,82.2528039328
do_nothing,-0.105866247496,0.30283161338,-0.296288319009,1.04672489611,-0.0508816178861,-0.495521335461,2.19499009376,-0.926269225281,0.449934876351,0.908509498656,0.596843924378,2.18875200797,0.438819356408,33.410184249
do_nothing,-0.0340522092285,0.377787987955,0.407317142581,-1.29474880255,0.0801277028573,1.50181635654,2.39557458694,0.957749435852,-0.465312878906,0.512994608225,0.311692029712,-0.016103853358,1.93871507356,-117.168906806
do_nothing,0.699065530986,0.293257184104,0.915842637391,0.198664950174,0.747294813541,1.0681039346,-0.548000056123,1.87948430252,0.456663510629,-0.548145082441,-0.00442158394782,-1.13969091529,0.0596671436488,5.17869054467
do_nothing,-1.39430726037,-1.7258679541,-1.77489398806,0.166810968185,-1.2339114849,-2.24409836294,-3.22993407016,-1.83761120393,-0.41020418426,-1.61036166279,-1.19510093919,-1.50837595604,-2.83304023749,65.7528971851
do_nothing,0.674971138746,1.34561354987,0.71026988462,0.505689227067,0.488720297293,0.370326359327,0.826318555019,-0.885112722406,0.38738999432,2.19603530656,1.20774036463,2.3907181546,1.0848873257,30.9615926144
do_nothing,0.293408520909,0.258967583423,0.361679528353,-0.585869669421,0.305266883729,0.213271185678,2.09810492844,0.312529906644,-0.393383928059,-0.18236186285,-0.123087206634,0.231508233935,1.40606106471,-74.7821012937
do_nothing,0.723780514688,0.0569387017735,0.609211008779,0.1252924915,0.268272680281,1.41563648942,1.59682922743,2.85557562533,0.373299352154,-0.473541884611,-0.0115015392717,-0.666799903778,0.505034484022,-23.2883054893
do_nothing,-1.90746969515,-1.64297569198,-1.72615642566,-0.428156363452,-1.31141488195,-0.997218785926,-4.36484599622,-2.09911799599,-0.329916933059,-1.19401392769,-0.807956830314,-1.73177245008,-2.66880438186,57.7734504251
do_nothing,0.108030120966,0.711317736941,0.306503384987,0.818695069271,0.927568067007,-1.26983797262,-1.26054530024,-2.14443133774,0.310720081524,0.982199191077,0.617245596321,1.00334179815,0.0239635526791,24.6857550906
do_nothing,2.20891466547,1.86337420235,1.76351002562,-0.0324345831531,0.553312439264,0.535827251448,5.85568583398,2.84688643448,-0.306200915975,1.63878887799,0.505183432182,2.28281990423,2.76416169581,-33.7014704058
do_nothing,-0.629350998038,-1.25526711421,-0.931325478059,-0.565987039503,-0.960417491589,1.80559861637,-0.0351833906697,0.89059342468,0.277097081066,-1.51741525191,-0.450748271778,-1.3482969476,-0.288644752788,-51.2431173111
do_nothing,-2.27202829632,-1.83178407658,-1.40262669043,-0.552946780577,-0.229836770318,0.134379589108,-6.32452468152,-2.61930662549,-0.23871511632,-1.93615304944,-0.804579330093,-2.57808245768,-2.73479688556,54.4377223426
do_nothing,1.08937374055,1.72109914354,1.24522059829,1.44935238076,1.15217862731,-3.38509013532,1.5994754927,0.179584801595,0.222124869108,2.47914245803,1.03508030865,1.89231817039,0.677150979418,17.0875265123
do_nothing,1.69957522423,1.19151705331,0.523439469252,-0.0822601918743,-0.642230477345,-0.158711348281,5.37361426527,1.31395460611,-0.207748834053,1.12749506969,0.0350230728411,2.0569882479,1.95324089563,-3.66342597776
do_nothing,-0.0805971658971,-0.753785769491,0.000907284352302,-1.30843572091,-0.164861940211,6.32263638011,-1.51844151548,0.765164820924,0.172812683697,-1.94944940123,-0.269946766313,-1.21858286363,0.357345182319,-65.5147970509
do_nothing,-3.3330022156,-2.61700008834,-1.9051024363,0.0919527577714,0.0232984047247,-3.31071194258,-5.98063959006,-2.29139475071,-0.139990357585,-2.02996353942,-0.715546264503,-3.10166201479,-3.09882821674,48.7411767063
do_nothing,1.6584025337,2.08605901421,1.10726480197,1.52299595307,0.546700142982,-5.58144304252,3.2620739688,0.244701383772,0.12436475716,3.38867990707,0.818429041546,2.53204694136,0.71622711776,7.76219607869
do_nothing,2.82808923994,2.16552512951,1.56430671471,-0.467326192164,-0.449306843496,5.18630358685,4.68616375207,2.04071457006,-0.101847382537,1.0173610025,0.449943448021,2.16382167145,2.4570170864,17.7994895225
do_nothing,-2.51434147584,-2.74146457902,-1.79776277835,-1.26391117728,-0.290856626282,4.09163944614,-4.08948431278,-0.959792889984,0.0647518994557,-3.85696783644,-0.939867106603,-2.86198889891,-0.856345748059,-66.8192759939
do_nothing,-1.44414954921,-0.929317014298,-0.209849005005,0.38610869249,0.763600945561,-5.79285050987,-2.72176105824,-1.25618137231,-0.037443759487,0.633081952998,-0.0957932112399,-0.571908607778,-1.66683301424,38.9228528549
do_nothing,1.82192681419,1.8570754124,0.783137199384,1.327034173,-0.370779067685,-2.83573062205,3.48477307663,0.769267979592,0.0211338571452,2.5681381497,0.631376269302,1.39906609594,0.0522423225228,-1.06024285127
do_nothing,1.12177710464,0.851930605837,0.154476747882,-0.496371441967,-0.458187986448,6.01237934296,1.69500575009,1.28085973189,0.00731798921051,-0.747733415247,0.246082710817,0.652098001999,1.97995654461,31.591725502
do_nothing,-1.34635197429,-1.19603323278,-0.11890907817,-1.32924756232,0.589646619926,1.31503800594,-3.08010724093,-1.13478545875,-0.0431802273059,-1.65319607134,-0.670135353424,-0.507865229038,0.0875441860999,-59.0401710791
do_nothing,-1.07641923899,-1.21339025328,-0.442382833687,0.746985082728,0.278480182634,-5.28884615713,-0.661684271817,-1.09316426941,0.0653555353924,0.18259837343,-0.322543054198,-1.3704014935,-2.34399989508,27.0019551616
do_nothing,1.3793247511,1.18701111756,0.0462933591725,0.991751920057,-0.722396690272,-0.157261652354,2.80596783693,2.00295336373,-0.0833886961095,1.85635824661,0.918220125905,0.910058781647,0.461484652949,-8.16620859855
do_nothing,0.235510796946,0.864993864707,0.0232472416422,-0.61136258621,-0.312218480737,3.63918538262,-1.18491470512,-0.534386310671,0.115220716556,-0.753132743988,0.000350569281013,0.84087086516,1.71756699709,37.9521570269
do_nothing,-0.489579586837,-0.552812136181,0.771367812167,-0.963286048937,1.17383017797,0.435546290777,-1.19808488676,-1.23517299637,-0.147183480433,-1.21148464947,-0.843217967849,-0.658346514151,-0.230732509317,-45.599587745
do_nothing,0.220344263237,-0.580841580741,0.0929679727714,0.776096421957,0.125613524441,-2.6658028666,2.66969205255,1.83349045206,0.164879754922,1.30751706049,0.475081037016,-0.0205883280666,-1.11282245427,15.2442894312
do_nothing,-1.21401157315,-1.12080665714,-2.42415266137,0.504218042591,-1.94032563033,-1.36774941374,-2.4155048782,-1.35488588571,-0.184876644763,-0.719936225493,-0.109776261898,-0.895126143985,-1.01866632077,-13.1712216433
do_nothing,1.33272966908,2.47646695055,1.96028048057,-0.366966787123,1.20409831185,3.55534539987,-0.363669236992,0.0258109786602,0.217374973028,0.453891031309,0.478741641402,1.15920828532,2.33169879493,37.8406715512
do_nothing,0.405919708529,0.136265105373,1.24965685908,-0.685121985953,0.971877237813,-0.380234044839,2.72822557451,1.16593558107,-0.243655505211,0.245786987984,-0.456494395348,0.433540327768,0.242273727448,-29.409924476
do_nothing,-0.718632819386,-2.1953551205,-1.64341708117,0.664528752903,-0.837627184436,-1.74152427138,-0.712572480997,-0.462666141689,0.257669997444,-0.464659037914,-0.16761636843,-0.626585937702,-1.82113740126,2.8176960736
do_nothing,-0.889138983403,-0.24244263421,-1.24508975059,-0.012177259488,-1.18944120206,0.592556941161,-2.81502926468,-1.41350783892,-0.279095541844,-0.820772993336,0.0441230531259,-1.229333743,-0.765725807364,-6.7480589707
do_nothing,0.427657352223,2.01797092424,1.3790482623,0.174240890066,1.18477248065,-0.318279760325,1.67667737189,1.17900663811,0.309615899809,1.09513618348,0.681776482707,0.873227372905,2.23403041186,15.1779897365
do_nothing,1.69770022076,0.654459861242,1.59577302002,-0.667224233315,0.816809784191,0.321334182268,2.44704220176,1.27315069269,-0.329295821918,1.12059920514,-0.399557474084,1.88370115409,0.735392263747,-0.122104831742
do_nothing,-0.436887209752,-1.95522797682,-1.10984071846,0.507102268707,-0.805538879194,2.12995350997,-2.3129480456,-1.59768707991,0.34041803213,-1.76962036332,-0.442502256725,-1.44157467513,-2.41634180997,10.3480608114
do_nothing,-2.993121044,-1.59483834214,-2.72483261589,-0.20778201819,-1.37809196213,-2.73112232972,-2.09471786254,-1.49746334522,-0.362135112601,-1.49724181373,-0.107490483196,-2.52880600002,-0.956855238089,-58.3544631753
do_nothing,2.09279111517,3.40834933085,2.45002178113,0.317796539758,1.63171830079,-1.38252763311,3.58055804319,3.1699681495,0.388343927401,3.47704836454,1.4395049578,3.18571375416,3.51254319463,61.726293924
do_nothing,1.76715085986,-0.0377952651951,1.54468445316,-0.333005272464,0.35256748195,2.54110434787,-0.306476305597,-0.710801034565,-0.40122864164,-0.61370123655,-1.21525622397,0.634376266561,-0.882168862876,1.40445521659
do_nothing,-1.00135836178,-1.67629778471,-1.04512920201,0.206928693417,-0.500210790904,3.17008834587,-1.74963016566,-1.48969611039,0.410077077334,-1.73695404617,-0.130374958996,-1.70535806986,-1.61045437563,-32.4612257076
do_nothing,-3.0628117371,-1.37120421809,-3.16306866385,-0.525037562276,-1.47222250002,-5.22570495863,-0.414297246442,-0.112007872978,-0.430584651493,-0.474028076479,0.2226506418,-1.68575814135,-0.329647475293,-9.25621652853
do_nothing,2.08576557384,2.27601319631,2.04945424768,0.867072007453,1.50503516458,-2.02853119309,2.33253674044,1.91538564413,0.450675500401,2.02135061911,0.698126374644,2.24757549817,1.9233267798,33.1733501572
do_nothing,2.68579849716,1.33006717522,3.19056377973,-0.461616039602,0.615876140724,5.8594510563,-0.291408427186,-0.189851020117,-0.457113646064,0.70282343658,-0.596602000279,1.78759494228,0.391043967646,14.1849669949
do_nothing,-2.28408426339,-2.15575593816,-2.44787844864,0.0220705113196,-0.887595818938,1.77387597562,-2.46256476965,-1.91361115457,0.464013968986,-1.92489915647,-0.131410709966,-2.60454360092,-1.67417441143,-66.2036944678
do_nothing,-2.5246089383,-1.73949949884,-3.30496439043,-0.458860665505,-0.915774946264,-7.05198350075,0.996279304924,0.267434343499,-0.481685854606,-1.55649037269,-0.279202713851,-2.02291866651,-1.1500694501,61.1386960514
do_nothing,2.82355137781,2.85842771412,3.38112152683,0.904233874518,1.22274732075,-0.523657514426,3.20433878587,2.66453538212,0.494510301034,3.10526903053,1.14044650603,3.84847041061,2.73848321241,-19.0005028933
do_nothing,1.00734851804,0.516467681489,1.74439464388,-0.441950821216,-0.120145191665,7.03346414227,-3.80307605525,-2.2436540032,-0.495204334687,0.389380298313,-0.78066420977,0.279087425487,-0.0381243613391,-12.5326232059
do_nothing,-0.702170580233,-1.0771521226,-1.53962392711,0.0439967135009,0.594899666702,0.473207293143,-0.448672171319,-0.330051635746,0.500147565534,-1.60652308766,0.0674413858548,-2.31883396315,-1.47337059267,5.12798353078
do_nothing,-3.14108948865,-2.47747686397,-3.67553251964,-0.500541933533,-1.7257706406,-9.10576960212,2.68573067065,0.463133370487,-0.513454700678,-2.481160335,-0.586514515312,-1.67143483979,-1.39175073936,22.2152838901
do_nothing,2.57990134363,2.90513829189,3.53390474447,0.745175697677,0.680802070809,3.45167179785,1.04791329772,1.68766216532,0.518553601123,3.83916639282,1.33055768197,4.11655921455,3.23992887166,-4.0650441771
do_nothing,1.82079096116,1.03692527632,2.07319971808,-0.270072072172,0.830784177299,6.6347649702,-4.0083718619,-1.60801155363,-0.514378626491,0.894754696933,-0.681352899455,-0.186880292451,-0.439521282122,-60.2287447724
do_nothing,-2.36516321817,-2.40059632946,-3.22057286122,0.32266025369,0.187922441625,-4.62893215481,0.0850665547372,-1.30835007244,0.517058392008,-3.45981022949,-0.425744521596,-3.48020689136,-2.3176159693,58.9902039231
do_nothing,-1.23124409338,-0.523183795102,-1.24004905306,-1.02304951448,-1.65794896954,-4.32004116438,4.1341200606,2.08869084264,-0.524757834912,-0.219450655562,0.273338490981,1.06393375286,0.920832553088,33.2452102637
do_nothing,2.51013838754,2.09890600925,3.02914994107,0.772301148476,0.561812571373,5.37869551866,-0.611555471807,1.14864417269,0.522306390133,2.95873266372,0.731239813931,2.78271359574,1.62928608775,-58.881819105
do_nothing,-0.407131236806,-0.637980050288,-0.355088103034,0.208470233128,0.842065367106,0.736125048566,-4.51566977664,-3.12778071621,-0.514156375587,-0.841763117719,-1.16052439361,-2.16487349475,-1.71041197184,-37.1181129318
do_nothing,-0.70729661915,-0.0333131023358,-0.969690551971,0.135909189159,0.341136725996,-3.26870703454,1.92620411906,0.445417483172,0.514067660964,-0.603880357818,0.781646154279,-0.577803462095,0.52240812097,62.9190600298
do_nothing,-0.387154649884,-0.937489747048,-0.619949343475,-1.36292667181,-1.81471706811,0.0760977413965,2.67318446977,1.76043690407,-0.515343193398,-1.12177586483,-0.311402562246,0.607529729611,-0.196693050552,55.6086691046
do_nothing,1.61059089339,1.18504507863,1.76541594316,0.950046841106,0.934624208833,3.30126923837,0.4392941746,1.10267931709,0.506034202601,1.62317116042,0.368772585328,1.4592842914,0.53766225745,-95.1279728604
do_nothing,-1.93458678782,-0.783152150392,-1.46371296506,0.568889969699,0.161179937639,-3.47227228375,-5.07872134526,-3.95076411774,-0.494709736925,-0.185182620566,-0.957599635184,-2.16288991503,-0.966246462017,-28.5145533356
do_nothing,0.894037152212,0.722888093665,0.54678636993,-0.246171708011,0.593222330238,0.202644959515,0.949232963091,0.934005835763,0.49128228749,0.457323423655,1.12502647951,0.777239506247,1.19537249244,62.0422689496
do_nothing,1.22265224828,-0.00480890195487,0.852172502759,-1.48357981172,-1.12277281538,3.61926735905,4.88239036596,3.16294659631,-0.485825807001,-1.2888696025,-0.142684015241,0.801923025868,-0.475564427676,80.1568386274
do_nothing,-1.44888220006,-0.901255928421,-1.03724487372,1.45430484549,0.0723361621534,-2.10994663602,-0.96160041639,-1.25721026572,0.470720165583,-0.484503364914,-0.671814055569,-0.861146188133,-0.683295284209,-115.776480782
do_nothing,-1.28281169154,-0.142159587264,-1.09389002574,0.13252592105,0.402673939058,-4.08121855682,-5.3511061719,-2.83127395968,-0.456866540825,1.77933255902,-0.29382982497,-0.459075048267,0.424474509624,-34.6557724899
do_nothing,2.19695894896,1.51852535671,1.76946144651,-0.294865831889,0.485403288208,4.56108425079,1.68104276309,1.68157506857,0.449605187432,0.688224900726,1.59650880009,1.22184793687,0.849235674573,60.2169074129
do_nothing,0.918801842332,-0.277627513548,1.04126452602,-0.833866308386,-0.734755126223,3.02630454091,4.69907976185,1.71276964434,-0.437634020726,-2.59536000091,-0.819457597971,-0.399989190547,-0.83385047099,106.977380057
do_nothing,-1.71757097553,-0.755088574825,-1.45595637117,0.772570013215,0.30412718334,-4.95615475873,-0.911667140606,-0.278452740952,0.418004130607,0.526611326608,-0.697966454789,-0.0243360085154,0.0965739497776,-128.824359945
do_nothing,-2.87026251625,-1.83922983386,-3.24197835498,-0.000221032263791,-0.919469663608,-4.25248922244,-6.09890883971,-3.21659513643,-0.402100115042,0.735091790823,-0.0130056944938,-1.49446013977,-0.971285502153,-47.0729399158
do_nothing,4.60997980102,3.4645046527,4.53561661869,0.504798552117,1.45540732736,8.29022623071,3.21453497302,1.93495843816,0.390708881812,1.65029810065,1.78976116075,2.39728478348,2.01404238052,58.4505719465
do_nothing,1.09385863979,0.327090184245,1.77086299346,-1.08595701757,-0.0289019956064,1.87324219734,3.69854769929,1.68975455702,-0.372923173137,-2.27850083692,-1.27608184531,-0.254590931791,-0.354279401195,127.88628179
do_nothing,-4.74361420954,-3.46884262637,-5.03882097783,-0.0386702466915,-1.13495746615,-8.67944485757,-2.34203475614,-1.28647892162,0.35010952157,-1.09194523299,-0.73807492339,-2.04717258633,-1.75256595856,-128.518092293
