label,COUNTER,INTERPOLATED,AF3,F7,F3,FC5,T7,P7,O1,O2,P8,T8,FC6,F4,F8,AF4,RAW_CQ,GYROX,GYROY,MARKER,SYNC,TIME_STAMP_s,TIME_STAMP_ms,CQ_AF3,CQ_F7,CQ_F3,CQ_FC5,CQ_T7,CQ_P7,CQ_O1,CQ_O2,CQ_P8,CQ_T8,CQ_FC6,CQ_F4,CQ_F8,CQ_AF4,CQ_CMS,CQ_DRL
off_to_on,-0.116774573952,1.54655835573,1.68148927747,-0.120709753899,0.212056492203,2.57553516718,0.68197751059,2.92531518574,0.351480756403,-0.122192910344,0.575420206837,-0.889684398069,0.169734064035,-130.328640391
off_to_on,-5.70743144479,-1.02990819963,0.259253775306,0.33869521596,-0.00342193773305,4.73952126513,3.80949443487,8.47188417436,0.990341650416,-1.73888412643,1.21217046144,-2.9409606827,0.332902809579,-150.762206261
off_to_on,-6.17901587636,-2.71439560314,-2.03852644643,0.376846526238,-0.628888378342,2.78774615423,3.1906039257,6.97987379368,0.794571152444,0.16193515172,0.758287924542,-0.030501317941,-0.194777576063,-8.83100629073
off_to_on,-3.66519002622,-4.58691272292,-3.86596224979,-0.0201427972767,-1.14177385335,-3.31533304749,-0.266913232674,-1.11741225163,-0.0654576099611,-0.121305586092,-1.40868712901,0.182351968091,-4.21830289043,144.960679512
off_to_on,-0.84823747281,-4.98375037336,-3.14238389292,-0.396054522774,-0.122057059181,-6.79312195897,-1.97842388926,-7.86779359361,-0.671741083885,-3.86103329986,-3.15032590684,-4.80009146252,-7.36424221753,140.966516513
off_to_on,2.36218517479,-0.918276843932,0.626814615823,-0.328280570581,2.49724240688,-2.30344795476,-0.106281814983,-6.64239666833,-0.460724071064,-4.63269970985,-1.90372916861,-6.49208139938,-3.06258207696,15.6431403144
off_to_on,5.29982596,5.47983779301,4.37219338397,0.0811747388912,3.65123341161,4.9513437055,0.914481394852,-0.39033449495,0.0708375152455,0.713379116293,1.43090381577,0.717731354117,6.10750493311,-66.3487674662
off_to_on,5.09705479661,7.49617184163,4.00901748336,0.322880673333,0.559408904394,5.19011217125,-2.60110932435,2.96935249719,0.107938832701,5.72236482595,3.19735920455,8.85651620023,9.69468808814,-58.443519792
off_to_on,1.29665618028,2.81393333495,-0.26706511327,0.133181881963,-4.29548285883,-1.65309651237,-5.68493196317,1.86860456695,-0.310052112556,4.16878563451,1.8384151437,7.57502544406,3.65339364672,-51.7608985621
off_to_on,-2.15465284185,-2.71259071402,-3.32781177875,-0.163505038785,-5.09121408746,-5.24802327617,-0.788326249206,1.82740817539,-0.391959496307,-0.250052054875,-0.258131066733,-0.284960153335,-3.75082950924,-68.8029462738
off_to_on,-2.33308286428,-3.19004519071,-1.37354104233,-0.128926057042,-0.471479557511,-0.151286848999,8.72358869422,4.61522659855,0.193495101371,-0.688733418334,-0.646525102951,-3.82811429983,-3.95962923973,-15.6552218714
off_to_on,-1.39190862628,-0.571107296472,2.76164935492,0.167867344228,4.03884819676,5.86456785697,9.96982523477,4.12744020118,0.797472708432,1.36263594869,-0.234062223159,-1.0450071036,0.188583075314,114.036051164
off_to_on,-2.21797061947,-0.478739512468,2.97747871914,0.286641976144,3.42134386302,3.45512076524,-1.25244175016,-3.11886210534,0.682895304077,-0.559557664304,-1.02272202844,-0.127430493631,0.441219248263,158.656856733
off_to_on,-3.22705205531,-3.2073766802,-1.97249758863,0.0551368308803,-0.178171860112,-4.30928770032,-12.0489608599,-9.83461707561,-0.0214657535845,-5.8113094654,-2.29380153989,-4.50586203775,-3.74295808639,22.1392621046
off_to_on,-1.2989788323,-3.84863092918,-6.41458571598,-0.265051108762,-1.35636575268,-6.68813465203,-8.98939105682,-7.00128137954,-0.591625221851,-6.71663383194,-1.65581093242,-7.0465891166,-5.29492402402,-143.120198382
off_to_on,2.4482776589,-0.1741171724,-4.64459141182,-0.40670017638,0.353532527631,-0.979725453412,3.20734347933,2.69348792782,-0.627458596038,-0.69453257276,0.890010681743,-1.98697462599,-0.952968151095,-133.548876424
off_to_on,4.11038389786,4.40447498763,2.10567894013,-0.326620393492,0.62228485523,4.4842912673,8.77534679474,8.12782808795,-0.320841311646,5.73244560052,2.64865373712,5.89182133565,4.61162626205,12.4531765125
off_to_on,2.91639994582,5.96022222379,7.23584568141,-0.00850947806672,-1.97507213974,3.26985226129,3.21404106298,5.07450421712,0.0133950009309,6.79288237694,2.10651925628,8.71829518008,6.48940163983,86.233212113
off_to_on,1.46716543549,4.17511415901,6.32730349151,0.520452395767,-3.27023516264,-0.681783629647,-2.46801811245,0.311240113782,0.260585245476,4.2635744706,0.67130441676,5.83994484734,5.07045540024,27.0225303272
off_to_on,0.71179471111,0.635313810985,1.25340372308,0.86192496415,-0.157721614911,-0.701076555536,-0.241617850439,-0.377381217596,0.381156339698,1.64725405137,-0.0968478060709,1.51734508132,2.26072028774,-20.0723561804
off_to_on,-0.986023035692,-3.3916878431,-3.16535671306,0.44301302534,3.9249152574,2.12098027712,3.46119732388,-0.188350374234,0.316124940153,-1.75184146009,-0.69941733701,-2.6049435841,-2.12491458661,27.944691534
off_to_on,-3.61326920398,-6.13828993055,-4.61482906472,-0.62392328631,3.45684652137,1.54067839645,-0.112178355563,-3.52228046674,0.112230206392,-6.47566370217,-1.86198149081,-6.75694669387,-7.1347171869,60.1888039719
off_to_on,-4.54878271244,-5.41182414333,-4.17390995341,-1.2942659353,-1.19266015275,-3.30326824177,-7.17397786873,-6.92326106204,-0.0757230678565,-8.19057597503,-2.42870801368,-8.34401261568,-8.46121148687,-16.8907833452
off_to_on,-2.76826826689,-1.45442812228,-3.03029122089,-0.713689499246,-4.0040391831,-5.96708892139,-7.15904132422,-4.1427461201,-0.178053626954,-3.34637864883,-1.05392785282,-4.5534649027,-3.66609196583,-102.614995729
off_to_on,-0.286261885205,2.41142294511,-0.687599410963,0.618389867673,-1.48447302714,-2.04531752368,1.03600084111,3.31323750687,-0.241596808714,3.81508525133,1.16233290354,1.84448502159,3.16136073561,-63.3608142949
off_to_on,1.69184143585,3.71144854761,2.95197004253,1.32660054634,2.70021708815,4.21915130749,7.56758369864,7.45843963881,-0.248244080688,6.09348571066,1.89538102449,5.17601593554,6.04109652841,46.0742760229
off_to_on,4.20978708407,3.51405054643,5.66827871673,0.747409519184,2.87351134313,5.55710948284,5.87642851885,4.80271966618,-0.104858998917,3.36275440303,1.00865617434,4.78614422935,4.61743197587,73.1808905604
off_to_on,6.57272919028,3.60607315371,5.01756718634,-0.417321314729,-0.974712445245,1.39711148432,0.61154102961,0.181291508688,0.135245628653,1.69425418131,0.597927615629,4.79249099096,3.14038624822,9.2022830271
off_to_on,5.10269049409,3.06141061042,1.64591788364,-1.03419139842,-3.36312440538,-1.9236887736,-0.928879654397,-1.19384350027,0.252320175645,3.09215227497,1.4415011911,5.8768533643,3.14573595523,-20.7744489137
off_to_on,-1.21733036742,-0.0473620282935,-1.5543703619,-0.685024040458,-0.941774122498,-0.516065006878,0.588010950971,-0.548756232633,0.157763621934,2.47426259041,1.49866748887,3.23197051296,1.49570772927,19.6768680679
off_to_on,-7.31952399691,-4.82451607074,-3.44115159476,0.172012994528,2.84429109629,1.56795595344,-1.03967225534,-2.03595744448,0.0241688236873,-3.58151112281,-0.984268162076,-5.25924776782,-3.86008484927,30.5820309916
off_to_on,-7.86746622414,-7.7770073864,-5.22554741608,0.754112442875,2.51008860762,-1.16118479242,-6.99831589342,-5.63126637095,0.00459271130095,-10.3029540404,-4.29436613962,-13.4795898,-9.64277822358,-32.7226861679
off_to_on,-3.85229983353,-6.34922816474,-6.4169121472,0.553093809436,-1.66459460424,-6.30655604147,-10.1041571077,-6.67636106963,0.00865032662985,-10.0471528448,-4.75139384512,-13.0541478177,-10.2349392424,-74.2397672366
off_to_on,0.271799343258,-0.841233843603,-3.48077562296,-0.221262461415,-3.73754159953,-5.72025976947,-3.36870436415,-1.76682185555,-0.0878064191054,-1.4240168047,-1.06558965234,-2.709845923,-3.39894660215,-22.4609795296
off_to_on,3.28192544464,6.02041524201,4.56379511852,-0.685888292492,-0.425714717564,2.58543475549,9.95546182323,6.67594151284,-0.183843045517,9.21550859635,3.92572288747,10.3409763219,7.27758648806,47.1287310599
off_to_on,6.27405153166,9.90641200871,11.4961553205,-0.195704435907,3.94743456143,9.84888079313,17.4426481289,11.8409729508,-0.114664218757,13.6968525856,6.02322750088,16.6643687372,14.3082113787,40.176053896
off_to_on,7.29796333682,7.18767664592,9.4370813293,0.684526458146,3.30875622448,7.40340778808,10.190142386,8.51874826942,0.0491519980058,8.41861547371,3.63989383021,11.5519781218,11.542783755,-6.01354562713
off_to_on,3.17045387499,-0.819995813541,-0.833092262443,0.689975693137,-1.56569634461,-1.5835564103,-6.3052053666,-1.51649509484,0.100123388818,-2.73861936592,-0.990056088166,-1.31093112808,0.207256731835,-2.85715794366
off_to_on,-3.6426962732,-7.23337810536,-9.41164709831,-0.399171217612,-4.17781976516,-6.61122154747,-16.7230783809,-10.2567958293,0.027079042108,-10.724530335,-4.11646242966,-11.6950504899,-10.430559131,32.1486930982
off_to_on,-6.41829310918,-6.55325050044,-8.77458783972,-1.20195631794,-1.53682780298,-4.19772232255,-12.391503713,-10.8854304726,0.0076253912945,-9.16212159664,-3.84561632167,-11.4271902589,-11.4969300486,15.7329399505
off_to_on,-3.77184654095,-1.50658659592,-2.07940803141,-0.518006626351,2.0930239586,-0.892365808323,-0.251322192317,-4.40666747203,0.085149313541,-1.28670078881,-1.4200548053,-3.06054363791,-4.10684911477,-45.0416105239
off_to_on,-1.60262322428,0.767144005245,2.55782628493,0.901665575762,1.99933338977,-1.40813964946,6.98730286979,2.47071337683,0.100456080342,3.60208178762,0.62953528279,2.98295271669,2.48597509214,-58.9926738611
off_to_on,-2.90611124794,-1.0759205638,2.61161300785,1.26148144926,-0.466568554264,-1.51856991079,6.22428591412,5.38127062608,-0.0159773390476,1.78991992265,1.2240979984,1.61856648443,2.77875103663,-4.4352525754
off_to_on,-2.25447302972,-1.15024224148,1.80293932455,0.148964194158,-1.13415496585,3.06205362272,4.36945985002,5.55065632049,-0.116490659396,-0.659452533475,1.21885109008,-0.883560122238,0.867286664375,37.9597013286
off_to_on,4.55961399114,3.65507200531,2.41575966143,-0.966278484827,0.297177697224,7.39626168433,5.22887554607,5.04929476191,-0.0871714186592,2.13000595751,1.47197407877,2.51134692852,2.4388851728,21.4191052384
off_to_on,11.0586185522,7.72894057429,2.42702733438,-0.787510160544,0.904067721638,4.24628299011,3.79299276871,2.87690967668,-0.0211221865416,6.36458973591,1.51529593397,7.94394394258,5.60172875458,-2.45536283043
off_to_on,7.88302031052,4.68590940246,0.487202715913,0.210757819407,0.150109276764,-3.49009674271,-3.72184630815,-1.81796714224,-0.0231375164397,4.42975666004,0.627311684719,6.30295685527,4.41618932729,10.1264725561
off_to_on,-2.82317806512,-2.77500914219,-1.31895534198,0.692620497366,0.192783816662,-5.94098263274,-10.9571409228,-5.84120382211,-0.0242686605915,-2.81615235315,-0.709344373764,-2.1827695455,-1.21894227939,20.3153881883
off_to_on,-9.31583921931,-6.43482217356,-1.52367181282,0.238136358449,0.926439449501,-1.11250204916,-8.94017520393,-5.32220235561,0.0572170163743,-6.77867968722,-1.43462593144,-7.53582007388,-5.21752939176,-7.71945167142
off_to_on,-6.39142591104,-4.00332807766,-1.93400980082,-0.42681456516,-0.40886761682,2.27055894341,0.675800613058,-1.63873964967,0.124890791728,-3.86708261875,-1.49018580937,-4.80035817544,-4.49153987788,-29.5103327949
off_to_on,-1.20242343335,-0.981953135256,-3.54192058832,-0.543763310601,-3.53129922423,-1.19237492836,7.07665692672,0.244021999009,0.0584859900586,-0.0879591998301,-1.56537806642,-0.650445949495,-2.58993241108,-2.08285281151
off_to_on,-0.669956481402,-1.0939150165,-3.31894116852,-0.046471934825,-3.69425545691,-5.02909602196,4.87818141371,-0.672071762943,-0.0556973772011,-0.643889511245,-1.41353346426,-1.62039727215,-2.55591997006,23.0263524363
off_to_on,-1.26409502239,-1.04486598148,1.13848443189,0.593080723338,1.31975221897,-1.32292902303,0.486403536271,0.125516234095,-0.0524434720333,-1.79524345371,0.113766580954,-3.41241784154,-1.58362346883,-19.5489759117
off_to_on,3.12590325096,2.68455767499,6.22040445836,0.752989877261,6.44506468347,6.66071506532,1.3507080904,5.02110128365,0.0301440149324,1.97982335005,2.7989150385,1.26657062966,3.41537758749,-76.5329239605
off_to_on,9.17192412492,6.83535424239,6.07960241791,0.115440945888,5.3514277849,9.01398263396,4.58089136864,8.94351568275,0.0161213860804,7.6477236871,4.14512430549,9.23675092176,8.71499734111,-32.3470823881
off_to_on,7.94677142293,5.62183664272,0.813817013264,-0.825781502914,-1.01547634212,2.79227562018,1.79172368866,5.28835104089,-0.0931458049405,7.19861884739,2.06643430128,9.97196048731,7.52998676087,102.523709078
off_to_on,-1.35825350013,-0.593462049607,-3.61619642321,-0.998573219757,-5.85012207771,-5.50243262909,-7.14735649034,-4.51584482384,-0.104058681984,-0.342293957039,-2.01475610714,1.03972109962,-0.256540160656,164.076037679
off_to_on,-9.24297535885,-5.54485317189,-3.67966001374,-0.029310562633,-5.18633791667,-9.08717528804,-11.8132508769,-11.321300083,0.0408863851815,-7.10711768124,-4.21942189873,-7.87376713513,-7.05422516659,41.4370174747
off_to_on,-8.2423022407,-5.31231427515,-1.97047354561,1.0077921022,-1.24046128556,-6.4872527913,-4.58874631392,-8.64702566337,0.144638120706,-7.01028498801,-2.61127537113,-8.14807131427,-6.99852796934,-157.450548565
off_to_on,-1.44463041238,-2.23696763807,-1.52396250367,0.821530230387,2.31809964474,0.505066246115,8.10566455685,0.0870141124309,0.0545837640787,-2.5652713646,0.60596483837,-2.64042733759,-2.48173552227,-214.036448232
off_to_on,3.40313519016,-0.144397063325,-1.02756766329,-0.313674517787,4.14014957031,7.89730811886,12.3460742859,6.14853177823,-0.103711803127,0.666937324422,1.94400894502,0.666506702357,0.51152006841,-53.5918811166
off_to_on,3.51196635145,0.685811359115,1.53041212555,-0.8838408894,3.75933206069,9.20881720816,3.60937830885,5.46434156988,-0.115219208853,1.63667953778,0.794544906776,0.158782475778,0.447052444162,162.372922228
off_to_on,1.6968273932,2.03998276806,4.06197423467,-0.255526570147,0.682077793669,1.4313211301,-7.26661784027,1.86184760064,0.0341583562089,2.66596985032,-0.382364959593,0.47986455942,0.668377215732,211.134679293
off_to_on,0.767587229676,3.77460431341,3.19443291323,0.531196574657,-3.24372738295,-7.92966590141,-7.3061862591,0.827631718273,0.177156875666,4.04679209983,0.287392217165,3.65476787422,3.270318592,51.0732502077
off_to_on,0.888434517256,3.76355414826,-0.157299944535,0.421192133917,-4.04213833616,-7.44110564765,2.22640776581,2.37442881095,0.173675728609,3.66466207546,1.64615365871,5.94905437258,5.7535453495,-137.066718292
off_to_on,1.00841591418,1.04882156968,-2.10909126858,-0.187793778637,-0.739618527529,2.33047334373,7.42136223201,1.71713210827,5.02167890721e-05,0.788814636942,1.33958543225,3.71424660442,4.32835179073,-156.92049963
off_to_on,0.144861495258,-2.6759266179,-1.67660105363,-0.316442844334,2.39139266005,7.67623449415,0.27795706795,-3.49641716338,-0.255363119214,-2.74691378137,-0.813131165834,-1.58689021179,-1.15830810094,-17.3929659983
off_to_on,-1.93687068088,-4.62297149927,-1.23244630908,0.0442029339161,1.52055788864,1.04552319999,-9.66705876357,-8.70980954087,-0.379790599121,-4.71594222909,-2.47374186957,-5.39921565251,-6.49968842049,95.8993067434
off_to_on,-3.60727338319,-3.26195390742,-1.42085931899,0.181872734181,-1.14672347661,-7.06686818852,-7.36884200978,-7.02666874527,-0.164602186821,-3.9894403195,-1.7860523323,-4.99753657929,-7.02551073069,63.8315155758
off_to_on,-2.36059551726,0.303160329818,-0.14053554447,-0.0311092840927,-0.942880216334,-3.71638424995,6.49664658223,1.90175590822,0.290481609392,-0.815630801082,0.310231985257,-1.59840460955,-2.26425494601,-27.3482661104
off_to_on,1.32442836342,2.78820282951,2.44821132258,-0.108896230436,1.80996886706,6.04675070276,14.267959765,9.74320220733,0.538925230318,2.53307971822,1.36913835455,1.17918245143,3.13510398371,-34.8623248202
off_to_on,3.15204762782,1.67180669507,2.51723209202,0.00111462163216,2.31694850602,6.47820006821,4.20363620197,8.1647252986,0.27972253785,2.79372232436,0.515655848376,0.85287053489,3.97538356387,29.4930759968
off_to_on,0.703016716752,-1.4159383688,-1.20953587401,-0.107393871801,-0.942193749219,-3.94390560143,-12.2829819283,-1.10088969389,-0.20774566481,-0.112386311891,-0.615781682949,-0.910579190943,0.584757335422,39.338512519
off_to_on,-2.07877736395,-1.70567043314,-3.72898641582,-0.293310407182,-3.53862958603,-9.19329750177,-14.0341792788,-7.50139327657,-0.391953167452,-1.41273243141,-0.119988869106,0.330179830126,-1.15049892988,-31.6671598477
off_to_on,-0.0504120992204,2.56052848585,-0.392863937029,0.0822823884424,-1.68599972852,-0.262793730356,1.93431906866,-3.95042204594,-0.192934834795,2.43388675361,1.65340860149,5.5881749892,2.48077637472,-68.2697847144
off_to_on,4.65206253236,6.33861002079,5.17430152218,0.855190428334,2.19036902598,10.3503732757,15.7130078947,4.43227725606,-0.0165575842425,6.91213974941,2.37844600795,8.86880435114,6.77261607133,-6.89344372328
off_to_on,4.45662467441,3.174737028,4.92494891474,0.868823589326,3.13229196024,7.10307266442,10.2540316043,6.45146083053,-0.0652045227085,3.73394903952,0.501205949024,3.36051435731,3.64332487822,58.9298748336
off_to_on,-2.5416955724,-5.62781553695,-2.23905610039,-0.345123768801,0.485365338903,-5.53444815796,-6.91201641948,-1.18338379199,-0.0378535537729,-6.91685197329,-2.72629290538,-8.50177870909,-6.78116076083,33.3905826383
off_to_on,-8.54771732348,-10.737445622,-8.05120111165,-1.56059634103,-2.01633283513,-10.3271135946,-14.7290205545,-9.45050222786,0.277962094081,-13.6990760847,-4.26712512693,-15.2102345176,-13.7777234304,-28.7258814857
off_to_on,-6.04775780611,-5.58196051929,-5.43603281508,-1.31471277602,-1.81767814572,-2.47601026285,-5.85676919689,-7.9150926615,0.513232116973,-7.44689266446,-2.34232358691,-8.816356012,-8.15460516573,-23.25773083
off_to_on,2.18512054651,5.11495265486,2.58134022615,0.200500715135,-0.167862002201,5.53065811313,6.78769252696,2.5981178044,0.218832353102,6.39941260013,1.68812531142,5.28127147651,5.76019510666,27.937214587
off_to_on,7.16901050412,10.504834802,7.30632439008,1.48817374995,0.739356159517,4.05414405316,9.46804369817,11.0731031737,-0.375894022056,13.744709423,4.51396137066,14.1103549379,14.2851531478,24.4512540154
off_to_on,5.19020003475,6.10832758638,4.93444425065,1.56250468659,0.677306407483,-1.16531116317,3.36324584646,9.12341264016,-0.593456233203,8.5986223455,3.87410059623,11.045585657,9.91089799331,-33.8283092912
off_to_on,0.481342089362,-2.08202237949,-0.659845840115,0.629877606656,0.626052453831,-0.893956233154,-2.25824211863,-0.32777793472,-0.239621595062,-1.46782483484,0.450793910546,1.00772323452,-1.26479760921,-47.6087596854
off_to_on,-2.29873199582,-5.88948478055,-4.09072868764,-0.652615371619,0.760660074344,3.08857043091,-3.78137301533,-7.71127070765,0.180651234325,-6.5833457974,-2.9188052622,-6.95777609704,-8.20646351933,8.94647752185
off_to_on,-3.00506774445,-3.89210773636,-3.76467097078,-1.6376552383,0.3566934106,2.79952160503,-3.49684443413,-7.40997299929,0.250826441996,-5.57074839836,-3.72315238854,-8.48566337406,-7.07235499154,45.5565949734
off_to_on,-2.83748388862,-0.571640300218,-1.23602933215,-1.59324358226,-0.855052861438,-2.55935909749,-1.87687566084,-1.89649374626,0.159961298595,-3.31252377812,-1.73307496902,-5.05129363639,-2.36650694751,11.4181326219
off_to_on,-1.19229240097,0.67882998886,1.40463316194,-0.2400057393,-1.95022907335,-6.11579020223,2.02697596823,2.90824401608,0.203702888195,-1.94898845782,1.0374001999,-0.121991740593,0.901253116362,-24.6596422474
off_to_on,1.82032967091,0.636234001083,2.48562991608,1.43298866095,-1.52888427954,-3.83540580694,4.84212440328,3.71694463563,0.214434215754,0.448923265118,2.20992077718,3.56950210482,2.10839477163,-1.36244479863
off_to_on,3.22333989547,1.13072568588,1.35782338046,1.83391373536,0.634982990024,1.2899346871,1.82364545455,1.46435492454,-0.0903236054611,4.21246921266,1.18159822549,4.61732868399,2.67713880851,30.5510779983
off_to_on,0.900110621883,1.87551151375,-0.66263924555,0.629866046514,2.64796752449,4.83356899189,-4.33780253073,-0.90243268105,-0.47432675463,5.9949840561,-0.445034795063,3.1091047998,2.67768914818,4.94476365063
off_to_on,-2.44012204801,1.43530768991,-1.30424674904,-0.802756086657,2.10536508618,5.17203835693,-5.19573169848,-1.19331138381,-0.422416860372,3.31133747862,-0.71961460565,0.353540843718,1.349685445,-40.0443716611
off_to_on,-2.34037338615,-0.251956995297,-0.158612328261,-1.1550184897,-0.731687260819,2.32620716338,1.20557101635,0.460368825476,0.0580398034693,-1.76112743177,0.409008595673,-2.09501653476,-0.830636041296,-29.4772012887
off_to_on,1.18654995723,-1.67548426462,0.791135796307,-0.632621693451,-2.53143978117,-2.41048970161,6.59146091085,1.93924624727,0.385272481101,-4.88025428386,1.12845140173,-3.03272802964,-2.26866810622,18.1279219429
off_to_on,3.58017067174,-1.61741866813,0.186331615143,-0.130316984163,-1.0167271098,-5.33507852476,4.07178069402,1.32353902808,0.237548184324,-3.98707083893,0.169598057532,-1.75294901575,-1.9699067718,26.4330613025
off_to_on,1.86792265125,-0.373204367671,-0.723922155821,0.194553866075,1.58766519276,-3.40026466085,-2.59078063554,-1.02498764359,-0.0261791749689,-0.613404376209,-1.45830393095,1.07161801804,-0.391508619939,-6.0948622037
off_to_on,-1.82638701945,0.775488135774,-0.306503372853,0.653950200206,1.39090199508,0.937109379141,-5.60181176811,-2.92222193346,0.00328419470026,2.22421722993,-1.74627724658,2.83389393409,1.05650585652,-11.0040596924
off_to_on,-3.58382672969,0.840348039955,0.712212907392,0.931875247613,-1.43468126234,2.27623508341,-3.65833903187,-2.75426471998,0.145645990783,2.55151025455,-0.304808171612,1.26998450826,1.07556263353,22.9817406957
off_to_on,-2.29489888464,-0.0415533869479,0.502569237337,0.380701065499,-2.6084585317,0.288978525678,-0.413044939528,-0.727249016877,-0.00580747859329,0.664571654548,1.19576470757,-2.20043735034,-0.338591168294,29.3170171218
off_to_on,0.207216794058,-0.774579987248,-0.768150667778,-0.718317387884,0.0518970876286,0.113507838305,2.90717075413,1.94001564348,-0.352534287013,-1.28880678212,1.2515739092,-3.40394484299,-1.50171318653,-15.6919086987
off_to_on,2.00156772516,-0.395569718924,-1.12178802536,-1.21736240548,3.2980923661,3.2576485814,6.3047408246,3.77363440125,-0.396116408949,-1.27375452773,0.292547631697,-0.645102443697,-0.600551887443,-46.0175253572
off_to_on,2.52049825925,0.832837676116,0.140827861606,-0.587142270847,2.99234913505,4.00144519459,5.74512028086,3.10471959797,-0.00837939109914,0.599964217718,-0.243448009143,2.95440664744,1.90550397405,-15.7347048066
off_to_on,1.90739863827,1.57459114285,1.4106033911,0.455353444779,-0.347596495897,-1.4087817925,-2.16532943136,-0.580997369435,0.359019222557,2.20409825574,0.0667416524119,3.63818711206,3.22984649284,25.3461394109
off_to_on,0.423706786534,0.838063218979,1.14850987209,0.996643141254,-2.87906914731,-7.21212973483,-10.9354118743,-4.50881701353,0.327445461508,1.66433610313,0.312100740925,1.47123418281,1.34228020053,17.7652884925
off_to_on,-1.38273669373,-0.896438698025,-0.210725296675,0.862873010784,-2.68751053886,-5.56408150445,-8.99344149464,-4.08786817088,0.0712540197373,-0.798636683322,-0.254097353748,-1.12993301684,-2.38864272084,-12.1122746741
off_to_on,-2.63687536515,-2.11688078494,-1.24814604227,0.276119672282,-1.03267361566,1.79328184635,3.84578623878,1.34345736009,-0.0509997412189,-3.17903502981,-1.13232712414,-3.04011723206,-4.41622899862,-6.93387623625
off_to_on,-2.54542750501,-1.74000118539,-1.25290770648,-0.601479324453,0.660218400833,5.94541532189,13.1652576624,5.89328298762,-0.0357023207243,-3.33841178923,-1.20526118322,-3.93118871958,-2.7185692066,21.2866410517
off_to_on,-0.901349022628,-0.0609107448775,-0.382926661781,-1.30696220495,2.08404690435,3.47982950577,8.010689723,3.41742314766,-0.107619341486,-0.66972369074,-0.101999129101,-2.25419016897,1.22347172409,19.1194953534
off_to_on,1.53636848362,1.5872673428,0.818789825819,-1.02341264614,2.53529637764,-0.175200353639,-4.66899040528,-3.98317953945,-0.246326080278,2.98956147741,1.29321088746,2.39682520328,3.98835249577,-11.3187832694
off_to_on,3.21904320674,2.02811401337,1.49096749237,0.3440001546,1.09046008303,-0.453189360067,-10.0300745219,-7.41265045259,-0.198981333251,4.36642496863,1.66887637448,6.03514142349,3.39619991438,-20.442517061
off_to_on,2.932841057,1.22654017227,0.951142117422,1.51947866972,-1.16763134426,0.226563516315,-4.54196347678,-2.22462457067,0.0655709910372,1.96439101547,0.642492737292,4.00890044148,0.361425679173,-2.09080484952
off_to_on,0.912718934502,0.107450807133,-0.330375506602,1.16612050725,-1.76949621181,-1.52082742657,2.61124090203,5.73060519854,0.247886877907,-1.73464327166,-0.741875322769,-1.88096967603,-2.13391458486,1.0514920845
off_to_on,-1.55483792755,-0.673142690145,-1.09693832411,-0.329263311223,-0.589351469402,-3.82919205717,4.14000285196,7.36694792155,0.154996130675,-2.84293596528,-1.12609240491,-4.76004912878,-2.13288022537,-16.4459579098
off_to_on,-3.43234033635,-1.43279284745,-1.01190208864,-1.22314308948,-0.307277874135,-3.30352568026,1.83469511563,1.44984928434,-0.0142155586333,-1.05951219231,-0.470622505583,-2.29475043311,-0.752207326596,-9.29262371777
off_to_on,-4.04558046993,-2.41063090382,-0.870035908567,-0.612966212095,-1.79093006538,-0.570613248328,-0.357603596064,-4.90369820232,0.0095854634465,0.0306068838852,-0.037735532432,0.234473894092,-0.452799325525,28.7162555361
off_to_on,-2.33213435365,-2.40308246385,-0.687197726881,0.518210777761,-1.86220914674,2.08350974366,-1.76339697463,-5.54179495412,0.141394241223,-1.38745648573,-0.451270313462,-0.974616092487,-1.29463200021,37.9527187142
off_to_on,2.13540663918,0.171955283789,0.718262013922,0.724563048168,1.79689135622,4.82995310355,-1.60765098157,-1.33966064038,0.0727937335131,-2.01955853101,-0.562945167636,-1.60699069873,-0.527482401204,-7.80734150254
off_to_on,6.75364899859,4.28897274288,3.06197791225,-0.0933316237667,5.75442198985,7.27743599433,2.00173190499,2.9902065442,-0.235977423072,1.54838194452,0.78823875304,3.11970453815,2.97688995325,-44.5230175769
off_to_on,6.68674181781,5.84073463856,3.34972006837,-0.790743953864,4.46825495027,4.96193523089,6.15978188961,4.30124192028,-0.437199162869,6.29503477425,2.41615897587,8.36840045447,5.54322330577,-14.0730816743
off_to_on,0.249482239734,1.92959030791,-0.364559805561,-0.516001989419,-1.9041073359,-4.52095478756,3.31871532188,2.04190378165,-0.23625119145,5.34872068638,1.77926517281,4.94510278027,2.58987247635,39.139822204
off_to_on,-7.45567030329,-4.7076432446,-4.98862495028,0.382303676473,-6.93398127769,-13.7049287222,-7.15058350349,-2.54195216797,0.211923549305,-2.38349185499,-1.33518222543,-6.17097158073,-4.48674546326,35.0861004975
off_to_on,-8.87625681202,-7.56112522009,-5.12577033752,0.913149242353,-5.67410771,-11.4124413195,-13.4575518143,-5.85031388022,0.474249382313,-9.06855828406,-3.69929124122,-12.5346596282,-8.32179107607,-19.3283789715
off_to_on,-2.39922487277,-3.45869323818,-0.0369450867477,0.556060197064,-0.0390165443414,2.12852976183,-5.20664257558,-3.53490936954,0.335923705127,-6.91392882301,-2.3973687947,-6.06112425542,-4.03385662534,-50.0574409402
off_to_on,5.50497841801,3.50813705724,4.86819022702,-0.249658983682,4.53028684105,13.3575479839,10.556913621,3.84893124912,-0.00394235715566,2.03464755976,1.31380450655,6.07083423937,4.31431630341,-31.3688773986
off_to_on,7.39110948225,6.41426631109,4.60143621861,-0.627038950226,5.11845918045,11.6278851255,16.0103021541,8.75656847855,-0.221742878516,8.2243290607,3.44374151386,10.751147098,8.03877051795,-0.0981223664213
off_to_on,2.70556519203,3.13823195719,0.400662671565,-0.268988561437,2.56927086323,1.51834115688,5.24324652129,4.60307376484,-0.223696768921,5.92846137539,2.15377235076,4.96657662935,3.84589244973,29.0115953131
off_to_on,-2.56204509721,-1.85792180701,-2.67802347949,0.173151765324,-0.936285117086,-5.30006064295,-8.29324618269,-4.7859740215,-0.146500984928,-0.904348113745,-0.47204687093,-2.79565054593,-2.88592874151,68.7324250165
off_to_on,-3.16234882171,-3.24670397175,-2.18829630797,-0.0500427178755,-3.29548740636,-5.26957608758,-9.93034451303,-8.59262282653,-0.0977751334792,-4.63182738794,-1.67347090341,-4.86831373399,-5.06546527562,80.3268058843
off_to_on,-0.0669648545125,-0.77005079881,-0.129179022902,-0.637481838617,-3.01537098246,-3.784041365,-1.8924059759,-2.93114379544,-0.0323725724237,-2.91375147859,-1.27124211082,-2.29440863687,-1.87519488991,-1.35206052118
off_to_on,1.50811871552,1.3846520059,0.680684504304,-0.497646431931,-0.691221162342,-4.03653874345,2.66395218544,3.81584765156,0.102580973389,0.221548720861,-0.764160807099,-0.23362787249,1.60281612207,-130.964428839
off_to_on,-1.22096915794,0.233442120072,-0.233707712582,0.651302147885,0.897497678284,-2.77825919208,-1.07154967331,2.85206501287,0.222623167332,0.743049436131,-0.580927766976,-0.531023154807,1.38541161363,-152.57741568
off_to_on,-4.81548015355,-2.44021862796,-1.38393466589,1.57912109675,0.207603355527,2.27798556731,-4.43236175206,-2.46291494329,0.19834493034,-0.693946574908,0.124164040187,-1.14081866032,-1.00446793417,-7.9973869167
off_to_on,-3.41908670232,-2.58851266032,-1.11016179301,1.01997620845,-0.52463695844,7.22232476036,0.588185762392,-1.9790803278,0.0420744119222,-0.865145270058,1.40686255465,-0.145879607555,-1.47336775465,148.830494908
off_to_on,3.51760716644,0.889145266632,1.09917322935,-0.582546277254,1.37416425377,6.96893448897,9.25039534833,5.36503143553,-0.0990079664154,1.17311863276,1.9424659166,2.11167812276,0.981650788795,143.615594218
off_to_on,9.03290969957,4.55509479126,3.69264051493,-1.58849452834,3.99119899781,1.8499975165,10.2424435539,8.84387894116,-0.131725706557,3.01090105291,0.881610527567,3.84127802539,3.16366882773,13.709814902
off_to_on,6.18091868075,4.3095646125,3.6302070952,-1.2270953984,2.65167287841,-3.46846204025,0.725945787815,1.27270606139,-0.105376142803,2.26604336969,-0.837576745724,3.26154319081,2.05801535754,-70.8566982625
off_to_on,-3.05272753012,0.0630854343564,-0.396442519248,-0.263093694842,-2.79877959643,-5.43741098546,-9.73633551085,-9.69227064822,-0.0895397934377,-0.469993093523,-1.68069608522,-0.0117576457794,-1.26788898231,-61.0209100452
off_to_on,-9.32099000788,-4.25836011599,-5.21942954581,0.424898936352,-6.29347760434,-4.00173776319,-10.7552759848,-11.1022194559,-0.0588882893077,-2.65894579362,-1.30971821583,-4.02256927208,-3.19888342838,-51.0270499333
off_to_on,-6.84471107642,-5.01466031248,-5.70109267888,0.884455085771,-3.24177956134,-1.26070046924,-3.02664699616,-1.81018816445,0.0333720468286,-2.85144754028,-0.499662687069,-5.57571854262,-2.1567471431,-66.8862687349
off_to_on,0.433879276286,-2.1263916442,-0.787362180182,1.26755906799,2.95034544696,0.572975388846,3.98300974822,6.84133003692,0.134358983394,-1.6474262528,0.221177238442,-3.17021622249,-0.0039627527694,-14.1524728041
off_to_on,5.11114389904,1.86126448776,4.69377158052,0.99286350221,5.18524068912,0.991669039869,4.49848030958,6.65601572253,0.14111341765,-0.0383906994043,0.955364060939,1.4450745022,1.12854371798,115.485514038
off_to_on,5.14983676919,4.46251194792,5.46372741236,-0.299832118706,1.8161158135,1.6663918057,2.25413181249,1.78254666413,0.0533494199859,1.74639862763,1.55239943771,4.91064121901,1.45123026875,159.905907998
off_to_on,3.20457772728,4.26965973763,1.58056355502,-1.57535570425,-2.10395876604,3.67325613972,2.6656984577,-0.00182487045379,-0.0170685175255,3.24386285692,1.26635695813,4.94326350873,1.85669349272,21.7047799056
off_to_on,0.368849820558,0.952825093977,-2.56103691424,-1.40690270728,-2.25114108024,4.50190117273,3.8382008918,1.12764508764,-0.00930142734158,2.96109922439,-0.198884158039,1.60278251727,1.43505583785,-145.444109968
off_to_on,-3.83801061105,-3.75307102606,-3.63772250584,-0.0229234883007,0.017075912229,0.91521203386,0.409610382273,-0.329130329865,-0.00658421118404,0.0942328766939,-1.76420872943,-2.76162841045,-0.989247774511,-135.599191958
off_to_on,-6.41577647808,-5.82802106406,-1.93542034951,0.860064441939,1.08031557592,-4.82253804866,-5.8551454375,-4.53584250906,-0.106438668019,-3.33211099898,-1.82639196828,-4.61416008393,-3.54840181586,12.3595381454
off_to_on,-2.67786573399,-2.44650633231,0.553019596337,0.455515248348,0.234508822431,-6.03567964001,-6.66918252545,-5.44558741862,-0.237222260319,-3.82863711087,-0.169103546224,-2.10846179001,-2.60831175151,87.1755122818
off_to_on,5.11576376749,3.70615288431,2.21420678066,-0.0693040260517,-0.641261390079,-1.09797141227,-0.0560551561121,-0.77420128906,-0.192015547128,-0.670226794406,1.49140544155,2.15539946594,1.79041960543,27.5245176749
off_to_on,7.44619459571,6.10532105669,2.0793610371,0.389706076953,-0.557109214122,3.02583573527,4.82247212326,3.68033954896,0.110090559108,2.57122432822,1.35061694024,3.06363145026,4.5630649222,-19.6504919762
off_to_on,0.235457101461,2.01734750772,0.190218161278,0.988029474749,-0.113515060245,0.816686995519,0.888950458496,2.65674897133,0.437587382419,2.1404203183,-0.27775157145,-0.668174987763,1.85841472103,29.1070063573
off_to_on,-7.4475816701,-3.58595813651,-1.75010334345,0.266678542972,0.269209001675,-2.82476005905,-4.91060460891,-0.597893145958,0.420032756018,-0.960305353239,-1.26030346595,-3.86026577896,-3.21979339296,61.1267194454
off_to_on,-4.94377738973,-4.20505473898,-1.76428625988,-1.31137253041,0.618898119684,-0.169888364617,-1.44528797103,0.171405957912,-0.0276127355627,-2.11582306467,-0.362920485773,-1.29190125717,-4.28704783481,-17.6209496138
off_to_on,4.2229983542,-0.329550059146,-0.183974831032,-1.71082747502,0.428690667272,6.03390364331,8.18530568118,3.82997513237,-0.512821609731,0.565792412314,1.06152156884,4.42259611174,-0.297461035395,-104.297111394
off_to_on,6.75588334639,1.85341968458,0.75650344069,-0.233919864395,-0.55967074241,5.8051774342,9.32473450269,3.33447658731,-0.52906076042,3.328408096,0.898293097499,5.37169863191,3.21360045837,-64.0173013744
off_to_on,-0.728270593483,-0.0942325069244,0.393811818809,1.37771133102,-0.956237354366,-1.87158492995,-1.97670233373,-2.71027119797,-0.0369750540848,1.88059794237,-0.663411351008,-0.662099010275,2.18671638784,46.629912614
off_to_on,-6.33187685196,-1.41550410793,0.587810392053,1.31867374972,0.621922462357,-6.29557218199,-11.265239117,-6.76068030197,0.451042094353,-2.26484555579,-1.24414003466,-6.1497886571,-0.542643609935,73.414629881
off_to_on,-1.03618854664,1.74685702639,2.03286284989,0.0329505690485,2.4998274916,-1.85448306105,-6.49236357856,-3.36716023437,0.454140848954,-3.61204893776,0.225443879747,-3.72109942921,-0.433998476608,8.78825425556
off_to_on,6.90419877899,5.17099833303,2.02872156027,-0.753363735846,1.27320210374,2.50537100208,3.83436418853,2.29617857561,0.0654135979344,-0.586748326034,1.60412419018,3.24835425848,1.33774221801,-20.4796178495
off_to_on,4.16820311976,2.26834710768,-1.50172175267,-0.464310666692,-2.87089824043,-1.9701142355,4.16959841442,2.31905441464,-0.24060868391,2.0890717408,0.461579095483,4.96323393295,0.12194098294,20.9483198191
off_to_on,-6.686480702,-5.13676552957,-5.39714242222,0.025314637779,-4.93612502732,-7.97311916307,-3.45983002552,-1.45334917053,-0.235203382382,0.564067703525,-2.04889143017,-0.962114249207,-3.7880856413,31.1364652792
off_to_on,-9.90602792263,-7.85239329363,-4.28958363283,0.0786001862906,-1.41723870504,-2.49212873406,-3.22742384275,-0.459097243057,-0.118626764344,-2.103731081,-2.3144548629,-5.94422189265,-4.42503487894,-33.7465808655
off_to_on,0.249233195919,-1.96287509109,1.77292314634,0.00852848150021,4.23431741037,11.1543634004,7.56443019332,5.90104589755,-0.0863072264809,-0.716637452468,0.622919893973,-2.58200640817,0.756227107211,-75.3072725309
off_to_on,10.5507531063,5.34171798349,6.3657155858,0.0959369561035,5.52865574754,15.2657162084,12.0728597859,7.51863330491,-0.0263005521686,3.49042834872,3.27314512803,4.90221169368,5.95727928615,-22.1556437929
off_to_on,7.71184721077,5.769537537,4.69936655725,0.0689126045645,1.35858163265,2.94956648724,0.218103590629,-1.05627570716,0.189535570247,4.18331661043,2.26876430443,6.85261706947,4.76193298683,47.8478368327
off_to_on,-3.13193304627,1.0282125509,-0.498444629931,-0.120049782671,-2.9777656977,-11.4786001651,-13.5036137761,-10.3359135954,0.365466045928,-0.321835925949,-0.997327324212,1.48994048115,-0.728617861777,39.8418957078
off_to_on,-7.27558279674,-1.30220976906,-3.39737328867,-0.00636116992759,-3.28791434187,-12.720696779,-10.566148217,-8.22604254057,0.218524275141,-4.22815236811,-2.42294689514,-3.96462083402,-3.39762715371,-6.77825436395
off_to_on,-1.87025988368,0.109149962366,-2.75208700803,0.403254152019,-1.27332524812,-4.1595316741,3.57914858562,2.23344849644,-0.159350833877,-3.11666531655,-0.963947526711,-4.48211484397,-1.74684525313,-2.55968596677
off_to_on,2.36618081179,-0.469724321745,-1.72136188359,0.290245507083,-0.314538753378,1.44619280621,8.19331618653,6.95075409688,-0.376195216189,-0.282010094542,0.382752425418,-2.79496354312,-0.899476903381,33.1489162076
off_to_on,-0.545195067678,-4.63313431179,-1.5570724492,-0.605412194151,-0.0641970165239,2.15820570277,-0.702048410347,1.34872876864,-0.262190138744,-0.280086705409,-0.397210326359,-2.12293256464,-2.82720919813,15.8771216787
off_to_on,-3.36339297604,-5.64642216294,-0.0340742805124,-1.09877666212,1.52146957425,5.30520969866,-5.50519564648,-3.67610033162,-0.0369528390604,-0.844172585752,-1.23034409278,-0.0657968165176,-2.44198762647,-45.7617122225
off_to_on,0.886393923743,0.872734042904,3.28340149849,-0.103471856539,3.14281427333,10.1620494291,3.40103648009,0.657661906112,0.0830998465034,2.52920890308,0.430337143117,5.39598112914,3.2773323091,-59.1579241494
off_to_on,6.60048933522,8.24152001685,4.61421136121,1.44504911786,1.58790043484,6.88009432938,11.5946180771,7.3510576087,0.153291736833,6.79900578133,3.07636546041,8.80722156359,8.11843222219,-3.86149183007
off_to_on,4.42666527666,6.97077930226,1.35277712846,1.50321780748,-2.25797333746,-5.46511886787,3.9646229035,4.88207641095,0.253249555795,4.2433945209,2.97829918916,3.49720381273,4.58733540941,37.9358182075
off_to_on,-3.48939403532,-1.58119967751,-3.14951806927,-0.258981907534,-3.39448751294,-13.0882242874,-10.3465601234,-4.77712428668,0.247029648881,-4.67693981019,-0.328619802028,-6.82410859893,-4.29139413241,20.536091381
off_to_on,-6.47557694463,-6.93964158755,-3.68416993528,-1.81340350741,-0.0293618616995,-6.48538155253,-11.6933635728,-9.37750421054,0.0190243157622,-9.51730984751,-3.28002321927,-10.5582894185,-8.17899341526,-2.72629998746
off_to_on,-1.50816333697,-4.05158492086,-0.431729060218,-1.38383370786,3.05308900427,4.7572985242,-0.132646252247,-4.6278742297,-0.24284327068,-4.09724670436,-3.14789014338,-3.50937276264,-3.58250046107,11.0590040899
off_to_on,3.08692712232,1.15600423448,1.68884472354,0.342854919292,1.20736759114,5.66341769296,6.17537025507,1.41963058023,-0.27305222754,4.45076738616,-1.01376478758,5.30541524943,2.33066918495,20.9778535981
off_to_on,1.35023736873,2.1306409838,0.423602088651,1.35758661619,-2.97067298295,-2.19875402693,0.574483244726,2.59902969706,-0.122944509744,6.03820549812,0.872961921481,6.23518948704,3.18699446444,-8.35531127726
off_to_on,-1.75335919467,0.552101208541,-1.11345041736,0.911955162866,-3.18836346071,-4.15771695884,-3.01679456207,2.68959806918,-0.0437839733361,1.37839444754,2.07215201725,1.20132257619,1.47821403898,-30.2267399876
off_to_on,0.111910806335,0.917135308572,-0.0570547048288,-0.0233499859833,1.33250488664,4.38859904601,4.7154660877,5.44921398261,-0.0469576483341,-1.44347002977,2.71203735769,-1.62197329006,1.72808076773,-1.59811286607
off_to_on,3.69084217323,2.04246705244,1.70786534906,-0.473473244563,4.64562722818,10.7361416353,11.5823391144,6.05141899658,0.085853866935,-0.180156076035,1.68667389242,-0.338693504805,2.12371035721,23.7470444555
off_to_on,1.84140757439,0.0903945501707,1.08344758562,-0.495454791163,2.48055360129,4.06019928087,3.51381898572,-0.337896366855,0.33944927494,0.208213436858,-1.29568679242,0.340369408923,-0.999785098826,-20.0160891159
off_to_on,-3.9068687169,-3.25525809688,-0.989030811993,-0.419332965263,-2.18846843048,-8.41312323433,-11.3712073197,-8.04464071549,0.375902025228,-1.96357317952,-3.42586341455,-1.31298304096,-4.73993841495,-77.3072276874
off_to_on,-4.87757246241,-2.61014315438,-1.17622254254,-0.105588940781,-3.83200354869,-11.7068427312,-13.7126465901,-7.83035572454,0.0493890041977,-2.17058165311,-1.77939704456,-1.77200550662,-3.19038883227,-31.7073104656
off_to_on,1.2439433198,1.91407077228,0.741389204475,0.489285128911,-1.56235653237,-3.45097583435,-1.71567005473,-0.851792328121,-0.309742045853,1.23007618344,1.89220871813,0.347389215929,2.35990838337,103.647999142
off_to_on,6.2804633643,3.9702147096,1.57517665614,0.718097837123,1.09160305603,4.86689650925,7.40721507715,3.35800931631,-0.352084281339,3.00418788301,2.70820428861,1.53358959401,4.37183457836,163.039588743
off_to_on,3.22431026289,0.545711792907,-0.192909766523,0.0297613749084,1.69589686627,4.95221736276,4.15700525286,1.53521504953,-0.181984160257,-0.197180215291,-0.51225627472,-0.169941436942,0.478292736697,38.6861773923
off_to_on,-4.12039399217,-3.52980264105,-2.27081494939,-0.927157327744,1.05754677298,1.17190298246,-1.09174386454,0.117618462478,-0.0819042298629,-3.63800956116,-3.24746115052,-1.72585478404,-3.20619237292,-157.579347878
off_to_on,-6.99592351226,-3.04248918298,-2.2026077261,-0.852267725989,0.516417160099,1.04561254786,2.50562166964,3.11140653956,-0.00286884706666,-1.93070571898,-1.58609982591,-0.637268063436,-1.98095050412,-209.341224895
off_to_on,-2.88556660154,0.536388838196,-0.410458060214,0.418548320936,0.0359346560298,3.48426811158,8.41862391913,5.51349576003,0.258344155306,2.49758168127,2.35762922012,1.13138214158,1.05010042162,-48.8002655937
off_to_on,3.47225158486,2.70024825073,1.51155797325,1.42012358938,-0.629695056267,1.94619992332,4.17961391688,2.35193045032,0.507343435748,3.88522374346,3.74132788689,1.62089395285,1.71077762155,160.140037197
off_to_on,7.13094123523,2.50366581189,2.98105829167,0.838761222987,-1.04579368803,-4.10333516353,-7.95768214218,-3.21598466318,0.299546395431,1.92671105375,1.52777711785,2.21350594301,1.42304494792,201.984785836
off_to_on,6.24860474612,1.4949700458,3.32263323998,-0.708348401122,-0.996907403512,-7.38108201156,-13.6464792769,-5.77142310604,-0.293364493804,0.0126773300115,-1.27884380831,2.93460200829,2.25067040728,44.4996835424
off_to_on,0.647853669613,-0.517181825927,1.01922337029,-1.39860820969,-0.684772574042,-3.09931858187,-6.62807529381,-5.47840320578,-0.585991833297,-1.79965286238,-2.54198227637,-0.0860715631438,1.07827560914,-132.205702574
off_to_on,-7.26397259895,-3.71165889686,-3.4071619754,-0.553666491016,0.244612488636,3.87941225409,4.30433855888,-4.38189680773,-0.211899796835,-4.89381411866,-2.68461690595,-7.02303022264,-4.3574614678,-143.850978857
off_to_on,-10.8653516715,-4.70813306183,-5.74273943884,0.578325397591,2.05169732719,5.34812914571,8.74851170255,-0.441397993843,0.288581191701,-5.68859083287,-1.91916705693,-9.41284325625,-7.94740710297,-9.70242250208
off_to_on,-4.80545605197,-0.516129009906,-2.68701787709,0.640779060926,3.02186032051,0.590663585783,6.30091519082,7.32370940018,0.23471581244,0.247895501027,0.490756237896,-0.828554838507,-2.47101071931,89.2046829316
off_to_on,6.50316221471,5.03389367476,2.81966751138,-0.0396767507719,0.740086896452,-3.22536317154,2.44615951285,11.8959628822,-0.172459749067,8.16207625136,3.42656338067,10.7297834349,7.48515007954,49.445372324
off_to_on,11.4818116272,4.96394712952,4.59310993097,-0.190582528249,-3.61448951731,-1.13646508422,-0.0630661987404,5.74124362429,-0.179844720527,7.69617269554,3.7716441984,11.0228870847,9.53839629222,-34.2154970906
off_to_on,5.31938462913,-0.441031919468,1.54326711966,0.390933282193,-4.94805889249,3.35248002147,-1.73859362187,-6.14183657558,0.295409286197,-1.41487907117,0.804996173703,-0.204805659652,1.29310509058,-28.2223758049
off_to_on,-3.61780015361,-3.35652309144,-1.04780105896,0.611631975324,-0.650415417152,3.89256315596,-2.86848742865,-10.3860442054,0.472250006553,-6.86464181581,-2.01315437296,-7.97876583773,-5.73196328196,40.298901761
off_to_on,-5.34340640111,-0.398092256856,0.196851675276,-0.11346244929,4.73848202107,-0.161448455215,-3.57342389009,-3.73559545367,-0.0797308542827,-1.79190521155,-1.838249797,-3.87351709361,-3.51947726514,42.7496623912
off_to_on,-1.54519733003,1.94171727635,1.56986349773,-0.89052711673,4.66207689302,-4.13607862513,-4.5993066194,2.31974434182,-0.671514112468,4.10592493925,-0.569784905202,2.16775039927,0.880427547666,-35.3780569348
off_to_on,-0.95469145902,-1.85716579668,-1.31820829655,-0.688975761191,-0.599192105056,-4.91606694677,-4.89558104066,-0.60661507085,-0.431218349327,-0.17518649396,-1.27598372971,-1.13187002578,-1.67521300552,-70.8298968197
off_to_on,-4.43950477061,-6.20296653561,-5.41191871223,0.149408615257,-4.15519609629,-3.25560476833,-1.06962834281,-4.70273922852,0.392577376899,-8.25572621982,-2.54581398776,-7.44147510968,-6.22067512766,-5.99869713654
off_to_on,-3.58717650723,-2.34659827705,-3.84461301667,0.528334635533,-1.97934064946,-0.0472489187536,7.1489364439,1.23869548486,0.720879692387,-5.21029979593,-0.516994793232,-2.91771586343,-1.61829431277,57.5274197591
off_to_on,4.7065365106,6.98712906908,3.24795188489,0.222531893256,1.93980706929,4.68556414056,13.0271871062,12.4456867265,0.142783331252,8.15026575491,4.07461929827,10.0431660078,9.47255015631,27.7322920948
off_to_on,11.0116124272,9.75410632937,7.42080751439,-0.0341830054707,1.9490634437,8.1225535669,9.01479176741,12.8485837123,-0.541847749579,14.0121285458,5.51415736671,13.8004430886,11.79584501,-31.5751729778
off_to_on,6.10068999067,1.58846646121,3.2437394188,0.124313561551,-1.23320081702,5.32578078873,-3.23433028215,-1.81700484903,-0.472601707924,3.18715520334,1.1293359902,1.37336266728,0.103460690635,-17.9651698012
off_to_on,-5.07617674407,-7.66482852499,-3.91327808171,0.251738643584,-2.38523005674,-3.18806218535,-12.9489573122,-16.2307439094,0.129935978684,-10.822731417,-4.24611322819,-12.1450413265,-11.5408990731,35.7077078119
off_to_on,-9.66578927943,-7.58422000645,-5.20778648051,0.0495923932116,0.211805074647,-8.97727874129,-11.7553331588,-14.5670809385,0.400281926907,-10.8145346571,-4.56761463343,-10.4535702023,-9.00454897104,25.8621547123
off_to_on,-4.32601801179,-0.60117631996,-0.289121852619,-0.149531964616,2.79734382407,-5.65217686928,-2.58610227534,0.0554991829939,0.0741657818546,0.570771797513,-0.572138392226,1.81076894777,2.52432712074,-38.17353701
off_to_on,1.87737666131,3.47758645442,3.14007006699,-0.158689836744,2.06704369784,1.7729019383,4.71267203616,11.0415194275,-0.257406466344,6.84157613954,2.04316142212,7.42582671123,7.19323241559,-50.2392204754
off_to_on,2.02420593758,1.69985751533,0.803584675717,-0.336760115934,-0.63537086842,3.55125152295,5.02812839315,9.06192867748,-0.0970789000892,1.95848907489,0.901730264346,1.19288369228,1.01895163213,9.86115773116
off_to_on,0.248902250202,-0.162435077391,-2.64080625207,-0.708245914671,-2.18752061665,-0.566567433294,2.60653978916,0.664498975757,0.278659746117,-3.50073991852,-0.662466098186,-5.09404326053,-4.65106956418,44.7561848063
off_to_on,2.48502675096,1.67676575682,-1.37187005688,-0.492283677482,-1.84210703574,-1.41157882172,3.70080897819,-3.10231422582,0.299856134394,-0.471020094192,0.374091164305,-1.53802974821,-1.20715498804,7.44638741087
off_to_on,5.51647020542,3.48422819921,2.80663780597,0.687043030099,-0.744772964133,4.47475839148,7.04017627427,-0.489893714136,-0.0830106038753,5.50373245466,2.18084916202,6.34263403711,5.58357410005,-25.8685382584
off_to_on,2.3250539621,0.842999461468,3.47440521283,1.71451098613,0.553351982632,8.19950320431,4.88001766066,1.4767767095,-0.397130903083,4.17192750775,1.41774154592,6.90497076643,5.36265340314,3.45202597412
off_to_on,-5.27833991956,-4.04962556633,-0.705732553663,1.15702089633,1.9320101572,1.75844298075,-5.60500341315,-1.72119149636,-0.317957425392,-3.77247835223,-1.43099246102,-1.33669633733,-2.13267638876,35.7982581686
off_to_on,-7.64097202077,-5.28962987835,-4.02280183724,-0.678785064922,2.36284426473,-8.67802417082,-15.3700471834,-5.82607579929,-0.0129924603371,-7.97912625055,-2.75032375936,-8.45137552903,-7.56609125031,4.66881833034
off_to_on,-1.19212126848,-1.15278264043,-1.95703106757,-1.90427160919,0.934496320872,-10.3568541682,-12.4504445341,-4.0579269186,0.198563574366,-2.7716571636,-0.923102822206,-6.04506040638,-4.45175924919,-43.375787647
off_to_on,5.82532954371,3.90077439068,2.525181728,-1.36656738368,-1.34922354729,-1.64647602331,2.39011158953,2.9503231739,0.251585188829,5.76495667498,1.62630010575,2.8849936029,3.4563095559,-30.2732849215
off_to_on,4.6017923928,4.54469029194,3.28480864376,0.115100702122,-2.56255534111,6.23564787696,14.2719147187,7.07328731584,0.259029493178,7.54854836752,1.76677333881,7.69935263413,7.09834852317,19.1231589277
off_to_on,-2.44015387837,0.241927937314,-0.583888859575,1.08422734945,-2.19186277894,5.21038964726,11.3663390197,3.2155733836,0.207495163685,0.179610142441,-0.520321675481,2.31864590438,2.17398386824,24.716799238
off_to_on,-5.63853758594,-4.27274397684,-3.78569218483,1.11415980365,-0.928205917298,0.0841574729731,-0.734249071297,-3.50138890458,-0.0366399397764,-8.30382415612,-2.3560441325,-7.12869443939,-6.02064483675,-9.63996090855
off_to_on,-1.03765455645,-3.67773489363,-2.00633355018,0.652803797309,1.07069399559,-0.641667452145,-6.8176593188,-4.31937389187,-0.415984786289,-7.76781992517,-1.33816507107,-8.22085747526,-7.65643089241,-10.9665550636
off_to_on,5.49539144919,2.07760062089,2.62015562337,0.020990396492,3.53247670752,2.69032570166,-1.75206593857,1.24600391794,-0.578022877267,2.68012564261,1.79827059707,2.77013737189,0.64258142965,27.2497295336
off_to_on,6.39838209423,6.64381456942,4.41779493306,-0.64189445354,4.24427005414,2.9631177151,4.38084273648,4.85078297182,-0.237623445629,12.1272399487,3.7830081478,13.942445807,10.3110615511,32.3271291027
off_to_on,0.702197974423,3.76614849194,1.13905274806,-0.931458549806,0.923113826849,-2.31569458658,1.48338996447,1.12737171997,0.39868757348,8.99047852196,2.12956610003,10.3621222687,9.36127051965,-16.748540154
off_to_on,-6.1787419103,-4.58485120737,-3.55422041579,-0.546455215222,-4.44313154213,-7.42895113031,-7.01664025028,-4.97966670579,0.733773528645,-4.77329507997,-1.98116492827,-6.51432981178,-2.77578657274,-47.530216438
off_to_on,-8.04973900873,-9.06867067778,-4.45919298058,0.0896369227481,-6.20939172924,-6.16866604215,-9.90685579896,-5.54046950872,0.396913885016,-14.2259091969,-4.53820445815,-18.1441850372,-12.8705733962,-14.8499437205
off_to_on,-2.88924076713,-3.82615139258,-0.627548263548,0.320762006934,-1.92770938709,0.757252111676,-3.15698252146,-0.39589942831,-0.30940439972,-8.69365551916,-2.9179437101,-10.8418194947,-9.31231708802,25.7614763125
off_to_on,5.26633342513,5.68710938839,3.72945727498,0.248265179247,3.79252480817,7.01362617899,6.34447137698,3.88868758912,-0.695418647662,5.09328147681,1.14105482249,6.95581227492,3.46326863532,14.8828271911
off_to_on,8.91607662437,8.81600168379,3.92620588752,0.465323592761,4.8495032992,7.27482109173,10.4867027896,3.68641284159,-0.410599433356,11.5490986825,3.53162251614,15.3065981025,10.7370156073,-15.2363085618
off_to_on,4.12399997632,2.6317076954,-0.0566434650159,0.84255894022,1.3476735474,1.92250520264,8.08166367805,1.74162910002,0.220388552268,5.47104797667,2.41986059263,7.35197082105,5.88777024497,-5.94376861628
off_to_on,-4.32641426814,-4.98472503431,-3.60072257783,0.487947164981,-1.4385974241,-3.72532662576,2.71750337174,1.10272687117,0.59777059623,-3.43942778227,-0.173077194381,-4.51636339229,-2.97557495958,24.9407317767
off_to_on,-7.4304576895,-5.68739811468,-2.7804813975,-0.780674181677,-0.848393553708,-4.71507221049,-3.00605980469,0.603378350164,0.448130174979,-5.09161999473,-1.40376848105,-6.91045087859,-5.34786415407,20.6691237122
off_to_on,-2.58223530239,-0.433220861438,1.04893768746,-1.73477634383,0.284921250724,-1.56410548075,-8.30018337436,-1.84428468785,-0.034683330441,-1.055632286,-0.871881206911,-1.44354627151,-1.19277193238,-12.4562301409
off_to_on,3.38332078645,3.33829579804,3.05634087823,-1.13773736803,-0.914418180256,0.701398742716,-11.308923931,-4.97158967707,-0.485981955245,0.96417294464,-0.177181657455,1.49437445753,1.99757516684,-20.8200205517
off_to_on,3.56715676213,1.78818364497,1.09390309616,0.59235164651,-2.76533440995,-0.666778591181,-8.72355091843,-5.5463411813,-0.630579928831,-0.935453993589,-0.27421649262,-1.37466566524,0.69448800572,-0.916784423779
off_to_on,-0.119332150601,-1.52300122475,-1.73570908892,1.77069931318,-2.00294389851,-2.20940409986,0.573033697463,-2.12587750825,-0.347133244615,-2.02671417371,-0.502812329699,-3.54223059849,-1.44918116395,0.756044561927
off_to_on,-1.15673315823,-1.59222782561,-1.61895527869,1.34892456188,1.15450587321,0.598318827913,12.0667889518,3.95356743171,0.257606045259,0.468957310173,-0.00753485782904,0.0414420028357,-0.659600033975,-19.0388936233
off_to_on,1.22071265287,1.36345884683,0.641566356587,-0.0686956579951,3.5197022483,5.81043995277,17.1512441532,9.25835575221,0.7821512977,3.61140730034,0.916351888512,5.64732046175,1.60366923594,-10.7014083401
off_to_on,1.50820526487,2.7657057167,1.20872845251,-1.07567251326,3.15541619253,6.4293670861,10.0953292785,9.05727800409,0.766626474715,3.57480783638,1.17387792166,6.21056432235,1.60541934082,30.5169817172
off_to_on,-2.42302427212,-0.0376125426246,-0.663111332376,-0.936756072305,0.78376642169,-0.196314683067,-5.26645525871,0.868999933262,0.159156083165,0.222445795303,0.159136619721,0.2878718519,-1.227221545,39.8404997452
off_to_on,-5.11345086913,-4.11654883642,-1.43873462965,-0.145401129616,-1.97633992783,-7.88454508178,-17.037674395,-10.3740648621,-0.561116648634,-3.73219174981,-1.40212960172,-6.53399132648,-3.5920000661,-9.1184519574
off_to_on,-1.54680552811,-4.14551743465,0.791040902128,0.275157633405,-3.52302540395,-8.49795607413,-15.7100351147,-14.0899055145,-0.853054986587,-5.22439419047,-1.81373924066,-7.59902801514,-2.07926558112,-46.8870824716
off_to_on,4.97426171901,1.195221443,2.61055023283,-0.0487739753107,-2.38690107067,-1.29309128098,-3.30713777814,-5.21750039442,-0.612793328919,-2.34612375578,-0.0499505006094,-1.5235127579,3.01352763253,-12.9624788466
off_to_on,6.9643007029,6.8612602455,0.39689741081,-0.401087536832,0.954985311541,6.6205767521,9.19184386002,8.13682921282,-0.107240777729,3.58713764054,2.56972088558,6.32113466416,7.08913466911,43.5574564506
off_to_on,2.37190304204,6.35712296826,-3.24360285314,0.0878259202503,3.01976633526,8.09652393571,13.0038452386,12.8200648855,0.412887133333,7.21543449475,3.03194105535,8.41248189957,4.98465327854,37.6450415864
off_to_on,-3.8909903509,-0.920846271028,-2.57696214024,1.11238759647,1.07183309532,2.62421735561,8.22953096251,5.8127183947,0.796171710862,3.88973895368,-0.00309587839587,2.50380240297,-3.17524386532,-22.0337454403
off_to_on,-6.68538907858,-8.26498646127,2.288754325,1.32802769169,-2.26639096556,-4.10288996486,0.423683696619,-3.37165450405,0.812458447046,-3.71230813618,-3.82846366243,-5.47525890126,-10.2479000842,-55.4919359553
off_to_on,-4.98887009826,-8.39994479926,4.59133096926,0.0976904538866,-1.7056013825,-5.95400071705,-5.5879876276,-5.6563182962,0.276863550332,-7.27505008203,-4.14553567301,-7.48407909541,-8.56651987347,-34.3886833619
off_to_on,-0.253056518036,-1.13156214916,0.536110973846,-1.45442372075,2.76570691999,-2.05036334919,-7.45592361396,-2.45879238958,-0.547788408674,-3.04299112673,-0.227520785835,-2.3273569773,1.16374935751,1.46942954753
off_to_on,5.13070025396,6.62081746087,-5.0041627331,-1.7280193451,4.68998759129,2.56822349478,-4.91980127303,-0.657891280494,-0.993127424635,3.07549731662,3.79195214527,3.42551061856,9.61720095417,33.0400619045
off_to_on,7.25400014779,8.12166371984,-5.32934392292,-0.594755241005,0.12277408181,2.53415129304,-0.612372950689,-2.25392761914,-0.67081279812,3.55148591988,3.73066738035,3.77850773052,8.85860656463,71.7341693366
off_to_on,3.23584075201,3.19298851947,-0.232578601975,0.678485509605,-5.86842946828,-1.33491047898,1.46211271246,-3.14467708,0.0559813004107,-0.546775730272,0.322921093572,0.149491820941,0.965343072191,80.6324123107
off_to_on,-3.64671915524,-2.63382045765,6.09883510966,1.17766689098,-5.53304768098,-2.76253389046,1.20978184786,0.123386489147,0.512938574333,-1.77691287898,-2.09767547473,-1.50910572789,-5.09120161814,-2.84767913865
off_to_on,-5.64049745438,-4.32884881804,10.4446692381,1.06859358439,0.954565438106,1.57645875331,3.16767490675,5.99344620782,0.486154255014,2.42377251361,-1.28772508381,1.30838232155,-4.05962421785,-132.412536123
off_to_on,-0.656203896765,-2.18776763347,8.42591324772,0.634789800829,5.76772468678,6.44102145358,8.01420272261,9.2810254825,0.289371300107,5.71050958106,0.452172176291,4.56359654387,0.316157853202,-153.266107274
off_to_on,3.23892741297,-0.560174535127,-5.90300163065,-0.245777739721,3.79742243829,3.9358085665,7.45244147991,5.15191184579,0.169657132292,1.59007032536,-0.00838353473093,2.48616991402,0.850255702599,-8.64576355058
off_to_on,-1.2088904727,-1.9280406764,-26.8787963099,-1.25161545575,-1.56115461065,-5.33751315021,-4.6100128902,-5.80367204035,0.0182273191836,-7.1159013026,-2.09542677742,-5.16191919228,-3.78406190056,147.817889669
off_to_on,-7.87628910621,-3.11967437613,-29.2693236361,-1.33767614878,-3.82514272232,-10.8954704074,-17.7169186331,-14.5329713277,-0.263269326301,-10.5426511244,-2.2646538666,-10.9406701449,-6.69407376117,143.28492315
off_to_on,-3.8379492121,0.714132418206,6.07637313224,-0.152064377295,-1.15587938792,-4.55216552425,-13.290063955,-10.0430146798,-0.459529089532,-3.15783351312,1.05787943104,-6.44416658824,-0.668388879972,15.1209429075
off_to_on,10.6344119693,8.02844477341,54.1439812485,1.03346712335,2.84748532775,8.179971337,8.68791092645,6.2965992838,-0.331017656193,8.90461027442,4.77859469007,6.9708787108,11.3619126732,-68.5456833661
off_to_on,17.8235080254,10.0251395519,57.2802421404,0.845299013451,3.67052425095,12.8759094128,23.1207674131,17.3030963616,0.00156641341155,13.2029025173,4.32032840791,16.1252801051,16.0545534813,-59.802581237
off_to_on,4.64182836424,1.17128493172,-5.45826392092,-0.222793383024,-0.119185428308,3.20399925831,10.2686381952,8.77478026675,0.215628158606,4.33637971238,-0.835466244697,9.39378054413,3.73211003458,-51.6221869194
off_to_on,-17.2209983883,-11.3248422747,-76.5443333335,-0.522857292831,-5.45013595439,-10.332200286,-15.3102500348,-10.3019132792,0.218680873453,-8.97545955102,-5.84283114485,-7.79184808916,-16.99397206,-68.280840397
off_to_on,-22.9793475456,-13.7907907977,-76.9261085334,0.278384825145,-6.54324103558,-12.0527270435,-21.2289223226,-16.4310316573,0.177070063252,-12.5798513729,-5.44604695229,-16.8271481563,-24.1341057196,-15.383430384
off_to_on,-5.37885393283,-2.66673505728,-1.81752088945,0.759379734688,-0.550132925745,-0.058252724034,-0.402413514303,-1.91554937103,0.171352998665,-3.0711885309,0.117346110327,-7.98007256294,-6.506611233,114.515095606
off_to_on,16.2220091374,10.2705252859,70.5848009265,0.000104839657191,7.6604601834,11.3020462395,19.3917263323,14.4415796367,0.0882943687055,8.12971313021,5.20451014857,7.48988131651,20.1011210495,159.48826374
off_to_on,20.1136238916,12.0290835116,72.6986678766,-0.993680052737,9.31450650404,9.24364196185,13.772369865,12.5647858488,-0.11169013051,8.98794280269,5.01685751969,12.2876092057,27.7696952209,22.5589263848
off_to_on,6.72412384287,3.30516326721,19.7383299815,-0.827432699891,2.05807153424,-2.18747135241,-6.78483386346,-3.01236192923,-0.2592396063,1.12463149435,0.640006107745,4.50457281586,7.84119928102,-143.644261552
off_to_on,-7.14894869488,-5.07830503017,-27.6959850325,0.268561355204,-6.51505649038,-9.05366733301,-15.4476159116,-12.3668568732,-0.216546643407,-4.77216434945,-3.03599575761,-3.82634942848,-18.9162372898,-134.512078697
off_to_on,-11.2139321915,-6.83169546683,-42.5628546862,0.921416701214,-8.06248451566,-5.91718479377,-6.4654393463,-8.03313273616,-0.0770867226709,-4.32813933583,-3.30189037405,-5.51357291969,-26.1257059883,11.8382047676
off_to_on,-8.87678878743,-4.69902351081,-40.4198197292,0.548265321178,-3.16333122556,0.062868847626,3.25456862025,-0.295980093919,0.00887969736754,-2.5368087746,-1.65835788294,-4.5086464093,-9.97592396413,86.1334307187
off_to_on,-4.92021638466,-1.95905946029,-29.4912428167,-0.193224206548,1.57360418019,2.49497230114,3.94351032213,2.65307958056,0.0680187239491,-2.20467093171,-0.246091528517,-3.74319829953,11.0584194508,27.2158554258
off_to_on,1.7431657785,2.30582110337,2.04948228476,-0.601270583964,3.05156862308,3.85471162926,3.87245745081,4.71325744905,0.190979156279,0.911602550792,1.08577274034,0.781200969428,19.4931176808,-19.6387576786
off_to_on,10.1147541601,7.28949569493,45.447297933,-0.578664700983,3.29272446726,6.61711140847,8.32362600845,8.83297150108,0.279172054497,7.72033992225,2.88387162097,8.94765853503,13.8764710538,28.5793495538
off_to_on,12.2176959573,7.23728926328,60.3937405973,-0.149562340968,3.24745760313,5.31010346728,7.40684737844,7.9524030102,0.129722326453,9.60340953274,3.46765770057,10.7310815394,2.39829299238,60.6714122773
off_to_on,3.47759293363,-0.477728522019,26.2039186712,0.654242952366,1.2040864806,-4.14053302176,-5.10577706432,-2.43585197426,-0.209359069451,0.425702760752,0.84668689531,0.366193692393,-8.6081870675,-16.9121806364
off_to_on,-7.94536158092,-8.67191086915,-23.6372227021,1.21516721211,-2.18664528906,-12.9213555178,-15.9149990296,-12.6131814514,-0.379257146408,-11.2464312886,-3.4058328513,-11.5592371511,-15.6778678669,-103.04087246
off_to_on,-10.2670806451,-8.11033163665,-42.89620218,0.614478674717,-3.19339578997,-8.54010062783,-9.95011741686,-10.5908502545,-0.137109676812,-11.6687022065,-4.94895285646,-10.9483143247,-14.7085519597,-63.8422684719
off_to_on,-3.47816191702,0.176195281522,-29.0672135759,-0.970693076516,-1.16804296042,5.77409952779,5.38799935983,0.0748208223111,0.27299286846,-0.92398274537,-1.97185005544,-0.192072374738,-4.02893403421,45.691361739
off_to_on,2.25118156188,6.39823416414,-12.1762535651,-1.92368139329,-0.151001013938,12.7287901344,10.3364771154,5.8757542062,0.356812973892,7.66375702812,2.37572665959,6.33371135789,10.2997618356,72.9252384643
off_to_on,1.99394135068,5.05637014401,-3.3283568287,-1.00852099354,-1.72834277576,4.63314638956,2.43488616763,3.52690926007,-0.0214814764721,6.63377413883,3.9227267836,3.94466779113,17.8237791595,9.24638845914
off_to_on,1.0720203043,0.416926762058,11.6588404193,0.923243814733,-1.60330481138,-5.91863935048,-1.8726697064,2.19493234212,-0.430611642417,2.26386018713,2.18225963151,1.59028163099,13.4233073483,-20.3196790325
off_to_on,3.55436963047,-1.65671174538,32.4162872536,1.86532389871,2.75032252198,-5.18430321936,4.36579466355,5.72132813898,-0.370352742081,1.19433919752,-0.261449222249,3.78793620847,1.3050037585,20.2535927567
off_to_on,4.78472121067,-1.2504556256,34.4214563414,1.07732198513,6.05291264521,2.13410285236,7.38851478635,5.77488194968,0.119257569144,0.242032305349,-1.5848255418,3.07292618291,-10.1676125555,30.848719923
off_to_on,0.136556972091,-1.22426934326,8.40376336413,-0.265137968981,2.64083959828,2.62346756226,-3.03209742849,-2.74572747321,0.503938369505,-4.40124929311,-1.89753263787,-4.39741829262,-14.8228932785,-32.8167789111
off_to_on,-5.67092332945,-1.51751094655,-19.9529258332,-0.828195971598,-3.77126254969,-3.76390898771,-14.5126167931,-10.8695856225,0.398920882795,-7.25542873417,-1.400513081,-9.01692225105,-10.8415315409,-74.4324606762
off_to_on,-4.96806986123,-0.570412598851,-25.3683520453,-0.630314181495,-4.8536550256,-4.88010349425,-10.2638379272,-8.31487082674,-0.0125595447871,-2.14656851169,0.133298321893,-2.87743976762,-0.9872012684,-22.6704082318
off_to_on,1.03644663442,0.808043382947,-15.507777419,-0.44965775592,-0.270714994202,2.54924416437,4.65860603538,0.858024247544,-0.288156768443,5.47076661881,1.78067048748,5.63300668388,8.14880609949,46.782561409
off_to_on,4.12006556157,0.986645161619,-10.0615497173,-0.474101039831,2.29464464762,7.25627602775,11.1548728398,5.06980731574,-0.282542104278,5.39805750985,1.62134484957,4.32856427487,10.5580424927,39.8070516804
off_to_on,1.15151562698,0.743568413927,-6.85467546416,-0.232990651754,-0.317944464382,1.86803760793,4.52996729129,2.64033052848,-0.193575369808,-1.27924005419,-0.488821757432,-3.02318415223,6.3890271356,-6.04956209655
off_to_on,-2.65645014936,1.26390894785,7.34177143666,0.443759730487,-2.42052808711,-5.43567396173,-1.61675665363,1.66426339168,-0.143033808908,-3.9699274939,-1.99697094392,-3.28512238975,1.06644151764,-2.48401675012
off_to_on,-2.64588854913,0.930087448057,25.0486840824,1.06644939828,0.109813515371,-4.43436290814,0.682045533368,4.59845361925,-0.00492643185907,0.424593831253,-0.90852880961,3.86015718344,-1.88926255245,32.5788597658
off_to_on,-0.237162878695,-1.74073831462,24.6729647759,1.08187192378,3.02946388285,1.68448486115,2.77550670194,4.40532811099,0.272294779057,3.56004394394,1.3120124098,5.76654471585,-3.9684627425,15.9372741566
off_to_on,1.90317642667,-3.63198327604,5.34209399922,0.403171383293,1.77810240215,3.40468865709,-2.77237678569,-2.16086133592,0.438870184471,0.56760338962,1.79755226406,-1.15569747906,-6.30455138467,-44.9861753609
off_to_on,3.94604800424,-0.645206637295,-10.4429719718,-0.632527879788,-0.558921170157,0.467000303362,-8.14534622789,-7.7012015448,0.25319089837,-2.25465688861,0.346747971838,-5.22362920319,-5.70811785526,-58.996920167
off_to_on,5.17848461554,4.65548978871,-11.1404300747,-1.44220014533,0.399565842274,-0.228499175196,-3.82651802209,-5.50092419572,-0.13110340611,0.345294589491,-0.670646781173,0.111092431999,-0.0399106563598,-4.64158641161
off_to_on,1.90043623587,4.78039926666,-9.47340480304,-1.3774539077,1.57129343527,1.65516825556,4.43735138241,0.193877634056,-0.334276052054,2.66456367213,-0.238265780724,4.50041789846,5.8054318913,37.5311057284
off_to_on,-6.12526900023,-1.86565883443,-14.77592523,-0.250228048715,-1.99751476922,-0.12186570921,4.62552352752,1.76599805927,-0.243998267731,-1.70508763811,-0.111555854079,-1.58308390017,5.08021478224,21.1179134803
off_to_on,-11.2629649504,-7.33948891878,-14.7654401394,1.1627313932,-6.42844778039,-5.1875315161,-1.80038618213,0.271705143425,-0.0909023890485,-7.30550579389,-1.49726734527,-9.49730293487,-0.741983848337,-2.35304096855
off_to_on,-6.20762967251,-4.5459401845,1.65929379182,1.61780092212,-3.42596909426,-4.92669143681,-2.66250020448,1.96078773834,-0.0398598175464,-4.4620784946,-2.45910034286,-5.43885685243,-3.20046034464,10.4093559031
off_to_on,5.17982721107,3.06312250465,21.1835240646,0.735366705373,5.38925168004,2.92955155882,4.30814502653,6.11468603741,0.0184604257532,4.89371711947,-0.538429969304,7.13304464315,1.01699311937,20.4338189846
off_to_on,11.3250720688,6.58761151256,23.2195614835,-0.496676496906,8.51386662143,8.29558475713,7.32127783237,5.31073903245,0.17987416369,9.49569807823,3.12508205382,12.3118183436,5.18247077541,-7.67578819603
off_to_on,7.18564594597,3.515751987,9.11775748998,-0.901162008819,1.28317562615,3.2716694129,-0.256214841136,-2.11145571221,0.28679723101,5.15032309212,4.53956883856,5.26516583384,2.54712177283,-29.2866640073
off_to_on,-0.593329939653,-0.766717979768,-3.39115104754,-0.482438797719,-6.53289261739,-5.24696527278,-8.6721292487,-8.03140763433,0.164268726159,-1.21622185135,1.81926482048,-3.26443998409,-3.97516526093,-1.89541776338
off_to_on,-3.93839922614,-1.96882717597,-7.53223152822,-0.136834464536,-4.84423563307,-5.48293684318,-6.55037797742,-5.82671699326,-0.0747878462824,-4.01842318022,-2.3988446652,-5.45369969779,-6.65927224799,22.7392207448
off_to_on,-3.16200529043,-1.71438780376,-10.9055830551,-0.231026583881,2.5256544438,1.89064313788,2.12304250736,0.590755305434,-0.181000138533,-5.32504615179,-4.18313459732,-5.28383074688,-3.77240973888,-20.0553760466
off_to_on,-3.26200094817,-2.54724765455,-15.157365057,-0.185230625975,4.79287767382,5.48613574806,5.0864489127,3.31976535364,-0.125866154601,-6.43869107231,-2.64330280225,-6.18559765754,0.0327570377811,-76.3694037863
off_to_on,-4.76285357001,-3.1145134847,-11.4772242491,0.41774091647,0.154929487156,0.279384713823,0.51305894337,1.56787143103,-0.0819519561409,-3.2644180852,-0.0415570112715,-3.37376645876,2.00988053689,-31.4214470209
off_to_on,-3.44675567854,-1.03443079919,1.46777823383,1.00767703458,-3.67308909241,-6.12002665421,-2.09151355729,0.731299058973,-0.0990432948791,4.69775017381,1.47785657407,4.91002123989,3.73863695204,102.73365386
off_to_on,2.11197501348,2.56362350611,11.8130827872,0.769310130895,-2.36090545493,-5.36950583939,1.56166951506,2.66040392739,-0.044910087275,9.22083588531,1.81933118794,9.79098110747,5.39930276807,162.232250543
off_to_on,7.49343059136,4.44886094876,12.1207132212,-0.206682294218,0.344395546951,1.01696784929,4.01220320557,2.9642172484,0.113991638876,4.49402842062,1.76614533944,4.59175953255,3.9296975969,38.9576209183
off_to_on,7.77176760726,3.60703057063,8.95046159554,-1.03954964839,0.981439310574,6.00240743965,-0.592137012341,-1.21539763255,0.208715822842,-2.8886663272,1.3548151937,-3.11570671524,-1.08319438702,-156.819212727
off_to_on,2.95401186555,1.49567391823,8.24842403938,-1.10262668719,1.34396654488,6.23704130139,-5.63888552892,-5.66465913849,0.129438056296,-3.31976723035,0.193125417787,-2.71422561486,-4.86080212815,-208.817381375
off_to_on,-3.03341318397,-0.94445838066,4.08324683855,-0.462366585534,2.78908491646,3.02000324519,-1.92141147333,-4.36617991477,-0.00291749376647,1.11419783672,-1.30494953763,2.38389436442,-4.0019257055,-48.3844923634
off_to_on,-6.64432875525,-3.78608977167,-8.54261394255,0.51539082811,2.4069747837,-1.79462729177,6.66343292681,2.00661677615,-0.0443105285242,0.807677259283,-2.00200347263,0.777066592755,-1.55210128844,160.309882027
off_to_on,-6.65074630882,-5.82498913292,-20.0611024012,1.35477250786,-1.33058510386,-6.30611926336,6.76344242686,6.24121284031,-0.0442481461794,-5.01457175308,-1.40662745426,-7.21790857021,-1.64005693306,201.078896956
off_to_on,-3.44245313729,-4.48392067523,-17.4422723498,1.33875972502,-4.36252987597,-7.34999954641,-4.89087811548,3.2610813057,-0.107520337332,-6.7742541298,-0.301781303945,-9.09779635699,-2.39462055918,42.7672445967
off_to_on,1.52178753076,0.811484610546,-2.81021383435,0.0436731588722,-2.92909717809,-3.22584227821,-14.3343376068,-3.68308943637,-0.170391884169,-0.162829308769,0.308736427673,-0.0768624093273,0.754142993935,-132.780177414
off_to_on,5.6785041906,6.52106428387,10.1912554209,-1.6626536946,0.372831601557,3.03957070965,-7.69831539615,-6.74444260254,-0.095683768302,6.84660820925,0.459537930498,9.05988593965,6.53643538589,-142.168365245
off_to_on,6.35758359852,7.70669157984,14.4593327657,-1.9630272951,1.17918994506,6.43411800019,9.60210730897,-2.44011180747,0.0839588794093,6.34496803725,0.911840862613,8.21390542074,8.28148901024,-7.62936679418
off_to_on,2.90360404676,2.95828883731,13.0701902207,-0.190669425619,0.593197231298,5.54835475364,18.327712989,4.64099239545,0.196247364863,1.37778632503,1.71300516728,1.53783672734,3.15488868611,89.1590403656
off_to_on,-2.1928894262,-3.83243936225,8.17594713843,1.89346302064,2.19239769102,2.76100344074,8.97287457652,7.24878075884,0.164521314979,-1.0643992406,1.75050197951,-1.74302309567,-3.97582868204,47.6954797721
off_to_on,-4.93129845347,-6.9049366341,-1.4069833783,1.90573212123,4.19788629814,-0.316128413885,-7.41063875711,3.26053844574,0.0530965971573,-1.09634560099,0.16965589487,-1.4810810551,-7.25044322923,-35.1059934587
off_to_on,-3.3207154991,-4.08976017045,-11.5262547375,-0.16149354859,1.48094112122,-4.03348252933,-14.1491984634,-2.94664302158,-0.0804456492985,-2.81160104137,-2.11629955741,-3.02229467266,-6.13942013071,-27.442901187
off_to_on,0.548962893406,1.16195208438,-13.4375146561,-1.79099124152,-4.82064461928,-7.13935684365,-8.29108088997,-5.97868076946,-0.196326660735,-4.88477615627,-3.01973460012,-5.43695134918,-3.12618919402,40.957371451
off_to_on,2.52441251346,3.58299185676,-6.2585257797,-1.11897218003,-6.7463877657,-5.93869174017,0.206617522607,-4.46583847212,-0.171668757634,-2.62536083784,-1.55314513189,-3.28564650666,0.79492790897,42.1429050989
off_to_on,0.864061362528,1.80326895596,0.788914673157,0.725989141035,-0.873449928173,0.671298179302,4.00524417259,-0.663572784891,0.0721811672244,2.63646502844,0.958114549329,2.41491338939,5.01864006915,-35.9739061348
off_to_on,-1.87378877389,-0.689572042289,2.0894436359,1.27133745388,5.69004873709,7.56846146313,4.88337711253,2.75497374601,0.31541266259,4.38409840223,2.28943657065,4.62052320705,6.80707717144,-70.1523927134
off_to_on,-2.02540271911,-0.51718253952,2.65747414153,0.0176774945946,4.76529216586,7.86548776544,5.44685304195,4.18165139205,0.191546053141,1.22617839049,1.6491517916,1.66575107467,4.0333759534,-5.03813108668
off_to_on,0.721737363886,1.25932233359,6.91774685007,-1.09834258918,-1.66104066992,0.960374318672,3.44966094973,2.95270855286,-0.272891875066,-1.05129399514,0.168485521291,-0.388726365571,-0.939233119862,57.248003257
off_to_on,3.1903541296,1.24031463747,9.43153472665,-0.5200698172,-4.77927049883,-5.94616784895,-1.80737845124,-0.0852333383427,-0.53021741479,0.751958500347,-0.708549002736,1.58053895216,-3.73594205329,26.7168879199
off_to_on,2.81593750382,-1.0088951833,4.0652482547,0.864593245486,-1.22048920319,-5.48204522693,-4.65609453789,-2.32340830014,-0.168838072871,2.36404401758,-0.653461978485,2.76435086467,-3.43397279058,-31.7389227209
off_to_on,0.4460748441,-2.24817348852,-4.48818202722,1.10123759114,3.50997773044,1.40874077205,-1.21736380829,-1.72521505041,0.475086672884,-0.0538877421333,-0.197928188001,-0.57869916912,-2.26739067131,-17.2495216118
off_to_on,-1.47834409083,-0.467129485822,-7.13780314807,-0.157287232361,3.57743120912,6.03076275754,2.44045861639,0.387628863636,0.6725262599,-3.2738417375,0.178545717042,-4.25043569622,-1.04028837037,35.9431261265
off_to_on,-2.19295810208,1.87614052541,-4.00562490847,-1.30113983443,-0.183646169869,1.91352559159,-1.45179997159,0.655036087958,0.205076648058,-2.82186247621,0.199415418983,-3.31442016033,1.01827568845,25.3100886594
off_to_on,-2.6441612149,1.18393191134,-2.49174402157,-0.919166504488,-3.18247455908,-6.65949357325,-8.40236909458,-1.67233042497,-0.401615928282,-0.520536805124,-0.369944776182,-0.459137646311,2.42985988113,-38.3721410638
off_to_on,-2.80278113216,-2.00188820056,-4.06305433514,0.527403330289,-3.1645908507,-8.61744904915,-5.86840220522,-3.18296447235,-0.572363840608,-0.49154666518,-1.21575564378,-0.707759451061,0.626045938248,-49.6353808833
off_to_on,-0.953634376236,-3.28736552598,-2.51914812523,1.42049990829,-1.10782491154,0.34117107633,7.31035863879,-0.697004083861,-0.299286525739,-1.1399783975,-1.16011598913,-1.87189892162,-2.32515439265,10.2308141584
off_to_on,3.28217206957,-0.171577571677,4.1959426486,0.859100187618,1.43383323414,10.9538122147,15.7892231437,4.01996890004,0.0515396821022,1.97323952991,0.54264391201,1.82594156275,-0.789830010475,44.2236924881
off_to_on,6.52498467668,4.28116975404,9.2818575941,-0.525561897552,3.23628423285,10.5980106455,7.62557213784,5.77462828769,0.258345775111,6.73209788338,2.54663453348,8.21105947299,5.12638908301,6.86160244691
off_to_on,4.50846736113,4.79272699546,7.00529043713,-1.37790276344,2.93883319761,-0.987658915009,-8.45813157097,2.05142319567,0.331786214837,5.55058279311,2.36648777438,7.88208434704,7.00816895865,-25.6375460448
off_to_on,-2.15574065426,0.287751339125,0.58034869314,-0.948986597991,0.171971774375,-10.9094146403,-14.0951838176,-3.84000231632,0.274431360425,-2.76972553773,-0.338480756792,-1.72892004169,-0.34270414431,3.9655838584
off_to_on,-7.14929773408,-4.54132094636,-3.54146503596,0.278776493194,-3.01571924006,-8.93191076539,-5.05808576221,-6.21453265317,0.0561221450992,-9.10923004688,-2.6497830306,-10.5347435174,-9.3981200134,35.7271347859
off_to_on,-5.27079022577,-4.64782172335,-4.11964293329,1.11031146391,-3.62417032175,0.748693314165,5.50341818116,-2.92515732309,-0.206784203284,-5.81014400493,-1.8779188409,-8.55141495739,-8.82417689479,4.32546421209
off_to_on,1.02158561455,-0.52981111733,-3.87624984707,0.8308322334,-0.95308721737,6.57237371318,6.26588308745,2.5712565124,-0.300005107471,2.56653610239,0.667218410527,0.732974872702,0.498225387445,-43.1947730129
off_to_on,4.4949617671,2.73769738476,-3.69442242016,-0.0670475935293,2.47500780124,4.36217153196,0.399870455437,4.81500529891,-0.179809030161,5.58804632122,1.30855451106,5.7303845983,6.5358540129,-29.8046475237
off_to_on,2.37524204866,2.09160578807,-2.33982518561,-0.499715883235,3.43239715393,-0.13251323079,-2.9342418261,1.92272135094,-0.0172106815646,1.26775320825,-0.700490649233,2.68984633552,3.44528770886,19.0238998759
off_to_on,-0.656140049527,-0.0463889904776,0.280351341537,-0.150511626531,1.08510820912,-1.36844367454,-1.14133878348,-2.3995540636,0.0605103476354,-2.23148957896,-1.85808621402,-0.729474926401,-0.906429207123,24.1183420086
off_to_on,-0.0296226779921,-0.0391973524607,3.02158971812,0.158720893593,-2.21698073162,-0.405823575143,2.29109590856,-2.88160808571,0.104709860407,0.72536419348,0.464532606675,1.7527801008,1.51716830045,-9.85123364245
off_to_on,1.82186573404,1.3273581302,5.09156937394,-0.292976635697,-3.0690889755,-0.35626287082,4.39696090165,1.00290344896,0.169901203674,4.9381014248,3.6315637194,5.39281709002,5.7842627294,-10.6038988178
off_to_on,-0.120282096204,0.431273802311,5.39443366877,-0.930631933079,-0.513117705222,-0.958277494979,3.40841951702,3.85389672105,0.174594129829,2.19978305965,2.91346436892,1.89040008679,2.00906714648,27.4525732618
off_to_on,-4.43984714505,-2.64969724001,2.48048259218,-0.565816928254,2.45885545941,-0.613967514567,-2.19238795124,0.903615964052,0.0426227059628,-6.06901794324,-1.71384484166,-7.12879483349,-7.92888769519,32.0920475937
off_to_on,-4.25732998375,-3.17482921126,-2.4117512721,0.814329749497,2.04415615227,-0.0908972910065,-9.27487570872,-5.0059848567,-0.140410442599,-9.34726251874,-4.84575564452,-10.4403463387,-11.2550306121,-16.7924077836
off_to_on,2.19111100761,1.06641856469,-4.86331277926,1.71813781952,-1.29301747928,-0.603806280334,-8.99381125146,-5.78840161485,-0.225742410604,-1.70824508878,-2.5470627438,-2.02236242223,-2.28616770282,-47.0772782338
off_to_on,7.37925133418,5.06080160686,-2.89877756951,0.970241224146,-2.70871519661,-0.584322330343,2.30270746118,1.44707846843,-0.169373411683,9.24290154433,2.37951505865,9.4908364202,8.84361696594,-14.5550566857
off_to_on,4.12602228933,2.69157245692,-0.536539785932,-0.716672992423,0.529631241725,1.78898876321,13.7375479543,9.01232953365,-0.0142334297535,10.6065308743,3.97428711968,10.4594355233,9.3560395965,25.3918897563
off_to_on,-4.2674963823,-4.12018276301,-1.90003372354,-1.5973757631,4.31084186506,4.12449657865,10.6082045156,6.93815605693,0.182138250661,0.0782872858074,0.717985610984,-0.480915010055,0.123754662723,14.361173388
off_to_on,-7.96912710426,-6.84246575799,-4.12798770811,-1.00451860866,2.52312361315,2.04870750229,-5.20490166514,-4.06495413766,0.291868799286,-10.5314663761,-2.88833828513,-10.1143428239,-6.70870358287,-15.2545362328
off_to_on,-3.06150839466,-1.39494712381,-1.19994712223,0.113336926932,-3.98296173285,-3.83093288726,-14.8455722235,-11.8408008883,0.135194571088,-9.22239578652,-2.38273440736,-7.08040212079,-3.75356712573,-5.68688012959
off_to_on,4.41649228707,6.17852430999,6.21408017054,0.678724100216,-7.197123801,-6.97803462228,-6.21390633488,-6.77879783968,-0.245736042915,1.90152521879,1.23350389546,4.03057344815,3.67876170025,24.9288431893
off_to_on,6.71868193789,7.23456731426,10.2820258997,0.671689543084,-2.14214463772,-2.79504032951,9.7972637895,6.11058083153,-0.444491500047,9.75490413532,3.30917953859,9.22555199543,5.8562802962,20.5338659175
off_to_on,2.71082954312,1.01317931874,6.11708094493,0.542804981872,6.03802280032,4.91431070282,13.2919570474,12.4431022097,-0.117183895932,6.344956525,1.46437494976,3.13692102193,0.4149961071,-12.2553407585
off_to_on,-2.87845067981,-5.31420379672,-2.3568591408,0.242036989904,8.12261865949,7.82607595093,0.512014690517,5.22661625592,0.453219996985,-2.7351351322,-1.96973963301,-5.40371070767,-6.16932793929,-20.4563379468
off_to_on,-5.19124852304,-5.7173031472,-8.0646736199,-0.423402885763,2.08599059019,2.73125192021,-12.8658783706,-7.06707041709,0.560360484741,-6.84151101396,-3.21259047673,-6.2168979583,-6.73001775981,-0.900340738927
off_to_on,-2.80238639527,-1.35045595138,-8.2304567791,-0.909629745816,-5.11858169995,-4.80272285752,-11.9245176614,-10.6965564845,-0.0146936642862,-3.14859777934,-1.3121783044,-0.336163491637,-0.896554330264,0.532527290111
off_to_on,1.87838688877,2.46071099982,-4.4773116137,-0.412965830375,-6.51649969276,-6.82740763252,1.26654778638,-2.52908727794,-0.609961761664,2.16760392493,1.38768677377,3.65751717786,5.23592910115,-19.0367344149
off_to_on,4.29391133348,2.66465409025,0.584223250518,0.715208971982,-2.37206734702,-1.75382281477,12.6469495672,7.23144585107,-0.490891079393,3.19208055592,2.27088525157,1.87150516213,5.8936139589,-10.6852952084
off_to_on,1.89980131094,0.758637468664,4.36607836263,0.996005211672,2.21279199908,4.388729737,11.942742245,7.7705039664,0.164512879535,0.56904117192,1.08800942624,-1.38254453676,1.65174029195,29.9464954853
off_to_on,-2.33334162233,-0.129007333111,4.944544534,-0.209032877414,3.763953883,5.05849138776,1.1001974395,-0.157953242322,0.501724468944,-1.41467398118,-0.397299530496,-1.16124142994,-1.82262342267,39.0933492754
off_to_on,-2.99687993063,0.830750061476,3.21734822446,-1.4766660313,2.48711722269,0.211190355269,-9.64457628839,-6.65281770046,0.160500295634,-0.700761029198,-0.75515208614,1.70946299056,-1.10748210187,-8.71554680953
off_to_on,0.309138875895,1.38851051215,2.09501381985,-0.959428687438,0.04141354443,-4.45834015586,-11.4850197629,-5.16584903249,-0.26746628778,1.04577301447,-0.312412161904,2.89353361541,0.680766499837,-45.1513404821
off_to_on,2.16107133856,-0.575450801976,1.8656647989,1.03090560601,-1.95940243274,-4.16541740337,-4.16064647736,0.93257937561,-0.136697908039,1.28326388504,-0.193889076379,0.393433227969,-1.15535936089,-11.7812985304
off_to_on,-0.195756227753,-3.49995242813,-0.451031536776,2.11770412165,-2.01188146634,0.518383630724,4.9359970548,4.4672659777,0.310322382324,-0.388144758413,-0.555782215732,-3.38531300431,-5.16301236308,42.4103965413
off_to_on,-2.08155625028,-3.38682957442,-5.09564386863,0.81502036132,0.0733344785202,5.16804109602,8.52204904817,3.38879881069,0.318932076,-1.88239673375,-0.521491163805,-4.36059819575,-4.88176392046,35.090342774
off_to_on,0.805253353998,0.640539438432,-7.037426826,-1.47443893318,1.92137258155,5.48787762148,5.67285117329,0.944627775985,-0.246232636922,-1.1324500184,0.220905555879,-1.01981627512,1.66211301245,-23.174279358
off_to_on,4.14331993707,4.12494203919,-3.05005648596,-2.12418715737,0.847525259864,0.281483134697,0.20454376242,-0.585357703114,-0.657905148856,1.1189853964,0.785825923619,3.5691358861,7.84520468163,-53.8749835736
off_to_on,1.28168802568,2.8879808967,2.49947127522,-0.486772100509,-2.05945436965,-6.74048875432,-4.37788845459,-1.97863431264,-0.319538251613,1.9934947378,0.558937884791,4.60219776214,6.71320119325,-31.714348293
off_to_on,-4.81917011451,-0.901443594408,3.75007128885,1.45048944943,-2.46623333559,-8.21074311495,-5.94743281459,-3.21200102045,0.40749293759,0.423930533412,0.282478309416,1.18982297428,0.171338072907,2.58018658131
off_to_on,-4.73413461526,-1.87871635795,1.96526557814,1.59417795107,1.14580046673,-0.391726680444,-2.94173043671,-2.22727313862,0.672419716197,-1.25630758786,0.595545905154,-2.33319802274,-4.31733594576,31.8690469799
do_nothing,2.10895155223,0.222647600715,2.10188022132,0.0912857698719,4.20179655662,9.48997169033,2.85130341011,0.746013348545,0.223542741452,-1.02118101077,0.3927576671,-2.31270239101,-4.14737841159,69.6261812816
do_nothing,5.13285901718,0.42097865545,3.40655963491,-1.21993634923,1.68695647039,8.78128797596,4.96193205397,1.89908616414,-0.334244824909,-0.318006219979,-1.48480080561,-0.722813848307,-3.10785096187,79.1064007322
do_nothing,-0.654418865956,-2.57078772149,1.03564739749,-1.0874791751,-4.05539319609,-3.71329844362,-0.108651327325,-0.012213720108,-0.366569630408,-0.94367220281,-3.24456037586,-1.08973935693,-2.89899905535,-3.18289893756
do_nothing,-5.45627088213,-3.16298278206,-3.87384240441,0.05091690472,-5.18672321015,-12.3558884123,-5.29527764919,-0.23358412022,0.0248505882184,-0.938342546751,-1.50904933472,-1.81616456847,-0.0373780839604,-131.43375704
do_nothing,0.0700011528094,1.84523288574,-4.46448122187,0.963486136402,0.962000971607,-4.02620062617,-1.1477027991,4.32365781979,0.233609151025,2.14033384897,3.28546755018,1.10172091023,5.99096104654,-151.134328975
do_nothing,8.46423437869,6.24593903786,0.0922510981421,0.945395975956,7.01755032749,11.5131892439,8.19759623252,7.32770483135,-0.0277715279637,5.16632978392,5.60818791884,5.59730104873,8.08577229864,-6.45479598039
do_nothing,5.82661623984,2.88833038456,1.98903472137,0.18948187291,4.66756706542,12.410390527,7.8139687463,0.586991731434,-0.383588008842,2.49977965559,1.60124919124,4.697687483,1.20790646869,148.218611893
do_nothing,-5.92653248342,-4.40088499906,-2.32568339724,-0.629982547267,-3.82318360799,-4.25966108962,-5.30664836469,-11.329816349,-0.30066674483,-4.39945713513,-4.6890194613,-2.26241426684,-7.57451326319,141.127719106
do_nothing,-10.8562099149,-5.47145490864,-5.18509369413,-0.898021389444,-8.01823211885,-16.3860034133,-14.0691077855,-13.4238604739,0.230231727527,-6.99157227835,-5.63075703084,-6.78360012883,-6.94152285782,12.0542741237
do_nothing,-3.06517894261,0.615149629793,0.13057263786,-0.479823742513,-3.01264877465,-7.60569673158,-5.02836167691,-0.68255280796,0.658420040381,-1.92026326338,-0.211642883626,-3.47901779101,2.06384934097,-69.901923198
do_nothing,5.22636232702,3.94650395569,7.60890319468,0.17258052879,4.45299161602,9.31581378581,9.89793674246,12.6120765014,0.499877993862,3.39718125753,4.36022549429,1.61485842512,6.44031737301,-58.6598080694
do_nothing,4.03242804161,-0.329138175721,7.33393070323,0.477317061531,5.67304330219,11.8410981665,9.83592829509,11.1405585011,-0.119180836953,2.23497065736,2.6141864349,1.16277007354,0.183681681233,-49.5879690758
do_nothing,0.271570474769,-4.01477783842,0.708005835618,0.358390394393,1.15512703362,0.243183989562,-3.26277821281,-0.67411281349,-0.616763714478,-0.798936486277,-1.83621421166,-1.21274357817,-6.46944868911,-67.0584693229
do_nothing,3.05745061094,0.463433873352,-3.08551929059,0.216723715934,-2.10682720582,-6.04580434848,-7.69693380459,-6.22554254974,-0.59010029528,1.83401017643,-2.19066884326,2.16669401035,-2.54255569495,-14.9558933249
do_nothing,6.19847045964,6.685219738,-2.43292527187,0.248969340458,-1.38755457103,-0.135242641524,3.35682708806,-1.10447913069,-0.176940353731,6.53368877001,1.48349399605,7.96880041187,6.67959244687,114.861585856
do_nothing,-0.73219588655,3.89374266889,-3.70964087335,0.169333802333,-0.365260386475,3.98423209862,10.6839238454,2.75712019358,0.21566179491,3.38007828128,3.03756174841,5.32655794928,7.52575214683,159.396283494
do_nothing,-11.3576558012,-5.14623765772,-7.10530797389,-0.221961461734,-1.25947854165,-2.50404887883,0.0878375450399,-2.09149347292,0.379199571243,-6.59480239216,-0.0647091457955,-5.7816342726,-1.40869916707,21.1522997342
do_nothing,-9.52495580846,-7.5226476619,-4.53202935738,-0.597792203096,-1.25470089264,-8.13577961357,-13.981154727,-7.10926666331,0.379682982227,-10.7036484273,-3.32079407459,-11.8312179627,-7.70527594431,-145.815701552
do_nothing,4.32792679017,-0.234237467035,5.22345276006,-0.565711533725,1.30975573077,-1.78705723668,-10.6163203273,-3.10218494613,0.284750362036,-3.47459658568,-2.52885590647,-5.26594646409,-4.17837245168,-135.541574894
do_nothing,11.3301003807,5.28161194372,11.0255537301,-0.24043832274,2.77687878967,7.39298475899,5.14829740119,4.30190526963,0.0482733558372,4.99162953373,0.351000937077,4.35748879437,1.79045720715,12.868589869
do_nothing,2.48987273542,1.52541726327,5.50380231329,0.0607719772334,0.119967406491,5.21083837657,11.3416208359,4.65759627405,-0.291849392184,4.97585484749,1.39774280191,5.54865939749,1.85248523183,88.005912649
do_nothing,-7.48504655034,-3.63230002265,-3.13426548964,0.387168394567,-3.04489365847,-3.50625481135,3.32030384499,0.296161345421,-0.499922583158,1.2132477661,0.902196898548,1.52198114369,-0.490021001555,28.3303467986
do_nothing,-3.42009497744,-0.677450728224,-3.93462742363,0.849661367055,-1.52611545304,-3.52264950876,-2.34233517646,1.20314106418,-0.376732407638,2.43604673211,1.40376751928,1.86510106166,1.79387189276,-19.3759159679
do_nothing,7.10890266122,5.69774869275,0.176852915461,0.974631938246,2.83722495349,4.39537796293,2.25901593964,6.2285326577,-0.0219154879027,5.34013473663,2.15269145803,5.0361505647,5.62171203998,28.7052170349
do_nothing,7.00069621299,4.50700265188,-0.714752425245,0.16115111651,3.49331492039,5.00644853643,4.30859114947,3.77548052375,0.273996243202,0.936094331246,0.338309382964,1.95246798018,2.75487224816,60.5002717688
do_nothing,-3.448757666,-3.45704434078,-5.6931222928,-1.13828342543,-0.649860817431,-4.3893473128,-5.08092613993,-7.68945566143,0.353485407419,-7.92023691356,-3.05534677783,-6.36406879412,-5.18575583091,-18.0782619389
do_nothing,-8.82852857493,-7.03420461509,-4.89789617458,-1.53860204169,-3.5372746267,-8.377223839,-13.2010446177,-13.8349593929,0.280935737888,-9.08607032703,-3.57216291352,-8.64503434781,-7.72113858752,-104.761563207
do_nothing,-3.5337303638,-2.37587718025,2.71100789797,-0.456854847867,-1.53633035455,0.242543666037,-5.81586423686,-5.17634266298,0.147894464543,-0.778349156874,-0.186609807913,-1.82315481614,-1.71719169665,-64.6108691795
do_nothing,2.17453690809,2.34691063957,6.79026510845,0.937755208258,1.3038615782,7.28053221538,8.6320121125,7.80884702091,-0.0402241326998,4.93918317278,2.58039890402,3.59189068372,3.82125156933,46.4854370773
do_nothing,1.53654440085,1.42048653377,2.67238690696,1.13754872323,0.533738143593,0.795877005304,11.164641582,9.61719441866,-0.249597192838,1.60359065598,1.37925302189,0.993842202912,2.26798119469,74.2470039348
do_nothing,0.806844107156,-0.109340824623,-1.42329730078,0.197318809768,-1.41171526635,-7.90931708566,0.951930111757,1.69383645229,-0.346696947206,-1.56294358348,-0.983714487306,-1.565105192,-0.750548605131,10.0180019803
do_nothing,4.5420378021,2.73172586955,0.878717696557,-0.527987914191,-0.00430651214127,-2.39742221513,-5.26124950315,-2.07240633637,-0.243065531087,3.85778448986,-0.317568204752,3.97414955487,1.94717014127,-19.9346610552
do_nothing,5.57573526768,5.05625008964,3.30429690473,-0.286799182027,3.05888242599,10.8027202893,0.02855820762,2.44446598792,-0.0254223180508,9.88636313589,2.16331273143,10.2285378903,6.09568624517,20.7055867983
do_nothing,-1.51119019017,0.693300390538,-1.30468155468,0.282854897219,2.45162409321,11.0963411094,5.50623704904,4.76761851352,0.151158614802,4.11340215468,1.91350816635,4.99050068395,2.58171211686,30.8778663266
do_nothing,-8.08366038368,-5.98160126524,-7.38207952028,0.312497450229,-1.55390857718,-3.82060981544,0.917853441277,-2.13913045607,0.235256532884,-9.47806055073,-1.53014331709,-8.39406404644,-6.88068384513,-33.8729344723
do_nothing,-4.11226473228,-5.90220821781,-5.16306485151,-0.152482472051,-3.05803942567,-14.0892971504,-7.72282506742,-10.5887456028,0.255407320892,-14.4695475261,-3.66287861797,-13.984986209,-10.5463918862,-75.9801872791
do_nothing,4.50419742026,0.419379572903,2.85934090884,-0.484570577419,-0.161249610854,-7.6502869539,-9.14735573228,-9.73657083821,0.193589296109,-4.98401350465,-1.76554510338,-5.56453200243,-3.22506878914,-23.3588591784
do_nothing,4.35219135634,3.85780393721,5.51294948467,-0.372070254654,1.80764647313,3.97242783287,-2.58296497372,-0.308913215182,0.0128731514211,7.10314219531,1.42654707175,5.6587277988,6.52596437664,47.3049082529
do_nothing,-3.83019905983,1.08300842363,0.652205894664,0.0121902867175,-0.828176330149,6.16460610635,4.94248916452,8.29891787402,-0.208491604944,9.46774850246,2.22127252409,7.8683888656,8.48064957572,40.6585146706
do_nothing,-6.02292322257,-1.29020286142,-2.37096540686,0.359956501534,-3.64477769447,1.89509744839,9.25625573806,10.2464932495,-0.30441299999,3.73152281707,0.920187837862,3.08071794575,3.19077196787,-5.49940139498
do_nothing,2.39093566015,1.25491885514,1.22061426092,0.406138817439,-1.0229399037,1.45473130822,9.29199895318,6.44122456578,-0.21293839866,-1.25048240576,0.0456917397502,-0.00566118662659,-1.85392087842,-1.96303603755
do_nothing,8.81083942559,3.6317254256,4.24336009314,0.072970240984,4.47560074495,3.58500361941,3.04122631821,-0.490467212041,-0.0433965896081,-2.1520888271,0.0100532903281,0.453307841271,-3.23353552728,33.2030663411
do_nothing,3.19146588291,0.349800674853,0.406853389287,-0.286167379344,5.42012990522,0.492530453225,-7.86934873262,-7.52676259663,0.0807293657147,-1.45681701087,-0.542490497392,0.103082795201,-3.05315195343,16.0331575791
do_nothing,-6.15636327041,-4.53379996257,-4.83610818916,-0.144206740879,0.483357454363,-5.47320653584,-13.7119996299,-9.51466017303,0.152103891787,-0.682028982075,-1.33683160474,-2.1527409021,-2.41706310707,-45.8148732085
do_nothing,-5.44882340959,-3.48107868145,-3.26469911319,0.397600767575,-3.9041837315,-4.82627257397,-6.4612363776,-3.32288892625,0.205796039898,0.26772932624,-0.594747282342,-2.90726620841,0.0482981292056,-60.078571483
do_nothing,3.56012612482,2.31200259492,2.63248790377,0.502133866329,-3.22297708242,1.85879107499,7.16402650586,5.66717231065,0.207906669238,0.0503960927866,1.41613215859,-1.06454161745,3.29658387484,-5.10751633707
do_nothing,6.52237280621,4.31473105496,3.51442635536,-0.25496476225,-0.570938232298,3.71597001824,11.5885220847,7.38318996603,0.100417133218,-2.20059026195,1.83720830575,0.313174245012,3.2134492212,37.6137476084
do_nothing,-2.02372701472,-0.47643832926,-2.31342072468,-1.05222260908,-0.44402559811,-2.27220145655,2.37422641871,-0.277131258653,-0.0907995865731,-3.60105352084,-0.63316948025,-0.533260302956,-1.07220289871,21.212625647
do_nothing,-10.6787618329,-5.07141260211,-6.36070277422,-0.794429770383,-1.48361979566,-5.61689154926,-7.82313500657,-7.36763793767,-0.260283609908,-0.870370922816,-3.13016881491,-1.2536011819,-4.27360270731,-2.14500343678
do_nothing,-7.02274228969,-2.76408977566,-2.23806299283,0.3427024946,0.439349296147,0.74847175003,-6.29642621806,-4.05217901745,-0.305265579719,4.09476901022,-2.0357566408,0.636514739073,-1.55633775496,11.1947588173
do_nothing,5.90850209737,3.51340727248,5.82707508122,1.09993716913,4.49814590985,8.58897975864,3.62579298135,6.31403799705,-0.173439119204,6.09415501082,1.97259241944,3.85941808678,4.20046180386,21.4648338015
do_nothing,13.7528300892,5.7788825717,8.91864691268,0.798286470682,5.20304097737,6.70018052577,8.63284907682,10.8549392346,0.0965250011085,3.36003275098,4.32322443188,4.87494300579,5.46374927981,-7.41974942379
do_nothing,8.20161225989,1.81695168275,3.99210065661,0.033193866719,0.412697632639,-2.45653950452,3.1330259998,3.21597670093,0.326587143079,-1.13286466975,2.15076127552,1.89197363481,-0.0279069986372,-30.1048379787
do_nothing,-4.23643315246,-2.8958189339,-3.84711562268,-0.391648981262,-5.03369226816,-7.22635083099,-5.30169258397,-8.44754887747,0.295191964613,-4.24910668213,-2.13181771832,-3.20972507521,-5.91644662101,-2.87251991367
do_nothing,-10.6891257922,-3.27468934819,-7.5823920092,-0.431309081279,-5.38636733972,-3.71221393008,-7.11901385906,-11.3432056974,0.00159952810333,-4.99170825937,-3.82058315626,-6.22811929855,-5.22669325748,22.4913342825
do_nothing,-6.26042148324,-0.692996037927,-5.01218341073,-0.399867218101,-1.0959418617,0.766438429226,-2.08536990557,-3.21751452609,-0.24424022134,-3.08083453076,-1.56371658701,-4.35043228164,0.793937801956,-19.8137427648
do_nothing,1.82121043768,0.308611072971,-0.0113289177317,-0.315030507994,2.49673139718,0.311237908599,2.40902048297,5.74678508669,-0.15969377193,0.745538482416,1.41670642651,0.566382724607,4.63304252162,-76.4206457011
do_nothing,3.92762105563,-1.20868560469,2.17885880248,-0.102663536063,2.28698242924,-1.6617365847,1.66231007334,6.08013668467,0.122537590779,3.38238689573,1.74010280138,3.50311303463,2.43216268335,-31.8495381181
do_nothing,-0.406862027188,-1.76878968632,0.916175444614,0.0926514511534,0.498636297369,0.478484616971,-0.811734206106,0.297644466459,0.201796570319,2.40005729517,-0.0319140163525,2.30499274863,-1.5415411461,102.655163966
do_nothing,-3.1328494872,0.94186314567,0.373270328565,0.25466493834,0.413977682479,5.26667606962,0.958029563789,-1.97560107212,-0.0438755416754,0.261759578723,-0.809212791559,0.389878324791,-1.57534920575,163.029441692
do_nothing,0.781888081625,4.27954725776,3.06401975942,0.615919691187,1.5185855542,6.12916709072,5.90645911799,2.05746380039,-0.285347566857,1.07484513214,0.463538276267,1.27225922746,1.47064508379,40.2111772493
do_nothing,6.60370157126,4.01374563001,5.4890594914,0.953223298734,0.872477167007,0.610288555734,6.05009016646,4.84324195898,-0.209342250532,3.24813832675,1.57690741744,2.72085829762,2.1818382063,-156.150865729
do_nothing,6.71251694736,0.154645111211,2.96308384073,0.435030790036,-1.7805935612,-5.96682317779,-2.12240028484,0.275534829246,0.062595749021,1.0954289261,0.61533095888,0.423676801169,-0.850546379555,-209.41056618
do_nothing,0.656548595223,-3.06204485159,-3.06380916285,-1.04589898839,-3.09618618554,-6.66620016299,-10.4138375092,-6.63213893909,0.202734291583,-5.06576393894,-1.19571423827,-4.01395708105,-3.04623675593,-49.831879977
do_nothing,-5.53398341006,-3.02084214057,-6.5871733675,-1.993020108,-1.10096462644,-1.20336787785,-8.39502325133,-6.84957880455,0.150895701188,-7.13540856722,-1.52243545204,-4.43064901451,-1.26829424001,159.197438176
do_nothing,-7.6712388525,-1.75837930886,-5.24287248302,-0.930868755321,1.46014717886,3.65762293758,1.83560444668,-0.54153205078,0.103372393946,-1.15919943897,-0.435006587101,0.00988327948245,1.23871820539,201.083516825
do_nothing,-6.21282572948,-1.7592301149,-2.26035919567,1.29996336798,1.09196138491,2.55626027443,7.70258324137,3.83908446927,0.118111264534,5.33437643824,0.117115155367,2.59593048407,0.383350724145,43.4727553122
do_nothing,-2.11643478356,-1.46539870283,0.0285954277879,2.18550406237,-0.814720560036,-1.46602090182,3.70877712667,2.69896507483,0.0322712622442,3.95169674095,-0.258920280038,-0.387271474644,-1.72657099696,-132.296304685
do_nothing,4.19120352798,1.83454825886,3.18398585989,0.726794476797,0.0270595862741,-1.34584144835,-1.46479314,1.45208500086,-0.197575772629,-1.66843324987,0.100682418612,-2.92509644809,-0.0794629294775,-142.037114969
do_nothing,9.2017219622,6.09377005435,7.14676105793,-1.23120304746,3.35693378249,3.35761900522,0.512471691207,3.5232920003,-0.347747308985,-1.76327705272,1.61228295606,1.3630710568,4.38507013226,-7.20988780866
do_nothing,7.72959051886,5.7636244257,7.24608454768,-1.46574633533,3.4647531285,5.14972907587,4.36815215729,3.54415089108,-0.236062450511,3.59143879845,2.06699012698,7.61565388577,4.91304692963,89.9439946014
do_nothing,0.376358276695,-0.376159075441,0.982637271793,-0.130357115286,-2.12130075248,-0.167825871725,0.698109468216,-2.79126228799,0.026873470913,4.38670558612,-0.00879485318871,5.4731200986,-1.03586790876,47.9102872608
do_nothing,-5.41176499324,-6.41416661951,-6.19459094114,0.882437146418,-7.19372386351,-6.29201906584,-7.26371708453,-8.74603737889,0.22724681361,-2.75735747937,-2.47560008175,-4.79829655082,-7.0115110904,-36.0538010621
do_nothing,-4.86023661065,-6.33600588534,-7.16295307942,0.585487211747,-4.51336633769,-5.19366152185,-7.63932426197,-5.10792445612,0.308054493892,-8.06866126008,-2.21467573462,-10.6330577912,-5.83619143453,-28.7312147681
do_nothing,-1.84834128588,-1.13232721948,-2.70892284098,-0.255036408326,3.53502407829,1.04281967317,1.07193349688,4.67612605122,0.287013916519,-3.29576436168,0.379182221461,-4.16052595494,0.942906450981,40.5329828483
do_nothing,-1.64793234477,3.4596094184,0.628129223813,-0.600749930471,7.48564051054,3.87632091192,6.98452128519,7.85187101019,0.101953066888,5.31541660891,1.94689050264,6.44581020713,5.68116507705,42.5801242304
do_nothing,-2.49855057244,4.06461494198,0.611684729543,-0.308841932152,3.49796545736,1.39209686218,3.10633177412,0.801218689161,-0.23047519293,6.14924304529,0.94178264983,7.9493051875,4.46915819704,-35.5608056212
do_nothing,0.0301028292967,1.73577246581,0.954841689254,0.246599966166,-2.37786779005,-0.396678153431,-2.63105355198,-5.75833669475,-0.435895891008,-0.891476250983,-0.630669388273,-0.395959427166,0.230424091344,-69.9842327067
do_nothing,4.15863325624,-1.22376512643,3.18942276748,0.725277026614,-3.87542627033,0.989092450724,-1.23823940777,-3.03673719538,-0.256790336555,-5.33502915799,-0.722406298957,-7.06305361286,-2.79783599424,-4.53865023577
do_nothing,4.54589828649,-3.011103171,3.71985618955,0.710533765498,-2.35691840686,0.861168961458,3.18848764917,3.48668165478,0.13144897525,-1.90065914069,-0.0496796429568,-4.20142340928,-3.28707846932,58.0737078294
do_nothing,1.70982958906,-1.89027965428,0.858122234618,-0.107131953392,-1.64694725043,-2.40733360688,1.87487352963,4.00814150172,0.27904394494,3.45504021419,-0.0671413506567,3.53042660319,-1.52237908995,26.9395655959
do_nothing,0.889075088387,2.11281856188,-1.44604079738,-1.18658170631,-0.692618726692,-2.77530511249,-3.23295296185,-0.583230689774,0.0726614677724,4.02576082564,-0.206253198369,7.03692557336,1.77841298565,-32.5569413291
do_nothing,1.95935007135,5.04930850241,-0.39782828977,-1.27591093724,2.83421727021,2.45874202011,-3.39225105042,-2.15960347052,-0.113791648544,1.03627745515,0.723912631014,3.88803070434,4.0867734917,-18.2635692863
do_nothing,-0.845853678205,2.46544137363,0.40810319355,0.06750862762,5.5268696405,5.3780904493,1.3246260025,0.485724849263,0.00655757288274,-1.18913657693,1.66374088074,-1.60473851602,2.2451129023,35.6513306538
do_nothing,-7.44846748503,-4.03501241751,-2.68938009543,1.55187209265,2.29672167184,-0.611624821646,2.15817455257,0.772410046609,0.208026683273,-2.36927107232,0.477567340072,-5.314794271,-2.83106717877,25.520143752
do_nothing,-9.11888283536,-7.2848413744,-6.0220129884,1.4836098814,-4.01811331915,-8.02421719037,-2.7518710682,-3.16534213051,0.130495295325,-3.895652835,-2.21387280726,-6.11771927332,-5.57335592969,-38.3177623755
do_nothing,-1.60006433684,-3.3907656257,-3.51120182053,-0.124500463199,-5.0581832409,-5.09752566555,-4.48032889195,-4.68978338941,-0.149242624303,-3.76184509889,-3.00479324508,-3.78408909436,-2.45314512973,-49.598680412
do_nothing,6.89330020519,3.18221920564,3.38874303165,-1.47587461874,0.262054790012,5.28914673761,1.7458747133,0.209519047459,-0.24806428694,0.487866632209,-0.34370069887,1.41021729488,3.04411290105,10.7892738411
do_nothing,7.31252856024,5.74390484634,7.07346751117,-1.14304806228,3.38914241434,8.69443282195,7.88027948164,5.87957346952,-0.0694130716907,5.85538298979,2.88371405461,6.61364431247,4.94675065192,45.0319123931
do_nothing,2.77542503754,3.56271984345,4.49625154809,0.271114539541,-0.436227341021,0.921559152222,5.23633965514,5.45400317736,0.0868251199591,6.36074527345,2.92701897106,7.37657544689,2.37233798658,7.04485967002
do_nothing,1.6218726828,0.693197279071,0.320886232417,1.00028600476,-4.20203494588,-5.92015389053,-2.57198127593,0.50932634899,0.0240708619076,1.18272807733,0.00738403748957,2.48303846913,-0.692139653159,-26.2239374103
do_nothing,2.76019895951,-0.783683978325,-1.25624325505,0.331855485809,-0.356095610597,-2.67143719565,-6.18573335749,-2.79785784037,-0.0718667520024,-4.004598174,-2.21492380013,-3.7839559241,-1.71774045177,3.37798083147
do_nothing,-1.32509602555,-2.00202638031,-1.75806852794,-0.603631407271,6.38193891355,3.52928995661,-4.07300489479,-2.87112283587,0.0176394228832,-4.37794664528,-1.4566369993,-5.85355301257,-1.77485911767,35.5859141595
do_nothing,-9.23056219881,-3.11952277417,-3.37136176743,-0.405918643353,5.72774765175,2.30040282401,-1.36062688123,-2.35238492135,0.179343655583,-1.18867271462,0.695550820324,-2.81383657916,-1.79945213888,4.23731034928
do_nothing,-10.3516020666,-2.6460924409,-4.15759493351,0.684744382248,-2.25012761192,-3.49280301009,0.516734860635,-1.78947091701,0.162054698063,1.20765480239,1.31719337374,0.995878964373,-0.982194764404,-43.49659224
do_nothing,-1.58239184683,-0.984219075992,-1.94355047045,1.05424786713,-7.26708924671,-4.27379014666,3.63032857889,0.220972596709,-0.027626766,0.656941807708,-0.22077895485,1.24099821135,0.369357939728,-29.8416862265
do_nothing,6.92659851461,-0.177870240441,1.17373997129,-0.0777758973237,-4.17068428286,0.131601728289,5.39457998212,2.1898212831,-0.153842939458,-1.53758597554,-1.86993977688,-1.46119097086,0.380181648289,19.62104871
do_nothing,7.09545506434,0.459565890037,2.35959094134,-1.43218941117,1.1176565595,2.3701987826,0.997691237056,1.2844185598,-0.104128653512,-2.42114324536,-1.47714330108,-2.40994589481,-0.449074445837,24.8244027495
do_nothing,3.8322634416,3.67758454606,2.81410103354,-1.24984603741,2.63548751248,1.52896252853,-5.67583551779,-0.642145883137,-0.00284872895965,0.311189868726,0.89477228657,1.39643318274,1.17053990068,-9.74111743474
do_nothing,3.93203439652,7.7152666069,4.46533227553,0.335182311474,2.39313231898,2.95555823224,-4.2842149081,1.10910727376,0.0169738629637,5.5853927743,3.01464158659,6.94211785176,5.22821599979,-10.953314445
do_nothing,3.40185660019,5.80093714274,4.63811955128,1.43441164822,3.34070136208,5.3728772025,5.41023195318,5.29030562678,-0.0241975831714,8.03701377529,2.62014457992,7.69032873088,5.81669087621,27.2476439763
do_nothing,-4.05529858039,-3.97459625939,-0.324721723984,0.909958670542,2.43672312547,1.09842521677,9.44299552832,4.29728396642,-0.0459026769077,2.83338350326,-0.274931319389,0.900394360801,-1.0909857872,32.0672069324
do_nothing,-12.4577623127,-12.7302031552,-7.36452685184,-0.290056186339,-2.76171664248,-8.70872785483,-1.02936871836,-4.39461100286,-0.0199003713713,-7.248436357,-3.16734294073,-8.41174881446,-9.86958565535,-17.0695977623
do_nothing,-10.0045504577,-10.4085454387,-8.7736909812,-0.710894002888,-6.73652099357,-11.5097639841,-14.4720224423,-12.0027816023,0.0526422510639,-12.6532405767,-3.46787576736,-11.9693598009,-10.641779086,-47.5510831354
do_nothing,2.10482810076,0.99062310561,-2.64019358033,-0.319517267209,-3.28517970842,-1.65895236273,-12.8189109299,-8.66501677583,0.155059702924,-7.38252708032,-1.08509078007,-6.4453888096,-1.84361915548,-14.6352557732
do_nothing,9.84637169561,9.77119354993,4.25660071249,-0.0250959377251,3.68500633822,9.48314012031,3.87537435109,3.43779432101,0.198295236482,3.77862562385,1.75396717573,3.69757064486,7.77839237087,25.8673526627
do_nothing,6.51428603717,9.24178702632,5.72705885073,-0.038158377114,5.19539959222,9.52038195079,17.2549102926,12.4636343001,0.0684505707303,10.900216004,3.01403583868,10.9505400495,10.2581869982,14.8435408477
do_nothing,0.873865975617,3.74776922206,3.33860513385,0.118713451779,0.886546924787,2.12039122462,14.2010497976,10.8220024552,-0.190933484051,9.61343333066,2.42095711629,10.8502594703,6.3723801443,-15.1591408064
do_nothing,1.27805379063,-0.466235337747,1.60595266985,0.345381892225,-1.46236304407,-1.6102224012,0.525744808825,1.89758599557,-0.340007712262,3.23574082417,0.690597822971,3.99793443289,0.944138047994,-5.72267631008
do_nothing,2.76890340093,-3.35760645843,0.705482134998,0.0406868952384,0.384837463137,-1.36694203638,-10.3622478141,-6.30243114799,-0.194692925836,-3.44048453359,-1.48527302256,-5.17439829023,-4.24516268953,25.0172249345
do_nothing,-2.46102646318,-6.73708525336,-1.70621995866,-0.537285853448,0.0684798604481,-4.62828779223,-12.8672966184,-9.19639211331,0.124414600541,-7.90091612027,-3.10419960474,-10.6842402686,-8.85137892052,20.4813303228
do_nothing,-10.1790380523,-7.81261743425,-4.56086676089,-0.335403498807,-4.44553988639,-9.55778374857,-8.94171089673,-6.73943372063,0.295861886069,-8.34229761036,-2.7543385785,-8.66000026174,-9.55828692016,-12.6750882731
do_nothing,-9.63055588174,-2.94990661044,-4.31494352372,0.67981682581,-5.23846430797,-5.68461578807,-0.764066901852,-1.14830898719,0.154327497621,-3.70317017342,-0.161787005779,-1.04066335157,-3.30238313132,-20.8764606123
do_nothing,0.29227983325,5.02431297802,-0.661554908301,1.05823341413,2.35043850984,7.20464313711,8.76200234923,4.17550350841,-0.119521436755,3.26970551183,2.68714800377,5.59273821414,6.28794507765,-0.901741932644
do_nothing,9.74488818959,9.03990656239,2.93545897808,-0.017502027484,9.51352423158,14.6265202785,12.9317423143,6.13332419889,-0.192029106768,7.01219796552,3.26596474121,6.7092656863,11.0664960916,0.743452816281
do_nothing,11.0579131277,6.42577219309,3.98152337059,-1.25976135789,5.7516790923,7.24609422048,7.09311946831,4.48326245552,0.0501221839132,5.32903153326,1.2882089511,4.09277983575,7.5704641483,-18.9763180501
do_nothing,5.25912607227,0.784872566647,2.72886982104,-1.01930671953,-4.7816931348,-5.67954853128,-3.3891557743,1.66280525081,0.331932440638,1.68727650027,-1.19257058335,1.72399326202,0.192371606478,-10.5241506041
do_nothing,-3.18243060873,-3.96375152019,-0.090069090848,0.311900976153,-8.77443274108,-9.95363883885,-7.89254596137,-0.583348711711,0.246322445588,-0.34424396925,-2.28916637346,-0.245314647727,-5.19649010743,30.5751526505
do_nothing,-10.007827599,-6.63218138262,-3.43019409351,0.968072549522,-2.84905691098,-4.9423074725,-3.86088693529,-2.54030619574,-0.254244931799,-1.61801026133,-1.81463621448,-3.77058497197,-6.80364092907,39.6195023238
do_nothing,-10.0210607644,-6.15492248111,-4.27769978007,0.412152500478,3.31503955303,0.0851145487634,0.443618169918,-4.16713746221,-0.672251841479,-3.94955192181,-0.487039369353,-6.85213249536,-5.36132923898,-9.3092541427
do_nothing,-1.10310340616,-1.46916902109,-0.389211349561,-0.198350921596,2.8586496991,1.33264633233,-1.77506434617,-4.11945345923,-0.443739261017,-5.48590064222,0.969671725039,-4.75550426709,-1.54166366503,-46.5954273188
do_nothing,9.14699095979,4.59043573085,4.78196649297,-0.0783783202906,0.207884769524,2.14757794238,-6.08881359753,-2.12122284057,0.3388140591,-3.28399768575,1.67716497684,1.94730038538,2.79376742935,-12.3504084489
do_nothing,9.26606481286,6.29840170299,4.69064921356,0.151769444069,0.822379741218,3.38889316039,-3.25652149346,0.376848142915,0.874752748128,1.5592463632,0.997516351851,6.17269764433,4.43283744813,43.6524888506
do_nothing,-0.633218637517,2.46404427551,-1.16196755745,-0.128761745081,2.0967039244,2.51253124082,7.3436909003,2.94142720854,0.523897997788,5.16190341414,-0.316800416455,3.89988054616,2.80837390468,36.7158556675
do_nothing,-7.39640170632,-1.36892752996,-5.44447680365,-0.442658310732,0.0657421626732,0.657084354263,15.1993798881,6.23340829468,-0.373345612382,5.83861172427,-0.65549520573,-0.0559401215522,1.30697632873,-23.2338771569
do_nothing,-2.96807470909,-1.02010032692,-3.03395998968,-0.228946352851,-2.38704783374,0.98220211063,10.2558796108,7.87742903605,-0.81375383712,4.25795341468,0.0958841479011,-0.0101002314292,1.81688050561,-55.4875534484
do_nothing,4.37247556196,0.341746357919,1.81680979075,0.112474447158,-1.14557628061,0.730520029563,-5.07059080072,2.9296963328,-0.308322510332,0.338274520854,0.19833628179,1.46376515467,1.18467077034,-32.7293714139
do_nothing,3.44254165649,-1.63681055457,2.45647174899,0.0634416239137,0.85310588578,-4.8693088008,-17.0668198684,-7.72649204265,0.513367780039,-5.40864004594,-0.9844248772,-1.369985267,-3.1202401754,3.27650073224
do_nothing,-2.9856118466,-4.42138279527,-0.16025343146,0.014156581765,-1.10589769531,-10.5722966796,-14.4147146658,-13.8609917151,0.65216842055,-8.59089522441,-1.44327701267,-6.33567204694,-6.97354358414,32.9086726168
do_nothing,-4.33785318924,-2.61264062883,-0.30406550147,0.441994920684,-3.84767169462,-5.03689948452,-0.258408605654,-7.19315622274,-0.0598012392313,-4.77312097235,0.297930268056,-5.56172735346,-4.67687101431,69.4532282934
do_nothing,0.228347235971,2.45752622266,2.30491527539,0.747378916774,-0.806321597519,9.74782157083,11.0143476928,6.04881746089,-0.765499302481,2.98871417842,2.10575129923,1.57791094246,1.78752396118,78.4389915116
do_nothing,2.26240065108,4.21059476929,2.28114269197,0.0919553586107,5.71184139876,15.6706632581,9.73901492935,11.4187236652,-0.607894942173,6.40279007255,1.06990060067,6.37715863226,4.998232622,-2.60578943535
do_nothing,-0.12447635027,1.41992139735,-1.6219603123,-1.00292980483,6.37114182305,3.22567654918,1.23220631029,5.00840277351,0.269777154066,3.30485423564,-1.53459034901,3.97949338984,3.2012686401,-129.92970697
do_nothing,0.304421243148,-0.128439621845,-3.79720961424,-1.15822286423,-0.482929980326,-12.0027697856,-2.50369869307,-2.2817608742,0.90886574256,0.468940880602,-1.6015824317,0.328263480779,1.97429450627,-151.050075365
do_nothing,4.96381369822,1.91098276037,-1.03808269822,-0.140344425446,-5.49004867352,-9.85542950753,1.26601898477,-1.50685527471,0.641630088075,2.08062948131,1.30738362603,1.16469024998,3.39663136139,-8.72272236189
do_nothing,4.66404317419,1.94290363765,1.96786270283,0.846226102593,-2.72637926767,5.02460659582,3.8392942729,1.98079671038,-0.189499214566,2.4190582434,2.65697026195,1.86488463401,1.64581643706,145.859808871
do_nothing,-4.52143626807,-3.51516275516,0.409882083901,0.95094253074,1.45698012634,9.92918119198,-1.21641577216,-1.01387761951,-0.699582687221,-3.91271819379,-0.232762307775,-3.76083713265,-5.98866918487,141.384513441
do_nothing,-11.5475533719,-7.98503784139,-2.58618963154,0.550014334812,-0.306909100026,-2.22793123235,-8.73191043125,-7.72888636355,-0.496065490418,-10.3779635986,-3.5889375784,-10.1506422817,-11.0017356903,14.6071103215
do_nothing,-5.59954256539,-3.91917356824,-1.15231786457,0.084578121716,-3.93990881957,-12.9928534021,-9.56673563843,-7.48726187458,-0.0194973943284,-6.36920906622,-2.49155406982,-6.2736880409,-4.58595261911,-67.7474451891
do_nothing,6.804577772,4.91070734257,3.50572000321,-0.639888203156,-1.06585725104,-6.19999258275,-2.5501097985,1.40175302529,0.153878467395,5.7573949342,1.73796523439,6.26057471901,7.62811440264,-58.4514992255
do_nothing,10.6589260546,7.89532720029,4.81793249163,-1.38070772905,6.20103963259,9.33887890523,5.8739221737,8.7578217164,0.0562925350123,11.7603764338,3.47352080309,12.6778279394,11.278941341,-50.4661202555
do_nothing,3.66307627836,2.68760553001,0.988089422015,-1.01591496618,7.50358679156,14.2541992054,10.2660309264,7.24237766585,0.123827316479,4.91395316324,0.984999282722,5.25606812106,2.86248807262,-67.9203446798
do_nothing,-3.0066847076,-2.44865341983,-2.88109632464,0.705191600902,0.133017996795,5.00686881237,9.15162117062,1.11401438911,0.41183826031,-5.05482454021,-1.65716921006,-5.81741108996,-5.85823219614,-16.0372376104
do_nothing,-3.10288433986,-1.87649209906,-3.10171506422,1.99598802541,-6.78187509143,-5.83769690841,2.51750741357,-2.54151222679,0.437656438185,-6.39279227671,-1.18312888776,-7.30836922564,-4.96830174668,113.345266985
do_nothing,-2.08225117678,0.142954649237,-1.8882654106,1.1084170083,-5.71075173981,-9.21932590734,-6.79381553735,-3.39306762043,-0.0739298886192,-0.612180859512,0.564199916355,-0.626890009759,1.00829674146,158.676621376
do_nothing,-3.95189056445,-1.4696449777,-1.75347126854,-0.990532554019,-0.230824786475,-6.95397578663,-10.9009566755,-3.87014975655,-0.652371640859,2.87622942977,0.568041739897,3.19316349694,2.42381571164,22.4915262621
do_nothing,-3.52497444847,-3.71476437847,-0.873713247715,-1.6796543872,2.50670155867,-2.3291900748,-4.37215163161,-2.44633173243,-0.620326275662,1.21717173484,-0.626616050097,0.6209161656,-1.01927503346,-143.283771905
do_nothing,2.58280364043,-1.4555981814,2.48347101464,-0.310944918149,2.00763386803,4.08069676618,5.5145666752,2.0766382172,-0.000344947961531,-0.916346349264,-0.780530112272,-1.97525955505,-2.51191412986,-134.066369417
do_nothing,7.14313032148,2.95648900227,5.06940791243,0.981163392893,1.8106959694,8.40343216615,5.04680740813,4.3982779012,0.499842206269,-1.30027373272,-0.0671562504078,-0.900035606197,-0.290505822207,12.394257135
do_nothing,2.95911260269,3.2301688072,2.87160372675,0.517458119392,1.68053754563,4.72689086908,-6.05876763339,-0.531489205355,0.401694857347,-2.17557993019,-0.129399507727,0.0654816804819,1.04937509202,86.7301475562
do_nothing,-4.34841336461,-0.273941556129,-2.03244800944,-0.608234048241,-0.876989371197,-4.04011579179,-10.5703714999,-6.80286210225,-0.0101345068516,-2.88008283291,-0.499253527462,-1.13916692264,0.0100009481656,27.380336885
do_nothing,-3.93452203435,-1.08772420655,-3.68973384624,-0.514837408927,-3.83903812424,-6.30065506044,2.96287563151,-3.23162006973,-0.190728647586,0.802755512812,0.649990734162,-0.0463474854014,0.577233285094,-20.1895260833
do_nothing,3.39756673708,2.38479114197,-0.740727944224,0.543489247454,-2.35860070243,1.81486634967,20.5786972367,9.11178489543,-0.0508924850015,7.68887376358,2.61007120375,5.39258577216,3.78073955534,27.7712894464
do_nothing,6.04630114913,3.7570998125,1.81204097293,0.839573838629,2.8405178416,8.51496501415,18.3742951138,14.5458509489,0.0812665621999,9.06453105358,2.29220694641,8.10278215483,4.17409078543,60.2851213272
do_nothing,-0.944719125086,-1.15747610812,0.0665165917693,0.00552328853746,4.91916340473,2.30457118915,-5.14670326857,2.97084307861,0.0109040152843,0.182850386834,-1.10009450696,1.06450059273,-1.57113252041,-16.8174464139
do_nothing,-8.67723283938,-7.06032263183,-3.32743833969,-0.60297687625,0.540245584324,-10.3959820776,-25.0923615853,-14.6487766279,-0.124093277964,-11.0485723098,-4.20032232651,-10.4485220388,-7.82276762896,-102.87449188
do_nothing,-7.25495913882,-6.25337717575,-3.16163695188,-0.27761908464,-4.83807522403,-12.9198970928,-20.9374430172,-18.5394865345,-0.144656325778,-12.4506947208,-3.52840546681,-13.3075378385,-6.68418133366,-63.6990936538
do_nothing,1.47623751038,0.76326169117,1.25746768942,0.0579703547553,-4.29832038576,-0.793448270997,-0.0356695346482,-4.46880445173,-0.0460233066159,-2.39785791574,0.317655477465,-3.10147157962,1.23036236871,46.0682566456
do_nothing,8.15448713879,6.41238729839,5.38372886475,-0.291965017798,1.20598409749,12.7601344067,15.2509302126,11.9451140445,0.0952553997774,8.61017524776,3.66841974067,9.75183361548,7.44790418547,73.448486113
do_nothing,7.69502133963,5.87326955609,4.93034406993,-0.488730741376,4.55911387692,13.9240817972,14.5968818803,14.8637901079,0.205994728323,10.4738834681,3.76072807049,12.4259624879,6.11326841338,9.39403130882
do_nothing,2.34865650844,1.49142897457,0.379533172721,0.306593239731,2.05248964431,3.17739437484,5.4081251348,5.09126322889,0.173809974964,3.59710624828,0.871851811238,4.13107630285,-0.0508435239897,-20.7309305154
do_nothing,-3.45132135818,-2.02206884448,-3.93849279238,1.22323240819,-2.3837654844,-8.50384251853,-1.99245306628,-4.74060918981,-0.0614988993162,-3.74147521323,-2.36349474087,-4.78755934263,-4.29603808286,19.7615713762
do_nothing,-6.56627964048,-2.90061952761,-4.40110343811,0.827763833044,-2.89257143579,-11.9304690235,-4.29631552175,-6.17573012758,-0.308523481502,-4.95648328196,-3.04867822699,-5.92456310707,-3.34939197952,30.7036534019
do_nothing,-5.34631540597,-2.20582685815,-1.54428979879,-0.602764107334,0.922849680258,-5.8165945335,-2.66911998385,-1.85431700204,-0.243876095611,-0.972129230937,-0.607877080343,-1.40082209754,0.371116292977,-32.7982113056
do_nothing,-0.623965069231,-1.27659072625,1.01212506079,-1.33877430462,3.91660599906,4.05603158298,-0.120882500318,0.900039029928,0.139031456341,2.03443223013,2.11201758299,0.959195159805,2.21061931622,-74.5530364124
do_nothing,3.82279591251,-0.603214935832,1.03351130305,-0.623891185428,1.96604928929,8.91248054357,-1.55117965717,-0.982590109838,0.408426584004,-0.065388407163,1.68545471523,-1.65236411406,0.21471789046,-22.7342044676
do_nothing,4.53932316409,0.0949113722985,0.112077399434,0.433056203864,-2.94438561299,4.36520680189,-8.03810988365,-4.10079842408,0.21724110238,-4.31861379412,-1.35415835131,-3.928385117,-2.77558986476,47.1146815712
