label,COUNTER,INTERPOLATED,AF3,F7,F3,FC5,T7,P7,O1,O2,P8,T8,FC6,F4,F8,AF4,RAW_CQ,GYROX,GYROY,MARKER,SYNC,TIME_STAMP_s,TIME_STAMP_ms,CQ_AF3,CQ_F7,CQ_F3,CQ_FC5,CQ_T7,CQ_P7,CQ_O1,CQ_O2,CQ_P8,CQ_T8,CQ_FC6,CQ_F4,CQ_F8,CQ_AF4,CQ_CMS,CQ_DRL
off_to_on,3.94332837771,3.42857802523,-2.83753648094,2.64674925999,0.179853000345,3.012656224,6.89708113823,8.93658129169,3.83720708966,3.56816717857,3.57862706629,3.8756124404,4.81656793024,-10.4155319492
off_to_on,5.72757626269,5.55409561503,-0.396153374971,1.93992838749,1.80355696786,5.05699143534,10.4480191234,12.0770972774,3.15451206072,6.4343058734,3.82923234782,6.89917064896,6.58345681835,17.134719098
off_to_on,6.66494205455,6.87396212853,1.74614253541,1.17151497814,2.99393150354,6.43495891561,12.8419370745,13.9311345409,2.3299947537,8.40478879756,3.7250548036,8.95872962299,7.51558308881,45.6606340851
off_to_on,6.75507823735,7.34379613502,3.44286657267,0.378052259125,3.71914842591,7.13043921763,14.0088661057,14.4694393692,1.40893263981,9.43405176475,3.32315592254,10.028602179,7.666990879,73.0962502443
off_to_on,6.10550361264,7.02645634919,4.61875061745,-0.404184374143,4.01542889143,7.20919961592,14.0162672576,13.8063909095,0.441046069107,9.59251754703,2.71119747427,10.2016026342,7.18119286039,97.2579149181
off_to_on,4.9089710909,6.07553215059,5.27124050931,-1.14147743414,3.9735907638,6.79922616285,13.0456429258,12.1732321213,-0.523401273317,9.0448276567,1.99258284965,9.66288360819,6.26214545674,116.024703
off_to_on,3.41040732461,4.70765791205,5.46179094371,-1.80466522897,3.71818463909,6.06398552786,11.3563569963,9.87833845167,-1.4372932487,8.0166363509,1.2701779256,8.65308011705,5.13874090488,127.537155126
off_to_on,1.86856200688,3.16798631918,5.29881495065,-2.37064966436,3.3827781409,5.17307696353,9.2425657216,7.26061489825,-2.25975672645,6.75530337375,0.631077343906,7.42664098334,4.02823760075,130.395373239
off_to_on,0.518070366476,1.69395210578,4.91528308513,-2.82327486786,3.08542732927,4.27490449985,6.98980968345,4.64278252246,-2.95837336444,5.49050394465,0.134666315783,6.21168406537,3.10401749614,123.834479341
off_to_on,-0.462643153076,0.482501818563,4.44462525532,-3.15351593721,2.9082269735,3.47546542889,4.83749000607,2.29100729979,-3.51035180728,4.40056355561,-0.19431955424,5.17723176407,2.47224398415,107.854907192
off_to_on,-0.97324773798,-0.334730226239,3.99868092126,-3.35900414296,2.88409099053,2.82621408491,2.95223233978,0.386110337943,-3.90265038369,3.58927069455,-0.36682831179,4.41235835161,2.1605290787,83.2874043433
off_to_on,-1.00046489767,-0.705135817339,3.65097262396,-3.44299818193,2.99270283538,2.32240902654,1.41524174999,-0.990319135062,-4.13117844463,3.07619462939,-0.424631416905,3.91982487602,2.1198312223,51.7780320784
off_to_on,-0.613400159844,-0.656303239629,3.42762915936,-3.41297860456,3.16608515389,1.91163442645,0.22447639926,-1.85390907795,-4.19931502094,2.80140547999,-0.430487569599,3.62449376256,2.23878012554,15.6864803775
off_to_on,0.0534063673887,-0.285093985406,3.30701373402,-3.27908457783,3.3027006642,1.51057008268,-0.689829931966,-2.30096626245,-4.1160517031,2.64328262044,-0.455005792062,3.39454983054,2.36776436998,-22.0991478335
off_to_on,0.826079997782,0.263167380026,3.22771979535,-3.05262264998,3.28764854896,1.02681541297,-1.43974176287,-2.48087426393,-3.89408463991,2.44613445994,-0.562377236201,3.07164460887,2.34869452867,-58.4174444889
off_to_on,1.52226995779,0.821806416909,3.10329761704,-2.74485472697,3.01556768513,0.381839648703,-2.14910369722,-2.56237767234,-3.54814825949,2.05292545822,-0.797303895103,2.50480529837,2.04557435511,-90.1352939311
off_to_on,1.98181164794,1.23182706425,2.84106416974,-2.36622047129,2.41244263378,-0.468963766298,-2.9233117512,-2.6993975106,-3.09380829092,1.33771866279,-1.17525327987,1.58248805538,1.37098222812,-114.464907839
off_to_on,2.09244154366,1.36833947695,2.36177532932,-1.92607554092,1.45268992518,-1.52259271476,-3.82446901529,-3.00184351409,-2.54682769272,0.232585040667,-1.67764278699,0.257562481549,0.304278654319,-129.260925683
off_to_on,1.80673424499,1.16042299889,1.61688144108,-1.43294243338,0.16864860001,-2.72350188643,-4.85594693536,-3.51588727405,-1.92310388375,-1.25532961895,-2.25278651067,-1.43878578457,-1.1013036459,-133.262071898
off_to_on,1.14791250734,0.601590304187,0.600542681123,-0.89518767316,-1.34920803795,-3.96833649033,-5.95870188783,-4.21650989431,-1.2390680133,-3.03930588627,-2.82253801544,-3.39644881445,-2.72377219559,-126.246244713
off_to_on,0.203984834298,-0.250454610348,-0.645531160404,-0.321969875145,-2.96156861421,-5.1196564649,-7.01970229508,-5.01310552263,-0.512353838906,-4.9618648124,-3.29367156114,-5.43918531677,-4.38886900801,-109.076556941
off_to_on,-0.888491464159,-1.2843878837,-2.0351767001,0.275742063094,-4.49782662668,-6.02649458622,-7.8908226002,-5.76682613387,0.237502383861,-6.8155652318,-3.57229658426,-7.34879709026,-5.89536233107,-83.627896413
off_to_on,-1.96812487954,-2.35420636518,-3.44829444967,0.884296192291,-5.77931096953,-6.54846111331,-8.41486893281,-6.31651432696,0.988572491946,-8.37260023194,-3.57910938843,-8.89690887155,-7.04519655618,-52.59764658
off_to_on,-2.87587237307,-3.30333150661,-4.74709937114,1.48682798892,-6.64473774255,-6.5795001616,-8.45427527879,-6.50876529024,1.71645939972,-9.418652832,-3.26312688047,-9.87938860084,-7.67381713634,-19.2185737138
off_to_on,-3.48121756465,-3.98994596407,-5.79552389429,2.06322432514,-6.97403892927,-6.06741193601,-7.91761404553,-6.22707602832,2.39475988133,-9.78581384746,-2.61174488942,-10.1480384498,-7.67596402918,13.0953218393
off_to_on,-3.70312009739,-4.30952869796,-6.47871758873,2.59066074074,-6.7069316057,-5.02587757058,-6.77945056507,-5.41525575232,2.99609804638,-9.37950065636,-1.65548964284,-9.63460846466,-7.02292426176,41.129729521
off_to_on,-3.52242208502,-4.21107660566,-6.71959814592,3.04470875037,-5.85335359505,-3.53686216677,-5.09016496342,-4.09123941698,3.49365806261,-8.19521828344,-0.466607544633,-8.3633644136,-5.76854280455,62.2327223715
off_to_on,-2.98381912368,-3.70455815472,-6.48989683323,3.40092612738,-4.49409193351,-1.74274999682,-2.97398583682,-2.34900615177,3.86305326392,-6.32253312098,0.848450008825,-6.45019498994,-4.04301014269,74.6150132979
off_to_on,-2.18720799603,-2.85856609249,-5.81402625399,3.63677047181,-2.77138716101,0.170844760403,-0.615367908878,-0.348207168114,4.08430298701,-3.93555097688,2.16167940308,-4.08830069675,-2.03531239816,77.5500238015
off_to_on,-1.2699409217,-1.78869763077,-4.76523638758,3.73362500785,-0.870789084817,1.99919309436,1.76429820747,1.70694411653,4.143658649,-1.27121393645,3.3395742839,-1.52255286101,0.0330385317229,71.4475005153
off_to_on,-0.382977154649,-0.63864834298,-3.45473567419,3.67870239295,1.00315672671,3.54599648091,3.93612197049,3.59627458677,4.03503114589,1.40144967758,4.26031047426,0.983665071127,1.93904465765,57.7896037924
off_to_on,0.335101262449,0.442864351667,-2.01554679265,3.46660018074,2.65389370819,4.6502976046,5.69479739237,5.11532341152,3.76082055423,3.81664332182,4.8296163714,3.18418158501,3.48934986562,38.9354229571
off_to_on,0.7819032223,1.32560294762,-0.583671131291,3.10031887177,3.9186156768,5.20873864422,6.88657099842,6.10517416625,3.33202824055,5.74653921608,4.99305118979,4.88298898955,4.5467558961,17.8165787196
off_to_on,0.908914148829,1.91795643524,0.72047253767,2.59161456312,4.68909396756,5.18980728428,7.42980483921,6.47581351306,2.76762805425,7.03038701377,4.74292244107,5.95951223827,5.04812347632,-2.43923257038
off_to_on,0.7300774642,2.18051156665,1.80744993704,1.96063429067,4.92459456514,4.6378814796,7.32498894863,6.21937369829,2.09327199266,7.59380159633,4.11884536267,6.38245564927,5.01096445657,-18.9101302419
off_to_on,0.319756408728,2.13089408169,2.62870523931,1.23486270459,4.65508419334,3.66639179165,6.65268590748,5.41116645323,1.33949121372,7.45551370648,3.20186712556,6.21022661622,4.52775333166,-29.2567891129
off_to_on,-0.199728545562,1.8391277187,3.17950508364,0.447482991439,3.97436154358,2.44103789617,5.55974934716,4.19828585324,0.539612564999,6.72074120524,2.10301180926,5.577975445,3.7488624097,-32.0259210664
off_to_on,-0.679098361419,1.41427894695,3.49462223654,-0.364686426233,3.02423392155,1.15548009559,4.23595971469,2.7774602747,-0.272364643425,5.56232843592,0.947910436498,4.67332290186,2.85676978067,-26.8411196085
off_to_on,-0.968352471066,0.984555676023,3.63762553915,-1.16348166304,1.97216899006,0.00305399686379,2.88468638116,1.36547842546,-1.06369988273,4.19260841705,-0.140255742946,3.70456396284,2.03553767446,-14.4556368765
off_to_on,-0.944043903475,0.674089987077,3.68567861163,-1.91170130694,0.985791707891,-0.851342638618,1.69209039525,0.166651818763,-1.80446618862,2.83029797938,-1.05703451113,2.86627759663,1.44030420104,3.34090483578
off_to_on,-0.533142252234,0.580191576475,3.7124797583,-2.57523879708,0.20802998683,-1.29505790418,0.799589437862,-0.65776549623,-2.46861680869,1.6674389426,-1.72986711299,2.30766520134,1.17155739996,23.9511730682
off_to_on,0.27051742992,0.754821146699,3.77228279078,-3.12488126789,-0.26342241226,-1.28368640829,0.283786367838,-1.01356752799,-3.03453767537,0.841346890651,-2.12627145286,2.10852450039,1.25825854365,44.305936253
off_to_on,1.40011684634,1.19340384488,3.88777229132,-3.53766711357,-0.389336752761,-0.846911697627,0.1468975732,-0.887354703283,-3.48514359065,0.415734220275,-2.25592304176,2.26660312222,1.65255300143,61.2647478289
off_to_on,2.72142377513,1.83297566374,4.04395059254,-3.79775105351,-0.193003927479,-0.0833396275563,0.319088219946,-0.347957648085,-3.80764422617,0.37375818714,-2.16642213143,2.69834110314,2.23704796467,72.030510028
off_to_on,4.04960230679,2.56020129511,4.18922170223,-3.8967799336,0.245368904229,0.854902807549,0.672279915601,0.464718902611,-3.99314740742,0.623922327967,-1.93347426023,3.25296485391,2.84370932443,74.5247389931
off_to_on,5.1750488061,3.22824248255,4.24368033143,-3.83382762755,0.802952728759,1.78551971084,1.04322539561,1.36178373443,-4.03627518112,1.01780552864,-1.64704042555,3.73784463708,3.28162449078,67.6750361051
off_to_on,5.89457463981,3.68003144741,4.11341629992,-3.61496810701,1.33502293152,2.52389712191,1.26221592195,2.13508445588,-3.93494208823,1.37680050725,-1.39560932125,3.95128233909,3.36946745349,51.5772566529
off_to_on,6.04332669731,3.77443578015,3.70861519195,-3.25257973221,1.69891389005,2.91134328541,1.18291829714,2.59012541654,-3.69038993673,1.52368083711,-1.25101894844,3.71772016201,2.96770344086,27.5107567597
off_to_on,5.52259042275,3.41125819122,2.96254030643,-2.76447173243,1.77754036215,2.83956032572,0.708661632091,2.57724747168,-3.30749922411,1.31408603959,-1.25616734187,2.91993304424,2.00551003032,-2.19615966786
off_to_on,4.31910558619,2.55108719817,1.84823384283,-2.17290897314,1.49891689751,2.26775328192,-0.188964866964,2.01638937368,-2.7953175696,0.663025770731,-1.417514687,1.52315591719,0.4980872444,-34.4343155817
off_to_on,2.51268053709,1.22670101721,0.390023860336,-1.50358858282,0.848731897899,1.22987335264,-1.46216650061,0.91169780489,-2.16767456892,-0.437746213437,-1.7035560837,-0.412752597189,-1.44861375602,-65.6819015777
off_to_on,0.27055286502,-0.456068589681,-1.3323612794,-0.784597808491,-0.125906612573,-0.169053520562,-2.99098405307,-0.646246386511,-1.4437035891,-1.91426291805,-2.04954235167,-2.73526343012,-3.64688932716,-92.4267535279
off_to_on,-2.17112794688,-2.32855764319,-3.18818908836,-0.0453622641411,-1.32210270753,-1.76696035755,-4.59882040406,-2.49098944349,-0.64807389139,-3.61776080277,-2.36777893861,-5.21531774864,-5.84912870359,-111.589723269
off_to_on,-4.53641072526,-4.17945830755,-5.00846190525,0.68441811057,-2.59532512624,-3.36707140752,-6.07719144778,-4.4020729645,0.189244340603,-5.34401908385,-2.56198057699,-7.57561239408,-7.77969435842,-120.896212451
off_to_on,-6.54535301059,-5.78232618187,-6.60553238395,1.37584926519,-3.77995635053,-4.76526983889,-7.2160211122,-6.13506849579,1.03380543675,-6.86185386027,-2.54352857554,-9.52715687205,-9.17247651157,-119.149750086
off_to_on,-7.95157564252,-6.92659320664,-7.79701673955,2.00193401646,-4.71317212405,-5.77852463186,-7.83493826238,-7.45544600524,1.848145937,-7.94660350874,-2.24716293432,-10.8089528292,-9.80882653473,-106.3741761
off_to_on,-8.57625021956,-7.44765207624,-8.43067359685,2.53865108503,-5.25860711682,-6.27027499862,-7.81085845186,-8.17139378551,2.59381942159,-8.41366282287,-1.64369098434,-11.2251165609,-9.55039898017,-83.8078550223
off_to_on,-8.33362185834,-7.25160236164,-8.4066438144,2.96597852374,-5.3263148563,-6.16914653612,-7.09767187091,-8.16087608973,3.23385620086,-8.14707736468,-0.747702720369,-10.6740615847,-8.36205093566,-53.7521582924
off_to_on,-7.24430068683,-6.33092401399,-7.6937062966,3.26879855861,-4.88610050763,-5.47837535261,-5.73502853616,-7.38907231131,3.73541394434,-7.11890372855,0.381007545531,-9.1654416622,-6.32127920257,-19.2947568557
off_to_on,-5.4342462875,-4.76858023968,-6.33696868022,3.43760848243,-3.97230386931,-4.27469240071,-3.84483567938,-5.91375611211,4.07233299737,-5.3963734478,1.64270539566,-6.82226931077,-3.61253460099,16.0563120645
off_to_on,-3.11937916602,-2.72967481398,-4.45557616963,3.46896100189,-2.67938436971,-2.6969641808,-1.61591517204,-3.87793169229,4.22729678239,-3.13567135176,2.90908332373,-3.86772260628,-0.506874613976,48.7812605999
off_to_on,-0.577793290187,-0.441565865027,-2.23042177075,3.36556963469,-1.14901768374,-0.926368998882,0.720965541031,-1.49088559371,4.19332719661,-0.563091576404,4.03924707575,-0.598329619512,2.67050336998,75.7488651463
off_to_on,1.88668129162,1.83498878279,0.116725510039,3.13604023374,0.449347803057,0.838907523053,2.92404255779,0.999535331085,3.9744146588,2.05382171445,4.8981436607,2.65284066105,5.58056575438,94.5596662275
off_to_on,3.98456488754,3.83975548561,2.35000118632,2.79422579412,1.94158976167,2.41072220956,4.77295265278,3.33938648112,3.58518352185,4.4410779204,5.374867279,5.55793058065,7.91315394889,103.791606255
off_to_on,5.47891732246,5.34733965624,4.2485675914,2.35824350323,3.17228187359,3.63584034872,6.09784002191,5.3011766633,3.04961202947,6.35404784569,5.3982588085,7.83524061663,9.42628798033,103.121003965
off_to_on,6.21632593759,6.19709790699,5.63411593683,1.84923421543,4.02495825613,4.41507545567,6.80093648664,6.71192446457,2.3989449534,7.60918833611,4.94756403394,9.28374656287,9.97668198473,93.308236283
off_to_on,6.14638662389,6.31442444256,6.3929534492,1.28997845403,4.43640198942,4.7140626165,6.86751280772,7.47287273288,1.66903915778,8.10719093238,4.05658675818,9.80648990113,9.53728720622,76.0548712451
off_to_on,5.32698424248,5.72036891276,6.48959302743,0.703503677523,4.40301098453,4.5643035702,6.36469246639,7.56830000075,0.897452458222,7.84430971859,2.81067021793,9.41973693932,8.19946751055,53.7549768741
off_to_on,3.9146747284,4.52816717408,5.96992260159,0.111820693053,3.97849233576,4.05458206014,5.42843278692,7.06250539881,0.120613676811,6.9103402817,1.33683621884,8.24682823044,6.15954138448,29.1758697963
off_to_on,2.14156528547,2.92710405324,4.95347572751,-0.465088857266,3.2634264399,3.31427173868,4.24073930663,6.08578573321,-0.628607638247,5.47365448465,-0.211635614632,6.49780460035,3.69159045591,5.11112440652
off_to_on,0.28198188357,1.15591576848,3.61584850562,-1.00994570639,2.38843111852,2.49123534566,3.00062430582,4.8118105386,-1.32267717103,3.75556107784,-1.67413149982,4.43788714729,1.11033004344,-15.9495950913
off_to_on,-1.38636518423,-0.530577276715,2.16369257429,-1.50846580054,1.49356805406,1.72777146742,1.89323406583,3.43000040285,-1.94036176674,1.99778754672,-2.90258653979,2.34942044294,-1.27080644393,-32.0934253577
off_to_on,-2.6212580764,-1.89695228098,0.805760608227,-1.94928571549,0.70713717729,1.13829658122,1.06181668918,2.11715410582,-2.46684914418,0.427842578656,-3.77965332055,0.492744153514,-3.18059113524,-42.168671863
off_to_on,-3.24945877613,-2.75981888876,-0.275961649422,-2.32358647976,0.127030361967,0.792127395072,0.586748352668,1.0125654191,-2.89310755951,-0.772716954622,-4.23272541262,-0.928478532905,-4.4243447842,-45.8623117693
off_to_on,-3.1901719243,-3.01304179114,-0.951015348155,-2.62452521528,-0.192632465143,0.70390650159,0.474750861715,0.200232638991,-3.21467852615,-1.49256039095,-4.24196583172,-1.79267783145,-4.90708495359,-43.6670317969
off_to_on,-2.46529496223,-2.64202878504,-1.15768090977,-2.84661125975,-0.247709282817,0.833021524828,0.659881652296,-0.299400565822,-3.43017121274,-1.70397600505,-3.84132505159,-2.07315169848,-4.64248050595,-36.74874612
off_to_on,-1.19515389481,-1.72510314232,-0.910271855543,-2.98516960703,-0.0823219950304,1.09198645031,1.01609247481,-0.527241912482,-3.53975992176,-1.46358177018,-3.11250239623,-1.83668696832,-3.74663626351,-26.7379518702
off_to_on,0.419523534581,-0.421798615364,-0.295541911169,-3.03601794963,0.220331440036,1.36239197116,1.3794024851,-0.573571811286,-3.5439712217,-0.90042754548,-2.17277126448,-1.22858371527,-2.41787038414,-15.4769872387
off_to_on,2.12671915108,1.05024606262,0.541226064933,-2.99544616409,0.553073126593,1.51589257224,1.57627694215,-0.55845895807,-3.44298721015,-0.193410610143,-1.15841693242,-0.446593718218,-0.905596131283,-4.75925183182
off_to_on,3.65911614116,2.44652006877,1.41842922411,-2.86053388835,0.803319737546,1.43694951713,1.45386074319,-0.607865602583,-3.23659528901,0.458520876392,-0.206110838865,0.29215671174,0.527096687038,3.90459388454
off_to_on,4.77185490998,3.5305994977,2.1454716466,-2.62978066236,0.872222653657,1.04379883609,0.907426085063,-0.829341422809,-2.92479755636,0.868870698298,0.565210421371,0.786246501107,1.64175405255,9.4641362265
off_to_on,5.27676024162,4.10792914002,2.55132361874,-2.3039632052,0.69142590362,0.304394505957,-0.0992024648646,-1.29120245137,-2.50897262824,0.893935713283,1.0695096392,0.8818317616,2.25832658197,11.4304722374
off_to_on,5.06832215974,4.05371550359,2.51027557413,-1.88708516963,0.234904746994,-0.755157376041,-1.52344574162,-2.00849182459,-1.99337817089,0.456472529036,1.26386102996,0.496665699644,2.27970239313,9.89284244642
off_to_on,4.13794673047,3.33107358562,1.96126772993,-1.38725421597,-0.475865195564,-2.05102565669,-3.24567717327,-2.93792139287,-1.38671018301,-0.440807677467,1.1524394065,-0.367141811452,1.70371499777,5.45431063025
off_to_on,2.57469927045,1.99696019537,0.918102584812,-0.817314958303,-1.37412008098,-3.45096770419,-5.08276060192,-3.98257086137,-0.70340688059,-1.71389190393,0.783905214459,-1.62331853461,0.62118895468,-0.898952504843
off_to_on,0.552689408756,0.195151646017,-0.530854616813,-0.195086231252,-2.35698478313,-4.79123136542,-6.81158489936,-5.00559476728,0.0355939298835,-3.20844034134,0.242728610233,-3.11433665921,-0.79938685027,-7.97197793973
off_to_on,-1.69288433398,-1.8626641893,-2.23340013637,0.456904716583,-3.30015215833,-5.89862327068,-8.1992762042,-5.8507912056,0.80286711923,-4.72144447361,-0.36417538211,-4.63492320837,-2.33806083474,-14.5514888795
off_to_on,-3.89746980612,-3.92496978369,-3.99309892323,1.11223570681,-4.07579547763,-6.61456140605,-9.03577134622,-6.36683149716,1.56539976655,-6.03036851161,-0.923510439497,-5.96253895055,-3.75648370006,-19.5846458462
off_to_on,-5.80211276953,-5.7337215932,-5.59501198141,1.74192255671,-4.570995668,-6.81764241131,-9.16407206146,-6.43139454866,2.28636777247,-6.9254941792,-1.33204661304,-6.89022542855,-4.83291791659,-22.321543761
off_to_on,-7.18673104226,-7.05825445425,-6.83396369467,2.3161706303,-4.70393517312,-6.44147685457,-8.50381997227,-5.97147361435,2.92764805929,-7.24074351913,-1.51114641923,-7.25694924963,-5.39409463806,-22.403628572
off_to_on,-7.89719277812,-7.72515571472,-7.54146501636,2.80638241817,-4.43549678836,-5.48524068343,-7.06478691588,-4.97671778721,3.45280958441,-6.87850390839,-1.41739726405,-6.97102629451,-5.3393861061,-19.8889961338
off_to_on,-7.86269036867,-7.64011818059,-7.60765337205,3.18721676033,-3.77464229709,-4.01545087542,-4.94832093309,-3.50374035208,3.83024454323,-5.82488119654,-1.0479815011,-6.02330747417,-4.65397564493,-15.215092179
off_to_on,-7.10138444202,-6.79896974599,-6.99536006933,3.43847998757,-2.77691334039,-2.15873832453,-2.33651075041,-1.67070420894,4.03606533138,-4.15322261732,-0.440196290491,-4.48837884398,-3.40938213294,-9.10824852495
off_to_on,-5.71402113113,-5.28663643124,-5.74455562414,3.54664308516,-1.53644350729,-0.0866734495394,0.529422428709,0.357031459464,4.0564090088,-2.01546834403,0.334621945798,-2.51383122691,-1.75157825242,-2.45653244558
off_to_on,-3.86694189073,-3.26449562868,-3.96678356243,3.5058204931,-0.17283441264,2.00518776211,3.37848219904,2.38807443359,3.88885748822,0.377345625977,1.18173125613,-0.299415882581,0.121248231236,3.83334584131
off_to_on,-1.76735811572,-0.94817239065,-1.83057633363,3.31810982606,1.18501673079,3.92108734262,5.94291439823,4.22983206019,3.54278939938,2.78255941935,1.99652714323,1.93063902874,1.98776889084,8.97327960994
off_to_on,0.365253180072,1.42090227651,0.459944030311,2.99326883158,2.41565332501,5.48838509846,7.99033031716,5.71334521421,3.03861342892,4.95734905526,2.67898811154,3.95793464715,3.6349812134,12.4055213862
off_to_on,2.32739274794,3.60608989541,2.69021082685,2.54778551265,3.41986945675,6.57725847183,9.35057613923,6.7144888105,2.40597393204,6.68967022236,3.14695786172,5.59832130164,4.88737869087,13.8741365782
off_to_on,3.95543733307,5.40405779574,4.66062328754,2.00346830592,4.13148347541,7.11421541608,9.93380730355,7.16848820128,1.6811477465,7.82433051251,3.34643773507,6.72431363149,5.62959301385,13.4480093171
off_to_on,5.14204583224,6.66741422738,6.20883593942,1.38573555305,4.52266210668,7.08779823396,9.7375399857,7.07574226965,0.903948319225,8.2806175535,3.2575581042,7.27838631695,5.81935677011,11.4946811563
off_to_on,5.84320181257,7.31865048265,7.22610817577,0.721809980236,4.60328173445,6.54601115634,8.84206144532,6.49828009755,0.114505978394,8.05920432711,2.89556877812,7.2754916297,5.48916586658,8.61137258822
off_to_on,6.07552796981,7.3539262071,7.66584328202,0.0390210780228,4.41476978788,5.58619459667,7.39524658158,5.54760217134,-0.649705488038,7.23765951586,2.30693311711,6.79482016921,4.73676586491,5.52525395033
off_to_on,5.90501056178,6.83675048221,7.54362452923,-0.636612935653,4.0197297965,4.33911837624,5.58930486718,4.36595057454,-1.35627522425,5.95556775469,1.56131732455,5.9624716175,3.70627951458,2.9786620275
off_to_on,5.4295393783,5.88306590001,6.92928632866,-1.28140634807,3.48928338886,2.94982330275,3.63305666191,3.10401831245,-1.97946610188,4.39176230523,0.740832599867,4.92806226278,2.56317889699,1.61612145959
off_to_on,4.75851240634,4.64042282649,5.93265954988,-1.87458227565,2.89036433629,1.55810068888,1.72386029379,1.89860008425,-2.50092200068,2.73727070127,-0.0717658510214,3.83916564287,1.4671787974,1.88873375497
off_to_on,3.99305449419,3.26466909375,4.68544481439,-2.39842897676,2.27512995677,0.281419794997,0.0232151212864,0.853633238973,-2.90949456901,1.16811432625,-0.804137356709,2.81773397201,0.547361890515,3.98811004945
off_to_on,3.21012318805,1.8977788902,3.32208566575,-2.8381266171,1.67422986241,-0.797382161269,-1.36062203327,0.0274903473947,-3.20033415472,-0.177987119396,-1.4030738132,1.94224874482,-0.116587219495,7.81719608136
off_to_on,2.45298013012,0.650089080483,1.96248698984,-3.18138293018,1.09496412989,-1.63615767814,-2.38083448933,-0.57164208957,-3.37348427954,-1.21765321444,-1.83970004775,1.23836672443,-0.504189845521,12.9998808614
off_to_on,1.72933083672,-0.410629233683,0.698972836656,-3.41803917619,0.524490537575,-2.23278489015,-3.05034244725,-0.981769281598,-3.43227323941,-1.92846168027,-2.1105638793,0.679419151511,-0.653632627373,18.9260325114
off_to_on,1.01707499369,-1.26202032576,-0.410914871209,-3.53980218933,-0.0626522539829,-2.61836718524,-3.43100951608,-1.2753277771,-3.38180301936,-2.34548751492,-2.23467879606,0.196508915912,-0.65115058728,24.8242998039
off_to_on,0.276285953758,-1.92200859717,-1.34517682281,-3.54022500537,-0.694204472534,-2.84580878934,-3.61593152498,-1.54174703522,-3.22779492788,-2.54867741676,-2.24720760685,-0.303615266623,-0.612214308057,29.8521802935
off_to_on,-0.535034103563,-2.43705307776,-2.11212588566,-3.41500281816,-1.38903868738,-2.97593777621,-3.70797496371,-1.86732541652,-2.97597064088,-2.64338603535,-2.19097636657,-0.916002745519,-0.657707966126,33.1917352163
off_to_on,-1.44452568319,-2.86619225443,-2.7405499861,-3.16258165528,-2.14738938041,-3.06364397736,-3.79821560377,-2.31584249857,-2.63204019658,-2.73743385012,-2.10731076389,-1.71414153146,-0.889087886767,34.1398866309
off_to_on,-2.45159422575,-3.26389582471,-3.26732966725,-2.78500530004,-2.94444113156,-3.14639456558,-3.94783451567,-2.91321611222,-2.20225232488,-2.9185467487,-2.02774991391,-2.72984384379,-1.36668707961,32.1841650608
off_to_on,-3.51888278696,-3.66485641503,-3.72489310448,-2.28886333474,-3.72871489865,-3.23701001675,-4.17638257936,-3.6388721674,-1.69435597164,-3.2359319496,-1.96801031107,-3.93995150204,-2.09485205782,27.057603374
off_to_on,-4.57099264915,-4.07346021519,-4.13081606045,-1.68616027598,-4.42589032212,-3.32181116411,-4.45823354397,-4.42542600453,-1.11874197873,-3.68905366347,-1.92517812448,-5.26238962676,-3.01653652127,18.7696270221
off_to_on,-5.50111426651,-4.45983946236,-4.48142402884,-0.994910344403,-4.94776947109,-3.36431201995,-4.72768445121,-5.16694038943,-0.489493320188,-4.22550383001,-1.87856546927,-6.56263590067,-4.0184937842,7.61272617766
off_to_on,-6.1848616692,-4.76326867061,-4.75050874033,-0.23927814776,-5.20517469623,-3.31368488446,-4.89174517878,-5.73463394402,0.174922427029,-4.74839972163,-1.79406180848,-7.6700194281,-4.94653254831,-5.85301674789
off_to_on,-6.49932150267,-4.90240407304,-4.89335634642,0.550868526847,-5.12283045541,-3.11641608927,-4.84840702818,-5.99768167873,0.851534296025,-5.13220711338,-1.6312395937,-8.40167162294,-5.62868578174,-20.8340734677
off_to_on,-6.34434280379,-4.7906836668,-4.8553498842,1.34105711984,-4.65383189708,-2.72903108877,-4.50728761782,-5.84587037829,1.51345101349,-5.24452134496,-1.35202192551,-8.59066757204,-5.90283888254,-36.352341456
off_to_on,-5.66257004999,-4.35429215885,-4.58360517692,2.09393760855,-3.79123265682,-2.12958162103,-3.80915324378,-5.21048710903,2.13116275787,-4.97034975485,-0.929458332379,-8.11412107269,-5.64457396855,-51.305061104
off_to_on,-4.45475354816,-3.54959743014,-4.03955585386,2.77152770812,-2.57461347224,-1.32578391338,-2.74098051398,-4.07999549773,2.67446079833,-4.23498113956,-0.355122079739,-6.91685558365,-4.79083838108,-64.5327921762
off_to_on,-2.78746513542,-2.37696454089,-3.21020610527,3.33778592916,-1.09018164607,-0.358243265453,-1.34391054056,-2.5077725713,3.11476891261,-3.02167406788,0.356157142377,-5.02679731486,-3.3555676414,-74.8931901338
off_to_on,-0.791422405724,-0.888354105294,-2.11595010605,3.76126484982,0.53609891824,0.701990875726,0.287436435802,-0.610336396144,3.42760417346,-1.38112748426,1.16510912495,-2.55935621979,-1.43451543913,-81.3387146918
off_to_on,1.34997648545,0.812959735418,-0.813385818409,4.01756968732,2.15177802117,1.76135345265,2.01445329848,1.44407942097,3.59484971359,0.569093357703,2.01072953564,0.290383835218,0.801895908206,-82.9962019386
off_to_on,3.42079387084,2.5810012719,0.607655865973,4.09135507963,3.59599568081,2.71606616549,3.67160896533,3.45526818219,3.60653444924,2.65549519821,2.81661947758,3.26707935844,3.12712060849,-79.2453550231
off_to_on,5.19886392187,4.24316887698,2.03271366535,3.97763577701,4.71995135507,3.46694668235,5.08862133125,5.21646402059,3.46187322625,4.66869973955,3.50013555391,6.08384468893,5.28612847236,-69.7917795067
off_to_on,6.48471434011,5.62169529608,3.33585405015,3.68225961907,5.40687236489,3.93439052968,6.11442524188,6.5418455805,3.16941710308,6.38991883719,3.98308195315,8.45656117185,7.02842797967,-54.7285236406
off_to_on,7.12899189429,6.55749330116,4.3955413467,3.22148439515,5.58853218053,4.07109289633,6.63927100789,7.29213303254,2.74628329974,7.62015719001,4.20241712558,10.1391727712,8.14187778339,-34.5786361549
off_to_on,7.05434252063,6.93290652174,5.11088687376,2.62070165459,5.25575944504,3.87036871146,6.61150252623,7.39446057486,2.21655980541,8.20794460384,4.11941475443,10.9551223072,8.48246563758,-10.3105328276
off_to_on,6.26836353791,6.68992489126,5.41581295757,1.91244672217,4.46116909171,3.36857029067,6.04631309727,6.85346181534,1.60909185764,8.07152459378,3.72591727006,10.8205370712,7.99570960829,16.6815752025
off_to_on,4.86543573865,5.84098722709,5.28891893658,1.13391225495,3.31342980134,2.64099726975,5.0249520936,5.75173386533,0.95493949893,7.212155829,3.04672100278,9.75586232935,6.72645189068,44.6379928555
off_to_on,3.01679014972,4.47050362159,4.75743522213,0.324232343698,1.96360246932,1.79170702614,3.68428174626,4.23937179319,0.284834723637,5.71641484926,2.13767620678,7.88421304558,4.81541453849,71.5369037202
off_to_on,0.949845270594,2.72654282893,3.89450934232,-0.478180900355,0.585262918695,0.938608480359,2.19804606575,2.51386561749,-0.373042655248,3.7469447557,1.07969263664,5.41654396249,2.48274102728,95.2382882809
off_to_on,-1.08058079849,0.803552894579,2.81005542995,-1.23798756507,-0.648918541838,0.196004834761,0.752491680166,0.793090431103,-0.994707952402,1.52274855606,-0.0305768552228,2.62556366735,0.000591246980136,113.660293098
off_to_on,-2.82535612209,-1.08169352121,1.63636587791,-1.92475003147,-1.59087652169,-0.342784518742,-0.480122339228,-0.714819351816,-1.56126619759,-0.708364480406,-1.09213088676,-0.18812272654,-2.34157613372,124.974285168
off_to_on,-4.07389980233,-2.71771199776,0.510483134322,-2.51411419163,-2.13773783955,-0.620024964069,-1.3662115931,-1.84040088521,-2.05901051065,-2.70142737303,-2.01155569463,-2.73308883816,-4.27433827989,127.799998172
off_to_on,-4.68225623306,-3.92568744456,-0.444162101212,-2.98830416623,-2.24627329673,-0.623040969068,-1.83004242884,-2.47639377142,-2.47880138558,-4.24569755441,-2.71389367993,-4.76240075034,-5.58316208259,121.379071338
off_to_on,-4.59241507325,-4.58280315217,-1.13420202944,-3.33598386586,-1.93900977824,-0.386934455405,-1.86445410124,-2.5923900969,-2.81491529812,-5.19142703812,-3.15099194318,-6.10246587531,-6.13599734541,105.704640204
off_to_on,-3.84009640761,-4.63821987327,-1.50848385032,-3.55161670691,-1.30095866179,0.0100920157949,-1.5314003507,-2.23836788221,-3.06363130848,-5.46831514063,-3.30624028628,-6.671649577,-5.89982313089,81.5869216593
off_to_on,-2.54981549441,-4.11941089321,-1.56414813674,-3.63450903096,-0.467254340623,0.458331758961,-0.952074825761,-1.53646234654,-3.22186086164,-5.09311051794,-3.1951213182,-6.48635049363,-4.94389014376,50.6400152256
off_to_on,-0.917821334755,-3.12790214041,-1.34574028674,-3.58774621138,0.396680243079,0.833542076816,-0.287932030118,-0.662036115002,-3.2861127502,-4.16536400731,-2.86158448969,-5.65399397605,-3.42924838021,15.1830491507
off_to_on,0.81478756108,-1.8249558535,-0.937480322943,-3.41722063805,1.11970953296,1.01686899602,0.284710164188,0.183315327703,-3.25202379842,-2.85200854948,-2.37083567578,-4.35422604484,-1.58604996944,-21.9414653713
off_to_on,2.3950753264,-0.409157079493,-0.449820081527,-3.13091028226,1.55083159472,0.914788275264,0.602804427033,0.802974617362,-3.11458533135,-1.36301486745,-1.79962129501,-2.81120621949,0.318197865864,-57.6187951055
off_to_on,3.59284209383,0.910991451111,-0.00225616902851,-2.7385024292,1.58257323011,0.476025463965,0.543296125248,1.03621375876,-2.8690711674,0.0783852852238,-1.2254123363,-1.26107719917,2.01502356498,-88.7596524374
off_to_on,4.2319670633,1.94565498823,0.295083290193,-2.25137994623,1.16849643374,-0.297226132612,0.0444238050196,0.784269308424,-2.51254390405,1.26668076492,-0.716014750978,0.0807311310375,3.27101395105,-112.613701
off_to_on,4.21418591564,2.54945937725,0.358382062401,-1.68290951925,0.332164274836,-1.34570447246,-0.881682841247,0.0276828980045,-2.04570289729,2.04191519108,-0.321034515015,1.0478014731,3.91855853757,-127.063859411
off_to_on,3.53203936578,2.64092093156,0.143133208492,-1.0489050331,-0.833904250641,-2.55793792943,-2.14716887625,-1.16778113497,-1.47475780112,2.31052128664,-0.0663262742559,1.54281733599,3.87719294085,-130.866139279
off_to_on,2.26926360505,2.21285520834,-0.348701045091,-0.368095251428,-2.17934837882,-3.78318252304,-3.59790830389,-2.65771541454,-0.812979265241,2.05635087432,0.0478993172961,1.54690327606,3.16277493252,-123.804024821
off_to_on,0.588667974102,1.33239258681,-1.06839672078,0.337589688282,-3.51576373791,-4.85085406938,-5.03313722234,-4.23743266669,-0.0815999068862,1.34053504508,0.0451742971509,1.11729714217,1.88345225651,-106.734921587
off_to_on,-1.29069533995,0.13070313349,-1.92706235791,1.04308104217,-4.64253340578,-5.59387236677,-6.23266246176,-5.66969204778,0.690187511048,0.290426873651,-0.0325108553873,0.374146633526,0.223227245717,-81.518126029
off_to_on,-3.12377349815,-1.21601705066,-2.8081315693,1.72070432683,-5.37513586786,-5.87268699499,-6.98790535928,-6.71799004731,1.46627105194,-0.920561152551,-0.132489707442,-0.521221545708,-1.58437398817,-50.8277341501
off_to_on,-4.67286119924,-2.51152954705,-3.58390878341,2.34123282436,-5.57196443648,-5.59656078334,-7.13242810835,-7.18076800853,2.20569252267,-2.09913746878,-0.200481707807,-1.39303761107,-3.28869998322,-17.8681966123
off_to_on,-5.73936317142,-3.56692961675,-4.13374433733,2.87542925933,-5.15584300318,-4.73898466173,-6.5675950317,-6.92169404041,2.86559513225,-3.06043374798,-0.189565108512,-2.07868112902,-4.65585606981,13.9770188517
off_to_on,-6.18956863384,-4.22654749396,-4.361198208,3.29595987617,-4.12711750237,-3.34485262318,-5.2796471021,-5.89167065056,3.40475407442,-3.65430463816,-0.0677455946976,-2.45298516349,-5.49939164468,41.5237272774
off_to_on,-5.97095250081,-4.38877562877,-4.20772612399,3.57949418924,-2.56634735604,-1.52813704576,-3.34562961866,-4.13933508064,3.78729903024,-3.78587719169,0.176952051391,-2.4457285296,-5.70368147757,62.1475646583
off_to_on,-5.11692435593,-4.0190023505,-3.66095835865,3.70875609922,-0.62605732205,0.539881422401,-0.927147380865,-1.80840191749,3.98618911924,-3.42752134411,0.534549301139,-2.04992662129,-5.23702490026,74.0827529377
off_to_on,-3.73963259389,-3.15300552212,-2.75645695635,3.67427565805,1.48746438143,2.65044438996,1.7473877814,0.877975521392,3.98601132066,-2.62073144322,0.974534723191,-1.31999850935,-4.15301421033,76.6214279779
off_to_on,-2.01214919611,-1.89055100044,-1.57280712651,3.47560891079,3.53993707379,4.58266448631,4.40974535443,3.64383557651,3.78474274253,-1.46792672976,1.45034096154,-0.360461175652,-2.58041521324,70.1872333836
off_to_on,-0.142859309145,-0.380344913201,-0.220876530254,3.12184441827,5.29897024592,6.13103469635,6.78453348798,6.19449903389,3.39423681665,-0.1156681104,1.90613785014,0.692759224902,-0.703410807508,56.271961677
off_to_on,1.65405760143,1.20129890081,1.17108428833,2.63129300702,6.56400687993,7.13138767885,8.62315912117,8.25353702816,2.83934774615,1.26797155253,2.28488163952,1.69522099562,1.26464756838,37.2409695415
off_to_on,3.18769238674,2.67486874003,2.47425031431,2.03035187214,7.1922483141,7.48176004805,9.73453445849,9.59762041573,2.15577546809,2.51833769757,2.53640511893,2.51731084275,3.11003567657,16.0297533342
off_to_on,4.31482759635,3.88157285394,3.57545882249,1.35163279503,7.11702422691,7.15528287818,10.0084189244,10.0845408075,1.38687204736,3.49761675292,2.62436195068,3.06429992786,4.64585155347,-4.23173397531
off_to_on,4.95631565981,4.70336392665,4.39054013411,0.631533662908,6.35610936968,6.20329710294,9.42830323588,9.67063688334,0.579777993184,4.11325986961,2.5310420652,3.28997294756,5.73386969289,-20.6206257916
off_to_on,5.10329356197,5.07633319831,4.87290373958,-0.0924994008458,5.0088760108,4.74823188148,8.07218677154,8.41532665719,-0.218664019125,4.32875704931,2.25941900787,3.20177381512,6.29825511536,-30.7980891857
off_to_on,4.81268704459,4.99579095581,5.01630650985,-0.784734403906,3.24271195186,2.96719761169,6.10126585924,6.47222892291,-0.965750836764,4.16534241725,1.83222005832,2.85680504985,6.32965793473,-33.3135788726
off_to_on,4.19308541748,4.51263007072,4.85164436414,-1.41365350971,1.27061104736,1.06853331543,3.738203157,4.06820282573,-1.62609070537,3.69464214848,1.28825951818,2.34950301079,5.87970021532,-27.7968946703
off_to_on,3.38350559174,3.72188040374,4.43853057742,-1.95393783492,-0.676951566599,-0.73547262765,1.23805425871,1.47328290531,-2.17377745207,3.02368651123,0.676677006803,1.79315523516,5.04730095381,-15.0123647256
off_to_on,2.52859617213,2.74550701278,3.85321083176,-2.38774941859,-2.38198272033,-2.25593928701,-1.1441093331,-1.0342933162,-2.59337779843,2.27488095539,0.0500167349801,1.29841948128,3.95944706788,3.23318060172
off_to_on,1.75430704396,1.71231431583,3.17489688704,-2.70521062,-3.6666778997,-3.35107448575,-3.18445382678,-3.20314638664,-2.87970296775,1.56428948743,-0.542771365407,0.952491361572,2.74973921619,24.3183259377
off_to_on,1.14789959407,0.738174394758,2.4727972702,-2.90407993086,-4.41513219051,-3.94295228724,-4.71632295094,-4.83914539145,-3.03649515843,0.981812019327,-1.06235077452,0.802471761273,1.53822253314,45.1430093476
off_to_on,0.745425089771,-0.0903469785958,1.79595686533,-2.9887197656,-4.58619219458,-4.02513883358,-5.64749485175,-5.82709539704,-3.07429575496,0.576502444091,-1.48316385792,0.845819829367,0.415639737699,62.5304628038
off_to_on,0.528571788056,-0.726509288821,1.16751636265,-2.96853366244,-4.21585396601,-3.66021675719,-5.96667003812,-6.14097433888,-3.00785674371,0.349428577104,-1.79518357485,1.02964377266,-0.565611341464,73.6442686214
off_to_on,0.431265471942,-1.1665913642,0.584247712277,-2.85610709178,-3.4090901757,-2.9676900076,-5.73866139888,-5.84162698251,-2.85349730773,0.255249757129,-2.00308477226,1.25915457917,-1.39272762484,76.3672672627
off_to_on,0.354837311097,-1.44549313874,0.0213329498147,-2.66531085875,-2.32246656567,-2.10411246371,-5.08936314168,-5.06260972178,-2.62678954483,0.212272247362,-2.12308000332,1.4141083419,-2.08620747957,69.5935253239
off_to_on,0.189189446339,-1.62570677686,-0.558528192701,-2.40961642357,-1.14017403995,-1.23838088683,-4.18299997251,-3.98654104507,-2.34088472452,0.119355896193,-2.17803113038,1.370725252,-2.68753077108,53.3953641075
off_to_on,-0.163593657517,-1.78168363128,-1.19333168627,-2.10083049875,-0.0469810303819,-0.525808611616,-3.19519905479,-2.81561254178,-2.00567631655,-0.12309623747,-2.19171329941,1.02560907177,-3.24332428352,29.0431919863
off_to_on,-0.767168168712,-1.98235882316,-1.90942446879,-1.74838840488,0.79801932417,-0.0847537253787,-2.28594041896,-1.7406722217,-1.62785602167,-0.591550590058,-2.18323243261,0.317756296958,-3.78909186135,-1.12544582303
off_to_on,-1.6341730654,-2.2748871664,-2.71085266634,-1.35926154518,1.2831777021,0.0208088352093,-1.57635918258,-0.913403212007,-1.21177536431,-1.32081946078,-2.16256316795,-0.75508389489,-4.33563953472,-33.9720032534
off_to_on,-2.71778365264,-2.67244727322,-3.57241938402,-0.938445563661,1.35859003094,-0.209746484442,-1.13271443952,-0.425577933156,-0.760899405584,-2.29186290058,-2.1279874272,-2.12867454579,-4.86085382408,-65.9254495025
off_to_on,-3.91329502162,-3.14831496288,-4.43790231963,-0.489914155157,1.04106966057,-0.714474306904,-0.959707421026,-0.298256366932,-0.279549194453,-3.42825602284,-2.0659038715,-3.67490738121,-5.30857234954,-93.4073554436
off_to_on,-5.0698907096,-3.63739344921,-5.22406809796,-0.0178596876794,0.409296822155,-1.37924329969,-1.00389572632,-0.482284075088,0.225411524205,-4.6023505342,-1.95309328978,-5.2149443292,-5.59506644574,-113.260619006
off_to_on,-6.01113518453,-4.04517276608,-5.83018409672,0.471996285597,-0.409930860683,-2.05618581042,-1.16642393171,-0.869754873251,0.743276729261,-5.65065339921,-1.76112357955,-6.54143058871,-5.62233033891,-123.128563873
off_to_on,-6.56130568117,-4.26286300963,-6.15181442285,0.971247584832,-1.2621614751,-2.58748599941,-1.32289811764,-1.31448206768,1.258852541,-6.39647165428,-1.46222187731,-7.44687055247,-5.29615313297,-121.737612009
off_to_on,-6.57366942813,-4.1863970618,-6.0969379069,1.46800572757,-1.98935354897,-2.83098658515,-1.34717612829,-1.65820639004,1.75262697774,-6.67665596972,-1.03568519234,-7.75419851041,-4.54603597736,-109.049121176
off_to_on,-5.95637650979,-3.73629445466,-5.60196237121,1.94661383868,-2.45396740815,-2.68380688997,-1.13527956049,-1.75844760078,2.20178625321,-6.36850704595,-0.473784271314,-7.34508109932,-3.34355930315,-86.262649149
off_to_on,-4.69185212858,-2.87513356195,-4.64510885839,2.38795749324,-2.55956894754,-2.10042731215,-0.625638035042,-1.51369634874,2.58197397293,-5.41271477982,0.213842728091,-6.18164526128,-1.71588637055,-55.6716661281
off_to_on,-2.84641402013,-1.61963987315,-3.254925524,2.77037904928,-2.26499984396,-1.10247260575,0.187552039585,-0.882069864045,2.86957045101,-3.82862316227,0.998114471583,-4.31812601325,0.248290837118,-20.3911436245
off_to_on,-0.568196160595,-0.0451326321622,-1.51232855616,3.07112317626,-1.59015434972,0.221390508332,1.250019431,0.109446876496,3.04418381172,-1.71910575005,1.83123417193,-1.90026915014,2.4019832103,16.0078669181
off_to_on,1.92686432574,1.7188230647,0.454532026868,3.26817223586,-0.612657814018,1.72560435113,2.4529487888,1.36663278943,3.09100525686,0.736236266337,2.6503039867,0.847979815743,4.55256086323,49.910571787
off_to_on,4.37946704847,3.50139783303,2.48225040912,3.3422791528,0.543920043409,3.22662532835,3.64763971364,2.74036103969,3.00269353965,3.29917918201,3.38348477017,3.6491578808,6.482615271,78.066657463
off_to_on,6.51873216616,5.11062487024,4.3896410218,3.27897805392,1.72845893755,4.52800338123,4.6671851794,4.04784907708,2.78051614606,5.70025215777,3.95797491041,6.2053299964,7.97647154536,97.9449992937
off_to_on,8.09708695453,6.35804288491,5.99852250277,3.07035171505,2.78449493595,5.44812862576,5.35196777727,5.0997065992,2.43457737513,7.67193702017,4.3087928356,8.23521439317,8.84879610958,107.993319431
off_to_on,8.92344644628,7.08444692544,7.15507361031,2.71635890404,3.57293222649,5.84670280156,5.5751476675,5.72877508342,1.9830909253,8.98329034067,4.3871971557,9.51041020239,8.97124480141,107.774197185
off_to_on,8.88999477357,7.18304606282,7.74886337845,2.22557022558,3.99192766852,5.64611607403,5.26425337677,5.81645485624,1.45078765317,9.47123421431,4.167589419,9.88574678796,8.29318463157,97.9650622656
off_to_on,7.98866553441,6.61657373389,7.72691024582,1.61522191953,3.99107931509,4.84457748511,4.41549805989,5.31254828594,0.866668100719,9.06407897996,3.65191732051,9.31947458201,6.85320244707,80.227134537
off_to_on,6.31478290872,5.42565776206,7.10076106712,0.910565697792,3.57792595719,3.51896937784,3.09845864545,4.24556258023,0.261396683067,7.79379454285,2.87090824932,7.88033248678,4.77930102111,56.9644397833
off_to_on,4.05707200264,3.7269310576,5.945513818,0.143561194612,2.8159195253,1.8168171558,1.45012938338,2.72178072112,-0.335322540454,5.79501367711,1.88187205101,5.74027971325,2.27721630975,31.0069692666
off_to_on,1.47513171295,1.70078709893,4.39080627331,-0.64898138105,1.8142932431,-0.0617124690832,-0.341101758525,0.913027376454,-0.897055729219,3.29053240238,0.763261965239,3.15362873382,-0.392046555023,5.26018355772
off_to_on,-1.13278079902,-0.429845871,2.60490064133,-1.42765318494,0.711429898268,-1.88946241101,-2.05952638387,-0.965304925602,-1.40235762553,0.564923471211,-0.393387688027,0.425189131399,-2.94280501175,-17.6345098116
off_to_on,-3.46742861561,-2.42703333675,0.773952318101,-2.15290778735,-0.345735267734,-3.44216491807,-3.49100348831,-2.68298122676,-1.83571652797,-2.0704595516,-1.49317804632,-2.12843381803,-5.09954400257,-35.5870664751
off_to_on,-5.2667120684,-4.06803824639,-0.920778402285,-2.78753463023,-1.22319642618,-4.52849831236,-4.45266587408,-4.02641034894,-2.18766402044,-4.31657327607,-2.44802384464,-4.21926451686,-6.63143582692,-47.2612186257
off_to_on,-6.33909444849,-5.17412102953,-2.32472669878,-3.29895554503,-1.81907577066,-5.01619533365,-4.81924800466,-4.82846274579,-2.45411403966,-5.92472191677,-3.18603401704,-5.62470482042,-7.38188097428,-52.1717040762
off_to_on,-6.5878135251,-5.63397424118,-3.32793098892,-3.66117856682,-2.07774878948,-4.8505749404,-4.54223015258,-4.99238044414,-2.63510948014,-6.72845621855,-3.65893490871,-6.2156632697,-7.28899059628,-50.6704800618
off_to_on,-6.02259266019,-5.41850693688,-3.87669061317,-3.85627935466,-1.99688777632,-4.06287149558,-3.65892873083,-4.50633112177,-2.73323819748,-6.66500938435,-3.84662760642,-5.97226641858,-6.39408579163,-43.8306163174
off_to_on,-4.75726024501,-4.58484067221,-3.97749212546,-3.87532457806,-1.62648068554,-2.76710566088,-2.29001375806,-3.44644073397,-2.75202150182,-5.78330460966,-3.75834022046,-4.98502033337,-4.83686954289,-33.2492336667
off_to_on,-2.99360318768,-3.26883870148,-3.69280285141,-3.71869895129,-1.06007209775,-1.14579230159,-0.625515521971,-1.967731828,-2.694571076,-4.23734475929,-3.43027363082,-3.44125497967,-2.83771808331,-20.800076096
off_to_on,-0.993652065648,-1.66705982475,-3.12946006537,-3.39584382639,-0.419611146696,0.57370060168,1.09902513825,-0.284074079513,-2.56275614715,-2.26574701622,-2.92008701418,-1.59867587546,-0.669291974747,-8.37101063384
off_to_on,0.955837900521,-0.0104888634471,-2.42140288087,-2.92445674726,0.16378792339,2.14905005205,2.63322593915,1.3602155043,-2.35703027833,-0.16004813263,-2.29896847563,0.250407783063,1.37886131712,2.37846981846
off_to_on,2.58190116625,1.46645824999,-1.70925776045,-2.32923542838,0.570294912827,3.35517901116,3.74533427746,2.72331627379,-2.07695076555,1.7740752069,-1.64233459697,1.81935066601,3.03805882543,10.2095353374
off_to_on,3.66168202807,2.55748696837,-1.11969085399,-1.64027457147,0.710000367655,4.01447751518,4.25404189517,3.59893986811,-1.72230140829,3.25755923859,-1.0203629122,2.86650580992,4.09557858209,14.4245204682
off_to_on,4.05170342145,3.11226797528,-0.747427164608,-0.89123904092,0.537015636963,4.02101044379,4.05434568563,3.84497334507,-1.2946203734,4.07528458017,-0.489564173212,3.2283346225,4.42241895229,14.9050780276
off_to_on,3.70622090706,3.0567943199,-0.642413827049,-0.117442250742,0.0570026827497,3.35547065668,3.13390077237,3.40382538229,-0.798856041527,4.10503205189,-0.0864485939297,2.84185471949,3.99000412585,12.0692102239
off_to_on,2.68231064263,2.40348175694,-0.803837238223,0.646045154642,-0.672923202059,2.08886254475,1.57753866436,2.31168405662,-0.244837642224,3.33421276154,0.175945896477,1.75343831545,2.87359283381,6.75930308418
off_to_on,1.13115700687,1.24963066697,-1.18170488853,1.36614301566,-1.55185818927,0.374394166401,-0.440831778676,0.695383726792,0.351739742307,1.86214070158,0.308276030028,0.11282001715,1.24192795962,0.0818608195581
off_to_on,-0.723126764874,-0.235555173196,-1.6856179313,2.01327084875,-2.44919102533,-1.57138642909,-2.67806717287,-1.24276176052,0.969055829581,-0.112470176874,0.341903564752,-1.84683872562,-0.665491459603,-6.77517229107
off_to_on,-2.6141506932,-1.83365001641,-2.19934581065,2.56254702439,-3.22304046336,-3.4957629645,-4.85095801844,-3.25019894565,1.57977187347,-2.31715114698,0.323144610826,-3.84012117511,-2.57047922629,-12.7203287369
off_to_on,-4.26914987777,-3.3063389869,-2.59901357206,2.99463319009,-3.74039161572,-5.14180429018,-6.67107595768,-5.05615671704,2.15251947941,-4.44110537092,0.305558764796,-5.5675741207,-4.19329413034,-16.9071708455
off_to_on,-5.44527806291,-4.42746754381,-2.77223697293,3.29620740195,-3.89606857924,-6.28096849119,-7.88090254776,-6.40627855861,2.65415640913,-6.17578095371,0.341321608578,-6.7558784284,-5.28989741691,-18.8347216175
off_to_on,-5.96147054118,-5.0135252479,-2.63545293573,3.46007712782,-3.62788967004,-6.74217240155,-8.28666599779,-7.09537500927,3.05255587337,-7.25530073255,0.472830771566,-7.1946590499,-5.68440560657,-18.3891190214
off_to_on,-5.72174224952,-4.94851583248,-2.14699914819,3.48496845302,-2.92593608164,-6.43363691779,-7.78372960196,-6.99408537326,3.31960766683,-7.49150614431,0.725655233427,-6.76511568588,-5.29247894316,-15.8249285135
off_to_on,-4.72701988559,-4.19994446141,-1.31414575055,3.37504848379,-1.8347321274,-5.35479088971,-6.37132660868,-6.06606767265,3.43406489665,-6.79910798534,1.10375750289,-5.45678266856,-4.13262226358,-11.6932793233
off_to_on,-3.07420332315,-2.82386464347,-0.193174506289,3.13925234212,-0.448153664176,-3.5968289982,-4.15479150669,-4.37359665426,3.38387598466,-5.20775580521,1.58762364903,-3.37032709879,-2.32400525583,-6.7311462855
off_to_on,-0.942884008334,-0.958401555558,1.11739627343,2.79049293995,1.10209989033,-1.33199228616,-1.33501638289,-2.07096589114,3.16769776374,-2.85955851123,2.13556546673,-0.706145994302,-0.0712083359624,-1.73075828032
off_to_on,1.42822448827,1.19329828116,2.48937584678,2.34483021455,2.662762386,1.20692378136,1.81354403619,0.613344154556,2.7953842553,0.00752100196924,2.68805941471,2.25962533525,2.36197626842,2.59023585639
off_to_on,3.77178607177,3.38835775922,3.7813962685,1.82066684016,4.07767537275,3.75411825836,4.97358931623,3.40336226468,2.28737337538,3.0881661331,3.17460792489,5.20847663596,4.68614267824,5.69862461109
off_to_on,5.82510552614,5.37431867177,4.85697244298,1.23802069144,5.20631288245,6.04184433145,7.82064310032,6.00774775972,1.67303250474,6.04638063402,3.5222961357,7.81789035834,6.62280100949,7.32037760253
off_to_on,7.36176988,6.92019020282,5.60160324851,0.617902552386,5.93970693063,7.83108173518,10.0593580973,8.1532981846,0.988154181882,8.55563304417,3.66500781705,9.79979226894,7.93905860989,7.47114290091
off_to_on,8.2176619367,7.84439779937,5.93659737467,-0.0181964355681,6.2117856473,8.93808478645,11.4561399818,9.61573860013,0.271897039433,10.3374121564,3.55218172242,10.9342647098,8.47600234329,6.44030908701
off_to_on,8.30824619426,8.03612747576,5.82784025072,-0.648725992812,6.00486190299,9.25370529683,11.8643112292,10.2441467191,-0.436469684074,11.1934376725,3.15604163482,11.0944273665,8.16724590622,4.73327397767
off_to_on,7.63531487816,7.46750756541,5.28849040415,-1.25244339839,5.3488846238,8.75340284895,11.2390265728,9.97627422524,-1.10064542485,11.0276783004,2.47641165091,10.2596262731,7.04547110825,2.98230909516
off_to_on,6.2828580413,6.19533081752,4.37548574419,-1.80877339684,4.31495349037,7.4970987562,9.64045740944,8.84324356801,-1.68986453421,9.85570884587,1.54250979903,8.515639957,5.23641422497,1.84032297168
off_to_on,4.4031746325,4.35241578666,3.18061894976,-2.29821039849,3.00436871356,5.61933242315,7.22520883081,6.9634611071,-2.18069256972,7.80059620329,0.411463416358,6.04229489887,2.94140397264,1.87347327045
off_to_on,2.19557063423,2.13004532038,1.81767815377,-2.70280304658,1.53503170754,3.31136615021,4.22733385429,4.52690983027,-2.55790758629,5.07621783224,-0.836332858931,3.09045545672,0.411022978785,3.46788137579
off_to_on,-0.119164891941,-0.245977330305,0.407640607643,-3.00674260912,0.0272585796426,0.797805175307,0.931491427032,1.77209948799,-2.8144486196,1.96046075607,-2.10453494439,-0.0483867185228,-2.08645234955,6.76293144364
off_to_on,-2.32495416221,-2.54238873994,-0.935911623958,-3.19705075912,-1.40900683128,-1.68915556961,-2.35838072953,-1.04127420681,-2.95053773911,-1.23807109168,-3.29005852049,-3.07590550164,-4.29761329485,11.6193362231
off_to_on,-4.23389295424,-4.54511223761,-2.11913027928,-3.26433282051,-2.68396334485,-3.93463197032,-5.35112764808,-3.66055812309,-2.9721855611,-4.21553930591,-4.29318337549,-5.71985571114,-6.01327504205,17.6250487562
off_to_on,-5.70418965269,-6.08217849541,-3.07640960086,-3.20353406973,-3.73368229013,-5.76218156489,-7.7975140771,-5.86594700293,-2.88935872489,-6.70614273584,-5.02745874989,-7.76217003276,-7.09099459477,24.1369722029
off_to_on,-6.65075110692,-7.04025498881,-3.77413837006,-3.01461406071,-4.52148599646,-7.04891671329,-9.51330699431,-7.49105224464,-2.71411273647,-8.50924607246,-5.42834074284,-9.0591075297,-7.4681558729,30.3519834147
off_to_on,-7.04773903502,-7.37309308209,-4.209537205,-2.70304158667,-5.03537902437,-7.73327134167,-10.3940519464,-8.43623489609,-2.45897258366,-9.50738443655,-5.45963660975,-9.55149730819,-7.16437540898,35.3975855314
off_to_on,-6.92358912224,-7.10135303003,-4.40518214704,-2.28001401994,-5.28253852771,-7.81512377261,-10.4203910187,-8.67370844364,-2.13578125962,-9.67345422909,-5.11707550213,-9.26448373448,-6.27344636937,38.4308512804
off_to_on,-6.34999709028,-6.30443065266,-4.40044896293,-1.76232080611,-5.28226727017,-7.3489752466,-9.65394244664,-8.24447061689,-1.75514345603,-9.06684803331,-4.42864243081,-8.29754159244,-4.9464164334,38.7342617929
off_to_on,-5.42709260707,-5.10592406284,-4.24152647742,-1.17180109305,-5.05894828129,-6.43171330026,-8.22485753341,-7.24808731583,-1.32648319276,-7.81969893353,-3.45166602119,-6.80671007956,-3.36850195728,35.7983939331
off_to_on,-4.26735486558,-3.65511164098,-3.97178397158,-0.534386886893,-4.63640164103,-5.18704883981,-6.31305920174,-5.8271096012,-0.858627051123,-6.11558452767,-2.26700154849,-4.98184669611,-1.73323577533,29.383785468
off_to_on,-2.98074705045,-2.10717605697,-3.62412387135,0.121229167093,-4.03466440037,-3.74894708611,-4.12575231776,-4.14837665531,-0.360735431628,-4.16385805846,-0.970960220789,-3.02213129068,-0.217449400036,19.557231857
off_to_on,-1.66309822783,-0.604872318729,-3.21653875453,0.765214543809,-3.26966624404,-2.24626705183,-1.87402778215,-2.38360854975,0.156653693585,-2.17313391666,0.334129855505,-1.11302484677,1.03960671685,6.70074982973
off_to_on,-0.389032979242,0.736072288781,-2.7514929936,1.36837830254,-2.35565501027,-0.790421795416,0.248742378018,-0.691533295971,0.680722268274,-0.327332953061,1.54971114594,0.592561050781,1.95043828987,-8.50593569281
off_to_on,0.790127507702,1.8362427496,-2.21906393854,1.90395744334,-1.30964672566,0.532747614566,2.08446032286,0.796625683126,1.1958408201,1.23286910635,2.59009210819,1.9869117325,2.48526885291,-25.1265418907
off_to_on,1.84394622525,2.65580247456,-1.60311724707,2.3492422185,-0.156735848778,1.66642150349,3.52222272194,1.9870716908,1.68357665693,2.42125087316,3.38990452807,3.01299127051,2.66949799671,-42.0289389705
off_to_on,2.75712268725,3.19195808506,-0.889262050534,2.68688474947,1.06511986057,2.58183682506,4.50382562174,2.8282137098,2.12332048861,3.20907916052,3.90917476721,3.66282207275,2.57356999538,-57.960792497
off_to_on,3.52208962817,3.4716625649,-0.0730182948306,2.90576576583,2.30218868508,3.27378454601,5.02289897474,3.31041029207,2.49350717353,3.62028316075,4.13553962185,3.96978006858,2.29718766272,-71.6354459842
off_to_on,4.13178953931,3.54120678833,0.833419975963,3.00134177693,3.48498572441,3.75386484646,5.1184579932,3.46134738413,2.77330544448,3.72011808659,4.08346503483,3.9965597548,1.95050865639,-81.8235158842
off_to_on,4.57429596208,3.45466900612,1.79721858603,2.97545374769,4.53178204464,4.04297269139,4.86423276609,3.33812030695,2.94456860952,3.59945205568,3.79066499879,3.82099434406,1.63525892114,-87.4457952676
off_to_on,4.83048264723,3.26318960794,2.76466929728,2.83564072448,5.35553217767,4.16441318052,4.3554890684,3.01730218621,2.99378615411,3.35725298986,3.31223001263,3.52200295969,1.42856438649,-87.6629543861
off_to_on,4.87527912956,3.0067329919,3.66500273806,2.59405934147,5.87350084166,4.13875458351,3.69516075167,2.58430551283,2.91376295052,3.08391252215,2.71322376339,3.16769188513,1.37177298942,-81.9571171704
off_to_on,4.68230358372,2.70945320658,4.4178802329,2.26615459683,6.01830884046,3.98108101369,2.98098963328,2.12320847663,2.70478054653,2.8477349771,2.06066471074,2.80711953681,1.46570478202,-70.1997631534
off_to_on,4.23096378185,2.37909230352,4.9435604433,1.86925218133,5.74874358258,3.70079068007,2.29505294023,1.70797043451,2.37505969068,2.68630520154,1.41585776954,2.46653967968,1.67275857375,-52.6997756023
off_to_on,3.51458513725,2.01012474141,5.17424940877,1.42124405654,5.058561519,3.30359009274,1.69661179465,1.39565729719,1.940435248,2.60363201667,0.827974802172,2.15017866897,1.9252698461,-30.2251486777
off_to_on,2.54785222136,1.58973189686,5.06488342801,0.939516325379,3.98167802354,2.79494138495,1.21870756374,1.22199200907,1.42326030056,2.57306969446,0.329609146759,1.84489634302,2.1386055417,-3.99222936168
off_to_on,1.37188394517,1.10524401515,4.60160738752,0.440224655803,2.59257929776,2.18398960813,0.868436167108,1.19928123772,0.850659874734,2.54517767529,-0.0652302568214,1.52752770109,2.22682311604,24.3822984395
off_to_on,0.0555989191671,0.551486971652,3.80649866032,-0.0620362205472,1.00144132908,1.48695980341,0.63040381823,1.31657369537,0.252341146599,2.45900426974,-0.360534010942,1.17337581696,2.1184005185,52.9690153513
off_to_on,-1.30738754533,-0.0634586864983,2.73760803554,-0.554187526164,-0.655792021036,0.729166318225,0.472554652974,1.54178587757,-0.341776421292,2.25485945579,-0.575296292453,0.764259848617,1.76959635241,79.651715894
off_to_on,-2.60635470617,-0.715258718662,1.48406731395,-1.024326257,-2.23135195149,-0.0549162994227,0.353384359998,1.82547753702,-0.903828790748,1.88652129172,-0.738593508786,0.294709052146,1.1734069253,102.286064388
off_to_on,-3.72480414873,-1.36374696376,0.156746420609,-1.46121880422,-3.58193955488,-0.823670906679,0.229516628995,2.105949305,-1.40991207824,1.33100170783,-0.883466313822,-0.224709558979,0.362780855836,118.880557784
off_to_on,-4.55409438287,-1.95681344179,-1.12437999672,-1.8537852502,-4.5852766607,-1.53217417395,0.0627052416737,2.31534025573,-1.8414213529,0.59443985619,-1.04048242574,-0.76740872078,-0.592374814551,127.784937621
off_to_on,-5.00748151914,-2.43718737026,-2.24447909698,-2.1907333242,-5.15468491833,-2.13721884576,-0.174494980218,2.38639769424,-2.18570584352,-0.286680557937,-1.23189232375,-1.29404145585,-1.59394009977,127.867772264
off_to_on,-5.03248188215,-2.75102528235,-3.10776469585,-2.46047625674,-5.24965730252,-2.60264627258,-0.494906407451,2.25955782908,-2.43602255946,-1.2490772515,-1.46720488087,-1.75836594344,-2.52878278648,118.663251609
off_to_on,-4.61961284722,-2.85687752678,-3.6491129442,-2.6514201893,-4.88088228465,-2.90403351353,-0.895013863795,1.88991067663,-2.59086934118,-2.21036706551,-1.74081501344,-2.11466423612,-3.28447996446,100.467849809
off_to_on,-3.80601775719,-2.73350407755,-3.84173568556,-2.75264121651,-4.10891484068,-3.03187467986,-1.35536563499,1.25353704266,-2.65286198988,-3.07972037542,-2.03203463684,-2.32543492016,-3.76527562782,74.3707012628
off_to_on,-2.67317612273,-2.38515822976,-3.69979904752,-2.75489931983,-3.03655682516,-2.99264930022,-1.84288529736,0.352624335339,-2.62737617515,-3.76988641721,-2.30754745878,-2.3680601558,-3.90597072922,42.2072385677
off_to_on,-1.33873901112,-1.84333040289,-3.2755842173,-2.65186769062,-1.79588652183,-2.8075362107,-2.31472590096,-0.781276167183,-2.52119540202,-4.20885228693,-2.52597060631,-2.23933219737,-3.68175067192,6.43341641055
off_to_on,0.0566141957472,-1.16448471911,-2.65156226214,-2.44140239417,-0.531634472091,-2.50894517764,-2.72318976164,-2.08646195622,-2.34138902946,-4.34949730804,-2.64390682184,-1.95707762006,-3.11254156092,-30.0731057527
off_to_on,1.36565747597,-0.42394345332,-1.92848191043,-2.12664830437,0.616872928446,-2.13542711572,-3.02118163389,-3.47325131545,-2.09459254514,-4.17592941467,-2.62265096664,-1.55857953148,-2.26126325706,-64.269200166
off_to_on,2.45228026405,0.293318234678,-1.211141681,-1.71677869296,1.53276881644,-1.72581839676,-3.16765315171,-4.82937549076,-1.78678460886,-3.70568647869,-2.4346051775,-1.09599571531,-1.22620258695,-93.2360721961
off_to_on,3.20796091419,0.90370702434,-0.593851368749,-1.22719933262,2.13540205601,-1.31362221748,-3.13252329386,-6.0285250377,-1.42356423359,-2.98757715644,-2.06847543855,-0.62942831342,-0.128543847736,-114.472755044
off_to_on,3.56481300221,1.33630415986,-0.147633330947,-0.679110181835,2.38896107952,-0.922602150495,-2.90061536657,-6.94158976891,-1.01084127591,-2.09553718715,-1.53246888051,-0.218651566758,0.903245614374,-126.160625836
off_to_on,3.503421678,1.54276860901,0.0890358673867,-0.0984008307906,2.30486124366,-0.564361666185,-2.47423026356,-7.44971829262,-0.555778287687,-1.11940508626,-0.854968711382,0.0853001686673,1.75005749448,-127.367335579
off_to_on,3.05440312662,1.50437459505,0.114652035808,0.486051479593,1.93767917529,-0.23834041275,-1.87407606369,-7.45795257037,-0.0677734602087,-0.153906726689,-0.0824996113961,0.247465418955,2.31756970423,-118.163646368
off_to_on,2.29349207677,1.23510161611,-0.0363187225917,1.04452366702,1.37533427294,0.065769779672,-1.13839475211,-6.90793025974,0.440739587564,0.712664981158,0.724833610203,0.254150719331,2.54839655448,-99.6354427508
off_to_on,1.33086285589,0.780253524286,-0.299688516929,1.548799332,0.725028995854,0.36362621295,-0.320267393871,-5.78805034059,0.953876825703,1.4085996189,1.49989745543,0.115237051657,2.42935612547,-73.7847436516
off_to_on,0.296187232545,0.210723196055,-0.59210943132,1.9744601121,0.0970467209614,0.670666740313,0.516763414555,-4.13960489569,1.45241948476,1.88647941774,2.1762461848,-0.136745031828,1.99291439716,-43.3265652604
off_to_on,-0.678488727022,-0.386353797707,-0.824400956982,2.30283767526,-0.411217237901,0.996428108891,1.30444767094,-2.05770426289,1.91452569523,2.12754842815,2.6959966754,-0.45066621571,1.31264709887,-11.4013732522
off_to_on,-1.4756894355,-0.919291505428,-0.915705613877,2.5223809837,-0.728689343459,1.33987345827,1.97648790397,0.313655483084,2.31701037591,2.14230946034,3.01680836572,-0.76344535989,0.493351220776,18.766062014
off_to_on,-2.00697959804,-1.30428663857,-0.806424934989,2.62926241552,-0.819625788046,1.68672005355,2.47548995469,2.79236634491,2.63707428034,1.96742389991,3.11701286456,-1.0084193579,-0.342866332522,44.2228580122
off_to_on,-2.22305265341,-1.47687713277,-0.468071407328,2.62714298192,-0.686991310529,2.00944540604,2.75948708908,5.17407297058,2.85428732527,1.65946311468,2.99817030473,-1.12434401445,-1.07268511105,62.6174765786
off_to_on,-2.11818834679,-1.40084610835,0.0913791796349,2.52612837385,-0.369864377315,2.27020129969,2.80728071091,7.25167298363,2.95258272263,1.2864404022,2.68466755593,-1.06386476974,-1.58775250439,72.4625480566
off_to_on,-1.72865408875,-1.07335012223,0.827402650625,2.34105837676,0.064574492586,2.42635156097,2.62188320129,8.83642420759,2.92200454365,0.918294375342,2.2203723841,-0.80037958241,-1.80886492322,73.2981461589
off_to_on,-1.12549307951,-0.525580034055,1.66412390804,2.08936626293,0.533106335154,2.43785508889,2.23148253106,9.77827703409,2.7599745044,0.617574240496,1.66276327206,-0.332435307104,-1.6963471548,65.7339648906
off_to_on,-0.402926676656,0.181114916397,2.50406392714,1.78880789309,0.950630673898,2.27532542644,1.68757327508,9.98298403351,2.47190079982,0.431493225116,1.0753102754,0.314880710114,-1.255337859,51.3632961445
off_to_on,0.335814583991,0.963084064465,3.24106588317,1.455382196,1.24416673707,1.92738317603,1.06019985768,9.42378908822,2.07103453256,0.386288573727,0.519136931356,1.09171578892,-0.535353976849,32.5574701348
off_to_on,0.993110146397,1.72511853085,3.77459312465,1.10174082353,1.36450555406,1.4059233313,0.430606757035,8.14605158128,1.57757571417,0.48449259118,0.0451087466135,1.9281734676,0.375761789162,12.164505522
off_to_on,1.4899104885,2.3726081496,4.0234149367,0.736316967661,1.29371152995,0.748157546957,-0.118053278883,6.26396065425,1.017127021,0.705328007359,-0.312549295167,2.74142019859,1.36270276694,-6.85184607142
off_to_on,1.7752552823,2.82347363588,3.93680083221,0.363299887412,1.04733964665,0.014735659446,-0.510985791552,3.94944553603,0.418675642549,1.00804541659,-0.540202983796,3.44435547236,2.29697412832,-21.7883622255
off_to_on,1.83114245402,3.01830051235,3.50171122265,-0.0165435995574,0.671074712362,-0.716159073681,-0.691801376178,1.41436943098,-0.187659982164,1.33767055232,-0.645754415838,3.95486984223,3.0527863662,-30.5469824988
off_to_on,1.67228266007,2.92738281448,2.74504525525,-0.404329127834,0.232382774855,-1.35819743105,-0.63105192667,-1.11202484492,-0.772858751345,1.63236518605,-0.656428767209,4.20467934531,3.52260032815,-31.9041782297
off_to_on,1.34106078051,2.55383745614,1.73070041507,-0.801040232564,-0.191444267162,-1.82862336633,-0.332029629028,-3.40779268353,-1.31095425448,1.83145411565,-0.613697024161,4.14680282443,3.63043380187,-25.6703612324
off_to_on,0.898738811549,1.93250578519,0.551912583225,-1.20536709361,-0.526894061748,-2.06068715843,0.167164379061,-5.28212908186,-1.78052119811,1.88314248055,-0.566045425874,3.76092373298,3.34134508944,-12.7181494733
off_to_on,0.414465913269,1.12493583684,-0.680021779029,-1.61176544582,-0.71726168543,-2.01493093814,0.795885020144,-6.59545687091,-2.16556417986,1.75103679872,-0.56062573846,3.05612362187,2.66599956271,5.12526816861
off_to_on,-0.0460659989095,0.211254934918,-1.84907530845,-2.00908922435,-0.732950272738,-1.68749490486,1.4576366108,-7.27327273957,-2.45576991935,1.41876992883,-0.635002971699,2.07075882169,1.65983552361,25.30917719
off_to_on,-0.430504958424,-0.719873299525,-2.84807084268,-2.38008471037,-0.57731119831,-1.1139276807,2.04071927787,-7.31202767501,-2.64617348523,0.892284648324,-0.810229450143,0.869542096939,0.416998261724,44.8854518527
off_to_on,-0.706750753116,-1.5818104312,-3.59073577644,-2.70192291371,-0.286984035574,-0.367552444476,2.43179408891,-6.77632725249,-2.73636682894,0.199617243726,-1.08631047788,-0.46184247197,-0.940173743471,60.8890172945
off_to_on,-0.865924132188,-2.29962618519,-4.02071968029,-2.94780461537,0.0734380883439,0.44781068299,2.53086129031,-5.78785809868,-2.72943278225,-0.611694522782,-1.44080634363,-1.82404422982,-2.27482117929,70.7246690034
off_to_on,-0.921100356534,-2.81770077571,-4.11653348753,-3.08951772861,0.421687012736,1.2101394559,2.26583439064,-4.50752988572,-2.6308119968,-1.47920740787,-1.83088005766,-3.11256802399,-3.45076614691,72.5110916395
off_to_on,-0.902223553937,-3.10439776564,-3.89196374576,-3.10068064502,0.671506077723,1.79511160274,1.60479632302,-3.11321917688,-2.44730126404,-2.33161375556,-2.19860932034,-4.22672805028,-4.34747656814,65.3380528141
off_to_on,-0.848244978445,-3.15341245287,-3.39214831881,-2.96028871653,0.747629561756,2.09358271927,0.564172838549,-1.77608673237,-2.18634154941,-3.09555636555,-2.47890344113,-5.07823713529,-4.87309559303,49.4035587799
off_to_on,-0.797972600243,-2.98188483535,-2.6860788415,-2.65611127171,0.599679362235,2.02824906176,-0.788548614451,-0.638628645934,-1.85568992967,-3.70251283757,-2.60896965761,-5.59869145873,-4.97410342653,26.0128772889
off_to_on,-0.781311854024,-2.62580875455,-1.85673954118,-2.18747495167,0.212706694121,1.56707301947,-2.33832384451,0.202617402343,-1.46349205743,-4.09508637428,-2.53801694954,-5.74532437153,-4.6405999998,-2.56118290659
off_to_on,-0.812488812417,-2.13360735746,-0.990343656167,-1.56701942591,-0.387435645584,0.731366175218,-3.93230421058,0.707428799941,-1.0186933592,-4.23214310177,-2.23580886724,-5.50456146719,-3.90672023165,-33.3397534585
off_to_on,-0.886493456868,-1.55893526943,-0.166159893368,-0.82111913504,-1.13495651979,-0.402939396744,-5.39506043736,0.893991382881,-0.531660469109,-4.0923832075,-1.69879533246,-4.89309863692,-2.84625563855,-62.9887402178
off_to_on,-0.979420347964,-0.953789709585,0.551762064732,0.0111828522549,-1.93136108799,-1.71142407204,-6.54775214894,0.832546667737,-0.0148400527124,-3.67610478273,-0.952854734924,-3.95643132026,-1.56409137562,-88.2153351384
off_to_on,-1.05270818126,-0.362872324438,1.12001884892,0.880704288179,-2.6582187169,-3.03430774943,-7.22911905303,0.631584085123,0.516732715102,-3.00509579517,-0.0521236561802,-2.76497247543,-0.184516812898,-106.16087395
off_to_on,-1.06059843792,0.180128836219,1.51796158892,1.7319100885,-3.19375491956,-4.19517047773,-7.31581095583,0.418611199878,1.04524670331,-2.12075423806,0.926077372674,-1.40809512183,1.16221692406,-114.741367766
off_to_on,-0.959557890293,0.65402293848,1.74652813039,2.5075876056,-3.4309233063,-5.02302865321,-6.73951491721,0.318298339313,1.55037259158,-1.08067624698,1.88967038161,0.0133908384624,2.35356781846,-112.893898057
off_to_on,-0.718035105084,1.04942976971,1.8243170957,3.15392296064,-3.29431514203,-5.37496829345,-5.49860215223,0.431170362747,2.01002115137,0.045941597127,2.74256758942,1.39568137576,3.28710139423,-100.699198942
off_to_on,-0.324810924022,1.36632850574,1.7817863868,3.62542851186,-2.7533532733,-5.15634167619,-3.66258599229,0.815951958951,2.40157664238,1.18367048482,3.39636192735,2.64060736278,3.89030566866,-79.3665483375
off_to_on,0.205620813214,1.6104999095,1.6546639436,3.88917618275,-1.82968799597,-4.33574303753,-1.3684951627,1.47816986045,2.70349984453,2.2565413518,3.78141875144,3.66368853208,4.12684038042,-51.0844748834
off_to_on,0.831766747402,1.78964810806,1.47768130674,3.92786295099,-0.59750204139,-2.95257642614,1.19077138861,2.36674298124,2.897128202,3.19361739144,3.8558734479,4.40088857832,3.99866480892,-18.7574986835
off_to_on,1.4884294301,1.9099774867,1.27958721223,3.74136484572,0.823570807685,-1.11594262241,3.78504964528,3.37916928718,2.96845706027,3.93403800634,3.61129323117,4.81345250187,3.54396237616,14.3369867083
off_to_on,2.09433627409,1.97385941712,1.08010278558,3.34660824428,2.28214728435,1.00531539392,6.17052193106,4.37470163875,2.90967304906,4.43118436333,3.07419039772,4.89037507888,2.83124758477,44.9282660272
off_to_on,2.56313317081,1.97898158945,0.889096673653,2.7757805298,3.61367898579,3.20040565643,8.11570140551,5.193763597,2.72023076174,4.65569534005,2.30312175115,4.64826870313,1.95045040585,70.1212424609
off_to_on,2.81618405798,1.91907403261,0.707854140305,2.0730920389,4.66144480652,5.24016049983,9.42678712521,5.68095042435,2.40731454125,4.5971548149,1.38170058084,4.12865151007,1.0020816419,87.7101587862
off_to_on,2.79525486383,1.78600259824,0.531956020226,1.2904640044,5.29708421784,6.90352915614,9.9693841789,5.70841832546,1.98560138045,4.26437118905,0.408402010822,3.39293849451,0.0857590313172,96.4005479964
off_to_on,2.47308726638,1.57276398902,0.355028763979,0.482632831796,5.43781792867,8.00369396155,9.68395658344,5.19636422375,1.47632815595,3.68427195863,-0.515517498663,2.51566133224,-0.710597826448,95.9153674781
off_to_on,1.86010364313,1.27674846776,0.172514013473,-0.29778426486,5.05792536336,8.41051130694,8.59309069976,4.12765558046,0.905754180534,2.89953418868,-1.29840232608,1.57663817068,-1.31971448411,86.9764976812
off_to_on,1.00600110287,0.90258363935,-0.0153509544145,-1.00472932336,4.19282358002,8.06641291699,6.79960974052,2.55443762885,0.30318584888,1.96515989079,-1.86924863707,0.652937099831,-1.70111050432,71.1686880146
off_to_on,-0.00428252413091,0.463942004777,-0.201964373455,-1.60219246785,2.93511112017,6.99372085373,4.47567673081,0.595619267491,-0.301216789528,0.944277677807,-2.18596558144,-0.188492563081,-1.84385875669,50.7075243399
off_to_on,-1.05991990971,-0.0161271043684,-0.374531655192,-2.06642158282,1.42305800052,5.29242343797,1.84411585999,-1.57462866778,-0.878608755593,-0.0964967490347,-2.23976307505,-0.896717530307,-1.76577082275,28.1442296541
off_to_on,-2.03774422684,-0.506525261572,-0.515958891272,-2.38668929945,-0.176920462676,3.12868314363,-0.845869016931,-3.74600751149,-1.40337152244,-1.09178308913,-2.05510706654,-1.44061074994,-1.50924268216,6.04672953126
off_to_on,-2.81821484752,-0.970987158665,-0.608109219148,-2.56463190597,-1.69142512016,0.715537052064,-3.3457172791,-5.69645945879,-1.85457573537,-1.98188629314,-1.68528545823,-1.81014835461,-1.13437718674,-13.302294605
off_to_on,-3.30159736904,-1.37213758214,-0.635789513608,-2.61234376926,-2.96198077641,-1.71175443508,-5.43408658374,-7.21865248603,-2.21687005939,-2.71664934945,-1.20422460257,-2.01512989894,-0.710302947394,-28.1536603734
off_to_on,-3.42205287244,-1.67612940094,-0.590675586285,-2.54954960489,-3.86470199617,-3.92258777449,-6.93986093195,-8.14516279539,-2.48075189911,-3.2584421357,-0.695704732344,-2.08155783935,-0.305799396036,-37.4581494642
off_to_on,-3.15756447477,-1.85715078577,-0.474367061932,-2.40026895334,-4.32505275215,-5.71675174863,-7.75893205713,-8.36909581415,-2.64225957372,-3.58409843906,-0.241472084207,-2.04620729876,0.0196058103694,-40.9349671569
off_to_on,-2.53417171493,-1.9010875143,-0.299892235053,-2.18942261866,-4.32573675339,-6.94584137522,-7.86288370872,-7.85748295763,-2.70220005082,-3.68570632272,0.0901127853616,-1.95014816747,0.222983582092,-39.0394376611
off_to_on,-1.62376112601,-1.80774028215,-0.0912377026799,-1.93980743322,-3.90673212594,-7.52778730634,-7.29872508358,-6.65574051301,-2.66508092616,-3.57025520252,0.253336530519,-1.83211563412,0.282922069299,-32.8403584617
off_to_on,-0.535564537749,-1.59120936393,0.119184604209,-1.66978912877,-3.15759584912,-7.45288143984,-6.17993190674,-4.88264789162,-2.53794249889,-3.25823665391,0.231051010464,-1.72264134245,0.20145885961,-23.8286020373
off_to_on,0.597584814539,-1.27833589614,0.294855580186,-1.39194568607,-2.20324977344,-6.78082107464,-4.67011783433,-2.7165347951,-2.32928226182,-2.78137596902,0.0364675723813,-1.63975005752,0.00284735592883,-13.6863017273
off_to_on,1.63642549301,-0.90538638564,0.400644651644,-1.11275255382,-1.18536501551,-5.62947583247,-2.96153863787,-0.374493643035,-2.04823128583,-2.17973037526,-0.289373344556,-1.58680755273,-0.270623602924,-4.0494098936
off_to_on,2.45354317874,-0.513437572069,0.408636308576,-0.833256218341,-0.242055705614,-4.15714250498,-1.25121617356,1.91269535921,-1.70408559158,-1.49842279605,-0.684054473166,-1.55280208733,-0.5651682983,3.70468886748
off_to_on,2.95023277491,-0.14311970091,0.303335219512,-0.55055309116,0.511207272551,-2.54085068556,0.282312392273,3.92673693883,-1.3062249098,-0.784285498255,-1.0732093962,-1.51499485362,-0.823516882959,8.61811685488
off_to_on,3.06960085407,0.170523989481,0.0853468782846,-0.259792967677,0.996772808009,-0.953712864869,1.49878399518,5.48582909783,-0.86437751318,-0.082667705541,-1.38157165957,-1.44353214553,-0.993333760597,10.2441500876
off_to_on,2.80406713936,0.402320662764,-0.227169113452,0.0436282023759,1.18399282526,0.45567438055,2.310229151,6.46360288104,-0.389124662065,0.565379977432,-1.54407644167,-1.30732255743,-1.03492283429,8.6622032876
off_to_on,2.1961952563,0.539783810835,-0.599653250002,0.362027743728,1.09122914484,1.57916831244,2.68772221569,6.80081998077,0.107508184428,1.12538675434,-1.51545268431,-1.08028884235,-0.927192390071,4.41965293656
off_to_on,1.33271206032,0.584074740442,-0.984891240672,0.693849074256,0.780561914876,2.35848877155,2.66034194675,6.50865028861,0.611546663314,1.57111218944,-1.2769696341,-0.747036061941,-0.671075469874,-1.58625087254
off_to_on,0.332529127423,0.549003617504,-1.32892439429,1.032750116,0.346143388471,2.78720355091,2.30683783141,5.66347108899,1.10681383982,1.88552946774,-0.839413599305,-0.30704785327,-0.289929492543,-8.26578402312
off_to_on,-0.669577069172,0.458258648922,-1.57834289554,1.36748459501,-0.101944314508,2.90546062447,1.74141638013,4.39421859087,1.57505549003,2.06115614647,-0.241908819967,0.223276244219,0.173168757777,-14.5087966925
off_to_on,-1.54135916282,0.341314462315,-1.68793295695,1.68257831816,-0.455837291166,2.78864029441,1.09576492581,2.86423500372,1.99651329961,2.09978626611,0.453216404228,0.811123934933,0.660909043754,-19.3463510548
off_to_on,-2.17100947038,0.228660864207,-1.62755377078,1.95969319432,-0.627295273282,2.53190197536,0.499832025729,1.25017313472,2.35094262385,2.01170290497,1.1687642901,1.41032779412,1.10931991901,-22.0800055212
off_to_on,-2.48210106491,0.14708238041,-1.38719523975,2.17948283641,-0.561765080121,2.23309310029,0.0639396857596,-0.279227496635,2.61899676968,1.81446271631,1.82300823603,1.96661429737,1.45644697222,-22.3627935791
off_to_on,-2.44349664057,0.115694849291,-0.979404983379,2.32368592947,-0.247033737019,1.9766104941,-0.135482721836,-1.58181362864,2.78383411797,1.53134688511,2.34057801768,2.42434952389,1.65099435064,-20.2238012874
off_to_on,-2.07287697917,0.143313244352,-0.438640114459,2.37718313833,0.284766312261,1.82055097916,-0.0648299958574,-2.5559477004,2.83275790139,1.18957066945,2.6623706604,2.73385007367,1.65977098521,-16.0367511412
off_to_on,-1.43344406431,0.227507042608,0.182457760058,2.32976062498,0.962032228085,1.78890568766,0.264013637923,-3.14825801718,2.75867838369,0.818340726883,2.75312623546,2.85822246093,1.47291828537,-10.4409104561
off_to_on,-0.624316588944,0.355431135836,0.819412953529,2.17737347535,1.68464886037,1.869735513,0.797334380477,-3.35468422063,2.56119696087,0.446849249555,2.60565623604,2.77873832015,1.1061677864,-4.22887416175
off_to_on,0.233979612879,0.506244205207,1.40404580046,1.92277645972,2.33933155999,2.01933891016,1.4487888274,-3.21522309685,2.24715036637,0.102298185738,2.24119885783,2.49794242164,0.599752459301,1.78045762753
off_to_on,1.01684247484,0.654685928447,1.87326133194,1.57547580559,2.81701495939,2.17152611088,2.11265689751,-2.80359978465,1.83051553063,-0.191945131285,1.70592917002,2.04000044837,0.0140271479524,6.86446149033
off_to_on,1.61328048632,0.7752163984,2.177262094,1.15104140304,3.02966204659,2.25037628626,2.67918912325,-2.21368986907,1.33165310236,-0.417950647403,1.06419278355,1.44818027699,-0.577713396795,10.4975581215
off_to_on,1.94146013191,0.846050729451,2.28601838631,0.669892430785,2.92397406448,2.18438016617,3.0499029985,-1.54482566144,0.77594939087,-0.56447082508,0.389482048213,0.779768643544,-1.09835265778,12.4170132936
off_to_on,1.95994271947,0.852458235114,2.19306970777,0.155721734562,2.48996208084,1.9197227535,3.15079390068,-0.888107443257,0.191991154807,-0.627716014058,-0.24552912848,0.0990950810778,-1.47686824691,12.6464344959
off_to_on,1.67306818167,0.788830940316,1.91611013697,-0.366249906117,1.76312104802,1.43065213433,2.94180576514,-0.315527302838,-0.390535083246,-0.611564064827,-0.778472241757,-0.53038779837,-1.65777792148,11.4760932451
off_to_on,1.12978510864,0.659237118632,1.4942722955,-0.87100027328,0.819908371342,0.725373677482,2.42149063936,0.126838233569,-0.942995461717,-0.527140889463,-1.16497504341,-1.05387594775,-1.60888118751,9.40535430621
off_to_on,0.416159092136,0.476426924052,0.982501192587,-1.33524994224,-0.232773080331,-0.153376953309,1.62648453137,0.421006212762,-1.43978651541,-0.391757327627,-1.38352712759,-1.43175994394,-1.32625576976,7.05747044922
off_to_on,-0.35731810694,0.259507991626,0.443829854141,-1.73870568406,-1.27250187053,-1.13310550346,0.626137923262,0.574804569845,-1.85993843836,-0.227249124067,-1.43692176966,-1.64403846711,-0.835800087748,5.08017981782
off_to_on,-1.07177412078,0.0307187685543,-0.0593294219828,-2.0649385433,-2.1784467245,-2.12089259148,-0.486735620293,0.615950125388,-2.18819594237,-0.057834618448,-1.35018319809,-1.6919953365,-0.191041724479,4.04660619553
off_to_on,-1.61705902602,-0.188136910104,-0.473626061661,-2.30188659988,-2.84812375804,-3.01583614533,-1.60757180682,0.583791637952,-2.41549823733,0.0923300267855,-1.16539796001,-1.5969284714,0.532596579431,4.36992782149
off_to_on,-1.90748601171,-0.378989714878,-0.761738263486,-2.44201901869,-3.21134364379,-3.7227137636,-2.63257194121,0.520272489079,-2.53885681169,0.201665690065,-0.934306146954,-1.39614342064,1.2464281472,6.24247140897
off_to_on,-1.89401044827,-0.529994358213,-0.906883021863,-2.48223042573,-3.23933076446,-4.16483301942,-3.4703714103,0.461660286446,-2.56070376679,0.2534926814,-0.70981060621,-1.13681819052,1.85900847358,9.60586153604
off_to_on,-1.57117605881,-0.636812595312,-0.914252836119,-2.4235496193,-2.94773408257,-4.29420253978,-4.05143937812,0.432341694439,-2.48784438834,0.237897750911,-0.537688311535,-0.868651827795,2.2872428543,14.154298241
off_to_on,-0.977912745764,-0.702505922239,-0.809218323129,-2.27074409413,-2.39317148608,-4.09759712652,-4.33419839592,0.441542381046,-2.33018746941,0.152916105175,-0.449722868583,-0.636381180267,2.46673050749,19.3686474735
off_to_on,-0.192143807738,-0.736094783093,-0.632612084864,-2.03188483089,-1.66391622103,-3.59773334184,-4.30737124708,0.483283283674,-2.09944089032,0.0048648108438,-0.459234179649,-0.473262695529,2.36006065953,24.5754136217
off_to_on,0.679974725873,-0.750069895691,-0.433835013695,-1.71790960963,-0.866200424593,-2.84951601679,-3.9886085467,0.539318265317,-1.80794717139,-0.192243395006,-0.559600094135,-0.396466866965,1.96201921054,29.0222419299
off_to_on,1.51862529811,-0.75732050481,-0.262838664135,-1.34219431445,-0.108247514375,-1.9320462377,-3.41994405153,0.584306173771,-1.46779704462,-0.41816822212,-0.725904690485,-0.405043896419,1.30103972539,31.9605606635
off_to_on,2.20665035433,-0.768044405937,-0.162190618809,-0.920116880817,0.515541584086,-0.937687376933,-2.6609978317,0.592128289456,-1.09030475685,-0.648643523571,-0.919378592843,-0.480733114699,0.436691842158,32.7262687635
off_to_on,2.64535927595,-0.787208902797,-0.160402311351,-0.468583080845,0.93787829427,0.0401211797814,-1.78105518109,0.542119167882,-0.685865365322,-0.85806688128,-1.09388842309,-0.591463068659,-0.546514836717,30.810749457
off_to_on,2.76767181785,-0.81303960604,-0.26749620374,-0.00548049256827,1.1273942249,0.918487218066,-0.851173980661,0.424050192829,-0.264151292864,-1.02236189169,-1.20344476029,-0.696987369726,-1.54828438223,25.9165496671
off_to_on,2.5468623175,-0.836840107726,-0.473443485998,0.450962679235,1.0917131332,1.63446435865,0.062673334335,0.240970885227,0.16544793284,-1.12166763766,-1.20957132878,-0.755783373682,-2.46356249162,17.9943610807
off_to_on,1.99981387998,-0.844218449108,-0.749667789409,0.88291594834,0.87442120134,2.15096759059,0.904698021922,0.00942240214683,0.593275030565,-1.14252489939,-1.08742815671,-0.732154030877,-3.19413623562,7.26005785158
off_to_on,1.18447162267,-0.817553155279,-1.05335108592,1.27375626221,0.54650597451,2.45853025324,1.63226836646,-0.242981943075,1.00888997809,-1.07928897274,-0.829796859526,-0.602445684966,-3.6594467974,-5.80781566614
off_to_on,0.191985290475,-0.739312506828,-1.3338642438,1.60889494569,0.193676329251,2.57289564515,2.21676815687,-0.482145210136,1.400728228,-0.934597704693,-0.448380969228,-0.35943022313,-3.80536792503,-20.4887011735
off_to_on,-0.86525946403,-0.595682105222,-1.54033830824,1.87654519445,-0.0984036657744,2.52908415584,2.64267876281,-0.673401136901,1.75603933493,-0.718847727451,0.0277066230691,-0.0141783076908,-3.60996528099,-35.8570058234
off_to_on,-1.86800230002,-0.37988458683,-1.62923827985,2.06834223502,-0.258628497714,2.37310269547,2.90545479378,-0.787683356486,2.06116662124,-0.448764778744,0.555968803422,0.404870482653,-3.08562931992,-50.8335869263
off_to_on,-2.70488018184,-0.0946045387951,-1.57082022294,2.1797320521,-0.242428570279,2.15278723943,3.0088673407,-0.806838631222,2.30217294671,-0.145276454139,1.08638982658,0.855511985629,-2.277416804,-64.2500660736
off_to_on,-3.28565051714,0.24694186967,-1.35353960996,2.21006439209,-0.039332344293,1.90934466369,2.96245815371,-0.727124973352,2.46576145758,0.169010309562,1.56820959466,1.28752480322,-1.25788647036,-74.9242726885
off_to_on,-3.55119938795,0.621548189693,-0.98580302695,2.16235968719,0.32507244174,1.67097992306,2.77959927101,-0.560251528697,2.54039156403,0.472373618104,1.95656495796,1.64970689492,-0.119116120507,-81.7446749009
off_to_on,-3.47918177606,0.998174097541,-0.494865286381,2.0427629731,0.793089394182,1.44959285469,2.47642186771,-0.33174289296,2.51745618931,0.746229533126,2.2180100968,1.89715425386,1.03710711449,-83.7606659265
off_to_on,-3.08479111985,1.34146256279,0.0768943077922,1.85974408913,1.28416425771,1.24097417267,2.07161456563,-0.0768739196387,2.39237112658,0.976772223731,2.33413371828,1.99769890181,2.1097588689,-80.2740749105
do_nothing,-2.41684472508,1.61613915216,0.677695785596,1.62314473195,1.70799484791,1.02831494044,1.58684816009,0.165155938485,2.16543285672,1.15579705212,2.30281332411,1.93655063873,3.00852288498,-70.9254798722
do_nothing,-1.54999895954,1.79166109555,1.2531780756,1.34320181354,1.9794499076,0.788269213547,1.04740822848,0.357828189628,1.84232615581,1.280630171,2.1370333412,1.71845739511,3.66214047607,-55.7671871332
do_nothing,-0.574386331683,1.84642612334,1.75327177568,1.02968711822,2.03295128155,0.498369618907,0.482543192053,0.473562691983,1.43420329618,1.35322790097,1.86158229492,1.36707147961,4.0243376654,-35.3135679697
do_nothing,0.415766438524,1.77090028097,2.13810872905,0.691292154737,1.83403832122,0.144362175396,-0.0749226211459,0.498540845381,0.957306651069,1.3786393348,1.50827275137,0.921626987269,4.07683216682,-10.5592750147
do_nothing,1.33295252928,1.56917389462,2.38213551732,0.335354384696,1.38624943126,-0.273962105966,-0.590011163999,0.435234553707,0.432159010771,1.36312596295,1.11054488928,0.431433912386,3.82929086586,17.0429295996
do_nothing,2.10524742583,1.25868361388,2.47590740402,-0.0320297602684,0.732161373282,-0.739606795141,-1.02811809576,0.302154988161,-0.117606146944,1.31228647623,0.698386880676,-0.0509832479115,3.31646808981,45.6502278347
do_nothing,2.68222666259,0.86811137662,2.42542368444,-0.405521744223,-0.0516835742874,-1.21859185126,-1.35844883982,0.130796902973,-0.666664880846,1.22953390457,0.294422691896,-0.477078717465,2.59306095961,73.1448995479
do_nothing,3.03745578086,0.433746295057,2.24926259821,-0.779768712754,-0.865293441623,-1.66368341858,-1.55791541766,-0.0397716195533,-1.18954153336,1.11521492187,-0.0882047589598,-0.808746235837,1.72703551395,97.2923649453
do_nothing,3.16761428414,-0.00516988980019,1.97412025465,-1.14847984731,-1.59966991776,-2.02113903328,-1.6148608195,-0.169815607774,-1.66212845413,0.966555286067,-0.445852697723,-1.02310321297,0.79228506769,115.931927182
do_nothing,3.08880998246,-0.411435865789,1.62959831797,-1.50352826563,-2.15303928747,-2.23942607316,-1.531898546,-0.226202757802,-2.06305993487,0.77847657119,-0.7823720835,-1.11491559281,-0.138524633068,127.184307288
do_nothing,2.83101083368,-0.754489689186,1.24318169476,-1.83426998434,-2.44642469416,-2.27848238894,-1.32720493136,-0.188809551262,-2.37483802733,0.545178725661,-1.10550983963,-1.0963433377,-1.00017986884,129.655495584
do_nothing,2.43171731409,-1.01393830613,0.836285597264,-2.12725699371,-2.4361743014,-2.11792727769,-1.03378167426,-0.0549437654877,-2.58464164018,0.262244121624,-1.42244304155,-0.99409434612,-1.73966074008,122.613875709
do_nothing,1.92999841524,-1.18150388736,0.422042107351,-2.36647793714,-2.12148202682,-1.76273015585,-0.696493363117,0.15904377877,-2.68478804344,-0.0710859713796,-1.73533615664,-0.84446559026,-2.31908704116,106.117672182
do_nothing,1.36182958914,-1.26111486376,0.00517455052937,-2.53419153664,-1.54566075292,-1.24519421423,-0.367037298291,0.419349214636,-2.67285231065,-0.449864443734,-2.03782939334,-0.68706497317,-2.71680539524,81.0728810395
do_nothing,0.757341637571,-1.26715462032,-0.416073240499,-2.61233304203,-0.790846628421,-0.622663461659,-0.0973644903552,0.67938615213,-2.55148069498,-0.86201377544,-2.31322702713,-0.558198506776,-2.92678214324,49.207916574
do_nothing,0.140177856124,-1.2211655408,-0.846363242381,-2.58438387285,0.0332083399718,0.0289687879077,0.0676195803988,0.886907736533,-2.32795522201,-1.28784471371,-2.53487912437,-0.484946712329,-2.95664269515,12.9597606285
do_nothing,-0.471263839113,-1.14754642371,-1.28876646029,-2.43751202258,0.804705225778,0.625187186013,0.0970438408587,0.992529165961,-2.01357738061,-1.70071308429,-2.66888067789,-0.480836831011,-2.82480525385,-24.7234568988
do_nothing,-1.06128401415,-1.06893963907,-1.74025566785,-2.16472817034,1.40750485307,1.08486311204,-0.0203335379959,0.9583324476,-1.62293899682,-2.06884699944,-2.67880711991,-0.543762680754,-2.55718890115,-60.6479928184
do_nothing,-1.61384371703,-1.00205554311,-2.18813787443,-1.76677015732,1.74839624058,1.34258898131,-0.272892866232,0.765169168301,-1.17314005647,-2.35820096481,-2.53182985399,-0.656451898473,-2.18393853228,-91.6831527001
do_nothing,-2.10992139353,-0.954616730239,-2.60825085856,-1.25343319948,1.77137529768,1.35943965713,-0.625975167453,0.417427743498,-0.682999390988,-2.53603064327,-2.2052720498,-0.789385598967,-1.73651729735,-115.080905505
do_nothing,-2.52605236262,-0.923932623582,-2.96547533391,-0.644106772473,1.46678308376,1.13041018366,-1.02504584607,-0.0556190200535,-0.172288251447,-2.57475718649,-1.69252263427,-0.905699036876,-1.24539275232,-128.770583834
do_nothing,-2.83458896138,-0.897361210858,-3.21673528429,0.0326419374043,0.873874415868,0.687203809071,-1.40200833563,-0.60227146779,0.338997779215,-2.45562289187,-1.00725330971,-0.967291280095,-0.738409926228,-131.593363256
do_nothing,-3.00586396811,-0.854617726338,-3.31623242859,0.740492281394,0.0763264057539,0.0956900762127,-1.68399398807,-1.15447653233,0.831323718762,-2.17164208339,-0.185081735491,-0.941192665921,-0.23982535692,-123.446263005
do_nothing,-3.01204159804,-0.771595063443,-3.22225450005,1.43773623286,-0.808783220748,-0.551871767684,-1.80354186613,-1.63676402898,1.28625733881,-1.72942404637,0.717830927648,-0.80520731858,0.230111989982,-105.314592606
do_nothing,-2.83206981649,-0.625113091324,-2.90457751971,2.08040113839,-1.64704493429,-1.14895723829,-1.70880568255,-1.97682660354,1.68706848561,-1.14957955873,1.62931640831,-0.551967640144,0.655194509077,-79.184150585
do_nothing,-2.45687124801,-0.397852434637,-2.35130415996,2.62584112404,-2.30560347855,-1.5896735754,-1.37233375242,-2.11622922153,2.01928053043,-0.46560073775,2.46846107643,-0.190788441757,1.02307174848,-47.838642808
do_nothing,-1.89377865399,-0.082678499966,-1.57397766158,3.03643684205,-2.67220089905,-1.78437485727,-0.797084570989,-2.01965946194,2.27116139118,0.278699429452,3.15474646113,0.252949860739,1.32498607275,-14.5619911227
do_nothing,-1.16926212531,0.3143673282,-0.609991241994,3.28301202338,-2.67166625997,-1.6737495398,-0.0186583244107,-1.68129206273,2.43413402929,1.03291436541,3.61789123352,0.74078065613,1.55551399438,17.2223887408
do_nothing,-0.329207649864,0.772949512685,0.478343997445,3.34759066254,-2.27748135082,-1.23926784759,0.896794156755,-1.12722121907,2.5030812528,1.74451364831,3.80704813712,1.22602786224,1.71233976584,44.3343383457
do_nothing,0.563639176206,1.25946490136,1.60825017612,3.22518017704,-1.51673324039,-0.508323799948,1.85894192424,-0.413459984554,2.47651898074,2.36353790542,3.69803292741,1.65983474195,1.79603670455,64.1966069393
do_nothing,1.43500871239,1.7301708027,2.68411975975,2.9243671216,-0.467690894356,0.446888846633,2.76327919613,0.380360082175,2.35661683438,2.84697947414,3.29748191376,1.9974391533,1.80980066014,75.1276712119
do_nothing,2.20670669903,2.13605670866,3.60751928977,2.46664127403,0.749718483158,1.51686202408,3.50358501873,1.1608264473,2.14905485077,3.16236086083,2.64322406633,2.20377194509,1.75907550508,76.5309582295
do_nothing,2.80555879918,2.4288340456,4.2883516111,1.88450558566,1.98925614028,2.56781095542,3.98526659473,1.83282579277,1.86271895694,3.29013957225,1.80066072116,2.25758099431,1.65103245111,68.9555375217
do_nothing,3.17250220154,2.56723773977,4.65573865639,1.21856618958,3.09744307528,3.45864134506,4.13783133269,2.31221802068,1.50925338387,3.224731622,0.855499757341,2.15353057279,1.49390696384,54.0186892484
do_nothing,3.27052058244,2.52276737589,4.66715500788,0.513911378232,3.93373407224,4.0596206751,3.92478737493,2.53733350455,1.10250272689,2.97413212714,-0.0962878351497,1.90205333831,1.29624784819,34.1977391174
do_nothing,3.09021031569,2.28405494949,4.31451952673,-0.183833167236,4.38902109478,4.27022687724,3.3495654206,2.47765538858,0.657887177824,2.55829208725,-0.960009405821,1.52708693359,1.06617910881,12.5150373877
do_nothing,2.65204792614,1.85922291113,3.62631880584,-0.832353411817,4.39993353599,4.03369719924,2.45655137621,2.13841959605,0.19175941012,2.00655914621,-1.65377042903,1.06215183089,0.81080339943,-7.84618869158
do_nothing,2.00486483092,1.27586536867,2.66534446406,-1.39599871617,3.95700005157,3.34619987837,1.32695516647,1.56042384021,-0.279210485783,1.35458572986,-2.11842284713,0.545469939144,0.535876584179,-23.9480134521
do_nothing,1.22056405017,0.578608412105,1.52220716465,-1.8483003916,3.10560322094,2.25925042987,0.0699301505416,0.815004626423,-0.738584672086,0.641137939644,-2.32458067404,0.0149465016436,0.245852054831,-33.475358217
do_nothing,0.385657631296,-0.175463810261,0.305362697912,-2.17342597915,1.93966885675,0.874898543669,-1.18999507349,-0.00517737450848,-1.17061914704,-0.094798984843,-2.27572561515,-0.496177409616,-0.055666367173,-35.037053707
do_nothing,-0.409318434196,-0.922939752684,-0.871131686271,-2.36646869571,0.589041340444,-0.665804127112,-2.32759611279,-0.798306305884,-1.56063232819,-0.816319111378,-2.006953401,-0.962343659333,-0.36510361681,-28.3515318748
do_nothing,-1.08111643265,-1.60098063354,-1.90058889118,-2.43261102566,-0.797638928872,-2.19961834131,-3.23185913122,-1.46687145077,-1.89529343525,-1.490135551,-1.57951013266,-1.3669658086,-0.677850132366,-14.292328362
do_nothing,-1.56427588575,-2.15410368418,-2.69573315405,-2.38533230098,-2.07214182721,-3.56103878571,-3.81917435098,-1.93056376846,-2.16285776877,-2.08735197544,-1.07185280464,-1.70190728098,-0.987154734066,5.21397409021
do_nothing,-1.81934367697,-2.53998664089,-3.19826179736,-2.2439359513,-3.1052743469,-4.60270359568,-4.04308527384,-2.13682395952,-2.35338394315,-2.58359901765,-0.568455882194,-1.96539834294,-1.28321716703,27.4260966828
do_nothing,-1.83763860984,-2.73357517921,-3.38470089382,-2.03074002598,-3.8023960951,-5.21358715942,-3.89930865828,-2.06758157304,-2.45896783351,-2.95877616904,-0.147906012449,-2.1589244366,-1.55272804506,49.1340089672
do_nothing,-1.64184879025,-2.72901564996,-3.26782022713,-1.76829682186,-4.11377948132,-5.33255871293,-3.42536572918,-1.74125710227,-2.47401890778,-3.19669378384,0.128067327181,-2.2838059771,-1.77906130002,67.0697865892
do_nothing,-1.28232729473,-2.53923769639,-2.89346713506,-1.47698231165,-4.03854034082,-4.95551097571,-2.69488479518,-1.20976401468,-2.39558779431,-3.28490115042,0.223102799959,-2.33824861354,-1.94323692059,78.3320189808
do_nothing,-0.829558738644,-2.19333122061,-2.33329291925,-1.17322810712,-3.62180169275,-4.13513367944,-1.80735085075,-0.550950304687,-2.22373194006,-3.21491705522,0.131077428733,-2.31556119064,-2.02565040353,80.770185955
do_nothing,-0.363819093468,-1.73215401077,-1.67439416217,-0.868567996605,-2.94572026838,-2.97340530662,-0.874690192808,0.142441012574,-1.96188276752,-2.98296133802,-0.123338714068,-2.20402770614,-2.00842784337,73.2800120506
do_nothing,0.0365369267592,-1.20282929491,-1.00729824823,-0.569551873051,-2.115862581,-1.60786344553,-0.00650268086384,0.775727486171,-1.61715715504,-2.59114090734,-0.488514359307,-1.98861281474,-1.8781344756,55.9716665034
do_nothing,0.306513732393,-0.652916449622,-0.413931303802,-0.278458477371,-1.24504265855,-0.193552138848,0.704068180438,1.26533184433,-1.20054256787,-2.04889820294,-0.89353185759,-1.65432808918,-1.62846327983,30.1884503459
do_nothing,0.404010271654,-0.125047893648,0.0428107828627,0.00536888323134,-0.437040448629,1.11688324031,1.19193174703,1.5500870303,-0.726882152831,-1.37441179414,-1.25862303194,-1.19074745833,-1.26247941172,-1.62769777825
do_nothing,0.316077076428,0.347277463667,0.326508170055,0.283818577712,0.2274308363,2.19225581163,1.42757184553,1.59923149147,-0.214595528813,-0.595571648107,-1.50689832446,-0.596893613916,-0.794009414553,-36.2083220889
do_nothing,0.0609696589826,0.742250998468,0.430728435868,0.558234772625,0.700535087281,2.93850193829,1.41951696617,1.4160051248,0.31490707015,0.249848290013,-1.57572273162,0.11442877338,-0.247845356208,-69.8353425026
do_nothing,-0.314339898485,1.05042851581,0.378208328295,0.827863647041,0.971603676275,3.30890170757,1.21148038866,1.03638930234,0.838127169781,1.11512491031,-1.42614522866,0.913772181265,0.341423790479,-98.7767029766
do_nothing,-0.740890104213,1.2735727793,0.215915533799,1.08877284511,1.06546092345,3.30758678128,0.874625987605,0.523228538583,1.33066761318,1.94679452061,-1.04906532716,1.75441424733,0.931955707433,-119.727408173
do_nothing,-1.13778830325,1.42198072624,0.00676892283585,1.33341780395,1.03524160999,2.98601681963,0.496085000933,-0.0433731124781,1.76863923107,2.68811595279,-0.467280975853,2.57440971206,1.47837264744,-130.201967061
do_nothing,-1.42421037849,1.51082008053,-0.180750478331,1.5509281539,0.950974965239,2.43308918953,0.165361451079,-0.577964639065,2.13017816376,3.28356341502,0.266859930325,3.30138282077,1.93626380599,-128.830436212
do_nothing,-1.53166198602,1.55612272923,-0.283588919149,1.72807844101,0.885823319554,1.76042533177,-0.0394511536974,-1.00223665652,2.39694100997,3.68393117921,1.07786915113,3.85968018966,2.26693704097,-115.522395604
do_nothing,-1.41476494913,1.57110363993,-0.254138091774,1.85080530589,0.902185855633,1.08502792588,-0.0637004314949,-1.25628694357,2.55543325912,3.85148370155,1.87669252134,4.17909700928,2.44180935744,-91.4797107093
do_nothing,-1.05901904775,1.56339414537,-0.0678676385469,1.90605210198,1.03986480532,0.511835942674,0.115239200035,-1.30705619045,2.5980321876,3.764507928,2.5721227756,4.204077148,2.44583599574,-59.0577005314
do_nothing,-0.484394098534,1.53361198735,0.272489756426,1.88367276778,1.30814913345,0.118675635035,0.484036194176,-1.15274848897,2.52358902771,3.42063658428,3.08248461593,3.90212342936,2.27947787002,-21.4929380186
do_nothing,0.25582579309,1.47546488273,0.736766242806,1.77811602,1.68305377472,-0.0542779444394,0.994689947727,-0.822639157176,2.33753469139,2.83841653389,3.34600819868,3.27017044118,1.95888626882,17.4679998754
do_nothing,1.08087312661,1.37733489439,1.27119666375,1.5896396545,2.11015527161,-0.00909429782012,1.57087716781,-0.372341626735,2.05146424864,2.05678502061,3.32851125974,2.33787459698,1.51421901994,53.9929432501
do_nothing,1.89228595002,1.22505551259,1.80570291875,1.32486851867,2.51260719667,0.211822024374,2.11849706657,0.124741417803,1.68223152176,1.1323658019,3.02740375377,1.167142622,0.986260726923,84.5901525069
do_nothing,2.5863889214,1.00540694733,2.26358692051,0.996599364864,2.80312868815,0.533754663948,2.53897612293,0.588513427484,1.25063937652,0.134773647066,2.4715533597,-0.152297486887,0.421763065669,106.485268505
do_nothing,3.06782299826,0.70974441512,2.57227062927,0.622858670085,2.89815327523,0.862542303317,2.74351163498,0.944199358738,0.779856398844,-0.859619260795,1.71712881759,-1.51094623716,-0.131888010909,117.905653319
do_nothing,3.26232570128,0.337153988938,2.67359143254,0.225321297487,2.73199125766,1.10032920124,2.66630103378,1.13353365687,0.293720503719,-1.77478631977,0.840087582556,-2.79035964481,-0.631963910496,118.240978598
do_nothing,3.12705302316,-0.103398068736,2.53223910738,-0.17271542974,2.26884474804,1.16183794621,2.2749374393,1.12350455481,-0.184899570509,-2.54221745498,-0.0735829136972,-3.87550329794,-1.0449249335,108.064863383
do_nothing,2.65705390075,-0.592306131362,2.14119219742,-0.548547860863,1.51082022057,0.988744724829,1.57653130749,0.911400405311,-0.635524599313,-3.1073276889,-0.938485846971,-4.66713780682,-1.34957483876,89.0197494779
do_nothing,1.88701421094,-1.1001340927,1.52343556999,-0.882193037256,0.500662253343,0.560028048254,0.618690051469,0.525442801503,-1.04113726506,-3.43435488333,-1.67984063888,-5.09269446144,-1.5384181471,63.5837874024
do_nothing,0.888009862194,-1.58994043865,0.729755511573,-1.15816035272,-0.681302279138,-0.103242956538,-0.514826597865,0.0209284578438,-1.38882319723,-3.50918176702,-2.24159297829,-5.11426488323,-1.61706356116,34.7522102314
do_nothing,-0.240337115047,-2.02084776772,-0.167058992548,-1.36665061065,-1.92568095437,-0.939402456508,-1.71325135454,-0.527554948654,-1.66995327732,-3.33977860725,-2.59160802951,-4.7326840433,-1.60180897818,5.67484798121
do_nothing,-1.38130774831,-2.35240660186,-1.08080392315,-1.5040432086,-3.1068744769,-1.85377458255,-2.85159824096,-1.0367166432,-1.87993793815,-2.95426612029,-2.72339730711,-3.98718460213,-1.51581976312,-20.7049319702
do_nothing,-2.41468697752,-2.54919096997,-1.92207598615,-1.57262829438,-4.09853130164,-2.73128425438,-3.80546577645,-1.42643975655,-2.0176364962,-2.39690118062,-2.65434428766,-2.95067342192,-1.38452901535,-41.9667472208
do_nothing,-3.23079664638,-2.58503126497,-2.60876571998,-1.57964179613,-4.78947835997,-3.45230193903,-4.46597022698,-1.63125989237,-2.08454396931,-1.72254792184,-2.42089447129,-1.72124846109,-1.23101121378,-56.4495596504
do_nothing,-3.74320368094,-2.44634056725,-3.07547493446,-1.53575349303,-5.09793930031,-3.90947005786,-4.7529201423,-1.60982623079,-2.08389906966,-0.990377190413,-2.07158936872,-0.411056684688,-1.07208730687,-63.3838757584
do_nothing,-3.89853892099,-2.13411437243,-3.28068569448,-1.45322934369,-4.98209529592,-4.02312036895,-4.62458556114,-1.35102374146,-2.01985741353,-0.257612725618,-1.65909250121,0.866076226401,-0.915806021807,-62.909905341
do_nothing,-3.68225472973,-1.66436077455,-3.21084047975,-1.34402968984,-4.44556146023,-3.75309435182,-4.08286785704,-0.875916633606,-1.89685370797,0.42589709444,-1.23244370506,2.00668113536,-0.760727649546,-55.9864736736
do_nothing,-3.11968659022,-1.06692214774,-2.88092725059,-1.21810949361,-3.53706699697,-3.10529103228,-3.17327565302,-0.235267862388,-1.71923895177,1.02165069128,-0.83067837502,2.92786458672,-0.59714458457,-44.2088113052
do_nothing,-2.27239147357,-0.382851067352,-2.33163594129,-1.08215511694,-2.34443465785,-2.13201356139,-1.97977680976,0.496988685311,-1.49122919421,1.5046094916,-0.478681633002,3.57451342308,-0.410051782271,-29.563670358
do_nothing,-1.23033221041,0.339324903367,-1.62359816829,-0.938928854687,-0.983738218993,-0.926059234109,-0.615237698545,1.23338647847,-1.2171484695,1.86334320014,-0.185759248243,3.92272696845,-0.183380334967,-14.1563489278
do_nothing,-0.100984291554,1.04799483201,-0.829579650725,-0.787306243157,0.414835981869,0.390627481281,0.791304369234,1.88431820965,-0.901898116816,2.09837845267,0.0530398311199,3.97925211313,0.0952229190239,0.0544365342126
do_nothing,1.00320471187,1.6930029111,-0.0257193963652,-0.622993828967,1.72247611711,1.68216693676,2.10892841489,2.36960187118,-0.551545216529,2.21917908862,0.253250147047,3.77724508031,0.429908401482,11.4812326369
do_nothing,1.97741456484,2.22983836309,0.717024145899,-0.439819739622,2.82649417932,2.81572480615,3.21892374824,2.62864503115,-0.173900126852,2.24036654287,0.435724094595,3.3691687305,0.813257784195,19.0668358965
do_nothing,2.73557389856,2.62305785959,1.34015410772,-0.231408809654,3.64240891409,3.67793976213,4.02701936308,2.62785606759,0.221049552915,2.17786939801,0.620758961839,2.81798798879,1.2247221714,22.3625070181
do_nothing,3.21871548849,2.84864583139,1.80281185983,0.00700111688646,4.12185976178,4.18858042811,4.47236875267,2.36436130766,0.620963408147,2.04566141706,0.82266509363,2.18800087126,1.63128580679,21.5218251337
do_nothing,3.3996824645,2.89516945262,2.08435274884,0.276867529923,4.25547665927,4.30962695054,4.53236554866,1.86562078896,1.01131002584,1.85361394737,1.04571808225,1.53661837361,1.99043523059,17.2178095969
do_nothing,3.28380641205,2.76374063281,2.18420818387,0.57502895965,4.07056482183,4.04863335962,4.22291968846,1.18511433718,1.3758966064,1.60677406937,1.28218366482,0.90819268658,2.25514385276,10.5004060014
do_nothing,2.90571028193,2.46693516858,2.11929762299,0.892973952243,3.6241964243,3.45603862173,3.59440105767,0.394810475342,1.69774241649,1.30611939783,1.51274416303,0.330627195289,2.38024060223,2.61800316126
do_nothing,2.32287780876,2.02692167262,1.91956998648,1.21682495323,2.99292655376,2.61694002836,2.72398173787,-0.424442933293,1.96021987138,0.950576203629,1.70924860484,-0.184957376326,2.32927333578,-5.1703770137
do_nothing,1.60701369207,1.47310897547,1.62246801143,1.52807678538,2.26078083721,1.63860207014,1.70551323835,-1.19321379822,2.14834442862,0.539862109464,1.83932026533,-0.641706932562,2.08084655749,-11.7663636225
do_nothing,0.83444854141,0.839627115836,1.26719597047,1.80503175508,1.50733902048,0.635540812183,0.638314073629,-1.84302567127,2.25006767316,0.0775643597348,1.87204658126,-1.05230350765,1.63343393158,-16.3653435253
do_nothing,0.0768951081075,0.162918235044,0.889625430202,2.02478266507,0.797642986111,-0.285679534696,-0.38370742594,-2.32386015471,2.25742084997,-0.426186090876,1.78379526919,-1.43297014324,1.00784150239,-18.5365610299
do_nothing,-0.606262144479,-0.520359413687,0.518509240715,2.16552272464,0.175310144193,-1.03981267297,-1.28130708284,-2.60867789365,2.16736970291,-0.953027214542,1.56317445698,-1.79731644084,0.246806055243,-18.2437219835
do_nothing,-1.17323956226,-1.17500328623,0.173421291143,2.2089166003,-0.340308689177,-1.57264700051,-1.99654323968,-2.69447878512,1.98227389701,-1.47609142798,1.21428654715,-2.15110779542,-0.588387970587,-15.808237109
do_nothing,-1.60217116669,-1.7684974225,-0.135459217444,2.14225507783,-0.752738889494,-1.8658267958,-2.49621388981,-2.59994256704,1.70989096986,-1.96133929369,0.757693400421,-2.4888502144,-1.42395802165,-11.8249497345
do_nothing,-1.89039149276,-2.27186615899,-0.405898241893,1.96013818781,-1.08323187829,-1.93626460672,-2.77196471117,-2.36019032866,1.36291913336,-2.37042819183,0.228871165139,-2.79275739964,-2.18162477776,-7.04599989881
do_nothing,-2.05103611683,-2.66026896136,-0.640923944218,1.66548502318,-1.36289944633,-1.83042471074,-2.83738500077,-2.01961318899,0.958127778995,-2.66477967194,-0.325670619747,-3.0342619076,-2.78754438503,-2.25171866672
do_nothing,-2.10767400294,-2.91347597822,-0.845513335469,1.26974585156,-1.62357469638,-1.61449580656,-2.72278148981,-1.62396891412,0.515171764535,-2.81029415136,-0.854061623113,-3.17781311392,-3.18098652209,1.87213916289
do_nothing,-2.08793327377,-3.01635096216,-1.02331904244,0.792283626365,-1.88900930014,-1.36204924167,-2.46857491407,-1.21301618907,0.0552191812417,-2.78202994076,-1.30570636208,-3.18633730327,-3.32157953935,4.83378300235
do_nothing,-2.01718440853,-2.9594257217,-1.17406468619,0.258986204953,-2.16793221575,-1.14111600708,-2.11837320957,-0.814832950908,-0.400461924405,-2.568137618,-1.63789863005,-3.02747560514,-3.19412355373,6.39879748851
do_nothing,-1.91329261922,-2.73958776029,-1.29209657171,-0.299744010512,-2.45017459144,-1.0026659698,-1.71273178252,-0.442671211956,-0.831816080956,-2.17242630943,-1.82142779859,-2.67960147388,-2.81030192553,6.61082989134
do_nothing,-1.78325590224,-2.36083271186,-1.3663650716,-0.851409808399,-2.70656051388,-0.972232575228,-1.28443008831,-0.094782431869,-1.22109231016,-1.61512357719,-1.84434028899,-2.13666488602,-2.20705418906,5.76916096613
do_nothing,-1.62223765592,-1.83496893359,-1.38185663818,-1.36399502909,-2.8926517645,-1.04593348364,-0.855807487023,0.242831371815,-1.55363195925,-0.931647532102,-1.71329872168,-1.41110381765,-1.44184582069,4.36871900697
do_nothing,-1.41512782224,-1.18211519449,-1.32224674663,-1.80843372984,-2.95581016076,-1.19146610005,-0.438355523811,0.591252968782,-1.81831406529,-0.169499013081,-1.45234565041,-0.534370214609,-0.585511570143,3.01287225082
do_nothing,-1.14037727961,-0.430812689912,-1.17333369028,-2.16073089622,-2.84449789052,-1.35390542451,-0.0344098444991,0.971970283862,-2.00766682439,0.616341785996,-1.09927153447,0.445014112608,0.286307630868,2.31238242834
do_nothing,-0.775500501944,0.382415898042,-0.926674290214,-2.40354103828,-2.51835624131,-1.46540936769,0.359527050543,1.39982870173,-2.11769567656,1.36890940776,-0.70014673564,1.46558652678,1.10192204234,2.78495548154
do_nothing,-0.30337882155,1.21418531851,-0.582794985633,-2.5270793284,-1.95744335095,-1.4573478098,0.748529182025,1.87683614823,-2.14750953935,2.03490366167,-0.302849257921,2.45865982324,1.80132232382,4.76891335792
do_nothing,0.281643848719,2.01610175208,-0.153401107638,-2.52931944024,-1.16909630374,-1.27300050606,1.13486946658,2.38793055409,-2.09884277474,2.56974469078,0.0494379296139,3.3548203314,2.34183268065,8.36192635259
do_nothing,0.968880749407,2.73732425041,0.33785537246,-2.4155128737,-0.191200201079,-0.878868066356,1.51432586846,2.89953911846,-1.97556990602,2.9413781307,0.323795060992,4.09032909047,2.70097392165,13.3919783737
do_nothing,1.72850459761,3.32771555228,0.856285170478,-2.19713650773,0.908849197087,-0.2728234356,1.87384981757,3.36135021171,-1.78329387097,3.13237346354,0.501391902654,4.61261481605,2.87626490745,19.4233846463
do_nothing,2.51143673817,3.7413799241,1.35874346629,-1.89043011246,2.03958510998,0.512228069437,2.19105263085,3.71124068465,-1.52906005854,3.14012525826,0.579045719145,4.88423893187,2.88217364263,25.79635081
do_nothing,3.2521763938,3.94031832774,1.79763839377,-1.51471774286,3.0947657608,1.40987698873,2.43568047306,3.88282245049,-1.22121271665,2.975260287,0.568343830622,4.88499161076,2.74487659283,31.6947860666
do_nothing,3.87442932185,3.89788927313,2.12591277886,-1.09071360197,3.96540764718,2.32688346485,2.57294193592,3.81466108208,-0.869373721738,2.65862653232,0.492545273843,4.61209296127,2.49582535617,36.2342510948
do_nothing,4.29900854468,3.60175233373,2.30239997893,-0.638994699089,4.55301476016,3.1542140148,2.56826718086,3.45993467692,-0.484492367656,2.21744867468,0.38181989674,4.0787697167,2.16529791642,38.5602461025
do_nothing,4.45314976268,3.05599198661,2.296890182,-0.178783141875,4.78225216235,3.78102271506,2.39285206854,2.79518432274,-0.0788940121475,1.68134453679,0.267635595967,3.31170412202,1.77709644613,37.9465563474
do_nothing,4.28015278271,2.28217014874,2.09426749323,0.272873587725,4.61134436671,4.10971454374,2.02920399044,1.82687562469,0.333751398675,1.07888952023,0.177226118599,2.34797051046,1.3453442967,33.8839465833
do_nothing,3.74815792304,1.31913153994,1.69718543827,0.701497674588,4.03874942384,4.07003919108,1.47587497126,0.594735787498,0.738611528869,0.435291537373,0.129044238937,1.2320683304,0.87396172747,26.1508984663
do_nothing,2.85690748193,0.221479762982,1.12692287068,1.09518504066,3.10513120241,3.63025477768,0.750644749493,-0.82877965324,1.12007287048,-0.228483239921,0.129933009846,0.0135329103021,0.358920437447,14.8600317374
do_nothing,1.64152448882,-0.943254374383,0.422279030605,1.4443034631,1.89025990348,2.80376032899,-0.108409037505,-2.34305394911,1.46233657019,-0.895077394619,0.174458724688,-1.25461616272,-0.207132877829,0.476063232227
do_nothing,0.172644980299,-2.0986255575,-0.363403542917,1.74100561543,0.505130928854,1.65017474582,-1.04426748172,-3.82756223733,1.75020656527,-1.54884423864,0.246489210062,-2.51660023343,-0.828750658049,-16.1965884348
do_nothing,-1.44736742591,-3.16424189408,-1.1667859104,1.97869424565,-0.919785064503,0.270560161393,-1.98477543473,-5.15298950648,1.97001075509,-2.17318949911,0.322727397881,-3.71405802363,-1.50124952439,-34.0562982923
do_nothing,-3.09195858432,-4.06137615467,-1.92017558909,2.15157217701,-2.24874649192,-1.20274767978,-2.84861630405,-6.1940184363,2.1105658971,-2.74783751135,0.377582466229,-4.78615827108,-2.20529621165,-51.7746039911
do_nothing,-4.62107345105,-4.71884079482,-2.55768093933,2.254385873,-3.35567075763,-2.62053184577,-3.55290529042,-6.84236494856,2.16407882646,-3.24676975108,0.388531909775,-5.67023604015,-2.90376015869,-67.8904264421
do_nothing,-5.89401954783,-5.07870263979,-3.02125282083,2.28243192084,-4.13797358441,-3.83358211814,-4.02163593455,-7.01858634461,2.12687367368,-3.6375130127,0.341035187726,-6.30351016558,-3.54177629404,-80.9224742724
do_nothing,-6.78324255924,-5.10139507735,-3.26602035107,2.23184686365,-4.52764961413,-4.71001653716,-4.19408388278,-6.68131271434,1.99984791506,-3.88225515006,0.232119394302,-6.62627216104,-4.05047909645,-89.4926493488
do_nothing,-7.18759934319,-4.7697968086,-3.26442092956,2.10014937269,-4.49828627882,-5.1509049627,-4.03223801692,-5.83283857744,1.78858780861,-3.94096409033,0.0719620956043,-6.58665329683,-4.35427449627,-92.4519137031
do_nothing,-7.04370997293,-4.09188845377,-3.00876469752,1.88695700021,-4.06722406958,-5.10226481354,-3.52639620889,-4.52042042896,1.5031122897,-3.77632495486,-0.116884461244,-6.14671992205,-4.38089872366,-88.998974638
do_nothing,-6.33411965846,-3.10167227442,-2.51204058295,1.59476413927,-3.29268717372,-4.56194399827,-2.69822411562,-2.83310486406,1.15725830997,-3.35994661791,-0.302599083161,-5.28927760363,-4.07296989647,-78.781461494
do_nothing,-5.09129075375,-1.85814504221,-1.80694426658,1.22964821729,-2.26632777602,-3.58053451822,-1.60081442178,-0.894402248485,0.767763638849,-2.67898256993,-0.449108689112,-4.0244497216,-3.39935939467,-61.9692233218
do_nothing,-3.39684674315,-0.442246558135,-0.943268838772,0.801770272859,-1.10217517227,-2.25619038991,-0.315577151477,1.14843556991,0.353139143581,-1.7421156475,-0.522264470739,-2.39489957346,-2.36456545683,-39.2902018075
do_nothing,-1.3759640629,1.0481393813,0.0160682814314,0.325554136321,0.076610798283,-0.723962161161,1.05388946024,3.13742806081,-0.0675536153959,-0.583811959145,-0.496201777169,-0.47853596763,-1.01439814117,-12.0212152257
do_nothing,0.812694418983,2.50488774961,0.999992852402,-0.180536798614,1.15156105376,0.859084890259,2.39048433696,4.91784926331,-0.475895334781,0.734124980715,-0.358833572435,1.61229385117,0.563319444399,18.0709881142
do_nothing,2.9906400903,3.81762754738,1.93481137517,-0.694659172587,2.02165915105,2.33121031421,3.57410379706,6.35179724698,-0.855156588748,2.12437944437,-0.115516627178,3.73576742765,2.24370701479,48.8389526095
do_nothing,4.97555625934,4.88246560356,2.74987840862,-1.19266623625,2.61359808781,3.54376616558,4.49300004456,7.33005108728,-1.19110767792,3.47958578718,0.209826299516,5.72984354574,3.87534500106,77.9096432186
do_nothing,6.59810262534,5.61075377309,3.38297105115,-1.64952914721,2.88844425797,4.37734057877,5.05491124222,7.78113387033,-1.47253325514,4.681184889,0.576479463383,7.42535144746,5.29544931847,102.875808505
do_nothing,7.717874623,5.93714149569,3.7849918337,-2.04098507478,2.84409550418,4.75444750117,5.19684687238,7.67681721136,-1.69143554046,5.61092040894,0.931519104162,8.66184598606,6.34806271522,121.508821732
do_nothing,8.23691141102,5.82614581536,3.92368328295,-2.3452615604,2.51344680782,4.64736704989,4.89248983591,7.03367878807,-1.84295133712,6.16377251789,1.21668829105,9.30463719078,6.9030734237,131.974051497
do_nothing,8.10935873197,5.2765344054,3.78611080621,-2.54471113502,1.95868753917,4.08032887206,4.15635959138,5.91071563709,-1.92504352706,6.26081125755,1.37666275046,9.26104529915,6.87359846826,133.027201558
do_nothing,7.34625407038,4.32295758906,3.3797504999,-2.62719396427,1.26258617454,3.12589801216,3.04415684452,4.40338104171,-1.9380521793,5.86032260429,1.36755281216,8.49380955271,6.22932499103,124.169605644
do_nothing,6.01487754267,3.03447819088,2.73210233704,-2.58706891446,0.517923462238,1.89608792572,1.64905895993,2.63471740479,-1.8842005133,4.96564801556,1.16439353199,7.02972900034,5.00379720681,105.742536521
do_nothing,4.23265595195,1.50991957903,1.88883594953,-2.42569221639,-0.183616218026,0.52931069837,0.0941273736316,0.744477420918,-1.76714562955,3.62848398429,0.766463639661,4.96203752484,3.29433008313,78.9452652187
do_nothing,2.15616420753,-0.129740094063,0.91056553862,-2.15137318338,-0.761800895136,-0.825284842995,-1.47861146001,-1.12275132378,-1.59164443795,1.94688269927,0.199536517485,2.44567554853,1.25414048965,45.7686177735
do_nothing,-0.0337202887786,-1.75138552201,-0.131558632859,-1.77879217307,-1.15632619995,-2.02428589571,-2.92148062993,-2.82937854389,-1.36337503894,0.0578213906239,-0.485430569518,-0.314556196222,-0.922704492203,8.84450628811
do_nothing,-2.14904366846,-3.22136598551,-1.16116489854,-1.32794051266,-1.33256744926,-2.94545881775,-4.0956326417,-4.25562531545,-1.08891801662,-1.87511145342,-1.2171741273,-3.08209064388,-3.02194940502,-28.7785595805
do_nothing,-4.01265073959,-4.4176308332,-2.10252022382,-0.822689006777,-1.28412886645,-3.50049004508,-4.88527123753,-5.3084837584,-0.775866589461,-3.6777187513,-1.91206831016,-5.61123444463,-4.83304776665,-63.9147684401
do_nothing,-5.47489130148,-5.2412204645,-2.88650543621,-0.28912551397,-1.03210025237,-3.64369987154,-5.21013306873,-5.92817894026,-0.433005146137,-5.18316833701,-2.48418378137,-7.67198832985,-6.17340543978,-93.548207203
do_nothing,-6.42744451351,-5.62592496534,-3.45622984813,0.246180791499,-0.621301186196,-3.37588533902,-5.03483983363,-6.09171593965,-0.070477195928,-6.24989246479,-2.85618076679,-9.07428243186,-6.90993277987,-115.135989619
do_nothing,-6.81283762459,-5.54504283262,-3.77179784893,0.757832026805,-0.114101532354,-2.74300445281,-4.37397810948,-5.81333546758,0.300140720479,-6.77728967952,-2.96959665322,-9.68879195645,-6.97511961532,-126.873737203
do_nothing,-6.62868215504,-5.01441946538,-3.81377123778,1.22303335382,0.417374603893,-1.82998092465,-3.2921506197,-5.14193941196,0.66593220106,-6.71729436479,-2.79312645912,-9.46178414681,-6.3754754715,-127.892176193
do_nothing,-5.92620944129,-4.09130071859,-3.58495040611,1.62269950143,0.89974165255,-0.750425145487,-1.89873828351,-4.1557697934,1.01295042901,-6.08032066682,-2.3277278946,-8.42206582524,-5.19110867347,-118.35988184
do_nothing,-4.80329924794,-2.86896747255,-3.11022490536,1.94217494455,1.26661649938,0.366519623957,-0.33767112967,-2.95482048855,1.32675940381,-4.93473211735,-1.60778242267,-6.67898494053,-3.56633462295,-99.4768709067
do_nothing,-3.39279325176,-1.46757768977,-2.43441275441,2.17155397113,1.46581788731,1.39072570988,1.22692942467,-1.65162238668,1.59318410364,-3.39975869372,-0.69805679099,-4.41148499781,-1.69236017543,-73.3558105027
do_nothing,-1.84740257454,-0.0220805149749,-1.6182043841,2.30563209683,1.46483075073,2.20543701087,2.62786771418,-0.361162227541,1.79920964867,-1.63258320045,0.313233588582,-1.84928895248,0.215866458467,-42.8006972498
do_nothing,-0.322895410077,1.33157074684,-0.732531572883,2.34355767247,1.25407941865,2.7199066314,3.71299455279,0.809233519082,1.93393957659,0.188953584604,1.32443366666,0.751737928543,1.94576427863,-11.0053732319
do_nothing,1.03855825079,2.47044122572,0.148129874531,2.28827757022,0.847790381616,2.87900669516,4.36236298029,1.76920219186,1.98950532354,1.88601971126,2.23228518327,3.13725554805,3.31288967171,18.7954206643
do_nothing,2.12302802235,3.29732765256,0.952867793999,2.14588083935,0.282459496049,2.66884478121,4.50244939638,2.45303271544,1.96181599019,3.29850457388,2.94408986494,5.0819464206,4.18307854648,43.6830027226
do_nothing,2.85582680455,3.75071516436,1.62111267983,1.92493865601,-0.386850010836,2.11785417139,4.11569671086,2.82504284025,1.85105030017,4.30242180701,3.38864299762,6.41362326771,4.48811157279,61.3781097395
do_nothing,3.20767526756,3.81080378666,2.10834691743,1.63591941695,-1.09197767777,1.29330134656,3.24407928262,2.88212320276,1.66181979506,4.82291417646,3.52453384933,7.03110701839,4.23287522267,70.491941063
do_nothing,3.19539139673,3.50085399312,2.39008963959,1.29072805369,-1.75837318984,0.293626438494,1.98601189786,2.6531555508,1.40297007871,4.84130493625,3.34475094569,6.91377262521,3.4930887924,70.6739417919
do_nothing,2.87711423443,2.88362993082,2.46367437301,0.902383596509,-2.31242808242,-0.762544702814,0.486664567622,2.1952875109,1.08703004501,4.39537373118,2.87701441044,6.12166515408,2.40389774266,62.6372173674
do_nothing,2.34271976079,2.05329381296,2.3475782796,0.484814415515,-2.68878403911,-1.74954393913,-1.07747973365,1.5873461267,0.729361401411,3.57287745406,2.1798188591,4.78623661721,1.14083383897,48.0570099914
do_nothing,1.70066205948,1.12365680401,2.07834719297,0.0527219890994,-2.83697993476,-2.54857182182,-2.51826759145,0.920970145403,0.347096433209,2.49918033259,1.33473253627,3.09290032392,-0.104347588643,29.3531446431
do_nothing,1.06290401445,0.214151277893,1.70545564642,-0.378553873466,-2.72685123289,-3.0609115237,-3.65758806882,0.2903051181,-0.0420241766711,1.32059448272,0.435985404349,1.25759847299,-1.14975961403,9.38183091732
do_nothing,0.529834111718,-0.564804083201,1.28470765719,-0.793239711115,-2.35218538191,-3.21904965527,-4.3486785211,-0.218697015999,-0.420792839359,0.185566720616,-0.421274850707,-0.499697272827,-1.84794789983,-8.92617903663
do_nothing,0.177067824476,-1.12526527715,0.870985336175,-1.17546410401,-1.73226250959,-2.99451540287,-4.49447947181,-0.538230909776,-0.773542539768,-0.773890362151,-1.15252047025,-1.98127610843,-2.10566450727,-22.9368723468
do_nothing,0.0457994855542,-1.41237725097,0.511258056949,-1.5097621033,-0.911068313479,-2.40157725873,-4.06073382669,-0.626717653879,-1.08692913576,-1.45817018798,-1.69368410364,-3.03454998112,-1.89621759193,-30.647713714
do_nothing,0.137928338703,-1.41078880909,0.238755736974,-1.78175306804,0.0458500149947,-1.49635495754,-3.08205756073,-0.474031907245,-1.35043086973,-1.81144168075,-2.0080578195,-3.56872999029,-1.26274482445,-30.9438390049
