label,COUNTER,INTERPOLATED,AF3,F7,F3,FC5,T7,P7,O1,O2,P8,T8,FC6,F4,F8,AF4,RAW_CQ,GYROX,GYROY,MARKER,SYNC,TIME_STAMP_s,TIME_STAMP_ms,CQ_AF3,CQ_F7,CQ_F3,CQ_FC5,CQ_T7,CQ_P7,CQ_O1,CQ_O2,CQ_P8,CQ_T8,CQ_FC6,CQ_F4,CQ_F8,CQ_AF4,CQ_CMS,CQ_DRL
off_to_on,3.13675486143,1.17996709639,5.37530232856,0.778153507594,0.0509095506957,2.06695526914,-2.78687684358,-1.07919783217,0.89050726105,-2.3745115917,-0.188049582133,0.973728314119,0.761740964422,-78.8244128334
off_to_on,4.24545224685,3.37178781734,5.7695233838,0.874732971825,1.301045692,2.97314067689,-3.27587499404,-1.40713502954,0.86475976838,-1.48854014268,1.56438063477,1.35444574086,2.40149459792,-50.643074034
off_to_on,3.82722387493,4.10395542597,4.90420080744,0.798329968457,2.07390185862,2.83534225513,-3.20586024082,-1.51834392551,0.67587816138,-0.901445703159,2.66849010152,0.831264505414,2.88864439036,-11.3695806452
off_to_on,1.95149718819,3.2615784591,2.55818042118,0.561447549727,2.24290617745,1.96524106817,-2.54197685102,-1.35989670271,0.346351870315,-0.538664055085,2.83196472882,-0.526655083004,2.0825655679,29.5489191894
off_to_on,-0.802671976517,1.28607920053,-1.0246605635,0.217370728455,1.85529129167,0.848320524489,-1.35770412311,-0.904577609323,-0.0662621014067,-0.145848728758,2.09025743088,-2.27369610907,0.320921712623,62.4955377062
off_to_on,-3.53323572935,-1.00843679466,-5.10455159906,-0.155654374284,1.09137303021,-0.0676173027552,0.163358165742,-0.171045744095,-0.480558997992,0.549978523909,0.772984803111,-3.73493454125,-1.70555962504,79.9763499986
off_to_on,-5.31199222849,-2.73923496996,-8.60049694623,-0.477787853099,0.193948450887,-0.536468770056,1.74739214695,0.753917602279,-0.810265794908,1.66777523009,-0.626382341559,-4.24728915789,-3.19943418234,78.3699884096
off_to_on,-5.49375695699,-3.27016273758,-10.3983734241,-0.690154503636,-0.606520144212,-0.572362873857,3.0743942939,1.7048535629,-0.985670125852,3.06304787525,-1.62862244186,-3.41138945971,-3.53951923786,58.7091286732
off_to_on,-3.93589653927,-2.42856573186,-9.71931826731,-0.768669238613,-1.14833921541,-0.391120898777,3.84286598524,2.45290783752,-0.971195448244,4.33239532108,-1.93156060857,-1.26474309144,-2.50414449696,26.3042173929
off_to_on,-1.0556906439,-0.552007368336,-6.42363147389,-0.724717373895,-1.36386374182,-0.270868927032,3.843684311,2.75360571575,-0.773922725005,4.93878183662,-1.5024788678,1.68848498569,-0.358784243409,-10.6885409946
off_to_on,2.29389329278,1.64587721608,-1.13671942,-0.593501990392,-1.27315675093,-0.398586512659,3.02449413272,2.42034050471,-0.440683439444,4.41645924356,-0.571731073984,4.60821941387,2.22208565238,-43.3782734125
off_to_on,5.0902010269,3.33804064756,4.86355572931,-0.415727310015,-0.955771099673,-0.771389837023,1.52330644799,1.40258089542,-0.0449101735294,2.58057241437,0.465420660315,6.57243587604,4.37350716587,-64.3712828226
off_to_on,6.46295817559,3.87993947139,9.98086208402,-0.220805420262,-0.515273139772,-1.19505310727,-0.345357168533,-0.160707581775,0.332498721348,-0.340487387101,1.20015703537,6.87408965598,5.32674119764,-69.5328500611
off_to_on,5.96899562813,3.03492422434,12.7617432955,-0.0188884853024,-0.049806250742,-1.37904954162,-2.15622561601,-1.93968862562,0.622487819195,-3.70858850062,1.35914592186,5.26400133857,4.66938147781,-58.8214628355
off_to_on,3.73219469052,1.05302164046,12.3417721408,0.194964361389,0.363971323952,-1.08513233619,-3.47867505325,-3.47742874795,0.781927510865,-6.62776084441,0.898873563419,2.05802528889,2.49298468893,-36.0042733705
off_to_on,0.405222827636,-1.41988409566,8.7316556204,0.426696988198,0.673717072821,-0.262471212369,-3.99393210934,-4.30960228849,0.799197437725,-8.20415799449,0.0140898228188,-1.93056549011,-0.620660653134,-7.38583330412
off_to_on,-3.03301445413,-3.56631201207,2.84498222616,0.666234322751,0.846816991693,0.893503653163,-3.58819205103,-4.10818729484,0.690987657202,-7.83281002892,-0.939529570608,-5.6166124775,-3.7708830765,20.0359335155
off_to_on,-5.57837107449,-4.67425683296,-3.74961058972,0.876493943339,0.865892693397,1.99054986319,-2.38958991168,-2.80307802965,0.492790379361,-5.41580205096,-1.57837419077,-7.95876934989,-6.01257716698,40.4211598749
off_to_on,-6.50524854801,-4.37148405219,-9.28006530048,0.995552302145,0.72941724894,2.58401888195,-0.732969660435,-0.636712286936,0.24713714244,-1.4349693488,-1.63104051729,-8.2683980216,-6.64677997299,50.4099723963
off_to_on,-5.57885639112,-2.73994225242,-12.2875321132,0.953924283156,0.457431255629,2.36134464856,0.939963758177,1.87523538223,-0.00639536958187,3.15239398079,-1.03631515718,-6.41653796225,-5.43635735115,49.5768561201
off_to_on,-3.11286212018,-0.277204556177,-12.0470449494,0.702328311819,0.0975380101489,1.29115098775,2.21440759358,4.07419604106,-0.236842228288,7.16902509336,0.0340000799443,-2.87583353911,-2.68072909317,39.9807718873
off_to_on,0.140437399549,2.27505288314,-8.76183070285,0.239906428108,-0.275694142201,-0.32891452301,2.82572891397,5.3453709709,-0.422770429806,9.54874872787,1.23337750195,1.41420520609,0.871310883764,25.0740188135
off_to_on,3.22779740826,4.17215814168,-3.47402402967,-0.369024950926,-0.572859125821,-1.95436910637,2.72962594283,5.30377377855,-0.550026454563,9.6419620019,2.15795355833,5.31603618628,4.24129891258,8.42595026057
off_to_on,5.28298570902,4.89451783288,2.27412197032,-0.998896664797,-0.713054483051,-2.98383181818,2.09444790907,3.91892336471,-0.608872612105,7.40184998238,2.48176165546,7.81475642638,6.50447169236,-7.26303230512
off_to_on,5.77549789976,4.29005834021,6.91556076297,-1.48997331393,-0.651862380721,-2.98928570622,1.21915969109,1.53474516176,-0.592793472695,3.39540884242,2.06417843844,8.29521524934,7.05117868523,-20.5401239275
off_to_on,4.64711127075,2.5922730648,9.31700297766,-1.69262242917,-0.403114662303,-1.89823242098,0.408710951553,-1.22542561348,-0.499932872669,-1.36136771807,0.995153958971,6.69670379988,5.7507530162,-30.9275782568
off_to_on,2.30176892386,0.319327662444,9.0782775463,-1.51561783045,-0.0436398336282,-0.052021825393,-0.144218234352,-3.64063771568,-0.336419421634,-5.69050874465,-0.434110439776,3.50611433773,2.97454604674,-38.2358789139
off_to_on,-0.538912095431,-1.90188198366,6.58732999459,-0.962275584474,0.304784821643,1.89208472541,-0.423500781107,-5.10319806643,-0.119544600992,-8.57214017644,-1.82248961674,-0.400028254798,-0.521837579089,-41.8753309499
off_to_on,-3.06232639448,-3.52301418,2.82875971225,-0.140747631078,0.513561001251,3.18891852755,-0.572873077993,-5.29070209908,0.121539838079,-9.40262767126,-2.7805545265,-4.01081288899,-3.81653904716,-40.5759893298
off_to_on,-4.6006970272,-4.21319179906,-0.976055736067,0.757588413196,0.493993548503,3.28513709908,-0.804007252187,-4.24454489738,0.349095707648,-8.1202583063,-3.04327151925,-6.4551579684,-6.0733076881,-32.7398735557
off_to_on,-4.80622095741,-3.91377152485,-3.76888062576,1.50737968012,0.235759634104,2.0471336806,-1.26745476772,-2.33251792439,0.523904125048,-5.1730968854,-2.54027305441,-7.21730169268,-6.75619487238,-17.349927498
off_to_on,-3.72012016505,-2.80638676231,-4.96149934742,1.91237171419,-0.179020514,-0.153603526579,-1.94328245279,-0.112949072064,0.614342992724,-1.35348358319,-1.40606378299,-6.23934246375,-5.7519664625,4.93273978571
off_to_on,-1.72611596409,-1.22101894242,-4.55686564114,1.86308871553,-0.594992064004,-2.54034482422,-2.60449742904,1.84908888286,0.604509287931,2.43854617886,0.0676002954014,-3.89377720286,-3.37495374097,31.0125908463
off_to_on,0.586062702406,0.473954467468,-3.06129389027,1.37072229784,-0.833232262749,-4.19181160188,-2.87986292452,3.14863445414,0.49852824151,5.42635396514,1.51791908104,-0.847293134364,-0.262778610187,55.4211165398
off_to_on,2.59818604575,1.96057344244,-1.23750973057,0.565834133175,-0.756515048654,-4.3774980289,-2.40235968248,3.63529594995,0.319411824695,7.11761257406,2.60761001458,2.13512922103,2.80093524297,71.40572933
off_to_on,3.82743921806,3.01700053321,0.200583773239,-0.338516658441,-0.327579300605,-2.84813450689,-0.990667574737,3.40915836165,0.102739589726,7.36177167764,3.10443936071,4.38653454065,5.08594654809,72.8596723711
off_to_on,4.03367278094,3.52079995228,0.838216813642,-1.10822295312,0.362204321406,0.029103077104,1.21028866777,2.72989201869,-0.112716299853,6.30887645791,2.92530797449,5.4836191465,6.08617477629,56.5264881177
off_to_on,3.24959881831,3.42831955653,0.670473898765,-1.55521040056,1.10789094516,3.35081972135,3.69700924271,1.88282288678,-0.294250487442,4.30518157085,2.13937486775,5.31203888112,5.62403589635,23.7017301456
off_to_on,1.73853318958,2.75450428623,0.0457262641234,-1.58939805898,1.64927778896,5.9583383551,5.71571220167,1.05967016775,-0.421367919948,1.77416232324,0.93669236653,4.04814003056,3.87063555583,-19.2849071043
off_to_on,-0.0966862370447,1.56987210586,-0.522589277326,-1.23975601716,1.75619875829,6.8311833405,6.49160381949,0.302410273929,-0.487133304287,-0.875384226882,-0.423740817133,2.07644910593,1.28532224811,-62.1842283542
off_to_on,-1.82180002021,0.0152028007615,-0.593812711388,-0.638757768248,1.31320058797,5.45965471862,5.50904896313,-0.469797066154,-0.49498649642,-3.29413447135,-1.67105693721,-0.124931115804,-1.50472585951,-93.3945965403
off_to_on,-3.06742837976,-1.68165046538,0.00791401459869,0.0236703608798,0.373680005232,2.0634086412,2.74361762257,-1.36699016118,-0.453050473993,-5.19578572776,-2.57254345951,-2.09766928253,-3.85395699512,-103.307635854
off_to_on,-3.59527222658,-3.21002252064,1.12003111611,0.561016809145,-0.838249883612,-2.42930261874,-1.24719244829,-2.41391117999,-0.368833425581,-6.34392550741,-2.96990984945,-3.4901369747,-5.24329322622,-87.4133119794
off_to_on,-3.32842959196,-4.2195132309,2.31004886635,0.845967458971,-1.98339250636,-6.64718500928,-5.42609856946,-3.47097577176,-0.246850774117,-6.55083139773,-2.80001302818,-4.10561232286,-5.3904950309,-48.1237401301
off_to_on,-2.34962877613,-4.40267928868,3.05426068741,0.843636115271,-2.70634273058,-9.20681643816,-8.55757412411,-4.23394419093,-0.0902205202054,-5.70536862277,-2.10090710995,-3.91184350284,-4.30473446552,5.38839564639
off_to_on,-0.875394968267,-3.59685625156,2.95359818312,0.612873583611,-2.7475829852,-9.16931831395,-9.58922530252,-4.32346561284,0.0946725963129,-3.82621557301,-1.00438532988,-3.02040641379,-2.27567193156,59.4380559317
off_to_on,0.786364926305,-1.86878169096,1.90156772801,0.277173533613,-2.03247107035,-6.36950387559,-8.01057260919,-3.43701684602,0.292965345906,-1.1163116807,0.284560572999,-1.64742192224,0.19963785284,99.586171964
off_to_on,2.2903327321,0.456508229169,0.139847322439,-0.0233646102494,-0.70659844902,-1.50295603141,-4.06454646786,-1.50593037705,0.478645319438,2.01543015057,1.52094903193,-0.0661922711774,2.5359258251,114.807369279
off_to_on,3.31543619273,2.8466578027,-1.81854784183,-0.181856140139,0.896560553708,4.06466816588,1.27108219493,1.20833362005,0.616731091241,4.9930064816,2.4633809206,1.44056410015,4.19847315792,100.782164071
off_to_on,3.62839082039,4.69002259173,-3.36807399356,-0.159367152383,2.34797082726,8.70934471126,6.54138443437,4.12721878648,0.670735488807,7.17995299163,2.92205156514,2.62382812241,4.82928832847,61.261470074
off_to_on,3.13896264478,5.46806957325,-4.02340590308,0.00636292473715,3.24769650303,11.0501235051,10.2391110837,6.4881837485,0.613577907234,8.03330804539,2.80147027023,3.30303860865,4.3297706859,7.03748415388
off_to_on,1.93283940931,4.9185198959,-3.58714203295,0.219799579312,3.34311907602,10.378111072,11.2647802412,7.56392763919,0.438359450381,7.26122370198,2.12636896046,3.38913120265,2.87808315149,-47.1917194045
off_to_on,0.26802798734,3.13277718331,-2.21238070233,0.366236160228,2.6034868932,6.87424316204,9.2731875835,6.89874678999,0.164919494466,4.93162580049,1.04128995911,2.8929371728,0.875392316017,-87.1042900036
off_to_on,-1.47296676029,0.549182958884,-0.340710516086,0.355951244495,1.22745987377,1.54694490025,4.79102739229,4.48135611983,-0.160862511264,1.48963724489,-0.219526552444,1.91758220121,-1.16569912438,-102.857728689
off_to_on,-2.87073862678,-2.16277922447,1.4574509911,0.158422227125,-0.418068301018,-4.08684249359,-0.936025973778,0.790466512591,-0.475773287613,-2.33147874897,-1.38661518756,0.636395629421,-2.76018719555,-91.7517906528
off_to_on,-3.57746648216,-4.29464116144,2.67865188625,-0.184883201216,-1.90753171233,-8.47034868025,-6.3193755922,-3.31015792646,-0.714003227235,-5.68645752294,-2.22044762029,-0.73884344131,-3.57761258662,-58.664209707
off_to_on,-3.41631947205,-5.30697138806,3.04651391771,-0.572951956277,-2.87924439688,-10.4720574735,-9.90550888045,-6.80042841885,-0.82375046019,-7.83203967224,-2.56897377952,-1.99222990928,-3.51981536072,-14.1970449542
off_to_on,-2.43947799414,-4.98541444867,2.58117089849,-0.878141903757,-3.1324933289,-9.69953829153,-10.8018890669,-8.78772369716,-0.780698359112,-8.31565893307,-2.40051765591,-2.93359633439,-2.72685870187,28.7970881408
off_to_on,-0.921614420186,-3.49344385857,1.5595208087,-0.988210215933,-2.67047506201,-6.56902193736,-8.91610845023,-8.75792405759,-0.59423875071,-7.08288243586,-1.80232740566,-3.41953682004,-1.51109469527,59.1454794632
off_to_on,0.715253811011,-1.30556793824,0.389229838983,-0.843549267527,-1.67931628332,-2.12149629096,-4.93840879643,-6.71635011625,-0.304592074239,-4.4738016763,-0.946174997944,-3.36535805019,-0.242925137786,70.482422689
off_to_on,2.02645618492,0.954148920193,-0.550067402174,-0.457821456279,-0.454799590673,2.34035849927,-0.0846982196654,-3.1774659527,0.0281273398198,-1.1142973635,-0.0333485748873,-2.75132044265,0.771859315668,62.6358132494
off_to_on,2.68081907701,2.71110951946,-1.03645759902,0.0840550366599,0.695195791865,5.66523171285,4.30414877241,0.988805780195,0.339355680225,2.25928275835,0.761929337262,-1.62754992114,1.38047249444,40.9567322895
off_to_on,2.56302234003,3.60802394361,-1.06013602164,0.649293318077,1.53861835716,7.17857772527,7.16788228226,4.80166927918,0.575255454047,4.98534863992,1.33185591415,-0.119546136524,1.60706126967,13.9729007885
off_to_on,1.80554433234,3.58618246671,-0.788925062594,1.0942740146,1.96979919413,6.82146737958,8.00514796427,7.42722372729,0.70326861679,6.6176152224,1.64559407755,1.56878298213,1.60595383353,-9.71999757534
off_to_on,0.736296106487,2.85799375928,-0.467321978907,1.3038845042,2.01043462919,5.07447603909,6.94440783596,8.37347954405,0.715559573861,6.9868820284,1.73095944974,3.16256332714,1.56507510653,-24.2227398627
off_to_on,-0.24241585909,1.78917549967,-0.296442349727,1.22188509938,1.76764371082,2.7141866864,4.60481390475,7.57316095885,0.625437584268,6.18021940424,1.63855094103,4.34351277052,1.60036583067,-27.8462142068
off_to_on,-0.802109895759,0.741568409609,-0.346752697019,0.864407875628,1.37087517471,0.504369209693,1.81788326624,5.34503779535,0.459170382224,4.46190394849,1.40624901735,4.80329145583,1.6868348691,-22.9717594724
off_to_on,-0.809862814615,-0.0601088408618,-0.538600836077,0.314022732791,0.915396156246,-1.06142519492,-0.676020103399,2.26333585286,0.246836505409,2.17607175339,1.04110340684,4.31877900365,1.6586803554,-14.4713031155
off_to_on,-0.376949427044,-0.586649318537,-0.694916884539,-0.302708566819,0.435011351006,-1.87750264391,-2.44405549749,-1.01128377058,0.0156229495735,-0.330839687033,0.527390335568,2.8331763432,1.28376200985,-7.40278708016
off_to_on,0.18721470345,-0.969103246915,-0.639091927612,-0.847217749499,-0.087123340251,-2.17454990793,-3.42141626741,-3.88348277379,-0.212555780623,-2.74692801398,-0.142743273055,0.516920308711,0.386384229342,-4.90984237419
off_to_on,0.5026700503,-1.39024375637,-0.291975935659,-1.20179070883,-0.677602862045,-2.33618495407,-3.81421958858,-5.91969466289,-0.4193854316,-4.79396951417,-0.931033491757,-2.21986951526,-1.03097350148,-7.11481358727
off_to_on,0.282834185779,-1.95378645001,0.277062634507,-1.29539625186,-1.32303895554,-2.66962110118,-3.90631748514,-6.87941010429,-0.586560875438,-6.21172845986,-1.72772029054,-4.78304986532,-2.72168675908,-11.3678955693
off_to_on,-0.527523708842,-2.59225372427,0.869608289874,-1.11716253174,-1.93706587791,-3.23023432589,-3.86649498311,-6.69764407791,-0.693241573687,-6.7571004449,-2.35627786535,-6.51893974704,-4.2231243323,-13.6721544401
off_to_on,-1.69709338271,-3.05913434648,1.24154261644,-0.71561049122,-2.36327074372,-3.774259168,-3.64611435752,-5.44863792145,-0.716987052051,-6.23846557202,-2.61420124578,-6.88421722708,-4.98364259321,-10.6520579818
off_to_on,-2.76500777264,-3.01621986146,1.21476075477,-0.185051075569,-2.41848912598,-3.85980310533,-3.01324423831,-3.31779526767,-0.638934316952,-4.58431793406,-2.34046828854,-5.6166701702,-4.55391588838,-1.23934419218
off_to_on,-3.19869168244,-2.18615194232,0.767644592302,0.356966678657,-1.96348092991,-3.05514183835,-1.70640855856,-0.592448036258,-0.45185270006,-1.92154639887,-1.48695187607,-2.85271614986,-2.77790706962,12.6190581666
off_to_on,-2.60164013338,-0.509547810069,0.0616529836639,0.795903992386,-0.974747609958,-1.16847105568,0.364483267072,2.33842641529,-0.168006476373,1.37611832474,-0.165402577794,0.854628567951,0.0897702828581,26.5280895998
off_to_on,-0.896524579659,1.76162008953,-0.612844149292,1.0446561865,0.412390719443,1.59793194344,2.96746872231,4.99909305333,0.176801806697,4.70696427216,1.3532501347,4.63849997402,3.39493673632,35.275081332
off_to_on,1.58872145126,4.08318140047,-0.954006259437,1.06128542942,1.91144183592,4.63953590593,5.52904780713,6.87942568562,0.525750499942,7.34479787472,2.6955506325,7.52660491328,6.23726966091,34.8895819302
off_to_on,4.17495509642,5.7587187733,-0.782934071263,0.856579783307,3.14805133289,7.10323989464,7.27456414714,7.53179359244,0.810755310544,8.61260956768,3.48643547454,8.7041588616,7.72970731928,24.3226973005
off_to_on,6.021696663,6.16167556767,-0.137840929304,0.489905432521,3.76365613907,8.15680012689,7.4896574026,6.69505286482,0.96760043361,8.08047994729,3.46497348827,7.75674868427,7.28566106591,6.0733715191
off_to_on,6.39883164146,4.96547442574,0.716695858235,0.0541463958329,3.52803976259,7.28167477611,5.80848003813,4.40634811597,0.952486482409,5.72370425648,2.5768276597,4.81716933373,4.83841364676,-14.5140280923
off_to_on,4.95202201389,2.29757069463,1.37793461312,-0.347074649315,2.42346525963,4.48391604002,2.41403322053,1.05323502497,0.755156088389,1.98117140653,1.00974297471,0.563664809055,0.912153516372,-31.050930017
off_to_on,1.86838062615,-1.24582922263,1.46340138276,-0.624704047013,0.670014393163,0.343043865817,-1.93928857178,-2.66980861503,0.404442629705,-2.31894416212,-0.844808600636,-3.94056446625,-3.4914084458,-38.3522278416
off_to_on,-2.12381194339,-4.7422303711,0.780716065689,-0.725888007226,-1.32037873791,-4.12636214066,-6.10871564974,-5.90710564542,-0.0358544798965,-6.15714837243,-2.49669395215,-7.52792487541,-7.16683369015,-34.2987058722
off_to_on,-5.9353762898,-7.20577113277,-0.560187835576,-0.646186204198,-3.05078675471,-7.76088798362,-8.90259784803,-7.85914137638,-0.480095851709,-8.59257465215,-3.49874118667,-9.24896137192,-9.05971872444,-20.6149335079
off_to_on,-8.4301309503,-7.88956435587,-2.14463126751,-0.428746005435,-4.07638077459,-9.59130311929,-9.46494536925,-8.01001948205,-0.839671321991,-9.02535252531,-3.58091988176,-8.64218208873,-8.59173129702,-2.25931392023
off_to_on,-8.77794506467,-6.52865081993,-3.37376383131,-0.150248520868,-4.13046292753,-9.13119028485,-7.57033825579,-6.29177602598,-1.04276122376,-7.36957890312,-2.73367970739,-5.86928968605,-5.85008592884,14.3642251453
off_to_on,-6.7337807849,-3.44074966337,-3.67406311752,0.102682963074,-3.20083788469,-6.51813363812,-3.72069559273,-3.12635582953,-1.04999641214,-4.08049264805,-1.21241798448,-1.67303213735,-1.57634490926,23.724296155
off_to_on,-2.7480146658,0.552941119946,-2.72389320654,0.25979235708,-1.53312412005,-2.46405411632,0.997270164224,0.677230529705,-0.862301953393,-0.0247329881169,0.5396879,2.83162370132,3.04674646214,23.1593680749
off_to_on,2.13576980554,4.36558096637,-0.612188362185,0.288156509498,0.439708295759,1.9653064898,5.25065026195,4.14562438736,-0.519432943346,3.76741335479,2.02655280471,6.47139968499,6.74589309127,13.8151755371
off_to_on,6.57189480993,6.96703002231,2.13741918281,0.201031673986,2.21960337573,5.66674015244,7.88120099528,6.41734344584,-0.0901516251853,6.39120028144,2.84882566801,8.34022347948,8.53540084927,0.168218577204
off_to_on,9.30703173663,7.6882390373,4.69904545831,0.0514429921964,3.38020053075,7.80876281915,8.26440518759,6.98602262858,0.343066517115,7.30910583029,2.82060623397,8.04032393866,8.00345628816,-11.6999756162
off_to_on,9.55668760004,6.41117577029,6.19962013496,-0.0876679745209,3.67764458065,8.03824653719,6.48427526529,5.83338685194,0.700951753654,6.4731567455,2.01668759206,5.77030103506,5.41721072781,-16.4505659385
off_to_on,7.24540214726,3.58590941765,6.01541654258,-0.150273780058,3.10447615313,6.52815001855,3.26732595151,3.41070956693,0.922274057441,4.29642216961,0.736988255304,2.23980531336,1.61685942283,-11.592863917
off_to_on,3.03370774785,0.0735814913909,4.00827369171,-0.10192316327,1.87435055761,3.86554538541,-0.294820202021,0.478024708757,0.973880154321,1.49169129625,-0.597865118741,-1.55635519844,-2.26229217771,1.44020977334
off_to_on,-1.87830527709,-3.12952659264,0.614567022908,0.0465352395238,0.346776911779,0.831169420256,-3.13023092527,-2.14246132289,0.854642104727,-1.16314332995,-1.58377005867,-4.63087447723,-5.14597473021,17.6702487289
off_to_on,-6.11035956103,-5.1948407501,-3.25340151012,0.241434227521,-1.08170895592,-1.84748101706,-4.53929477397,-3.81519708073,0.593406676445,-3.05379458784,-1.95767964554,-6.27341463373,-6.33898771972,30.3063202514
off_to_on,-8.51239406319,-5.69412044913,-6.47081760448,0.404678625042,-2.0857022677,-3.68719021515,-4.39165345203,-4.26119480253,0.242054357809,-3.88108412339,-1.66991068719,-6.21963475012,-5.70552773841,33.2402217808
off_to_on,-8.49857489152,-4.6919954246,-8.04795344298,0.462018424686,-2.48753264667,-4.52997359022,-3.10497913226,-3.59844830612,-0.134672066572,-3.69529432467,-0.88366106094,-4.6785106183,-3.66158963792,23.4228877713
off_to_on,-6.20283041041,-2.67787671682,-7.44932137532,0.371347935005,-2.28395894181,-4.50409411841,-1.42582210471,-2.24947351113,-0.470747166612,-2.81601575153,0.0938172544348,-2.22294219949,-0.993506702962,2.2612449614
off_to_on,-2.41154623851,-0.370536155785,-4.77756490989,0.140736971161,-1.62149877661,-3.89881135329,-0.105730641098,-0.75891591199,-0.710089468535,-1.67840628335,0.92161784737,0.410364898941,1.42649468985,-24.5009539163
off_to_on,1.69987638975,1.5314730808,-0.757849555307,-0.170819691803,-0.734398044526,-3.01344535604,0.398197615143,0.407118196513,-0.815823766772,-0.667567631072,1.33821970586,2.5428314281,2.92666820178,-48.4384984518
off_to_on,4.93866802786,2.56734760693,3.47610950752,-0.470976927868,0.131490708719,-2.04307863593,0.0832198902639,1.00708565281,-0.776178587664,3.79644353465e-05,1.23987062628,3.72981518566,3.22870457583,-61.1262965508
off_to_on,6.45487328172,2.630189751,6.72723647519,-0.664383972199,0.784811339793,-1.04110089185,-0.635934255216,1.06799283729,-0.605964183329,0.312735766165,0.701128575022,3.84465128281,2.48996268297,-56.9751367669
off_to_on,5.97781714302,1.95185324435,8.10035834137,-0.685413437537,1.1274569689,0.0369951891768,-1.13913431025,0.821603850823,-0.343161655281,0.416016434158,-0.0646210926876,3.05938198753,1.19327523663,-35.2788670403
off_to_on,3.8598613204,0.973622689295,7.26961704328,-0.521660562001,1.15980776609,1.23887532919,-0.897380203027,0.568496455421,-0.0410087738335,0.511016423383,-0.786619548762,1.7440469124,-0.0644850339794,-0.773849078629
off_to_on,0.922574752607,0.157921454051,4.56292744294,-0.21955617887,0.957572416917,2.52009316387,0.269660071897,0.530918038249,0.243025337754,0.745959866091,-1.22955825338,0.328177925061,-0.802174733687,37.5132652849
off_to_on,-1.83601847132,-0.187399713304,0.839533251328,0.130360890521,0.633037008016,3.69696164479,2.08240421188,0.755604908431,0.459094204233,1.14498969639,-1.26607527165,-0.827412896676,-0.819108125198,68.8051108525
off_to_on,-3.57217594771,-0.0103612983311,-2.7947969478,0.423691664186,0.295669858393,4.47423242028,3.88515510449,1.10376749315,0.574933950005,1.59952588972,-0.907052384069,-1.51235132087,-0.240595631553,83.7341189883
off_to_on,-3.85633528261,0.489283964788,-5.33793892231,0.577417087183,0.023905094798,4.54139198208,4.89567753825,1.32766531569,0.581475759849,1.91997733551,-0.284237996282,-1.68737883835,0.563041461414,77.1618601991
off_to_on,-2.78128846167,0.960854118641,-6.19114199478,0.557603093249,-0.146404569545,3.70105892544,4.52423584971,1.19709990409,0.492686174651,1.92159589607,0.403645836944,-1.45179188214,1.14475104629,49.802550942
off_to_on,-0.89110590268,1.05718514196,-5.31312031615,0.389583416647,-0.218075806785,1.97725459461,2.6359425129,0.619183115148,0.339772225416,1.50668496032,0.959162318378,-0.980559183833,1.16762335711,8.16478455513
off_to_on,1.03638949995,0.582737378708,-3.18542645829,0.146885213996,-0.219057530442,-0.343607276835,-0.350464608059,-0.301415540385,0.161522237726,0.70986046378,1.24460019919,-0.457948473424,0.539034083658,-37.1668325479
off_to_on,2.27366143537,-0.419353154673,-0.61102804492,-0.0770975067622,-0.186455576015,-2.76226639472,-3.57300509908,-1.28887980425,-0.00628859864568,-0.309452556401,1.21307942239,-0.0281431489186,-0.555578420197,-74.4019518827
off_to_on,2.39526410558,-1.67163821795,1.57678141713,-0.204281572906,-0.15368955471,-4.69639684446,-6.01162147287,-1.99974478305,-0.139248819741,-1.32069796112,0.906756431529,0.228551231046,-1.72708480565,-93.7383531352
off_to_on,1.41343202468,-2.75469814759,2.79131461927,-0.200869713351,-0.143182849623,-5.64987466662,-6.84578997507,-2.16126860785,-0.228036078673,-2.09763297259,0.4287735447,0.296696512183,-2.53248810871,-89.9838639334
off_to_on,-0.244228294653,-3.25311733677,2.86159459898,-0.0892228318408,-0.164014230442,-5.3649086101,-5.7525113382,-1.68724459734,-0.276748249429,-2.48486429577,-0.0965014872269,0.213006138067,-2.64132463778,-63.9018985509
off_to_on,-1.90180661162,-2.90327345924,2.04219942004,0.062013183806,-0.212456511556,-3.90500259796,-3.03280783116,-0.722258951406,-0.296952603492,-2.43176640978,-0.559203808943,0.0489161916144,-1.95672675808,-21.9548977708
off_to_on,-2.88511452729,-1.69226151795,0.870886356974,0.166054210146,-0.273597058029,-1.64001209541,0.482400981225,0.405884415522,-0.300044927432,-1.98625738666,-0.8849321897,-0.107065433824,-0.649108459853,25.433098399
off_to_on,-2.76641650149,0.124522689924,-0.0653671880819,0.153943679584,-0.3236156913,0.862054272624,3.71450482075,1.30847505375,-0.291038450031,-1.25860560019,-1.03848942899,-0.167682432066,0.905465934997,66.586775367
off_to_on,-1.5195683325,2.09160320238,-0.365319340876,0.00466579483525,-0.333616443945,3.00046827778,5.70525063783,1.68499257997,-0.266265307385,-0.376742804909,-1.01557961905,-0.0681327788039,2.2553023278,91.5280407893
off_to_on,0.466532568484,3.68408735057,0.0375998792361,-0.24242833208,-0.276148655745,4.31018235164,5.93699891661,1.43932909137,-0.215888863502,0.545184697708,-0.831410131628,0.210407428377,3.0218314968,94.4075425142
off_to_on,2.51930299726,4.45886837425,0.864601405059,-0.498390020394,-0.134382359751,4.57986701927,4.49023496274,0.715872362314,-0.130176431706,1.41352338715,-0.513880259618,0.621093370884,3.01440285236,74.8367497267
off_to_on,3.91272439747,4.18041010798,1.61868705619,-0.65557960806,0.0881326888415,3.88538712781,1.98485655811,-0.160071716397,-0.00690692165098,2.14089009534,-0.103951361157,1.04627957597,2.27474696803,37.8425816712
off_to_on,4.11779911545,2.88556163423,1.79811816673,-0.627975980816,0.360944346724,2.53440119619,-0.667453945542,-0.814571907656,0.143297430109,2.62751756385,0.340195855255,1.31724895868,1.04285952005,-7.48414984011
off_to_on,2.98852323243,0.872036757901,1.11349093591,-0.386239000496,0.627516722385,0.947458075893,-2.60304017372,-0.977421074392,0.296267869869,2.75824328651,0.742289114136,1.26188413909,-0.335466666551,-50.2682121166
off_to_on,0.820909908451,-1.38205695871,-0.374736975421,0.0257404083854,0.81573118834,-0.479895322442,-3.30960122043,-0.593050420517,0.419081174871,2.42747756669,1.0168084049,0.771082934923,-1.52108580093,-80.4810815185
off_to_on,-1.73481672904,-3.34201244063,-2.25151468902,0.499766174239,0.856974708094,-1.48696912476,-2.78158397397,0.15557926126,0.479115730091,1.58865636761,1.08915072082,-0.137616350844,-2.27356017537,-91.2932958441
off_to_on,-3.88014084194,-4.54894450564,-3.8794942954,0.895684500033,0.708879858443,-1.99666780733,-1.47532814946,0.921113495105,0.454420376429,0.308157424083,0.921951289668,-1.28683267382,-2.49574461201,-80.6078663425
off_to_on,-4.92496413442,-4.7274189176,-4.62234307061,1.08660011471,0.37419902788,-2.09441303494,-0.089576929853,1.33537198911,0.341768291986,-1.2052149738,0.537041058804,-2.35936391308,-2.22551082979,-51.4407587031
off_to_on,-4.51157230652,-3.84444589165,-4.07958979563,1.00153001663,-0.0916885461172,-1.95400215778,0.736468134687,1.1650231574,0.159419608747,-2.61979460181,0.0215234422597,-2.9779431059,-1.58984528457,-11.0875290401
off_to_on,-2.73340262952,-2.10990988885,-2.24857967894,0.650628696646,-0.589139866998,-1.74450284659,0.685648215297,0.41594336756,-0.0566171030706,-3.55697661882,-0.489048418622,-2.82812904485,-0.747872751307,30.704247315
off_to_on,-0.110498460097,0.0774557944297,0.445843506117,0.123995145721,-0.997835012823,-1.55588408764,-0.117809050652,-0.657758224393,-0.261790295759,-3.7066343858,-0.848746301448,-1.78639513288,0.152219160218,64.1088763094
off_to_on,2.57027802958,2.22343001521,3.26741576438,-0.435801780502,-1.2094419479,-1.37060807302,-1.17726642509,-1.64648575176,-0.41474697829,-2.94413147227,-0.949494827678,-0.00532527249533,0.989656827255,81.5691097854
off_to_on,4.49915888766,3.84940462345,5.39334098134,-0.878219314594,-1.15946215488,-1.08864185147,-1.85037050526,-2.14509009015,-0.487830921028,-1.40292698036,-0.762221600649,2.08487336189,1.66455604769,79.5491265398
off_to_on,5.09416637443,4.59777433757,6.17365773073,-1.09114234319,-0.847915594262,-0.592129972926,-1.63960812384,-1.9173463787,-0.473066860361,0.533115853031,-0.353971386665,3.87455483681,2.08428943709,59.27141151
off_to_on,4.17988841007,4.31026430952,5.3391555423,-1.03357822347,-0.341749247299,0.178841373515,-0.426927051129,-0.99876565504,-0.382024275077,2.32719296115,0.128641982469,4.7534069983,2.16119556832,26.266242714
off_to_on,2.03913363482,3.06313468197,3.08963180636,-0.744046601689,0.242282853188,1.17132256152,1.44578754717,0.305565411564,-0.240138105539,3.45252368746,0.507141196976,4.31753705292,1.83194530244,-11.1368940256
off_to_on,-0.67722796564,1.15109219593,0.0346817998328,-0.322749847647,0.769090174995,2.20868295338,3.28776529948,1.53059517296,-0.0779414362473,3.56839107087,0.63507736975,2.53455202634,1.09425130381,-43.972820096
off_to_on,-3.15248306775,-0.978396735186,-2.99193630743,0.105195712623,1.12122177702,3.03022458441,4.32290242084,2.227970182,0.0774603159866,2.64616158325,0.45533332273,-0.197724699143,0.0428912459019,-64.8842803546
off_to_on,-4.65422418052,-2.82798763161,-5.18271904573,0.431801748747,1.22828553899,3.36884560746,4.00464407446,2.14146677238,0.207772084341,0.99492048363,0.0284557562017,-3.13267662315,-1.11854372553,-69.8536879157
off_to_on,-4.75456779887,-3.96853442225,-5.99097372267,0.598545345495,1.08136752516,3.04059858792,2.25769115059,1.31147372101,0.304365061908,-0.830412487783,-0.481238426052,-5.38377030237,-2.10745250595,-58.979423533
off_to_on,-3.45334577093,-4.14450232437,-5.27702178393,0.608173925995,0.72940485,2.01569879229,-0.452844003581,0.0650551661267,0.365192692786,-2.21313765951,-0.860047170886,-6.20150909885,-2.63436654437,-36.1290093182
off_to_on,-1.16855603356,-3.33926466173,-3.32503465698,0.513139883427,0.260558725305,0.446698341603,-3.25964723018,-1.10766421615,0.38996821989,-2.68961350813,-0.922544394093,-5.22938739736,-2.49818026663,-7.62543803914
off_to_on,1.39988365391,-1.78080939718,-0.732769917623,0.386638964174,-0.223846195892,-1.35649954082,-5.19399375618,-1.74492210054,0.376407757482,-2.11818361354,-0.585240564919,-2.64942986674,-1.6705288086,19.6033493244
off_to_on,3.48814667612,0.116967932387,1.78337140893,0.288568393721,-0.633869425343,-2.9984034295,-5.54018479092,-1.59846026896,0.319693377622,-0.738102183774,0.0914913479974,0.84057838808,-0.333386480492,39.8444351555
off_to_on,4.49935803277,1.86430070409,3.60163205851,0.24025079975,-0.9070603712,-4.09614517469,-4.11090584004,-0.738575751456,0.21568573536,0.908245137308,0.911062095513,4.22173075146,1.15285729569,49.8650184367
off_to_on,4.17640373623,3.0279095401,4.35944246183,0.217962930878,-1.0135058523,-4.3767306144,-1.33712770706,0.46528838579,0.0665017213604,2.16715984105,1.59861144191,6.46493218364,2.34909619928,49.3069861278
off_to_on,2.66584181665,3.34819273677,4.0232575947,0.167646488287,-0.951844700978,-3.74722434015,1.86658903726,1.484960706,-0.114307531311,2.51351265709,1.89166537188,6.85949351779,2.87644728994,40.1982379255
off_to_on,0.457301960709,2.80638286322,2.85215162949,0.0345964038511,-0.741269879655,-2.32023950505,4.41726453145,1.84357083357,-0.299963831441,1.75206770172,1.63312497082,5.24999431542,2.5475831485,25.8602598241
off_to_on,-1.77826426029,1.62076942041,1.27887730946,-0.204291080232,-0.414742193965,-0.389583169676,5.44692835795,1.31450272451,-0.453935845295,0.104402900134,0.833868590863,2.09893552316,1.4419107049,9.67079081819
off_to_on,-3.39771931732,0.172665179408,-0.243731354594,-0.519559324207,-0.0162126808208,1.6364459014,4.61490616031,0.02993219049,-0.538510586118,-1.85498479571,-0.318397580104,-1.65065554047,-0.106980642691,-5.85540163608
off_to_on,-3.97595164547,-1.11478930993,-1.37726596589,-0.829392538807,0.399035472725,3.32703894658,2.23386291062,-1.54802559153,-0.526085379344,-3.39538901149,-1.50938882178,-4.87107327452,-1.61283754475,-19.3739896463
off_to_on,-3.41954248633,-1.90625856619,-1.97225074264,-1.02287156484,0.764806577949,4.32441982974,-0.838352515707,-2.78879400856,-0.409336680152,-3.89183314071,-2.3925357415,-6.60787655468,-2.59566993652,-30.3892269019
off_to_on,-1.97274152619,-2.05046619992,-2.0671943481,-0.999141023715,1.00971324777,4.42178235833,-3.50368254575,-3.13099452999,-0.206348467735,-3.05853350227,-2.69674832743,-6.38109467275,-2.74379059241,-38.5592876665
off_to_on,-0.119850064769,-1.61232286631,-1.82480519712,-0.708640889834,1.07051515348,3.60729524508,-4.81624129669,-2.30812728432,0.0417647089967,-1.06792095521,-2.31204767584,-4.32925111387,-2.02121452719,-43.0472004633
off_to_on,1.57943217634,-0.832034590347,-1.43856781234,-0.180780181208,0.911143660599,2.06546080849,-4.32053047372,-0.475092721936,0.280687949935,1.49113830778,-1.32479077361,-1.1491477017,-0.680664292108,-42.3164592872
off_to_on,2.66578567969,-0.0275162065672,-1.04931197643,0.47359052928,0.541153388909,0.135912301591,-2.21345768544,1.81740681465,0.457456715163,3.80475668323,0.00868571372453,2.14571946411,0.824140107699,-34.5710835634
off_to_on,2.91077534281,0.523913414978,-0.702631991377,1.08809043403,0.0251531323356,-1.76169441526,0.727927087114,3.79818828761,0.535159225618,5.10939117873,1.34039928746,4.56336635254,1.99653140078,-18.7350071191
off_to_on,2.36350241669,0.681695067034,-0.358545501285,1.48828127061,-0.523801233489,-3.22094743422,3.42626894589,4.74210616456,0.502960550021,4.95416306704,2.33434723717,5.45148942793,2.46874852772,4.42259817065
off_to_on,1.304419075,0.481808707399,0.0572908411596,1.5458885539,-0.968828522248,-3.93993508494,4.89001705891,4.23340664621,0.378093485236,3.35688576116,2.76129594369,4.68823131194,2.12556169203,31.5568754694
off_to_on,0.128456290549,0.107117100776,0.587673702693,1.22188663967,-1.18683727025,-3.78968148666,4.56712548836,2.32983040474,0.199184999148,0.79834791682,2.55516594432,2.68512060913,1.13526039676,56.8822475692
off_to_on,-0.798140672545,-0.198680143101,1.1946384356,0.58361302539,-1.10790340547,-2.84284177095,2.54063238667,-0.434967613647,0.0132883144578,-1.94247185889,1.81597978414,0.209213410655,-0.122015809563,73.3600865447
off_to_on,-1.25667251378,-0.239109887571,1.75009459121,-0.210693321204,-0.742523804588,-1.35409994968,-0.501666270298,-3.21596090754,-0.138829355291,-4.05248161731,0.763267790362,-1.90505681169,-1.2003529583,74.7210883363
off_to_on,-1.23130938208,0.0478226808678,2.07224460974,-0.955892858092,-0.185358023133,0.304744078342,-3.50995578191,-5.1336144359,-0.23404966462,-4.95306804012,-0.339839620932,-3.04716798638,-1.75269047841,57.7254497797
off_to_on,-0.886071030714,0.55819816722,1.9944691757,-1.45901828712,0.408629867544,1.73988005219,-5.4391000766,-5.56763959373,-0.271132632669,-4.47839619138,-1.26362560613,-3.02082722294,-1.65182885622,23.8643377713
off_to_on,-0.477260110545,1.06015376968,1.43955920314,-1.59494669619,0.869974607135,2.63636782077,-5.60892842463,-4.36552109866,-0.26671931062,-2.90333513731,-1.86449000737,-2.07009852475,-1.02312520552,-20.2155467856
off_to_on,-0.237790673585,1.28777580908,0.469008591921,-1.34130582509,1.06820003603,2.83716343221,-3.93303356542,-1.89356597829,-0.245089519223,-0.817181509173,-2.09975438261,-0.741079146298,-0.178791106918,-63.9242552662
off_to_on,-0.278689126826,1.05496645764,-0.714368664875,-0.782057635191,0.954738165493,2.37740394786,-0.940281148267,1.08625321769,-0.225966003357,1.10411793493,-2.00676718908,0.359883877995,0.517937803033,-95.40283113
off_to_on,-0.545211524685,0.344246436816,-1.81527116017,-0.0793666721398,0.579567356033,1.46326290619,2.41241595049,3.66941568304,-0.215326317937,2.33895792474,-1.66188584066,0.81374377639,0.803332516557,-104.95160633
off_to_on,-0.843612459337,-0.666407819295,-2.53193984555,0.576562246924,0.0744885949218,0.401220313479,5.06532041204,5.10324433509,-0.202951283097,2.68447125311,-1.14075387867,0.545596185612,0.617701992129,-88.1665820283
off_to_on,-0.927527809908,-1.65287763411,-2.65104402966,1.02334353635,-0.392206695654,-0.500586941601,6.20376791034,5.02165043914,-0.167758364628,2.28710290393,-0.4976840069,-0.167598423051,0.122034141105,-47.7326348175
off_to_on,-0.610095189458,-2.25555977966,-2.11904140256,1.17051255389,-0.674199356974,-1.0275601652,5.51093823437,3.54297751731,-0.0888485720541,1.53580555464,0.22911287674,-0.836952821782,-0.379530084345,6.82154452974
off_to_on,0.142315941984,-2.21222538583,-1.06505712622,1.01899647461,-0.697802530298,-1.11924851439,3.24614559342,1.2038550403,0.0421751364209,0.86803127503,0.993239757792,-0.989342077288,-0.579253870377,61.4821318558
off_to_on,1.1727471111,-1.46370112246,0.233464056795,0.651619833162,-0.486068708128,-0.875118323617,0.132961941405,-1.24015380491,0.212760067967,0.571578135798,1.71358767663,-0.388460256908,-0.30936181476,101.611369666
off_to_on,2.1702247764,-0.191178521538,1.43183517569,0.199798866709,-0.14696537139,-0.503672903424,-2.89343991983,-3.07177094797,0.388695347093,0.664710079609,2.26448772079,0.842363130001,0.371225881213,116.178265319
off_to_on,2.77044220822,1.23201201448,2.21986770901,-0.201175129879,0.170445923026,-0.233079937773,-4.98674270839,-3.83598869773,0.522202053771,0.903295203635,2.49451266379,2.24826000813,1.18591191408,101.054054733
off_to_on,2.68631601091,2.36009887771,2.41161557582,-0.453141811852,0.335569722631,-0.215875152751,-5.63637728758,-3.4571467646,0.566558778844,0.910497888136,2.27266110366,3.21446911224,1.7457714653,60.3191846794
off_to_on,1.82172003778,2.82512351841,1.99492626347,-0.519683378562,0.288775004978,-0.463595594217,-4.78651141483,-2.2181024834,0.49239692147,0.373077749764,1.54665018841,3.21630828544,1.7119887177,5.13378718947
off_to_on,0.325949921943,2.46452761389,1.12635932376,-0.428106958964,0.0660435290077,-0.83747101653,-2.80273871426,-0.621556121286,0.299902476293,-0.780688048911,0.389368473791,2.0491738829,0.950802229158,-49.5098556488
off_to_on,-1.43377615872,1.37997082801,0.0751901551748,-0.250580461123,-0.214855423234,-1.10135470422,-0.315257784289,0.806127429848,0.0223371181428,-2.30103332245,-0.989625254834,-0.0548206335646,-0.383829497091,-89.1586776003
off_to_on,-2.97605139133,-0.0945020188572,-0.863464895276,-0.0729663495542,-0.402553625584,-1.01966594516,1.99534308841,1.6929598301,-0.280847910425,-3.67596327734,-2.27986415567,-2.47538346526,-1.87875556352,-104.041167851
off_to_on,-3.85247967855,-1.50428185751,-1.45729805529,0.0368036422171,-0.376740575687,-0.464740306643,3.59364580826,1.91938035224,-0.539494029115,-4.31455370589,-3.14812438744,-4.40683880103,-2.99765778997,-91.7079882024
off_to_on,-3.78960503755,-2.42647319459,-1.59907425445,0.0499970080795,-0.103963856026,0.508177086315,4.20805580968,1.61025290753,-0.692046833642,-3.78669589926,-3.33694802936,-5.14419389145,-3.27780461534,-57.3915205665
off_to_on,-2.77777351299,-2.60863344056,-1.32457339358,-0.0181695710468,0.338627044711,1.65089979302,3.84988619632,1.03747000405,-0.702605878669,-2.02453097017,-2.75120262512,-4.34725196154,-2.51421228357,-12.0461104593
off_to_on,-1.07680247264,-2.04532180844,-0.783930184937,-0.120093441125,0.783465414297,2.58774310945,2.74812112433,0.482593215771,-0.570388700766,0.59940924089,-1.50137134436,-2.18268515907,-0.858917339713,31.2291252202
off_to_on,0.863419522536,-0.966958049435,-0.179647187881,-0.197750960468,1.03194409786,2.93927940889,1.24084377381,0.119674022931,-0.328850680705,3.35820882125,0.114972176855,0.712782200376,1.20769888,61.1904813537
off_to_on,2.54042353802,0.25223226357,0.305251567289,-0.206069153367,0.932510685425,2.46386763293,-0.330092254127,-0.0357413247686,-0.0351373219909,5.39928055577,1.69163887774,3.43941031234,3.02948419566,71.5928200433
off_to_on,3.54850191202,1.23111578196,0.563840590346,-0.129124180833,0.448257806399,1.16626458465,-1.68807476749,-0.0972193466054,0.246369193688,6.03767027098,2.82948128419,5.13968493759,3.99955696548,62.5354475009
off_to_on,3.69074401219,1.71195867229,0.588689037748,0.0159475364225,-0.313239630587,-0.669693327321,-2.64526357268,-0.218993267599,0.460973136523,5.00708052625,3.25270898542,5.29246402225,3.77696472535,39.7083403565
off_to_on,3.01888728722,1.63689823813,0.456957877266,0.187443641932,-1.12256450632,-2.54346435507,-3.09382946497,-0.494249671824,0.575881990481,2.57298415612,2.88798814077,3.88976457392,2.41448719767,11.9460670033
off_to_on,1.79222385528,1.14523407515,0.286101409966,0.335550865027,-1.69942047591,-3.88189046133,-2.98907421929,-0.889586090934,0.58454530959,-0.539617954006,1.88035067915,1.43242804153,0.347989179838,-11.9663748626
off_to_on,0.375171088126,0.49720778349,0.179145808129,0.419841158627,-1.80932485332,-4.22176073302,-2.34463853643,-1.24711198809,0.502883462491,-3.38349538669,0.541106574304,-1.25283843586,-1.75185871218,-26.1048206115
off_to_on,-0.886570576582,-0.0419755088935,0.181258416753,0.421254978008,-1.35237834634,-3.37109765632,-1.24487693686,-1.35426810342,0.359937619519,-5.10926372173,-0.754044198077,-3.30724190473,-3.21342241584,-28.9160590099
off_to_on,-1.76630441782,-0.309817217065,0.264009872574,0.344849950163,-0.411256815113,-1.49286662834,0.13785024026,-1.0502488984,0.187070134256,-5.25344992232,-1.68185676801,-4.13674664514,-3.59877475478,-23.0283712427
off_to_on,-2.19979592228,-0.302716588343,0.342522777908,0.2136022782,0.761523364108,0.921988051594,1.5430306091,-0.320309313581,0.00977053362784,-3.88968301699,-2.06415716469,-3.60448722497,-2.85310679958,-13.5934187882
off_to_on,-2.26226529377,-0.159530519463,0.317812079592,0.0570734352193,1.81622572842,3.18952071203,2.65752975918,0.667194333696,-0.155475029321,-1.58754035013,-1.90650419883,-2.05145918762,-1.31379432001,-5.9002612122
off_to_on,-2.09560274048,-0.0816657081865,0.126805004897,-0.0995761923357,2.41617126483,4.63668989443,3.1893089472,1.60276056221,-0.299193417214,0.805582962547,-1.37292793753,-0.143008269999,0.423872522736,-3.21498003287
off_to_on,-1.82132164631,-0.225350697589,-0.220622413678,-0.241495632264,2.34920141632,4.81054265794,2.96060761769,2.14483187169,-0.41396400669,2.47840250919,-0.709586007921,1.39648086563,1.73356585594,-5.65120917421
off_to_on,-1.47884126121,-0.613696487914,-0.633571024926,-0.362979369149,1.60212343072,3.62511448702,1.98586292186,2.05442462059,-0.489778318733,2.94844820412,-0.147750151409,2.0577990257,2.19169053294,-10.4377309136
off_to_on,-1.01650713175,-1.10858144659,-0.966135704849,-0.46073362881,0.371674654571,1.39709402637,0.497687010925,1.30047858165,-0.512660494094,2.22452613536,0.177426868751,1.72610084923,1.72960105328,-13.3933346969
off_to_on,-0.339178156091,-1.45801761853,-1.06954863598,-0.525820585588,-0.993141244835,-1.24339440344,-1.10071125079,0.0903641603913,-0.467839083614,0.779160649733,0.263393087796,0.699581296526,0.646719406484,-10.9579846275
off_to_on,0.609332495257,-1.40298832228,-0.851932768997,-0.539334032227,-2.09901923962,-3.54018836817,-2.35087248064,-1.19147169625,-0.346519725983,-0.656617328162,0.220925295733,-0.454941338161,-0.519884440367,-1.93313987431
off_to_on,1.76777461256,-0.801457915338,-0.32310148245,-0.475338016025,-2.63095923655,-4.83806357011,-2.88745542566,-2.11712713554,-0.153419323792,-1.39596350635,0.2096844808,-1.14901720988,-1.21863395268,11.7804976597
off_to_on,2.92308149594,0.282789529049,0.394002782468,-0.311320659858,-2.44883736978,-4.77793926865,-2.56689983223,-2.37162258529,0.0885155184866,-1.07862883015,0.356249724991,-1.02253478909,-1.11223165713,25.7517162722
off_to_on,3.74452570858,1.56790821465,1.09248370968,-0.0426945603915,-1.62636289795,-3.39958258964,-1.52556023766,-1.8716530183,0.339030015886,0.177440612728,0.688490840358,-0.0969199012294,-0.221890826214,34.678250967
off_to_on,3.88355334139,2.63136136583,1.54413784202,0.30473264519,-0.420799924222,-1.12136499053,-0.139441641041,-0.79940184588,0.547956949324,1.81608930029,1.11328061424,1.22951726279,1.07150810068,34.4897011899
off_to_on,3.10791643877,3.05455629501,1.57583739602,0.670701886293,0.814473973679,1.39372602746,1.10597956062,0.463586407959,0.667443760645,3.06163242493,1.44733976061,2.34273767283,2.17303092976,24.0672361109
off_to_on,1.42034350488,2.58376666291,1.13370365375,0.968911882608,1.74348408432,3.44089049942,1.79146565469,1.4784644458,0.665359167989,3.23367941168,1.49004426788,2.6673040323,2.51248029871,5.89294586261
off_to_on,-0.888205608628,1.24606659202,0.311787529617,1.10764505123,2.14845960781,4.480088664,1.72010227222,1.91281996749,0.535478507455,2.03662450493,1.11027414965,1.91309722888,1.78498409336,-14.6540751103
off_to_on,-3.28122425596,-0.628051431037,-0.66703870654,1.01757228059,1.98520925588,4.2829527858,0.992429722645,1.66261011639,0.300880715787,-0.290541433067,0.313195672278,0.215332057982,0.0985870367698,-31.1227862639
off_to_on,-5.11279688234,-2.49140279389,-1.5144533965,0.678190640957,1.37767540612,2.97857619007,-0.0322176297932,0.88462957543,0.00913482924349,-3.02730865263,-0.740387239791,-1.89077857494,-2.03298756827,-38.2734959599
off_to_on,-5.81970309602,-3.75204758395,-1.96545384231,0.133541146917,0.558260175471,0.990867740796,-0.877781310941,-0.0731886461767,-0.279453415966,-5.2145255761,-1.77228178186,-3.65558561662,-3.85671837949,-33.9729207193
off_to_on,-5.10802598027,-3.9732101071,-1.86413061966,-0.509714730821,-0.220912728887,-1.10540960179,-1.14506734704,-0.815890091053,-0.50699119905,-6.00116940267,-2.47165193782,-4.39303912378,-4.64940260603,-19.9882033881
off_to_on,-3.06947348503,-3.03070109352,-1.21786094875,-1.10369222962,-0.772102012517,-2.75947302536,-0.681839476195,-1.06240985455,-0.631955617497,-4.96746454071,-2.59768204068,-3.74617050056,-3.99213341195,-1.3692736615
off_to_on,-0.182410897761,-1.16965870881,-0.200860382243,-1.49578786385,-1.02194180976,-3.59453848567,0.340126561403,-0.758454920495,-0.637902466863,-2.30255739439,-2.06434745399,-1.83769196996,-1.94742187967,15.3693395667
off_to_on,2.81039446924,1.06344711124,0.895669372092,-1.57063585056,-1.01272009951,-3.4905552754,1.47716724755,-0.0952459231651,-0.534752746502,1.23340454654,-0.977144135183,0.754586877663,0.930744328368,24.6085542203
off_to_on,5.11354826694,2.99362128713,1.75186107623,-1.28530053515,-0.859833377976,-2.58292731916,2.18162954232,0.574439098989,-0.352999776433,4.55424757479,0.391897153126,3.19219095591,3.76388387536,23.661035202
off_to_on,6.11470805255,4.03714312742,2.1179415364,-0.6866561781,-0.686832679021,-1.18895842012,2.02522221188,0.889805501626,-0.133412864865,6.61470152901,1.68329400125,4.67055936823,5.63835509927,13.729737736
off_to_on,5.56826426835,3.89276374656,1.89147827048,0.0953820936505,-0.566797339664,0.304968869717,0.891850024076,0.642918951171,0.0840154275353,6.76839054681,2.55721873645,4.70552251152,5.91662596695,-0.574641400747
off_to_on,3.66667982735,2.63789217323,1.14792527761,0.878192484676,-0.494375145249,1.55490642451,-0.939258424645,-0.119952577489,0.268374053658,4.98824223784,2.79343039897,3.30553015617,4.46038275675,-12.9929629952
off_to_on,0.975725115701,0.696518150705,0.114595352153,1.47272224642,-0.398811426836,2.33614757208,-2.86112613695,-1.10107423508,0.401352170404,1.87035736909,2.35204782711,0.965661922443,1.6856187924,-18.0172642783
off_to_on,-1.74495548909,-1.30910119915,-0.903065406978,1.73310262248,-0.190483456594,2.56947355287,-4.14201689204,-1.86158573622,0.475984711002,-1.57884512346,1.37724074267,-1.5141297886,-1.57082523606,-13.0505171827
off_to_on,-3.77636063225,-2.76997084484,-1.61822261387,1.59566583878,0.1809078835,2.3011914323,-4.19510526917,-1.99919424925,0.492447825533,-4.29376564463,0.145516390651,-3.31853238338,-4.32694997588,0.478930612647
off_to_on,-4.65240895745,-3.29030193971,-1.85031776619,1.09621289106,0.683474660834,1.65632844332,-2.81623841068,-1.32383612951,0.45360839119,-5.5112834791,-1.02165993433,-3.9062447593,-5.77716250842,17.4854526002
off_to_on,-4.28155016163,-2.80640209542,-1.57508640703,0.360501120699,1.1964354249,0.789174766892,-0.297469536383,0.0404790888129,0.36269621225,-5.01331982682,-1.85087036669,-3.19219255494,-5.54823319224,30.9830253882
off_to_on,-2.94161214122,-1.5854159458,-0.92163431891,-0.429436075423,1.54540286625,-0.15042205578,2.63434884684,1.6732891724,0.224125666797,-3.16663162875,-2.18593398522,-1.55681166501,-3.80311058249,34.6327507106
off_to_on,-1.15600494959,-0.108928568945,-0.119642133299,-1.08363623622,1.56769497366,-1.02908801813,5.04195229601,2.99512086292,0.0467555214628,-0.752368632715,-2.0144018042,0.317532783071,-1.16154021115,25.1850831191
off_to_on,0.500229619696,1.11204774041,0.583213385501,-1.45363048718,1.18228369135,-1.72718472151,6.09210695909,3.47785913075,-0.152502611932,1.34437841395,-1.44854698091,1.71758688916,1.52818938887,3.93646427722
off_to_on,1.59377999914,1.72056009744,1.00384472368,-1.46924923329,0.435520522115,-2.13543757565,5.35081287824,2.85038319172,-0.347239720813,2.46473493946,-0.673458916603,2.17234913305,3.48072811786,-23.3545201272
off_to_on,1.95858054479,1.62832858973,1.07758756553,-1.15298684214,-0.498085719715,-2.16365509771,2.95256927358,1.22005188223,-0.504052152266,2.40161562061,0.11585381184,1.62353712062,4.22382454514,-48.1231220077
off_to_on,1.7136872276,1.02196852884,0.865792952966,-0.608735529141,-1.36394166167,-1.76528699329,-0.421220017172,-0.940527176536,-0.589172598064,1.4394354005,0.766066113832,0.429360037761,3.72217550897,-61.7173969844
off_to_on,1.17470513583,0.263403775208,0.517048427909,0.010910130768,-1.90912162984,-0.969632576725,-3.75301511261,-2.94275140721,-0.57757663566,0.19978859498,1.19132528084,-0.797246172835,2.33968363125,-58.2978483134
off_to_on,0.699190859252,-0.272628461835,0.198980177798,0.548622311969,-1.96877441657,0.0953190502917,-6.0198234351,-4.11725838465,-0.461597735077,-0.640069507606,1.37081458455,-1.45027993633,0.665392602032,-36.9564926747
off_to_on,0.529485075684,-0.35782746672,0.0281074696384,0.884625229405,-1.52511697855,1.20734269723,-6.53066888757,-4.05120876111,-0.255848729842,-0.64092267526,1.32695690901,-1.18766559989,-0.72309002336,-2.33499293249
off_to_on,0.694984488951,-0.00272183975979,0.0252940993596,0.965423083152,-0.716203996353,2.09125902059,-5.15388189429,-2.74054330702,0.00376037553405,0.210609537805,1.09914684356,-0.080723415716,-1.46608668035,36.4996671084
off_to_on,1.01086528142,0.554191819116,0.113942548711,0.811619981816,0.210055945624,2.49171498117,-2.35528213857,-0.599593291768,0.267227476363,1.49530904749,0.726714166258,1.40490249177,-1.52267203358,68.6062333524
off_to_on,1.17147206282,0.955627801304,0.161092921096,0.503980566693,0.980708261115,2.25680456275,0.96523845691,1.6780320585,0.482095770485,2.53856072436,0.247596467582,2.59190825347,-1.13532742902,84.3774764504
off_to_on,0.89888280806,0.888598561543,0.0444299780707,0.153344585012,1.39064809329,1.40285802654,3.78031696404,3.35874776281,0.606178319714,2.70102190658,-0.290405288603,2.86790031883,-0.68286754886,78.4297304148
off_to_on,0.0849902813479,0.234719578768,-0.282558265875,-0.135500513394,1.36950393795,0.132735408717,5.27672344248,3.92270968488,0.617598811895,1.66613362221,-0.816371671738,1.94776375952,-0.489277363988,51.2983442465
off_to_on,-1.13265659455,-0.855227400182,-0.7551156569,-0.294649218189,0.99796933431,-1.20650048577,5.11304606766,3.24040244265,0.51923789076,-0.392904601386,-1.23345426875,0.016781085957,-0.670999778546,9.43181276807
off_to_on,-2.39563442125,-1.99679020077,-1.20839907257,-0.30954219979,0.468054047984,-2.21977232191,3.50640926019,1.60864486048,0.336505523467,-2.83877614846,-1.4343018349,-2.30663386453,-1.08660926781,-36.5093064368
off_to_on,-3.24514962567,-2.70886368548,-1.43425011081,-0.216951270346,0.00302435346609,-2.58655842961,1.12368886369,-0.36582146142,0.109497256081,-4.78610701526,-1.33335273159,-4.18126574069,-1.40869680295,-74.5456892352
off_to_on,-3.29513081075,-2.60293603441,-1.26407698774,-0.0863824036606,-0.231763662292,-2.16985826212,-1.17720521252,-1.99105242376,-0.117724380224,-5.43085580379,-0.905032238001,-4.85205671451,-1.28612604809,-94.6296648318
off_to_on,-2.39232664203,-1.5523983471,-0.646609123079,0.00804032968642,-0.192375631643,-1.07272701594,-2.65825944119,-2.73942816245,-0.30732389421,-4.36932157829,-0.211317493731,-3.9431718176,-0.526394125609,-91.3404483631
off_to_on,-0.700094900142,0.225991583728,0.310992650973,0.0154148663024,0.0307625829676,0.381022266878,-2.95122158398,-2.43030266815,-0.434505367048,-1.78305629679,0.596517609938,-1.62328865633,0.781888725046,-65.2979869311
off_to_on,1.33077405046,2.215906555,1.35834192144,-0.0736823364949,0.25578496696,1.74041156977,-2.15908721516,-1.28004792805,-0.489557253589,1.58665173792,1.30881100098,1.42371762262,2.26331979706,-22.9494009148
off_to_on,3.09939140264,3.76204019426,2.17295459572,-0.224367785718,0.291472456106,2.56774504806,-0.778991229652,0.196055728467,-0.475541035189,4.67356784076,1.71545920093,4.21841245766,3.37682253735,25.1635343037
off_to_on,4.05453620039,4.29462665111,2.46577637848,-0.370633779944,0.0259625729697,2.58091285081,0.517141062083,1.39020448469,-0.403471162674,6.4507084225,1.6735768561,5.82065572796,3.62126553562,67.1493617601
off_to_on,3.8861895844,3.53879166092,2.085251686,-0.43979217718,-0.513935051523,1.74998581174,1.15650911139,1.83702643081,-0.287396782448,6.29381017805,1.161438403,5.66051109419,2.74645329194,92.7793612497
off_to_on,2.6389270809,1.63180373107,1.08219005681,-0.379740583075,-1.158320084,0.314402531429,0.888767704782,1.38800878472,-0.14134217231,4.21135265932,0.297699988175,3.74546129543,0.884037749339,95.9933031877
off_to_on,0.703977860861,-0.898229575307,-0.290467509686,-0.179735766776,-1.64942371954,-1.28705858879,-0.124335267596,0.260573413862,0.0211439570088,0.855043978117,-0.684414325952,0.667651069758,-1.45961555002,76.2941079211
off_to_on,-1.30996945279,-3.29041989637,-1.64702167643,0.122457835009,-1.73796007102,-2.55220607015,-1.38365798963,-1.05459028977,0.185489481839,-2.69634920031,-1.50286023256,-2.5933671724,-3.55516620231,38.7349509824
off_to_on,-2.78303898623,-4.79529226066,-2.58722378836,0.449672959813,-1.28521014911,-3.07365744941,-2.25966004432,-1.99030717502,0.334312797678,-5.3046526869,-1.91274527199,-5.00318432506,-4.69728619643,-7.43937366134
off_to_on,-3.29469787379,-4.92277401076,-2.82489252525,0.707981984857,-0.331555152372,-2.66805712435,-2.25031288447,-2.12710001033,0.447189428883,-6.16100006238,-1.78451992321,-5.82255071857,-4.45867618247,-51.1162774489
off_to_on,-2.76332167261,-3.60866604515,-2.28334503661,0.815715721318,0.896882542792,-1.43455382533,-1.19064162763,-1.35857650132,0.503095575294,-5.05741610379,-1.14775462835,-4.85126668463,-2.85650706297,-82.0148882881
off_to_on,-1.46464696774,-1.24143841056,-1.1241169125,0.729585352269,2.04980521481,0.275727513622,0.66584684142,0.0647818919928,0.485353284045,-2.44561519577,-0.184781798894,-2.48139481108,-0.366049146438,-93.1106482398
off_to_on,0.0773710989471,1.46097634084,0.302396199655,0.459525626056,2.76370977388,1.96824945386,2.72466406938,1.62919965692,0.387572787324,0.73549793409,0.824727347074,0.455492015012,2.22894634763,-82.2238079175
off_to_on,1.28736093894,3.68308999428,1.56905001658,0.067464360875,2.78455799857,3.15569539863,4.25804673859,2.75181038028,0.218302810748,3.39882005382,1.59041878245,2.98839074759,4.09946641518,-52.4221678476
off_to_on,1.75090944419,4.77396742726,2.30961551091,-0.34967188156,2.05890527709,3.50226880439,4.66628389188,3.00079382553,0.0022200759823,4.69076466571,1.90057863584,4.34410493298,4.65552273731,-11.1713840229
off_to_on,1.36447551435,4.45130696446,2.33555839113,-0.687442048383,0.760363195553,2.91713916024,3.69729202305,2.25767869471,-0.223284601808,4.27865375191,1.68473149567,4.20082007955,3.74960201221,31.5419235362
off_to_on,0.367480373101,2.88019352527,1.69235762919,-0.863363117748,-0.759426268213,1.57076027243,1.54555725817,0.7609638482,-0.415697444185,2.44346687849,1.02951612681,2.77066057458,1.72547082058,65.6513597868
off_to_on,-0.755572702032,0.603130160202,0.636527541973,-0.839390824435,-2.07963331914,-0.166399582906,-1.20365170306,-0.983983551486,-0.537199246833,-0.0497696392369,0.144070447229,0.688369564823,-0.705933595018,83.4228425828
off_to_on,-1.46703250788,-1.65088174438,-0.458047607089,-0.630805870694,-2.84213247091,-1.83883100147,-3.76300574246,-2.39286180027,-0.563860241916,-2.25035395238,-0.711612946149,-1.24551359912,-2.71914007071,81.2528640906
off_to_on,-1.39086887198,-3.21004170748,-1.23134298842,-0.299312899972,-2.8616324504,-3.03591729108,-5.39667709845,-3.01576736456,-0.491442997026,-3.37539583481,-1.30981070722,-2.36700675318,-3.66425537874,60.4185635129
off_to_on,-0.469609870676,-3.67229794822,-1.45995137476,0.0668665394117,-2.17713249098,-3.49696402627,-5.65036004538,-2.69512671772,-0.336087147189,-3.08768534088,-1.52136644535,-2.38326238479,-3.29008876111,26.6062862482
off_to_on,0.997062165394,-3.01657335588,-1.12863253668,0.379208163424,-1.02871389793,-3.16330088142,-4.48134667614,-1.61005861937,-0.129781444316,-1.59854172146,-1.3441636958,-1.45507373141,-1.82065449242,-11.6441817079
off_to_on,2.44983614496,-1.58011363644,-0.426289541886,0.573080401417,0.230034020595,-2.16905798172,-2.25066241525,-0.193517917366,0.0878406999124,0.43653154947,-0.887197053139,-0.102632948371,0.14068661987,-45.1616681867
off_to_on,3.27122830713,0.0830693498827,0.331045182228,0.622706942814,1.25153319164,-0.782209468685,0.411115185899,1.04243875919,0.278795053647,2.18403509857,-0.319725209608,1.0228348749,1.84213520086,-66.440033538
off_to_on,3.01967622444,1.40727566568,0.821681589427,0.543063377225,1.80321809599,0.678999453884,2.81043064762,1.70340663175,0.41442124648,2.95627811613,0.193234949981,1.40932609367,2.66314206109,-71.4028600919
off_to_on,1.61108888823,2.00901190695,0.839950565648,0.379318963269,1.82898375733,1.92590397439,4.39560167722,1.6546436175,0.479532445056,2.46982172977,0.54448719746,0.890329360001,2.339699992,-60.1856099259
off_to_on,-0.62063892451,1.80278034571,0.373947702046,0.188421895462,1.44462314002,2.75400850586,4.89348601585,1.05461179792,0.472513149846,0.943106808406,0.708729218551,-0.291949517056,1.05322678052,-36.7687636887
off_to_on,-3.01096267495,1.00289205922,-0.388905546074,0.0196459746844,0.873426424484,3.06368660962,4.3420622701,0.269990798563,0.402247464214,-0.999603169459,0.731233756478,-1.58902675496,-0.647805596069,-7.62667874218
off_to_on,-4.77461668447,0.0177658137543,-1.13072586516,-0.099295657174,0.349609226947,2.85170312089,3.02336238195,-0.290841549671,0.283672261136,-2.57726871069,0.689522660738,-2.37258968595,-2.06227631434,20.1653856659
off_to_on,-5.26881240551,-0.718775585915,-1.52186086663,-0.166417889613,0.0277530958576,2.18689762415,1.33549108974,-0.35687091595,0.133859251284,-3.15660872848,0.646702220675,-2.19565852398,-2.60566314192,40.7863823871
off_to_on,-4.21999130519,-0.914358567595,-1.34671369095,-0.199502724656,-0.0676334726451,1.18466489525,-0.341576219371,0.0874023687292,-0.0301355536452,-2.49553821231,0.617530686884,-0.98602926455,-2.03339788356,50.9539275447
off_to_on,-1.83506873269,-0.522118640128,-0.591095640372,-0.223268351663,-0.0351009064062,-0.0104777972924,-1.73837809392,0.793432736285,-0.19152045361,-0.834032170334,0.562061138781,0.904394851114,-0.535433223456,50.319815247
off_to_on,1.24371749838,0.253253433522,0.541162276123,-0.255231739346,-0.0373344670446,-1.23351920122,-2.72285990056,1.35423548581,-0.333022521355,1.19996422395,0.409484574527,2.81571070356,1.33257232767,40.9670128926
off_to_on,4.12866979999,1.04535959073,1.68974869567,-0.296006639742,-0.216068854566,-2.30537392182,-3.26865851236,1.38237699944,-0.436580592614,2.83163939956,0.101558993148,4.01977992739,2.85536560233,26.2946483679
off_to_on,5.96065603387,1.47473203504,2.45737495025,-0.327842869009,-0.616500601787,-3.04618001809,-3.39530010729,0.688493543485,-0.484691844366,3.4345416343,-0.363899200596,3.99454671885,3.42484227249,9.75786412259
off_to_on,6.17830704642,1.29907678934,2.54644683249,-0.321926372046,-1.15283647079,-3.30109618717,-3.11825897047,-0.613444930827,-0.463762683391,2.7678423784,-0.909920894568,2.62998889883,2.7688072397,-6.06812466185
off_to_on,4.69493035354,0.50941626406,1.86571714731,-0.251549099261,-1.63033087615,-2.97650978762,-2.43617591386,-2.12057615626,-0.368679600431,1.06676389316,-1.39059543228,0.287516790584,1.0576014197,-19.8031780831
off_to_on,1.92637886304,-0.661959085814,0.569749506766,-0.105965367427,-1.81690044901,-2.07635284251,-1.35978012112,-3.27545920184,-0.206911265055,-1.04643931964,-1.63429210695,-2.31146826273,-1.15035934896,-30.939646566
off_to_on,-1.33775768092,-1.82269555716,-0.983106228297,0.100606440604,-1.53765615433,-0.72361584905,0.0368427232926,-3.57297791494,-0.000200047414962,-2.79583927983,-1.50584902428,-4.32925468776,-3.10405847367,-39.1416671553
off_to_on,-4.176474004,-2.55949224665,-2.34081179808,0.328692074335,-0.755966501063,0.846183629615,1.57592803147,-2.76236610201,0.217535902369,-3.54080088837,-0.964821076364,-5.1005956038,-4.12518017507,-43.5885179371
off_to_on,-5.81449349205,-2.58413746421,-3.09943589957,0.522727892901,0.391330777223,2.32485495433,2.97743303221,-0.965942007659,0.406254767804,-3.01214976309,-0.0965502527855,-4.36304126801,-3.8474107859,-42.7639576646
off_to_on,-5.84663849265,-1.83473802557,-3.02988491924,0.627025845503,1.62065705197,3.39844089517,3.91486452271,1.33469223191,0.528533850563,-1.40825517547,0.898519652998,-2.34680504829,-2.34433797884,-34.8923962475
off_to_on,-4.34162108851,-0.49808898694,-2.14834850496,0.603378451801,2.5838816351,3.82418942817,4.11246369773,3.44559999303,0.558639673472,0.682871078226,1.75719248299,0.306716994587,-0.101701660717,-18.9162523964
off_to_on,-1.79836843137,1.05196354759,-0.70852078395,0.444428991447,2.97897534815,3.49506245086,3.44866787027,4.69131336899,0.489228216068,2.50414974713,2.23209157731,2.76692480867,2.15382617012,4.3800962292
off_to_on,1.02424853352,2.37602381542,0.880168875339,0.178234022807,2.65120689382,2.47140135404,2.0226861282,4.64785064034,0.333570595956,3.40886114772,2.17069060796,4.29597642131,3.70619069508,31.6413635028
off_to_on,3.34474636233,3.10709666769,2.18004161384,-0.137703833148,1.64960763679,0.96883265278,0.151331417556,3.29388437762,0.122535146851,3.09464973753,1.56770212063,4.49047185977,4.09150495965,57.0776503377
off_to_on,4.58643032655,3.0585439494,2.85621935933,-0.431248182467,0.21865907809,-0.69490896413,-1.71135641781,1.02466301468,-0.102825500033,1.70650327737,0.572075182219,3.3993721389,3.24514736152,73.6520617018
off_to_on,4.52609506157,2.26886184783,2.76967269197,-0.634796595933,-1.27257429794,-2.17864445686,-3.1085803793,-1.47743929421,-0.300900939238,-0.226751255412,-0.554941087229,1.48109882948,1.50594325078,75.1003747368
off_to_on,3.32486602597,0.97384409696,2.00497149464,-0.703028802139,-2.44034015198,-3.19866411705,-3.72299888692,-3.47019999674,-0.438594369919,-1.99551581971,-1.51751896,-0.578691193203,-0.518719419088,58.1856622175
off_to_on,1.44195773744,-0.478221983022,0.828009287021,-0.62406635804,-2.99877522554,-3.58893453795,-3.47447187966,-4.39613363405,-0.497412052095,-2.97396633582,-2.07337183289,-2.1180591138,-2.17371264332,24.3929775679
off_to_on,-0.53134049414,-1.73524230451,-0.408136413232,-0.421093659524,-2.8388102798,-3.32554311931,-2.53591239978,-4.05841484933,-0.47525898188,-2.84684831122,-2.10345571076,-2.72581220939,-2.98127058517,-19.6508539551
off_to_on,-2.05860893939,-2.53653807041,-1.37551827522,-0.144518515705,-2.04950498057,-2.51275150239,-1.26016282269,-2.66803577059,-0.384086320323,-1.71545865556,-1.64099865177,-2.36422092924,-2.79058453895,-63.3886273456
off_to_on,-2.80655246449,-2.76646446033,-1.86473781591,0.14243887084,-0.878064043077,-1.34032278256,-0.0451057005939,-0.749447221356,-0.244800087214,-0.0464509775082,-0.851761371468,-1.3481728996,-1.80268172156,-94.998201249
off_to_on,-2.71334320101,-2.4563107088,-1.8315409426,0.380136278617,0.354708963109,-0.0295317778488,0.811200329006,1.05692843786,-0.0814745379617,1.51365495305,0.0259044664758,-0.195628478086,-0.468566241882,-104.804941258
off_to_on,-1.96560545592,-1.74369786529,-1.38640830404,0.526149932903,1.35308108671,1.21402630406,1.20891193531,2.22088624608,0.0832587791154,2.38590040193,0.759377049813,0.588878181761,0.695369452703,-88.3997390674
off_to_on,-0.902897800824,-0.812014660692,-0.736689734782,0.562769207475,1.9263240085,2.22871248913,1.259669489,2.49497762875,0.230613531325,2.27439958886,1.191385584,0.713336391669,1.30254518679,-48.4186418648
off_to_on,0.110624529967,0.164612362265,-0.105688424254,0.497178732518,2.02611142319,2.90386609494,1.20992332478,1.97359915794,0.345924692063,1.27001107445,1.27823897298,0.204920066987,1.2293504811,5.70342031951
off_to_on,0.802166427097,1.05268641549,0.34162402086,0.355468673257,1.73420983853,3.17251132914,1.30627777935,1.02283874244,0.417796475856,-0.194311274692,1.08614440637,-0.613844318047,0.63985511641,60.0754847228
off_to_on,1.05857302174,1.76250398008,0.541936126104,0.173242577413,1.21108432726,3.00160614174,1.65981101577,0.113891861355,0.437469458644,-1.51677095057,0.750459071729,-1.2671843668,-0.101895512247,100.17981149
off_to_on,0.931891111561,2.23211890472,0.534903041776,-0.0139014511465,0.628528455209,2.39036468648,2.16900408103,-0.37220166084,0.39941887194,-2.16109574591,0.41563660093,-1.32958951101,-0.593578513364,115.062034875
off_to_on,0.589789969905,2.40885632146,0.427243684448,-0.177364889166,0.112466416995,1.38045565429,2.53925605605,-0.292277856342,0.303351636462,-1.8628030463,0.179520326777,-0.611238474867,-0.565227950644,100.590100231
off_to_on,0.235557548793,2.24411646417,0.337139461651,-0.298740905766,-0.2847540638,0.0729493976071,2.39859860988,0.214385902618,0.156806858439,-0.730061996792,0.0625996093917,0.746731366404,0.00771336390056,60.7427072098
off_to_on,0.0290019583633,1.70838299971,0.341742736122,-0.369459902758,-0.576690469102,-1.36001568671,1.46874821352,0.798962956808,-0.0230744124601,0.797638385845,0.0123012420321,2.30500003516,0.891892427316,6.48957360927
off_to_on,0.0348409604327,0.820999081809,0.447241445695,-0.388271268482,-0.808359288764,-2.68227302005,-0.275875184753,1.06177801802,-0.210049033732,2.11625301922,-0.0615276678639,3.4767830132,1.68790770736,-47.4157180484
off_to_on,0.212190904205,-0.320844910853,0.590838269875,-0.358329213985,-1.01355281677,-3.62745622007,-2.52976666564,0.732129242008,-0.372302273218,2.68610168262,-0.235800105616,3.74239310947,1.99052435084,-86.7440936053
off_to_on,0.443086229684,-1.53257244724,0.671377074655,-0.285278484041,-1.18427226764,-3.95724829915,-4.70120303025,-0.203168557486,-0.478648057289,2.2372874214,-0.529545308199,2.84957183418,1.55555760546,-101.864708904
off_to_on,0.585233845341,-2.56508300208,0.594950586517,-0.176877322646,-1.26607791404,-3.53009546882,-6.07828990178,-1.47465521547,-0.505905992605,0.875537732057,-0.884257825538,0.926032002039,0.40945476648,-90.3326774702
off_to_on,0.528254550356,-3.16040958672,0.317227519327,-0.0437676206051,-1.1812484554,-2.35851078876,-6.06690639592,-2.62038644535,-0.445279118416,-0.95014917204,-1.17814959234,-1.53831167637,-1.14086399307,-57.2304131475
off_to_on,0.234407403961,-3.12612589644,-0.133367340308,0.0996087445639,-0.869355792229,-0.632596584784,-4.41939489841,-3.15848031218,-0.305623679795,-2.60560785357,-1.26990291003,-3.83586293811,-2.60333145916,-13.2342012984
off_to_on,-0.247613498989,-2.40412929799,-0.659538359079,0.235033241183,-0.327143042776,1.30452875331,-1.36921460503,-2.77689337043,-0.112340833336,-3.49720531151,-1.05583043226,-5.26454401715,-3.46796943537,28.8956713753
off_to_on,-0.797280845087,-1.10781738265,-1.12381042334,0.34214327548,0.370561178111,3.02920894457,2.38573484168,-1.46773353213,0.0980438182462,-3.28321589306,-0.518652213934,-5.35437447067,-3.38655235619,58.2238246038
off_to_on,-1.25805068627,0.489886353341,-1.39119835188,0.401644998402,1.0798078082,4.14122392601,5.85836662493,0.446618847901,0.28618202637,-1.99531818754,0.251475532235,-4.02140294619,-2.30073351146,68.6938115891
off_to_on,-1.48228682844,2.01930019227,-1.37097135579,0.399397633275,1.62543461167,4.37065207925,8.05805887805,2.40840423364,0.418748043638,-0.0281783604678,1.07337725029,-1.59840657933,-0.473146445648,60.414344437
off_to_on,-1.37263502852,3.11142240216,-1.04408502172,0.330255058646,1.85533912784,3.65548913685,8.29745923365,3.80834163095,0.475361127088,1.99702940016,1.72502908163,1.26610652838,1.58963988897,38.8951276328
off_to_on,-0.910037214354,3.50083271006,-0.468725905935,0.200536085346,1.69167541802,2.1648661042,6.41963894218,4.19328387872,0.451806243456,3.4447123488,2.01153885591,3.80524308459,3.29575082734,12.6450736317
off_to_on,-0.163024926928,3.10146469895,0.235862290954,0.028329339256,1.16009111921,0.258389181572,2.86773604409,3.42336452146,0.359014687345,3.87674816795,1.82828260321,5.3616030277,4.15405327484,-9.93422973856
off_to_on,0.722699239596,2.03053999673,0.920453836257,-0.158633205643,0.385859944785,-1.60838667982,-1.43049108991,1.72240408151,0.218605860546,3.19077239544,1.19776908474,5.57259024761,3.92532634919,-23.2539735848
off_to_on,1.55199834199,0.572580513771,1.44157940077,-0.327260792612,-0.442303531128,-3.00541984495,-5.33007621521,-0.396209228904,0.0567541320893,1.63986489382,0.26749063306,4.45738232264,2.68981425478,-25.9556299461
off_to_on,2.12057605595,-0.904958727737,1.69215353749,-0.44485428879,-1.12837168983,-3.64096915388,-7.80474427811,-2.30137999307,-0.101586429213,-0.268056021483,-0.730936386488,2.38463760291,0.812143491844,-20.6698055347
off_to_on,2.26114235543,-2.05714439213,1.62067041109,-0.485375105433,-1.52578282661,-3.43264711869,-8.24510992868,-3.45273366304,-0.236535605845,-1.9506675121,-1.54822099664,-0.0603310445697,-1.18047728371,-12.362637406
off_to_on,1.88712460168,-2.6544552,1.23721025442,-0.435168269253,-1.57581953041,-2.51672154369,-6.62567757728,-3.57255618925,-0.334626061243,-2.94507259305,-1.98813846344,-2.25939056189,-2.7630013411,-6.00837118562
off_to_on,1.02431600891,-2.63463159491,0.608211274072,-0.297055479427,-1.31567403133,-1.19493726861,-3.49074375784,-2.7227132846,-0.388093958988,-3.0474231494,-1.96041139029,-3.73476114053,-3.56491274312,-4.52276922729
off_to_on,-0.179052000753,-2.09974236883,-0.156380019912,-0.0917908660768,-0.855494444585,0.162638683515,0.231259785119,-1.26315531927,-0.393309267381,-2.35366473186,-1.50011871545,-4.25913533401,-3.46272154494,-7.73327978721
off_to_on,-1.47075070665,-1.2636639773,-0.920385005784,0.143895311408,-0.334706156476,1.22730418236,3.52045877207,0.288799167536,-0.349651143581,-1.1944060414,-0.749459105215,-3.87625204947,-2.58840267432,-12.7217645878
off_to_on,-2.54280984711,-0.371550177274,-1.54138235164,0.362966756024,0.125368270132,1.79991529034,5.56860162993,1.44473581816,-0.259637311286,0.00495485782262,0.0900515464813,-2.83776777837,-1.25935359563,-15.3283841919
off_to_on,-3.10282819492,0.379013688174,-1.8928128756,0.517016052998,0.455442389604,1.85191536806,5.99670391786,1.90917486614,-0.130252299484,0.882943206566,0.817988690871,-1.48935332696,0.13909151333,-12.1595546744
off_to_on,-2.95313112284,0.888240984494,-1.88729111547,0.567072887367,0.647858200364,1.50978584301,4.92397335446,1.66428295764,0.0254161167142,1.26057349981,1.28838703919,-0.151826351296,1.27490262374,-2.26359598569
off_to_on,-2.05670849623,1.16110315589,-1.49837568356,0.493998420223,0.740957012671,0.992108297303,2.87669788305,0.949122343678,0.187548336103,1.17944494197,1.4404557842,0.96145058169,1.95423098492,12.2141784203
off_to_on,-0.568461455426,1.27336827662,-0.775654202409,0.30567533391,0.787171351041,0.523224001,0.578879259086,0.14658211761,0.331093720223,0.851547260881,1.29995016847,1.76851296736,2.14700417632,26.6729815487
off_to_on,1.1831542776,1.31441234627,0.153337889847,0.0384224650704,0.819666607811,0.253770674106,-1.29742044589,-0.375764025589,0.429757228243,0.546672373304,0.954887258878,2.28668739807,1.95388168896,35.7561828026
off_to_on,2.76625191958,1.33253446051,1.0996506354,-0.248834739242,0.832181898261,0.214438257827,-2.33625482577,-0.409574363493,0.461784848468,0.465705647163,0.51740884168,2.56847254184,1.53611010577,35.4515525717
off_to_on,3.75384799027,1.30639667456,1.84894720899,-0.4872557877,0.780725198746,0.316819731248,-2.47251070847,0.018953895527,0.415958844811,0.65124953875,0.0867726809724,2.63954393881,1.04065479858,24.7705356089
off_to_on,3.84303890361,1.15491633529,2.21166380396,-0.615113833356,0.606439888197,0.39868433659,-1.95547641302,0.668483620101,0.295835074203,0.970540905036,-0.274030861079,2.46872266017,0.550593381224,6.33721677913
off_to_on,2.95072512958,0.781841831853,2.07552552463,-0.594879358441,0.269978876788,0.295982699858,-1.2066231235,1.18663654067,0.12058901876,1.17628694383,-0.542313607166,1.98355854454,0.0770877276841,-14.3723468985
off_to_on,1.25482295396,0.136501013993,1.4448952732,-0.425388001736,-0.217401447518,-0.084702541791,-0.632151345676,1.25733624448,-0.0781961453785,1.02023041155,-0.722860529121,1.12396859881,-0.409645507374,-30.8876183446
off_to_on,-0.836530237122,-0.735507662869,0.452484136097,-0.144930221371,-0.780102168919,-0.71912241645,-0.462517978268,0.734537117212,-0.263193067478,0.37355541303,-0.827154442113,-0.0913389145838,-0.929407453645,-38.024520312
off_to_on,-2.78472442055,-1.67551655219,-0.66460117656,0.176626036312,-1.2895809344,-1.46060224078,-0.676455856776,-0.288635621058,-0.399709615718,-0.694772442899,-0.855872954605,-1.51817730387,-1.44787215556,-33.7464555074
off_to_on,-4.06485822717,-2.44084280975,-1.62207518258,0.455386607371,-1.59916672643,-2.08003870795,-1.03249907652,-1.50177743313,-0.463467990799,-1.91508456813,-0.793383974675,-2.88638727185,-1.86222255984,-19.9076144231
off_to_on,-4.31436148881,-2.774461178,-2.16532203571,0.616227121076,-1.59140595471,-2.338194703,-1.18998262107,-2.48272216584,-0.445644186707,-2.894676906,-0.616896577033,-3.85480788636,-2.02622459989,-1.58891173556
off_to_on,-3.44207109732,-2.4937731375,-2.14411602671,0.614373089311,-1.22165730446,-2.06713550106,-0.868859008022,-2.84858389985,-0.353897207149,-3.25087914464,-0.315848183992,-4.10906958031,-1.80696066601,14.7434279863
off_to_on,-1.66331964188,-1.56763561566,-1.56171399197,0.449172473548,-0.542048908211,-1.23447429129,0.0151936953896,-2.39769938481,-0.209366605009,-2.75290419803,0.0880607472327,-3.4711248153,-1.15090168503,23.5881490218
off_to_on,0.552565566513,-0.152205117575,-0.580811832962,0.165458861396,0.303973249749,0.0307594949201,1.29313451001,-1.19116844602,-0.0408076051616,-1.42109632141,0.530901586743,-1.98151379373,-0.131152927752,22.4054115162
off_to_on,2.60989131076,1.43172901846,0.518692303787,-0.158476297565,1.11656231043,1.46015215849,2.5854053059,0.455705643662,0.122236478298,0.454179440772,0.913876937456,0.0786708182921,1.04698254455,12.5198691751
off_to_on,3.95365126047,2.77819119497,1.41995686636,-0.433122924139,1.69397101161,2.71089840624,3.43073580526,2.06990287479,0.255273317943,2.38457057449,1.12845349783,2.24084528435,2.09029780982,-1.41230260713
off_to_on,4.22733771664,3.5108692374,1.8642695197,-0.583675412653,1.89001039148,3.45596088205,3.45464263622,3.17223162418,0.342351327956,3.82602085067,1.09214740322,3.96703770648,2.70129063526,-13.1888645848
off_to_on,3.374569516,3.39852774458,1.73147788559,-0.57173776749,1.65656892732,3.47410396157,2.5165485811,3.43227000516,0.376804974448,4.34618043574,0.782465133344,4.80027461053,2.67471288519,-17.4522953888
off_to_on,1.65382042069,2.43373603621,1.07944515908,-0.406058322586,1.05787585701,2.71439257812,0.781479835104,2.77442303777,0.359817259248,3.7625173345,0.255555074857,4.5015500916,1.97373103855,-11.8074285858
off_to_on,-0.43854318626,0.847568336079,0.128219832398,-0.138927040881,0.252047694658,1.31683613799,-1.31163968365,1.40014993473,0.297958697522,2.20564643761,-0.359733140879,3.12932695646,0.757169085833,2.12589888118
off_to_on,-2.3140499402,-0.947693619572,-0.808007272808,0.150574971851,-0.554361075694,-0.417044088294,-3.17730130448,-0.279714816971,0.200916511236,0.0864583864679,-0.893651844724,1.03374959676,-0.655418154207,19.1416886235
off_to_on,-3.46308377893,-2.47307962847,-1.42089320959,0.381058778153,-1.16486154843,-2.09632309985,-4.2654773729,-1.7783972437,0.0801816911215,-2.02331283747,-1.18525451358,-1.23630261562,-1.87337201072,32.2438199822
off_to_on,-3.59993402126,-3.32114372307,-1.50837598166,0.493164946608,-1.44693203847,-3.33665288506,-4.23848458568,-2.68695043287,-0.0512454667782,-3.55970854365,-1.13484361964,-3.08770443754,-2.55268071822,35.1979359471
off_to_on,-2.73907855193,-3.27580857258,-1.04277124141,0.466028330883,-1.36547372107,-3.85512027728,-3.0838441793,-2.79750525884,-0.178709373907,-4.13157495012,-0.741594016509,-4.05334445242,-2.50444473388,24.9418709761
off_to_on,-1.18111083015,-2.37647815687,-0.183264646604,0.320876340261,-0.986567782898,-3.53949597246,-1.12513955406,-2.15689118261,-0.286179803263,-3.63095325312,-0.112276922126,-3.92625181571,-1.75805920692,2.98509654605
off_to_on,0.585646397884,-0.905754813883,0.772937248787,0.111148170985,-0.451468389031,-2.47429358084,1.07379904756,-1.03587313034,-0.35764638383,-2.25574681338,0.564393689937,-2.81588578271,-0.556668227826,-24.7386801032
off_to_on,2.03639779661,0.696338031994,1.48653108782,-0.0969607248783,0.0703215131471,-0.917418796252,2.88130596336,0.17234639026,-0.379751829386,-0.439690916895,1.07219050202,-1.10852134752,0.716056971188,-49.5768109822
off_to_on,2.76718466126,1.96571877478,1.68892328914,-0.246538638221,0.434055885772,0.766010150018,3.79201259195,1.08786551384,-0.345095669303,1.28629357593,1.23500192611,0.656516406984,1.65625605041,-62.8965435825
off_to_on,2.61063990803,2.55417849131,1.27526658696,-0.306998628059,0.562595245796,2.19515842428,3.58091185089,1.46765797452,-0.255125546606,2.45652388585,0.976612051862,1.95639512914,1.96966854341,-58.9702361502
off_to_on,1.67634391941,2.33254633543,0.346476567477,-0.280611751998,0.466303674069,3.06649444782,2.36857050318,1.27641481733,-0.121434736454,2.80580602671,0.352678687134,2.4468452641,1.56896116703,-37.052390956
off_to_on,0.305722131773,1.42509042904,-0.815221436165,-0.196986971299,0.234342174546,3.2244886074,0.577250975859,0.68316410567,0.0353292318179,2.33662549988,-0.457373307729,2.06535030745,0.605980770412,-1.94360379447
off_to_on,-1.04227856757,0.164652601465,-1.83139202604,-0.0983498444169,0.000418838765015,2.69230854364,-1.20747150394,-0.0122477975331,0.188998433028,1.3000083757,-1.19871996483,1.04234803818,-0.573513643119,37.1815493441
off_to_on,-1.93779816024,-1.01707212095,-2.34739580948,-0.0217017094017,-0.106176663791,1.65559934158,-2.4250338857,-0.495304979441,0.313092676674,0.0994866445851,-1.61707214738,-0.183446216331,-1.5403061534,69.3517718153
off_to_on,-2.11310812445,-1.7292494283,-2.14951815744,0.0151627479921,-0.00880574469365,0.40499312772,-2.71792307688,-0.554456900792,0.386342418702,-0.848463984016,-1.53992450569,-1.11849762795,-1.92351057764,85.0051219123
off_to_on,-1.54154785307,-1.74726478995,-1.24133442216,0.0185384849526,0.284613305007,-0.746006390597,-2.04270582309,-0.159463459729,0.397029720718,-1.25141000059,-0.937834286013,-1.3867837938,-1.53857131193,78.8512277045
off_to_on,-0.439358019943,-1.08391009299,0.146480604896,0.013044211385,0.677162386666,-1.54467142979,-0.678822626118,0.526402666375,0.345017024117,-1.03145154519,0.0547887500815,-0.86401282853,-0.45924784254,51.5260291319
off_to_on,0.808431095949,0.0162564649895,1.61808475473,0.0278973576972,1.00913026912,-1.86108004105,0.867427039826,1.2044871682,0.24106322675,-0.341360113854,1.16845532522,0.271932023476,0.992135131371,9.54733558624
off_to_on,1.77363992798,1.15763574498,2.72867858111,0.0810917945172,1.10871591139,-1.71183296953,2.03276373797,1.54953507988,0.103847538886,0.496940440737,2.07114410229,1.59344521874,2.33661036106,-36.4090251667
off_to_on,2.1223617381,1.92374325962,3.12002946701,0.168226599057,0.852941483996,-1.24001229963,2.38592454419,1.33213727865,-0.0442606893215,1.10973088835,2.46501430193,2.56414764088,3.08681329716,-74.402341451
off_to_on,1.72148191425,2.01529523656,2.6336030529,0.260973098864,0.22000631425,-0.658829507072,1.77451477608,0.512718146179,-0.18143641245,1.20514953145,2.1792113794,2.72414019157,2.90668725189,-94.4559046775
off_to_on,0.681692244327,1.35199782599,1.36583900054,0.316399685186,-0.68488741145,-0.177194536177,0.381424699334,-0.72636922044,-0.289619606705,0.678782548706,1.23042176042,1.85914918868,1.73227390756,-91.2185550057
off_to_on,-0.675794206356,0.105102168739,-0.352528738499,0.294014386863,-1.6418464763,0.069158657978,-1.32892139564,-2.02427686407,-0.356245230037,-0.343709518239,-0.168823877282,0.0962093273517,-0.186634475226,-65.3459014329
off_to_on,-1.91822380716,-1.35044562546,-2.04809297974,0.174101188595,-2.36773572896,0.0591141474708,-2.75893356705,-2.94960309153,-0.374612996916,-1.54125251476,-1.65933688625,-2.10952402201,-2.34107211799,-23.2675333632
off_to_on,-2.63547033435,-2.55005241069,-3.24062393615,-0.0299870846806,-2.59563021451,-0.113097952937,-3.37440686841,-3.14012330276,-0.343454145605,-2.49857019025,-2.83023489069,-4.09796983129,-4.10149661707,24.544206724
off_to_on,-2.56838326282,-3.08453727688,-3.58286228926,-0.271030416742,-2.16100093959,-0.278192659552,-2.88626418259,-2.42984668213,-0.266346019691,-2.84167657976,-3.33387473995,-5.20263870598,-4.90165827594,66.2977809083
off_to_on,-1.69223314919,-2.73104956692,-2.96266493766,-0.480021281987,-1.06859304374,-0.260015021135,-1.35785842324,-0.921117486581,-0.15138664618,-2.36421423969,-2.98803579837,-4.96400890978,-4.41353731023,91.8608479618
off_to_on,-0.229801056666,-1.52886436047,-1.53721156672,-0.587712214041,0.483308742646,0.0511429629117,0.799170514028,1.02471373611,-0.0111153420635,-1.10392014651,-1.83520925954,-3.29020743747,-2.65986803734,95.2311853542
off_to_on,1.41017993498,0.223962093846,0.310670906598,-0.548470273573,2.13420822814,0.645454478768,2.94241094527,2.87967466514,0.137727753816,0.655820955623,-0.140407645875,-0.511833839654,-0.027888344298,75.9076501165
off_to_on,2.75118720728,2.05270318667,2.08088159407,-0.358001060169,3.44568538484,1.38047113238,4.39495515701,4.09989152735,0.275171982241,2.46078714967,1.67375933459,2.6904762184,2.82338500576,38.8727891115
off_to_on,3.38876005135,3.44230451598,3.29704378676,-0.0582599301085,4.01936746611,2.01544958082,4.65956773326,4.29033780786,0.380124394126,3.81459867499,3.13790346202,5.46784929584,5.13837051476,-6.74940845755
do_nothing,3.11068540125,3.98700194568,3.63900127374,0.272887518226,3.61675484749,2.28504004309,3.58263087937,3.3328938615,0.433595575707,4.32208719176,3.86221342453,7.04202734434,6.27354819482,-49.9850676607
do_nothing,1.96200107461,3.50856397017,3.02896327447,0.544424336249,2.24502936266,1.99057129965,1.41430415728,1.43628327346,0.422501761304,3.80398347347,3.64309701949,6.93047591227,5.87965588304,-80.6716161497
do_nothing,0.235618983728,2.10847071873,1.64777407081,0.68010438793,0.179642112494,1.07974364142,-1.25653488838,-0.910894270165,0.343108985005,2.34900232591,2.52012340508,5.09036846911,4.00460489252,-91.8493651447
do_nothing,-1.60871605295,0.139620246485,-0.121406301434,0.642302757957,-2.08912821961,-0.312840672336,-3.67435331932,-3.07341271108,0.203092993699,0.289228258861,0.767216069334,1.93838082299,1.08701839301,-81.3316648684
do_nothing,-3.07342716554,-1.89272458382,-1.80378862384,0.443775278136,-3.97654361911,-1.88123426935,-5.14338303263,-4.45119135571,0.0214515538828,-1.89166789341,-1.17940543603,-1.75929202537,-2.15802107154,-52.1087127557
do_nothing,-3.76250430453,-3.47054631005,-2.96489934176,0.143334271309,-4.96055530494,-3.21994976958,-5.23783292459,-4.65558639418,-0.173961081231,-3.68808571271,-2.83630778059,-5.09353606447,-4.92838070105,-11.5173729777
do_nothing,-3.49106569715,-4.2022840605,-3.32596985399,-0.173107021401,-4.73210467985,-3.93430346176,-3.92998365768,-3.62635569122,-0.350889609149,-4.70101253044,-3.79896547789,-7.25450782429,-6.54570991154,30.6036831799
do_nothing,-2.33404581671,-3.92252586397,-2.83137093594,-0.419710704714,-3.29387238414,-3.75822118792,-1.59620590751,-1.65247915018,-0.478239291872,-4.72938652556,-3.84447895297,-7.73983327873,-6.62897584661,64.3194540052
do_nothing,-0.601179803663,-2.72633063473,-1.65182650413,-0.53697101295,-0.975358660411,-2.64401764156,1.10015272435,0.710979770706,-0.531632890465,-3.80233269039,-2.98380758104,-6.47202817685,-5.18423390484,81.9804076698
do_nothing,1.25287740599,-0.932407991268,-0.126133240712,-0.508363706708,1.64458712756,-0.795030805908,3.41092134401,2.80570307187,-0.49792650493,-2.15007181523,-1.45122242938,-3.79761305579,-2.58948333134,80.0028661517
do_nothing,2.75585669688,1.01017423551,1.33877718613,-0.362158171061,3.88940490779,1.37233021776,4.72568707883,4.06335726678,-0.377943696401,-0.129813511725,0.363625179904,-0.376172291865,0.516202094103,59.6169646643
do_nothing,3.54514432558,2.64241950475,2.37922590478,-0.158385119624,5.16925238131,3.33002662864,4.74496651608,4.17016052308,-0.187061257577,1.86595640923,2.02024311107,3.00164930267,3.40399022909,26.4082107094
do_nothing,3.45893588099,3.60865558166,2.76635940364,0.0339187902015,5.14550801035,4.57694313754,3.5517197279,3.15250838829,0.0463992717222,3.49082861702,3.13891121589,5.61173881262,5.43747748465,-11.2141690922
do_nothing,2.56725620531,3.73361572892,2.4545566997,0.160844720024,3.82697952895,4.77609674027,1.56319233655,1.35822793833,0.284810056528,4.49657560528,3.48983261343,6.95596216577,6.21715587025,-44.2100890178
do_nothing,1.13757074852,3.04734854801,1.57724675228,0.200575916437,1.56868250404,3.85107549403,-0.61579001291,-0.658978020079,0.486605189893,4.75138146225,3.03846992819,6.84735625986,5.65338410777,-65.1772729872
do_nothing,-0.45083237234,1.75790804398,0.39613181375,0.167477782067,-1.02738675223,2.01302924246,-2.38614117442,-2.31385636328,0.612921241993,4.23285404254,1.93911937549,5.41107240939,3.95708527117,-70.0952931847
do_nothing,-1.81537415443,0.185578918931,-0.777875628622,0.102434881281,-3.28086185146,-0.290960610433,-3.33017649221,-3.16664484617,0.634790959604,3.01141619923,0.483132361628,3.01616868858,1.56084311616,-59.097983482
do_nothing,-2.66865333279,-1.31974319151,-1.66778694553,0.0536014216409,-4.62163368019,-2.49472888064,-3.31503469812,-3.04711772345,0.539807460473,1.2378305422,-0.980680262408,0.169304769003,-1.0001724485,-36.1091858775
do_nothing,-2.87967440143,-2.45586586106,-2.09512293928,0.0551729122372,-4.74339138819,-4.06275338797,-2.49682070358,-2.08841542322,0.336834209243,-0.860517616505,-2.13083916731,-2.5957029715,-3.21219886617,-7.50556544776
do_nothing,-2.48448858569,-3.02380772682,-2.01118534772,0.112394703203,-3.67809560139,-4.63082102388,-1.23354791782,-0.663782841759,0.057229286096,-2.98156361825,-2.74220564841,-4.8073217979,-4.68185161848,19.7542306858
do_nothing,-1.64980925923,-2.953879106,-1.49135925357,0.198601278299,-1.77186657702,-4.09834488061,0.0549472638197,0.748738802818,-0.248605261912,-4.76369373185,-2.7251993912,-6.11454218971,-5.19305887059,39.9591257184
do_nothing,-0.607396193313,-2.30337009096,-0.699486852206,0.265527748735,0.427196643946,-2.64717931052,1.02721559016,1.72588344748,-0.519651001888,-5.82859565512,-2.13069219287,-6.3175584614,-4.71990395817,49.9065382268
do_nothing,0.416014290843,-1.23267066922,0.1635036642,0.263117296017,2.33265416881,-0.683161261552,1.51266123953,2.02918792091,-0.696661728549,-5.85632931758,-1.12490477956,-5.38145519059,-3.40488621583,49.2815255328
do_nothing,1.25058139111,0.031420179849,0.910611809858,0.161394452196,3.48418218418,1.28117958825,1.53022413334,1.66406081146,-0.736089644878,-4.68070740298,0.0554929715995,-3.44146700317,-1.51703170412,40.1482318816
do_nothing,1.80418532694,1.23762022765,1.40645491147,-0.0339802514416,3.66436468788,2.76787694618,1.2368359416,0.852585836976,-0.622114197449,-2.37699662625,1.15593547507,-0.799936014924,0.597533770537,25.8414495936
do_nothing,2.05272265308,2.15219242491,1.5851001399,-0.278748620769,2.93646522427,3.45806140544,0.835054063744,-0.0648355482597,-0.373189153183,0.694115816642,1.95346478551,2.09410725075,2.56576344425,9.72361987938
do_nothing,2.01207440492,2.59772200291,1.44863669377,-0.501520188491,1.59790377787,3.26538775467,0.481782410719,-0.759950660087,-0.0404898732183,3.91692709095,2.29575839598,4.69553466671,4.03757388252,-5.72759055285
do_nothing,1.70955292167,2.48535138842,1.05245379091,-0.626298759308,0.0704508491473,2.3402276207,0.235093957707,-1.03097764276,0.302376862716,6.53656529758,2.12564919562,6.45112035078,4.736544659,-19.2104833063
do_nothing,1.17022764477,1.83583840978,0.485287128633,-0.598592819247,-1.23384089807,1.00753658072,0.0567663628805,-0.860927799999,0.57653028869,7.84272221306,1.48947482954,6.9179907606,4.50984138137,-30.2585389665
do_nothing,0.424391725515,0.783515311393,-0.14919586899,-0.406081749344,-2.02762067871,-0.339384889544,-0.137247437908,-0.402531643029,0.717690875897,7.37559605881,0.528790662926,5.88796192466,3.36976070107,-38.5320106939
do_nothing,-0.46945402408,-0.442174557398,-0.746019663551,-0.0863972991559,-2.21076385683,-1.35524265983,-0.406906411908,0.0996864496687,0.693363362091,5.09161048907,-0.544265183128,3.48012612776,1.51367350896,-43.1660015455
do_nothing,-1.40119658035,-1.55921392396,-1.20834085229,0.281212697408,-1.86713312984,-1.83429151843,-0.734766856134,0.416640351265,0.512219724749,1.42918584199,-1.48629588069,0.162906176357,-0.691956229159,-42.5753971402
do_nothing,-2.20314088381,-2.294777962,-1.45570582199,0.598175297651,-1.20506375174,-1.7519063381,-1.01677006127,0.428034598988,0.222511826334,-2.76105725717,-2.07234703891,-3.31890034753,-2.77181334347,-34.9128151852
do_nothing,-2.67368750739,-2.4539231481,-1.43403980651,0.775935638786,-0.46867093554,-1.24796435985,-1.10382698149,0.165677548553,-0.10056019872,-6.417477231,-2.14800746597,-6.10923869461,-4.24198606246,-19.0674253497
do_nothing,-2.630562205,-1.97737309255,-1.12788268604,0.76298715811,0.146149721746,-0.562319839552,-0.876784299206,-0.208692401405,-0.375256916596,-8.55233536431,-1.67255200771,-7.46307803774,-4.73058832987,4.19636334804
do_nothing,-1.97918499817,-0.969836087036,-0.571931788219,0.56087703986,0.542775378584,0.0532057193089,-0.320397561822,-0.48023442392,-0.535706236215,-8.54040196395,-0.740548351406,-6.96531287928,-4.08680164478,31.5063092925
do_nothing,-0.771346218703,0.31416495034,0.143746141391,0.224021957461,0.728811830623,0.416388042361,0.440261434774,-0.479967625481,-0.549714966103,-6.32207181895,0.428100287959,-4.67737046213,-2.44297392718,57.027044745
do_nothing,0.772281332216,1.52883116584,0.880805556988,-0.156589227558,0.780273371297,0.464231710632,1.16343793902,-0.164614637817,-0.426634966649,-2.45132152221,1.53292150637,-1.15693874594,-0.203114962042,73.6653696098
do_nothing,2.29327612517,2.32812276888,1.4752623533,-0.480550122045,0.785169899388,0.257588384555,1.5717838393,0.356336425358,-0.212916910147,2.03715847939,2.26589702695,2.66891245262,2.04908766977,75.1111391514
do_nothing,3.38029509387,2.4654922373,1.77373825508,-0.667391238506,0.792663228139,-0.0564622392177,1.46249644383,0.859005635035,0.0232043468711,5.91165907608,2.39617201435,5.75141971316,3.70421452132,58.1097367456
do_nothing,3.68747915665,1.87284003915,1.67545976522,-0.678947239917,0.789339538281,-0.307843355985,0.802506193879,1.09526154186,0.213036747266,8.09835296174,1.84319941116,7.22131798414,4.30186177693,24.1652777927
do_nothing,3.05080672988,0.692543201414,1.16787525043,-0.528012789998,0.711277719405,-0.368389907579,-0.233391038632,0.899555075801,0.308033257561,8.00100101273,0.714792530172,6.65336738917,3.67355536579,-20.0435351433
do_nothing,1.56228124934,-0.751360456637,0.343118438527,-0.271141459592,0.484847322208,-0.195838001192,-1.30381218888,0.269346509331,0.293227986523,5.68524110315,-0.706020348268,4.20917663961,2.00622964722,-63.8904472206
do_nothing,-0.42870207247,-2.03881037905,-0.613529151454,0.0114205727104,0.0768352087443,0.15667944755,-2.01322429125,-0.615209088899,0.189461972551,1.86598200879,-2.02759436571,0.606786876763,-0.199800901068,-95.4899581078
do_nothing,-2.39600301373,-2.773967504,-1.46423913754,0.241680591544,-0.469619033791,0.566076324127,-2.05766811335,-1.44409572775,0.044065469315,-2.30350272926,-2.8554384955,-3.08197598122,-2.27227194562,-105.132901626
do_nothing,-3.78160882026,-2.70538591645,-1.97994536141,0.367165923878,-1.03117724782,0.887762370031,-1.34936549036,-1.88659179597,-0.0865525333239,-5.57957022153,-2.9088690877,-5.75017571174,-3.56896466938,-88.4205095868
do_nothing,-4.16348285132,-1.80919947375,-2.00606513218,0.374234955803,-1.43736407353,1.00789958841,-0.0698552714662,-1.71778671854,-0.156372904926,-7.00722932707,-2.11378088889,-6.59460612197,-3.67922049598,-48.0474241643
do_nothing,-3.39373006064,-0.307787134694,-1.51282982881,0.287773535603,-1.52998586332,0.880445256321,1.37443710393,-0.914832234362,-0.144739506142,-6.21213038549,-0.640828305981,-5.36867953278,-2.56048119139,6.45589739977
do_nothing,-1.66000717757,1.38501024215,-0.613082151375,0.158287914645,-1.226769231,0.537089441976,2.48425755584,0.315543271268,-0.0619844988492,-3.51304100189,1.12735259426,-2.46701020225,-0.563012008009,61.0898332302
do_nothing,0.55495505485,2.77873054319,0.461000294431,0.0415402837731,-0.563910117592,0.06923473717,2.84298675657,1.59268533308,0.0558350801843,0.182030920282,2.69537916581,1.1894127684,1.66999808481,101.245094762
do_nothing,2.608933387,3.44873880655,1.41853917248,-0.0218850772137,0.301092234488,-0.408267321538,2.27223392436,2.48493074834,0.160870280186,3.66466949917,3.59516977304,4.43571591428,3.39986228846,115.921278801
do_nothing,3.89244913314,3.16420451384,1.99206741943,-0.0200295731426,1.13072979853,-0.795852476595,0.908583838176,2.65842945162,0.210959555025,5.80947017976,3.52660418783,6.22726935529,4.02747847867,101.004074211
do_nothing,4.01855235284,1.96265714206,2.01720950097,0.0283271995197,1.68081815296,-1.03528745459,-0.830472483659,1.99946363822,0.184472915919,5.93107873087,2.45581173901,5.97158465906,3.29171078685,60.5558704573
do_nothing,2.94896592119,0.147392597297,1.48510929111,0.0831485653767,1.78117929271,-1.1145835957,-2.38315931988,0.66562092699,0.0874555112537,4.00171967745,0.638742797917,3.72228471902,1.36597402452,5.68020355125
do_nothing,1.01353542216,-1.79318993658,0.549825757846,0.100422244623,1.39514033923,-1.0532049481,-3.23580871036,-0.954716246994,-0.0491446679082,0.66003190789,-1.44089188454,0.171610542301,-1.18132125282,-48.7162432489
do_nothing,-1.18688405483,-3.32181284788,-0.513846103834,0.0508070031852,0.635876092496,-0.877761521781,-3.10221265042,-2.36314039617,-0.180839713566,-2.99190379654,-3.20430560686,-3.55901549225,-3.55400299394,-88.2706278267
do_nothing,-2.96622060097,-4.00476211945,-1.39117055946,-0.0671619612209,-0.267582896241,-0.602285683389,-2.02444188067,-3.11243253682,-0.265265700203,-5.73938524557,-4.14356955479,-6.26690816,-4.97339839337,-103.274207392
do_nothing,-3.76990332377,-3.6361390348,-1.8230932704,-0.224138386881,-1.04408433728,-0.224494115673,-0.357653878335,-2.95378983614,-0.27650362057,-6.64308654698,-3.97185868683,-7.04666265931,-4.92580593904,-91.2845857833
do_nothing,-3.35301177381,-2.29775304199,-1.68708792857,-0.368517740079,-1.46891749051,0.25881319585,1.35602969696,-1.9200593617,-0.213104691558,-5.34195916853,-2.71235053569,-5.58085961428,-3.3339750939,-57.4721981027
do_nothing,-1.86124627604,-0.337456154746,-1.03710496183,-0.443691852938,-1.43667532867,0.824373106589,2.57835117553,-0.316842579576,-0.0972961215698,-2.17571004716,-0.697648463269,-2.25111375198,-0.596905781967,-12.6700022294
do_nothing,0.21336370297,1.72740031427,-0.0886002304625,-0.408182436069,-0.993115974179,1.39802810751,2.96019563009,1.3751574185,0.0339155425067,1.9117877131,1.52177005618,1.96684290849,2.51721936019,30.1722117221
do_nothing,2.18958103482,3.35312421418,0.848210966399,-0.251768388401,-0.315033776368,1.84960579744,2.45350885218,2.65319762836,0.142167243006,5.65846205134,3.33401155274,5.79345424963,5.09442652878,59.9431522764
do_nothing,3.4172314641,4.11827061593,1.46689263863,-0.00197374550362,0.354529312538,2.01720322405,1.31023239355,3.14962165832,0.200658024199,7.87116805326,4.24114871004,8.03305819553,6.34762758279,70.4694067299
do_nothing,3.48942194706,3.83580607647,1.56416712267,0.28158328292,0.792621409533,1.75885477869,-0.0281308727465,2.74168553315,0.201966372516,7.7950377716,4.00156105061,7.9409849208,5.85579351555,61.8338995513
do_nothing,2.37716266573,2.59841958739,1.10791480295,0.523511751547,0.873587100534,1.01616588678,-1.10507929295,1.58016177014,0.158267540205,5.35222987249,2.69714895184,5.45820514266,3.69671731223,39.6216666216
do_nothing,0.441510765045,0.746332161747,0.25079961154,0.654676959664,0.609841598222,-0.134548390609,-1.61872918465,0.0310628372582,0.0943860284143,1.17765760707,0.706034036734,1.24192599566,0.432750015957,12.5020967873
do_nothing,-1.68184860316,-1.23094408425,-0.716408833592,0.633089036164,0.142051233997,-1.46828608614,-1.5207422445,-1.44630346962,0.0367719864171,-3.55899120313,-1.41017982384,-3.51789497818,-3.04659623727,-10.9162658231
do_nothing,-3.28877241659,-2.82947915899,-1.45818275375,0.457124326115,-0.317238630935,-2.64918771513,-1.0080757364,-2.44223383923,0.00288144770185,-7.49163434374,-3.07009751975,-7.4421232449,-5.77837847649,-24.8430028809
do_nothing,-3.83666459983,-3.66411604467,-1.70492063142,0.166952943488,-0.565744070782,-3.31715939646,-0.414736081532,-2.71383051695,-0.00491622201743,-9.45620048725,-3.83809085759,-9.3648455682,-7.00123585406,-27.7748251943
do_nothing,-3.12317011287,-3.56390860656,-1.34509734561,-0.1662710333,-0.489290492831,-3.20093210345,-0.0514113900486,-2.24182928708,0.00129814033721,-8.8320714544,-3.54314768955,-8.67654513295,-6.3712875799,-22.2917527744
do_nothing,-1.35492175972,-2.60589058177,-0.468064918329,-0.460128424062,-0.106833077848,-2.2214892967,-0.0621391129516,-1.21500166873,0.00184333835438,-5.72748985576,-2.31757617003,-5.5080389981,-4.0571277537,-13.4163251936
do_nothing,0.916420397179,-1.08135660168,0.657991387856,-0.643572238553,0.434086638419,-0.547705167212,-0.360125589252,0.0453313272978,-0.0204723396089,-0.956141706638,-0.546911831313,-0.702019402058,-0.688485052985,-6.27069831114
do_nothing,2.97019220208,0.592515217173,1.66761865976,-0.675755417247,0.910320730204,1.42221632647,-0.671840434179,1.19027619795,-0.0712537038733,4.18737167881,1.25102533255,4.4194652087,2.82408402621,-3.97030783877
do_nothing,4.14758952818,1.98885693611,2.2142548307,-0.555687818822,1.10585449547,3.15708173625,-0.672522739271,1.94185128408,-0.140237437918,8.28839855992,2.57970199398,8.42506835753,5.54462307048,-6.54091579182
do_nothing,4.06247030249,2.78244547895,2.08413290991,-0.320333961736,0.894667131407,4.14365317467,-0.155881388261,2.15627967877,-0.203746829718,10.2070540398,3.10381064887,10.1767775412,6.76868411853,-11.2095710718
do_nothing,2.7241495841,2.82688907239,1.27093468413,-0.0323462381423,0.293634184868,4.04762957392,0.83701725078,1.83938576244,-0.233143997933,9.39638348304,2.73544521999,9.15179906657,6.20997310726,-13.8724516246
do_nothing,0.533368249917,2.17942671301,-0.0138999917278,0.238333407418,-0.534330801315,2.83223303838,1.99156600632,1.11916645618,-0.206151893185,6.05586858377,1.6441945239,5.59375265027,4.06707957351,-11.0923104157
do_nothing,-1.84589904803,1.07030149965,-1.40003133668,0.433212334295,-1.32930803467,0.791617515916,2.81796256069,0.193384767308,-0.116713250893,1.07866954199,0.192402493116,0.451205431677,0.955736076087,-1.79149709701
do_nothing,-3.69608465064,-0.171349292929,-2.46892077134,0.518876099545,-1.81960626321,-1.51849619696,2.84403217577,-0.72619465646,0.0205055532673,-4.19200864996,-1.18121622015,-4.87947941133,-2.27029750724,12.0534884452
do_nothing,-4.46893186476,-1.2123596699,-2.882215545,0.49207925073,-1.81432144696,-3.43746575614,1.82949806577,-1.45644659993,0.17293392863,-8.33003287436,-2.09259554768,-8.93628994597,-4.75698679432,26.0041249677
do_nothing,-3.95066874931,-1.80441132639,-2.48765021659,0.375818548919,-1.27143836434,-4.39810889168,-0.0872159713955,-1.86622414723,0.299522355008,-10.2163445545,-2.31892255471,-10.5939462737,-5.87975456253,34.8149917955
do_nothing,-2.31874961018,-1.84352962198,-1.36912555395,0.208762196836,-0.317812972944,-4.10482172736,-2.37910686835,-1.88421752104,0.363613102015,-9.34539397495,-1.85140489017,-9.37623055191,-5.40329889103,34.5073122391
do_nothing,-0.0756304414865,-1.38616271173,0.174893337561,0.0322309085185,0.786328622204,-2.63298539701,-4.27777259943,-1.50020739602,0.344803666957,-5.96430680888,-0.882458299032,-5.59226295157,-3.53081844842,24.0464405468
do_nothing,2.1152060258,-0.620326206872,1.71803513483,-0.120817697447,1.72693571868,-0.414561783777,-5.03634771765,-0.766900375707,0.245681538881,-1.00628300988,0.264482213005,-0.258231910576,-0.833161584932,5.95316249078
do_nothing,3.63556347933,0.197500569877,2.83088198631,-0.231630917078,2.23347700161,1.8891454289,-4.2169527457,0.1971504194,0.0911296411802,4.16457468712,1.23816630862,5.17578904303,1.91910359228,-14.418790593
do_nothing,4.09468302202,0.820346917955,3.20565649646,-0.295413968962,2.16207738549,3.58954394646,-1.89347745243,1.21039964885,-0.0794715887074,8.12831260346,1.76350341932,9.2209910419,3.97248731972,-30.6991706474
do_nothing,3.43163815304,1.08114752757,2.74309909328,-0.316432280719,1.53759127925,4.18410995376,1.31624011261,2.04708281878,-0.224357516936,9.80184391171,1.71615419671,10.7597929154,4.79635276929,-37.7516122311
do_nothing,1.91075320223,0.936248003702,1.57640444928,-0.301483417014,0.541879677612,3.5125614473,4.41665608429,2.47843401426,-0.311614351235,8.74086816757,1.14827217504,9.35785419624,4.22219510163,-33.5241380365
do_nothing,0.018513562346,0.470955577597,0.0270722434185,-0.255022736959,-0.546340844786,1.8050699215,6.35413787984,2.33300105944,-0.327475815602,5.26587575577,0.261439545367,5.39046988357,2.47990284653,-19.804565165
do_nothing,-1.69869462792,-0.132927936274,-1.49159248454,-0.178136806818,-1.43890310328,-0.393411005879,6.38420626533,1.56067442857,-0.278197749978,0.374528859614,-0.661693671163,-0.0545783562748,0.122791589754,-1.58610679646
do_nothing,-2.80056459195,-0.656945373422,-2.59247812748,-0.0715952535942,-1.92350237964,-2.39812570989,4.35580526572,0.276739626783,-0.185419618766,-4.5381119659,-1.34457541054,-5.47418598554,-2.13655870111,14.737688084
do_nothing,-3.07023035328,-0.915042716475,-3.01849477156,0.0588141376023,-1.91960286845,-3.60169761949,0.80431606588,-1.23723479138,-0.0772217874563,-8.07518349538,-1.59649915885,-9.36705604188,-3.63334759543,23.693167595
do_nothing,-2.55075005138,-0.811404390452,-2.70303844138,0.197716915409,-1.48882071604,-3.66285391162,-3.19141497278,-2.58776761299,0.0215495412217,-9.23821781983,-1.36269241406,-10.6551458595,-3.94226895768,22.7100115086
do_nothing,-1.49762047535,-0.370140177264,-1.77295402637,0.319343950717,-0.799839601789,-2.60607395178,-6.34960770575,-3.3722610456,0.0961555165416,-7.71661386227,-0.732450021304,-8.98992857816,-2.99954109037,13.0331676117
do_nothing,-0.27199761341,0.271784082044,-0.498150848525,0.392078185216,-0.0632633483045,-0.801712963442,-7.61230720389,-3.30329301287,0.143860046036,-3.98024889589,0.0943342983308,-4.85418083543,-1.11983938246,-0.782088527427
do_nothing,0.783678954941,0.906209240163,0.792503067763,0.387706349384,0.538988788377,1.1638842155,-6.51159021136,-2.31438232374,0.170772778428,0.855465023892,0.870247865044,0.57310479304,1.09796680265,-12.6177819762
do_nothing,1.4446805558,1.31771092612,1.80142752913,0.292496421164,0.905063013737,2.68265720486,-3.34477455042,-0.607514321691,0.185568416767,5.35631616942,1.37355186121,5.75305727674,2.95045291425,-17.1493642861
do_nothing,1.6482531627,1.35082941343,2.33255456664,0.115912130346,1.02933460801,3.31782712051,0.907978270451,1.38180143068,0.19314187119,8.19395602199,1.47034671323,9.22931009809,3.84323483899,-11.9441451493
do_nothing,1.47630456055,0.960488042665,2.32474585638,-0.107004888474,0.981324369593,2.93250744144,4.90079537952,3.09960242714,0.191104544045,8.54280497039,1.1488236807,10.0481138562,3.47549946682,1.48232851348
do_nothing,1.09228682188,0.230224435359,1.84501743771,-0.321741657482,0.859295775393,1.71461035958,7.36776941144,4.03758334632,0.170688595065,6.32882007333,0.51733482239,8.03211875356,1.93897026625,18.0683231546
do_nothing,0.662601701099,-0.647823081229,1.05071018615,-0.468194745767,0.739286272923,0.0950671964757,7.5441084871,3.89486049081,0.121667046231,2.25211110537,-0.231569570026,3.82542291517,-0.30147323513,30.9595508082
do_nothing,0.294696481762,-1.42600384136,0.137337693074,-0.498657937257,0.640907554796,-1.40759832762,5.41680556323,2.68253744639,0.0391165756695,-2.42681236282,-0.879642907238,-1.30490814542,-2.54353305663,34.0158247902
do_nothing,0.0135113568758,-1.87228954028,-0.710352143542,-0.394296839255,0.523589731564,-2.36004655229,1.71814630782,0.732248282156,-0.0710351340767,-6.2743620907,-1.24665618828,-5.85203977547,-4.06172230579,24.1876257943
do_nothing,-0.219944224012,-1.83886336654,-1.35175618259,-0.174341978672,0.314112327117,-2.5450992908,-2.33407655705,-1.39909395787,-0.190366629249,-8.12653444265,-1.24109378308,-8.52148494257,-4.33623645769,2.90421716644
do_nothing,-0.461913726196,-1.30799905874,-1.70419615271,0.105899058491,-0.0467701783966,-2.00956749391,-5.45645094097,-3.10044815484,-0.291429330195,-7.44907364451,-0.883728308355,-8.61419570794,-3.22521361539,-24.0579456816
do_nothing,-0.735876225234,-0.401423988303,-1.74081877145,0.368712106955,-0.559023897621,-1.01895050469,-6.73095567319,-3.89827800804,-0.345506700854,-4.50096252637,-0.297917407546,-6.22320666138,-1.02375002644,-48.2410370065
do_nothing,-1.00374133151,0.650169014987,-1.48060040229,0.535966281423,-1.13997932848,0.0577086315436,-5.8960990222,-3.60430827698,-0.332080065448,-0.247796572428,0.329970282176,-2.18406708159,1.61365795873,-61.192211974
do_nothing,-1.1722608977,1.56926488759,-0.978088166411,0.55302336598,-1.63555602969,0.886345777696,-3.39957689175,-2.36874755976,-0.246594145146,3.94913841975,0.808038565663,2.20350676411,3.86814040553,-57.2980775314
do_nothing,-1.13246828789,2.10791460468,-0.316526874596,0.407049732015,-1.86539895857,1.27813712715,-0.201307481196,-0.620526608146,-0.103574258818,6.76971281904,0.997135379272,5.59298126704,5.01141035987,-35.8272864832
do_nothing,-0.814925096811,2.11676155481,0.397083065858,0.133515092016,-1.6875901018,1.23380208535,2.59397027256,1.0843356599,0.0662719423417,7.35740144976,0.852526604328,7.01348929327,4.64133315164,-1.48650429437
do_nothing,-0.235881585767,1.58713719047,1.03984888068,-0.191911739364,-1.05974563634,0.911367882398,4.13536921223,2.25246525764,0.224217843282,5.59019476091,0.436390853456,6.16244998812,2.82164065113,36.7304214975
do_nothing,0.487716624402,0.654314870949,1.48845176017,-0.4743331304,-0.0727765586604,0.536493101702,4.10889896376,2.61357927495,0.334329741223,2.11113328672,-0.102833104769,3.47604624741,0.0771456076905,68.074514012
do_nothing,1.16422920922,-0.438961928639,1.64310285636,-0.62753276664,1.05810208619,0.295437781598,2.80489544835,2.19510293426,0.373385494937,-1.89201225509,-0.578212987613,-0.041722098086,-2.7592692227,83.1905988315
do_nothing,1.58747091588,-1.40836647682,1.45523222581,-0.60043364752,2.04609538693,0.25540450185,0.953385765245,1.2861446795,0.336706232183,-5.08546893108,-0.82472116013,-3.17126762497,-4.80355551949,76.9257254194
do_nothing,1.60965632572,-2.00482201185,0.949493554829,-0.393838085904,2.61472828536,0.343971922765,-0.600602036697,0.307155210643,0.23818226065,-6.43431344852,-0.753507447915,-4.89128359151,-5.4014832348,49.9478414879
do_nothing,1.1993877567,-2.08096534826,0.229605612819,-0.0619481398851,2.5832664774,0.394166358154,-1.24990279866,-0.363134911135,0.104813884871,-5.54490251905,-0.382679271191,-4.7150507341,-4.34326365888,8.6925758359
do_nothing,0.461363713822,-1.62910025484,-0.538730414162,0.302246151224,1.92744618447,0.234415359381,-0.865753752539,-0.535919667603,-0.0320668045662,-2.78983773126,0.165903812485,-2.83717766529,-1.94014543762,-36.3398584493
do_nothing,-0.391769778467,-0.780684503283,-1.16699785379,0.593635027585,0.794431669516,-0.216050680591,0.168642100878,-0.277795879052,-0.145742021007,0.826889563889,0.703858141356,-0.0437729823669,1.06560949686,-73.4331129211
do_nothing,-1.10712602219,0.231812825803,-1.49554291776,0.725831967664,-0.534508035945,-0.888500175811,1.14345346992,0.132167296672,-0.220271174013,4.01915562598,1.03666742466,2.58003653786,3.73204865276,-92.8268046157
do_nothing,-1.47539337396,1.13951447308,-1.44188961643,0.656910023599,-1.72299274131,-1.57048806202,1.35060859476,0.336694110241,-0.252175041762,5.66376374163,1.02849909065,4.04203822825,5.21768932381,-89.3240140868
do_nothing,-1.40076398945,1.71001118163,-1.02886778743,0.402222987969,-2.47576548332,-1.97797808031,0.420633034127,0.0717965387906,-0.247734865284,5.18928231289,0.650521865636,3.79725738309,5.05365799153,-63.6350899685
do_nothing,-0.93165233623,1.8084750476,-0.381137616344,0.0303998763927,-2.62197324828,-1.86821789329,-1.47307080562,-0.695337793326,-0.217619207066,2.77490294829,-0.0037106493966,1.94101446094,3.29812926563,-22.133399886
do_nothing,-0.241099316883,1.43067209673,0.311029969446,-0.356296239002,-2.15958393416,-1.14964511706,-3.63409174678,-1.72210240513,-0.171390199703,-0.710141371295,-0.742226550839,-0.826677810696,0.520588717935,24.8590031498
do_nothing,0.435810164317,0.699624733694,0.850269391394,-0.651341623348,-1.24789757514,0.0563755899111,-5.09137770837,-2.56475965505,-0.114213956311,-4.007299807,-1.33183104362,-3.4529147755,-2.38107465315,65.7547039227
do_nothing,0.884498559925,-0.172170894042,1.09392913272,-0.774290977832,-0.152149022148,1.43090951288,-4.98841052471,-2.74936046903,-0.046948300174,-5.90733903424,-1.57134361445,-4.91161074776,-4.47212700281,90.6267032764
do_nothing,0.983362316394,-0.943676107747,0.99810133587,-0.693160773223,0.840405628137,2.55050820774,-2.96433975775,-1.97673721589,0.0307951053149,-5.67620139222,-1.35779082982,-4.57748685818,-5.0858304284,93.6282531093
do_nothing,0.740323016049,-1.41201900147,0.628375177672,-0.432484299461,1.5049640514,3.02866229533,0.627229377662,-0.28065865631,0.116363039755,-3.32047426824,-0.723890100404,-2.46186449916,-4.04078108098,74.3273831021
do_nothing,0.281423934369,-1.46645245277,0.133310058607,-0.065071460587,1.73729517626,2.65619044864,4.76166811295,1.92946807105,0.200864212235,0.401099095676,0.166279334066,0.774621436645,-1.69831203597,37.6766246097
do_nothing,-0.202526465279,-1.1150153699,-0.310036684384,0.309631877763,1.56862513674,1.48866404535,8.05309710509,3.97005284171,0.268944753201,4.22684044501,1.06338266597,4.03958992143,1.15947169189,-7.31617059024
do_nothing,-0.529862715809,-0.477294369326,-0.558957043248,0.593867298084,1.13578132586,-0.154218647143,9.2324521437,5.10387683596,0.30215749408,6.81901792806,1.70714214311,6.18316390189,3.59047797396,-49.8449249826
do_nothing,-0.594164942046,0.253676775266,-0.553557861556,0.718185506862,0.620313210166,-1.78192322486,7.62573363974,4.80682503938,0.284977016865,7.22342584837,1.90581478421,6.39967117934,4.80501434673,-79.9207587948
do_nothing,-0.39817944719,0.868720860997,-0.33333594998,0.658876577115,0.180127071701,-2.89031988983,3.45412578491,2.9844576937,0.211270371657,5.20430541726,1.59563547457,4.51674810934,4.42517669226,-90.7192179991
do_nothing,-0.0443489810257,1.20218382011,-0.0162382232564,0.441776304518,-0.101670230573,-3.13008850163,-2.16641848254,0.0533909130754,0.0886307535109,1.33889440317,0.86107534183,1.06986798268,2.60464780181,-80.1192472491
do_nothing,0.312173583062,1.17683366146,0.251284804995,0.132198496499,-0.233645946683,-2.42769792601,-7.54468541855,-3.15372481535,-0.0613983847221,-3.16254510505,-0.0908072254233,-2.86577754992,-0.0302781092854,-51.0965594216
do_nothing,0.527871263818,0.821521228293,0.353700248236,-0.185266786867,-0.294976157921,-1.01538530649,-10.9561327797,-5.63897900721,-0.207755751081,-6.85186145293,-0.993853109237,-6.03005063158,-2.59695209391,-10.9051839649
do_nothing,0.526445420212,0.257370174183,0.252127240147,-0.430722923641,-0.387013418754,0.642534502996,-11.2258703559,-6.56705982052,-0.317801163907,-8.52063523551,-1.60378793275,-7.39841831002,-4.2552434335,30.7383706484
do_nothing,0.324031952692,-0.34235292246,-0.00148901351612,-0.549752475423,-0.577958568972,2.00364157144,-8.14907569499,-5.55886705135,-0.366286388188,-7.59966340853,-1.77074416068,-6.52441440991,-4.48694312024,64.0237643276
do_nothing,0.0154506808468,-0.805808388247,-0.287330672729,-0.525532290957,-0.863188952171,2.62981033849,-2.59549141782,-2.84544218071,-0.342436188039,-4.34657349384,-1.48031313131,-3.68709977049,-3.26131618766,81.3950954662
do_nothing,-0.270986976146,-1.01297695107,-0.468701825967,-0.379703828454,-1.15745591506,2.33549990897,3.74867466372,0.779092493323,-0.252821962265,0.239904288614,-0.850703312426,0.205928916691,-1.03246046465,79.3104059639
do_nothing,-0.429897002262,-0.92766808732,-0.45067108265,-0.162804912873,-1.32284930477,1.25048785849,8.92193700504,4.19877586049,-0.119142563647,4.74791581,-0.0882365283418,3.92509657057,1.42750265287,58.9862912591
do_nothing,-0.422129539262,-0.602058072719,-0.222529518005,0.0621057258301,-1.22270126729,-0.225233506143,11.3313414166,6.33582440349,0.0282439248459,7.81062759455,0.582827052257,6.32837809273,3.29902591028,25.9528061219
do_nothing,-0.286700169929,-0.153590606595,0.133793968805,0.237483851112,-0.781482220257,-1.5595273747,10.2792438882,6.50949835705,0.158802451597,8.54060140105,0.991965435502,6.73307251952,3.99436467297,-11.4540907929
do_nothing,-0.116819620357,0.277066175734,0.473943697382,0.325930135527,-0.0278908325791,-2.27207996558,6.19099858686,4.67020082794,0.249526031888,6.79750464805,1.07157783063,5.12417727475,3.34900117997,-44.2594036544
do_nothing,-0.0111843173247,0.572396361169,0.649038496247,0.317824934046,0.896225495768,-2.10118051306,0.463619678368,1.42496523358,0.28952519612,3.20550525231,0.868091353473,2.13225726719,1.66117219734,-65.0985941191
do_nothing,-0.022743909447,0.673139775136,0.568657885569,0.230664832828,1.76671602684,-1.0959702483,-5.01330218873,-2.15911546272,0.280418423997,-1.07710922776,0.513072738361,-1.20529735564,-0.430319557373,-69.95496262
do_nothing,-0.128805933713,0.59080609247,0.243266158852,0.101169469862,2.33941968921,0.397696371016,-8.49902559346,-4.91006738837,0.23299695592,-4.75057396089,0.166517369256,-3.81100083869,-2.18295301837,-58.9388529366
do_nothing,-0.237613966216,0.394438014672,-0.212451474485,-0.026970338124,2.42442346149,1.85325598597,-8.98348103843,-5.94502580455,0.161901308855,-6.79169414864,-0.0459697496347,-4.93111709937,-3.01554951971,-35.9397472034
do_nothing,-0.230799776768,0.177685661541,-0.619004916539,-0.115999295145,1.94826132098,2.74207348016,-6.50884832795,-4.96779893424,0.0805584939156,-6.7575104091,-0.0787581515659,-4.37039376762,-2.7069329563,-7.30788802899
do_nothing,-0.0247841836043,0.0192977983331,-0.800900839117,-0.14417481431,0.983612967132,2.71431162171,-2.12207742313,-2.36646859591,-0.00176341915395,-4.87979615104,0.0219678881834,-2.52057776969,-1.45915764574,20.0029119516
do_nothing,0.375766164613,-0.0475766490982,-0.658915054002,-0.110602205044,-0.263558179879,1.72110034171,2.52050645824,0.924052801266,-0.0800181720946,-1.93134659747,0.143811176179,-0.180972086303,0.193907619691,40.2616572317
do_nothing,0.858299142072,-0.0453017228864,-0.217021204402,-0.0339633680958,-1.50593683433,0.0371122590506,5.75330971006,3.74797793672,-0.151115874523,1.07593843223,0.160767536197,1.75646157766,1.59588114627,50.2295397283
do_nothing,1.23012544545,-0.0369351580108,0.376488025295,0.0541251881186,-2.45023573889,-1.82380965602,6.49213685312,5.13043326198,-0.210886206203,3.24660507125,-0.00789729824013,2.63843700629,2.21632500402,49.5557039028
do_nothing,1.28791772081,-0.0925186491029,0.897283888662,0.119101459716,-2.87363049545,-3.27180778428,4.60645655957,4.6152285056,-0.252111669866,4.08440424811,-0.355867954694,2.27661297686,1.84662265095,40.2868231273
do_nothing,0.904718831962,-0.250223163153,1.12708301293,0.134039933159,-2.67940744231,-3.82922430099,0.943551762704,2.42053035113,-0.264936817354,3.60919406234,-0.782367359539,0.989041792738,0.671952008311,25.7709025647
do_nothing,0.0999769660248,-0.48897831518,0.939753283019,0.0880058571562,-1.91727031429,-3.28283486154,-3.00028838658,-0.642187797436,-0.2398377425,2.27977228265,-1.12365818724,-0.552811735311,-0.805787602463,9.41530632972
do_nothing,-0.938867489691,-0.725661752162,0.358287002065,-0.010059478311,-0.764988060263,-1.75192750945,-5.64045155707,-3.45753604658,-0.172100013729,0.766195282389,-1.21322411963,-1.60853752631,-1.96419496261,-6.23707735805
do_nothing,-1.89859587225,-0.840883692453,-0.441271872821,-0.133064646877,0.520639426447,0.347764722147,-5.89330086083,-5.00219137702,-0.0659214074906,-0.332447872171,-0.948984657499,-1.67349223625,-2.30199604034,-19.8194469312
do_nothing,-2.4377445672,-0.725992953097,-1.18392777337,-0.242845124082,1.66774989379,2.43054928443,-3.5814693059,-4.70799504969,0.0638136645937,-0.714199869089,-0.342167353346,-0.686079265727,-1.63565724643,-30.8227891642
do_nothing,-2.30828381263,-0.334417923224,-1.59101068322,-0.300915704809,2.4503928639,3.91591178984,0.490971486001,-2.6640746288,0.193294196007,-0.460921244172,0.471971788007,0.942481469592,-0.177079624397,-38.9040574403
do_nothing,-1.45773712368,0.283288661954,-1.48324253337,-0.280123479495,2.73196846751,4.39702838383,4.821184351,0.41345220634,0.294992530482,0.0403612431853,1.26826458881,2.48836524638,1.53780770652,-43.2387612449
do_nothing,-0.0713283552864,0.977333356702,-0.853486945493,-0.173955179843,2.48366087976,3.75202411123,7.74778113152,3.43365714103,0.344898634454,0.301805299262,1.80113187961,3.20527238884,2.84472669869,-42.3162288419
do_nothing,1.46724496707,1.53520992165,0.11951293265,-0.000616830135304,1.77827717404,2.16765044086,8.05616487825,5.31598170436,0.329483835939,-0.0233628989543,1.88664556075,2.6339147013,3.19993114831,-34.3764617141
do_nothing,2.68924548706,1.74829584098,1.12450917166,0.199779684193,0.765890705764,0.0735491217654,5.43292938518,5.37254808184,0.250048915059,-0.963026840278,1.46866988313,0.810806540683,2.39067945405,-18.3831433172
