label,COUNTER,INTERPOLATED,AF3,F7,F3,FC5,T7,P7,O1,O2,P8,T8,FC6,F4,F8,AF4,RAW_CQ,GYROX,GYROY,MARKER,SYNC,TIME_STAMP_s,TIME_STAMP_ms,CQ_AF3,CQ_F7,CQ_F3,CQ_FC5,CQ_T7,CQ_P7,CQ_O1,CQ_O2,CQ_P8,CQ_T8,CQ_FC6,CQ_F4,CQ_F8,CQ_AF4,CQ_CMS,CQ_DRL
off_to_on,-1.84462431565,-4.56426673588,7.00811008931,7.50633832953,-7.20908658012,-18.0948985712,-23.467203403,-0.0922934350569,6.59431891254,-3.54695720181,-2.12299343073,-14.8998796474,-11.8220248852,-33.1087486193
off_to_on,-4.38669254036,-7.42356056124,5.36303955513,6.45801673541,-10.3612376151,-21.9920456427,-26.9461792447,-2.42850671833,5.13222177692,-4.42198099052,-3.69682376024,-18.5327337266,-14.7745888356,-36.227946674
off_to_on,-6.01703701353,-9.0856932287,3.44403936434,5.05181260541,-12.0473268968,-23.2914981619,-27.2650114469,-4.13384764568,3.46234612423,-4.396682386,-4.63446158276,-19.8047536444,-15.835136817,-35.4505104927
off_to_on,-6.54704239859,-9.33519337284,1.38272442639,3.36771888966,-12.0066943242,-21.7038106462,-24.1802944978,-5.01573306961,1.69056103587,-3.35894216633,-4.88758633599,-18.4187890865,-14.797456577,-30.854946182
off_to_on,-5.91146588139,-8.10917594899,-0.679125380046,1.50550251084,-10.1643718102,-17.2402897108,-17.7929929266,-4.96867687122,-0.0772548478641,-1.30527370523,-4.4538579294,-14.3572662243,-11.6749450767,-22.9083919342
off_to_on,-4.19024757042,-5.52346172005,-2.6043104784,-0.424279984539,-6.66438107657,-10.2493746464,-8.58269163957,-3.99878473145,-1.74496902292,1.63856743639,-3.39748226607,-7.92193307186,-6.72828939191,-12.360561554
off_to_on,-1.61324252952,-1.8780252974,-4.27428827986,-2.30984644692,-1.87721003953,-1.41392346958,2.6000333671,-2.23592098233,-3.23413526081,5.2110935852,-1.86435978652,0.263173383825,-0.4645895969,-0.115885513606
off_to_on,1.45496770986,2.36176669832,-5.60072173641,-4.04722344263,3.62294973819,8.29547601355,14.5886535284,0.0699586696642,-4.48917011964,9.02632768848,-0.0861733530735,9.29115212179,6.39616619075,12.8916594026
off_to_on,4.55034787161,6.60844741194,-6.5329976687,-5.54779388242,9.11153763911,17.7101718318,26.0025398336,2.56976703381,-5.47924283325,12.6041259871,1.63065959227,18.0540474609,12.9869873182,25.7993473908
off_to_on,7.16196781096,10.216999013,-7.06078507802,-6.74366978148,13.7933459819,25.5887592428,35.3882288761,4.85251839765,-6.19684894768,15.4181535595,2.93269095013,25.3608182972,18.387024248,37.877100657
off_to_on,8.79624193017,12.5639468503,-7.21140687527,-7.59054097392,16.9001599301,30.7648521076,41.3862090213,6.49526459454,-6.65352468271,16.9572036729,3.46220046689,30.0793397754,21.7323278152,48.543671103
off_to_on,9.0450318813,13.1315363362,-7.042529858,-8.06800626745,17.7944652257,32.2996740783,42.9041719483,7.11993310103,-6.8735655191,16.7930120644,2.91025611107,31.2856463209,22.3310375891,57.3418222464
off_to_on,7.64855676068,11.5859383648,-6.63133100495,-8.17771342718,16.0654701939,29.619546722,39.2747467323,6.44972012767,-6.88687844576,14.6459492229,1.07271094355,28.4009988511,19.7678822543,63.8856974405
off_to_on,4.54404105673,7.83831482794,-6.06177894367,-7.93987502567,11.6036442384,22.6187344271,30.3756669518,4.35711276441,-6.7221840741,10.4393175373,-2.09980053758,21.2973124334,13.9829699404,67.7997734148
off_to_on,-0.10767733911,2.07905665426,-5.41190928017,-7.38886007178,4.64191437814,11.711281239,16.6933601961,0.896153080756,-6.40168151857,4.33362800068,-6.46698389694,10.3542034625,5.31210026778,68.6710336015
off_to_on,-5.92286760904,-5.22153050526,-4.74293847157,-6.56857635069,-4.24457952833,-2.178834252,-0.683106418915,-3.68679584752,-5.93801376729,-3.26581084224,-11.6868961166,-3.54380150256,-5.51993778768,66.0337303481
off_to_on,-12.3248485829,-13.3487109257,-4.09176031694,-5.52826434497,-14.1831312613,-17.6923524383,-20.1425816191,-8.96694202071,-5.33396861076,-11.7315818335,-17.2318598918,-19.0741060831,-17.4558896143,59.3996173766
off_to_on,-18.601184316,-21.4128626609,-3.46784788996,-4.31914557363,-24.0896202675,-33.1688791971,-39.702277152,-14.3795836771,-4.58488369507,-20.2668893671,-22.4334708352,-34.602847008,-29.2086899445,48.3368758316
off_to_on,-23.9823590832,-28.4462553833,-2.85491943482,-2.99214267204,-32.7874949124,-46.8270105845,-57.2140233324,-19.2798487961,-3.6832669766,-27.9840193901,-26.5535398786,-48.3593359088,-39.4001671515,32.5897954479
off_to_on,-27.7329520064,-33.5162019224,-2.21701700888,-1.5966569237,-39.1460311633,-56.9701184189,-70.6040835903,-23.0171599284,-2.62476704719,-34.0004607385,-28.8735919848,-58.6387940259,-46.7203314729,12.2206207942
off_to_on,-29.2441996648,-35.8409624794,-1.50799470588,-0.180190572725,-42.2210487972,-62.1930794083,-78.1186193181,-25.0155786905,-1.4143900644,-37.5417287917,-28.7921115219,-64.0092596122,-50.0882054387,-12.2531403003
off_to_on,-28.1161183886,-34.8937324637,-0.682912912295,1.21153289533,-41.3801440535,-61.5639404422,-78.5446456864,-24.8499332726,-0.0717983626066,-38.0383600002,-25.9166578505,-63.4967803022,-48.7939623663,-39.7565267567
off_to_on,-24.2182090619,-30.4809228833,0.290442907562,2.53434914315,-36.3957491047,-54.7566312913,-71.3779426673,-22.3076996837,1.36534994099,-35.2045760844,-20.1376630465,-56.7246085823,-42.6035946684,-68.6192151527
off_to_on,-17.7201231256,-22.7836972272,1.42171797118,3.74569935085,-27.4928649365,-42.1161980653,-56.9148299633,-17.4280329021,2.84076968496,-29.0878200403,-11.6723099097,-43.9870076483,-31.8113421419,-96.6241249156
off_to_on,-9.08725387416,-12.3560490293,2.69137470076,4.80520146707,-15.3437240161,-24.6460174805,-36.2533974918,-10.5119777578,4.28196110044,-20.0815812594,-1.07023687343,-26.2458998686,-17.2312183783,-121.153041332
off_to_on,0.959421311934,-0.0780524780026,4.0484003092,5.67585000413,-1.0082404458,-3.91606590532,-11.2006582074,-2.10140848738,5.60552799462,-8.89827654359,10.8224750945,-5.04801043322,-0.126424881663,-139.424796266
off_to_on,11.5153558063,12.9313980815,5.41280557258,6.32577569219,14.1739645654,18.0986870439,15.9062201706,7.07180345606,6.72480359822,3.49610927965,22.939126589,17.6298366599,17.9167232868,-148.805562839
off_to_on,21.5882536721,25.4327793811,6.68270034398,6.73034031471,28.7278411181,39.2316379231,42.4454693726,16.1610352932,7.55880965333,15.9790389,34.1006780638,39.5903437453,35.1565552284,-147.156353738
off_to_on,30.2064551505,36.2013472513,7.74508008153,6.87423175529,41.2064973006,57.3646523331,65.795124867,24.2959694801,8.04133977423,27.3893390481,43.1444462685,58.6560717338,49.8861202951,-133.17233392
off_to_on,36.5268743002,44.1636150446,8.48893104948,6.7531799595,50.3543570944,70.6661292502,83.622925714,30.6786723974,8.12890195862,36.6523733094,49.0579538892,72.9119604184,60.6230451299,-106.664074649
off_to_on,39.929368975,48.5183724267,8.81893206854,6.37494405352,55.249938118,77.7981285559,94.147090959,34.6730882302,7.80638700964,42.8976281601,51.1013802414,80.9208084936,66.276304603,-68.7335891566
off_to_on,40.0860136518,48.8274544014,8.6679408179,5.75931870254,55.4106654039,78.0672583735,96.3364710708,35.8770150416,7.08963081104,45.5545503597,48.9029441415,81.8855086001,66.2696311705,-21.8080655003
off_to_on,36.9968321035,45.0651231557,8.00661124467,4.93705613871,50.8467929101,71.5008816574,90.0257188354,34.1677203517,6.0244646129,44.4149728903,42.514533701,75.7382275057,60.6064875015,30.4893048727
off_to_on,30.9877258583,37.6200218897,6.84886920039,3.94777240915,42.0578437506,58.8394486549,75.9314058006,29.7155924758,4.68233565048,39.6544774081,32.4196188496,63.145672713,49.8686730886,83.6311008021
off_to_on,22.6710543939,27.2495362686,5.2525192816,2.83707139926,29.9721709404,41.4461883165,55.5671138388,22.9641882269,3.15305816955,31.810052911,19.4913336484,45.429935727,35.1488021164,132.617193002
off_to_on,12.8739609574,14.9922870453,3.3148888195,1.65324845964,15.8373364504,21.14563479,31.0678973466,14.5792066536,1.53565153675,21.7167760591,4.90482882559,24.4148033797,17.9250159631,172.502137846
off_to_on,2.54348483033,2.04960862898,1.16404704475,0.444003826331,1.07507671016,0.0111900374476,4.94554553648,5.37274560459,-0.0715208942464,10.4112625659,-9.98625189661,2.21653214902,-0.106673945007,198.958210176
off_to_on,-7.3597545882,-10.3494203112,-1.05331649233,-0.746408246924,-12.8811208806,-19.8719953584,-20.195638659,-3.7878147135,-1.58001855609,-0.986328951446,-23.7947875897,-18.9952851035,-17.2219815867,208.804769287
off_to_on,-15.9663187928,-21.0830057358,-3.18588056655,-1.87924567358,-24.7459025657,-36.6398692999,-41.9483321583,-12.075190777,-2.91881047158,-11.3974363537,-35.2495930922,-37.2378009009,-31.8570414502,200.434564795
off_to_on,-22.5886546604,-29.25561758,-5.09188755692,-2.92234801321,-33.5201349281,-48.8501410739,-58.3625840661,-18.7903960364,-4.03907516142,-19.90237307,-43.3315933692,-50.9273498452,-42.7738631722,174.076979761
off_to_on,-26.7873064361,-34.2871227496,-6.65191783372,-3.85017089472,-38.591048323,-55.6274108644,-68.1468666288,-23.4334454128,-4.91581344821,-25.8359393521,-47.3808099236,-59.0396045828,-49.1835004042,131.856241064
off_to_on,-28.4055434822,-35.9622824489,-7.77885440387,-4.64292749664,-39.7833990319,-56.7368444036,-70.7873771137,-25.7486524441,-5.54624716125,-28.8504704526,-47.1618835992,-61.1997908034,-50.8135034289,77.6272055721
off_to_on,-27.5694646635,-34.4359715041,-8.42405216217,-5.28513493314,-37.3570046097,-52.5797398711,-66.5736431155,-25.7399533394,-5.94544534994,-28.9396531561,-42.8810183594,-57.6943321004,-47.9133875802,16.5993527719
off_to_on,-24.6550343289,-30.1950693874,-8.57923227175,-5.76396669469,-31.9528201025,-44.1141977373,-56.5301787445,-23.6555203973,-6.14001367817,-26.4214154421,-35.1531890231,-49.4051704947,-41.1996012334,-45.2126213351
off_to_on,-20.2275570165,-23.9832737611,-8.27415917166,-6.06784403705,-24.4960572995,-32.7132683129,-42.2653470006,-19.9447278107,-6.1609439455,-21.883259778,-24.924433541,-37.6774343487,-31.7488066255,-101.649503434
off_to_on,-14.9622889088,-16.6994207676,-7.57065334184,-6.18565225655,-16.0698936797,-19.9802496003,-25.7582600416,-15.1938143751,-6.03681129025,-16.0979171807,-13.3592854208,-24.1389041229,-20.8542671125,-147.101148323
off_to_on,-9.55682791484,-9.28273444409,-6.55388525709,-6.1068483742,-7.77645721424,-7.54535532517,-9.11131815755,-10.0489434576,-5.78841467022,-9.92058526158,-1.7072520701,-10.4949134679,-9.8640455958,-177.148084935
off_to_on,-4.64641764606,-2.59945923884,-5.32214116417,-5.82255368614,-0.602666873343,3.13072060251,5.70090822721,-5.13652163393,-5.42569740715,-4.18088029867,8.83572987607,1.6756529079,-0.0211378473789,-189.070805418
off_to_on,-0.732344019482,2.65550541673,-3.97632882688,-5.32752638511,4.69287235609,10.9227940429,17.0565644061,-0.99050380565,-4.9473997489,0.417206374946,17.2549164566,11.0988759454,7.67548774285,-182.161579895
off_to_on,1.86860660368,6.03086104229,-2.61040505978,-4.62271955364,7.65910099394,15.1580511004,23.859742295,2.00493904765,-4.34344420036,3.37556142298,22.8194222075,16.9387082893,12.5734335022,-157.797671351
off_to_on,3.04876472617,7.35773256887,-1.30368262771,-3.71798140178,8.18989129463,15.6720859583,25.6440191557,3.65134781252,-3.59960618744,4.45353591902,25.1494068521,18.8707114251,14.4227039583,-119.264663509
off_to_on,2.90694846029,6.75223422873,-0.115654441788,-2.63437487702,6.51722689059,12.8005281867,22.5974937174,3.94741993266,-2.7036460549,3.68587415495,24.2418485598,17.0909775085,13.3807423985,-71.3503687837
off_to_on,1.72074666332,4.58355236571,0.916390475636,-1.40559935538,3.16341668393,7.31078151229,15.5103141703,3.07606335268,-1.65183093717,1.36631475443,20.4540074892,12.262758789,9.96894808904,-19.759241243
off_to_on,-0.101163683203,1.41341071849,1.77703968068,-0.0780911209232,-1.13955279373,0.285458535192,5.65480646297,1.37010915077,-0.45469440649,-1.99961935524,14.4485223319,5.41069232848,4.98863459727,29.5795761636
off_to_on,-2.07945723609,-2.08412592923,2.4700999906,1.29044955584,-5.55188753624,-7.02574114646,-5.38436889491,-0.737893582893,0.859019650928,-5.76559588036,7.10814374148,-2.22182465498,-0.591280612556,71.2236435357
off_to_on,-3.7291508817,-5.21179643045,3.0142059773,2.63413296046,-9.2356085608,-13.3662438177,-15.9078756874,-2.77485116342,2.24101953507,-9.22970165631,-0.569044348621,-9.33319379846,-5.76004763509,100.858646162
off_to_on,-4.62107628668,-7.33622775098,3.43740210887,3.8833410629,-11.458449282,-17.6253472171,-24.3032885967,-4.28777188116,3.62513747812,-11.7232567411,-7.58167673443,-14.7224041751,-9.58898794096,115.78965926
off_to_on,-4.43292147597,-7.9630398752,3.77141688287,4.97013542125,-11.6802309112,-18.9662861212,-29.2279637604,-4.8988141806,4.93195936613,-12.6927552257,-13.0323018247,-17.428025522,-11.3395818597,115.221798724
off_to_on,-2.98485168945,-6.79226579784,4.0462719752,5.83400178275,-9.61293121688,-16.9166850819,-29.7543609806,-4.34891579254,6.0759089534,-11.7659233798,-16.2190350755,-16.8331073035,-10.5447304659,100.297420502
off_to_on,-0.257071150846,-3.74932894604,4.28573426857,6.42723407984,-5.24949484183,-11.4139515218,-25.4646528489,-2.52601864503,6.973900783,-8.79529770129,-16.7034577483,-12.7267940695,-7.05616078935,73.8888441864
off_to_on,3.61090251125,1.00995475696,4.50395419526,6.71927270827,1.13949395773,-2.80402364304,-16.4880902482,0.523975666796,7.55442107246,-3.87571860454,-14.3496359429,-5.31916998352,-1.05534891166,40.177320543
off_to_on,8.33735196265,7.11883113657,4.70346937325,6.69942495274,9.03840405245,8.20268215151,-3.48126812289,4.60328932527,7.76580654961,2.66471382665,-9.33240505617,4.78865236044,6.97043787624,4.07639172701
off_to_on,13.5283806353,14.0394988007,4.87461089379,6.37759505249,17.7425745852,20.6099458708,12.442677844,9.3833592501,7.58258118977,10.2977710341,-2.11611988591,16.6725631516,16.2818453912,-29.4227403656
off_to_on,18.7164712924,21.1177250116,4.99624398117,5.78290992244,26.4300292237,33.2380633098,29.8254338877,14.437593677,7.00896687383,18.3475335905,6.59239658179,29.1817123784,25.9632646271,-55.8972665751
off_to_on,23.4030434286,27.6456979477,5.0377074103,4.96040666215,34.2404659493,44.837735235,47.0021927049,19.2817303109,6.07906840246,26.0558149861,15.9111471906,41.0514295921,35.0118984258,-72.0463329198
off_to_on,27.1009187825,32.9267240705,4.96177971248,3.96620844448,40.35351777,54.203949724,62.2534948976,23.4175938019,4.85368944044,32.6535836282,24.8638756871,51.021131792,42.4310684212,-76.0819940084
off_to_on,29.3734821768,36.3361807292,4.72848100055,2.86181727583,44.0595690103,60.2800428826,73.9567185731,26.3764016514,3.41419686972,37.4315518451,32.4676195737,57.9467324788,47.3196357008,-67.9103662407
off_to_on,29.8683923251,37.3743855981,4.29950125583,1.70826490766,44.8182314383,62.2446669707,80.7255374275,27.7584508962,1.85424943778,39.8039281215,37.8201148744,60.8991369579,48.9509280342,-49.0846323402
off_to_on,28.3447123067,35.7084604185,3.64301578135,0.560869439316,42.3015578568,59.5771867232,81.5281606299,27.2668475165,0.270484933691,39.360604593,40.1808421469,59.2428827454,46.8363763279,-22.542314995
off_to_on,24.6930947088,31.2015845897,2.73859949059,-0.534756595592,36.4208559729,52.0995767861,75.7778219772,24.7337409184,-1.24662096629,35.9045304911,39.0402820136,52.6914022869,40.7708285509,7.83227612502
off_to_on,18.94905499,23.9290621515,1.58188615552,-1.54499578917,27.3373135354,39.9948480136,63.391397583,20.138164577,-2.62056704649,29.4724795936,34.1728021692,41.3373973469,30.8579823639,37.7571449112
off_to_on,11.2993815725,14.1812717003,0.188548629419,-2.44862128465,15.4574388225,23.8032144039,44.8139620635,13.6149944247,-3.79437335323,20.3386890365,25.6694656425,25.6582308175,17.5154343213,63.1366497745
off_to_on,2.08144556782,2.45385054838,-1.40287892548,-3.23539068824,1.4145825077,4.39765311818,21.008496338,5.45472661932,-4.73327578123,9.00184042585,13.9479441643,6.49705392106,1.45949577803,80.6012397307
off_to_on,-8.22524990715,-10.5745034733,-3.12983203097,-3.90319797977,-13.9623129755,-17.0595871417,-6.58903279275,-3.90617893445,-5.42440800412,-3.84343218558,-0.262289210113,-14.9792495782,-16.3296961095,87.9318338268
off_to_on,-19.0162936604,-24.0762675759,-4.90665047247,-4.45435204027,-29.6918581044,-39.1782824916,-36.1481330336,-13.90462205,-5.87374854114,-17.3488231178,-15.9601305111,-37.3440362315,-34.6619326456,84.3154605005
off_to_on,-29.5894526174,-37.1209323038,-6.62794522307,-4.89167017127,-44.6945298353,-60.4182401578,-65.5536656188,-23.8799515081,-6.10099588528,-30.5663450992,-31.9375594858,-58.9952119431,-52.2082432672,70.4032744445
off_to_on,-39.1823501851,-48.7316219033,-8.17452405801,-5.21508739198,-57.8572399897,-79.1825954989,-92.5435627655,-33.1125544204,-6.13331032759,-42.5115410349,-46.8663099463,-78.2575814127,-67.5876388701,48.169864846
off_to_on,-47.0206007303,-57.9509000754,-9.42172964728,-5.41938573041,-68.1065752339,-93.9239859971,-114.868783524,-40.871019077,-5.99898819164,-52.2329207565,-59.4018828688,-93.499672887,-79.4659283666,20.5999387001
off_to_on,-52.3749312905,-63.9130099497,-10.2497272457,-5.4934571885,-74.487966936,-103.259512019,-130.46737617,-46.4659956926,-5.72209623557,-58.8839849351,-68.2981641475,-103.259661402,-86.6616307074,-8.74874338859
off_to_on,-54.6241778235,-65.9183913493,-10.5549575837,-5.42125896578,-76.2465349377,-106.088226056,-137.641725647,-49.3077344312,-5.31889960433,-61.7934702812,-72.5239314633,-106.372856913,-88.2521986527,-36.2419382358
off_to_on,-53.319342716,-63.504891112,-10.2616918343,-5.18433918972,-72.9037412005,-101.702604524,-135.225454181,-48.9631067163,-4.7965980005,-60.5287553344,-71.3710191239,-102.091084894,-83.6720869662,-58.6547676412
off_to_on,-48.242457837,-56.5089308443,-9.33243865166,-4.76554904499,-64.3226363015,-89.8835443743,-122.724567537,-45.2069340336,-4.15449216082,-54.9468826098,-64.5431882216,-90.182638795,-72.7930195234,-73.580577211
off_to_on,-39.453136706,-45.1093344314,-7.77590071956,-4.15335332356,-50.7537578724,-70.9674217108,-100.416875014,-38.0618938159,-3.38729735749,-45.2275837177,-52.2151126093,-71.0008240978,-55.9765232901,-79.7096265049
off_to_on,-27.3156941877,-29.846814106,-5.65128807302,-3.34603760944,-32.8539721151,-45.8741147787,-69.3949417998,-27.8213523517,-2.48996486367,-31.8832247493,-35.052525918,-45.5098672883,-34.0897137479,-76.9445356816
off_to_on,-12.5007316599,-11.6134356416,-3.06807503838,-2.35510436619,-11.6719468859,-16.0869255405,-31.5411369937,-15.0503268202,-1.46312038136,-15.7418426731,-14.1875115801,-15.2593857124,-8.47759999251,-66.3434984934
off_to_on,4.04284748535,8.39125115175,-0.180720104829,-1.20725340183,11.4034558417,16.4209172496,10.5712930842,-0.561433171626,-0.31811833026,2.09855848893,8.85300246514,17.6972820694,19.1112098284,-49.9068099657
off_to_on,21.146457494,28.7374748688,2.82158779427,0.0554608728075,34.7319449802,49.3132635196,53.8501191945,14.6349621473,0.919241201525,20.3436441967,32.2626138577,50.9400723975,46.6438457823,-30.243752434
off_to_on,37.5085847554,47.8721337407,5.72949897467,1.37744205727,56.5434938886,80.0654639069,94.9198764325,29.4043238174,2.20708809457,37.6004655725,54.106614231,81.867331241,71.9607386693,-10.1723670888
off_to_on,51.8034514329,64.2476227002,8.33116195889,2.69319552999,75.0842855114,106.173734503,130.404159448,42.580201484,3.48838835358,52.4922952982,72.4961195745,107.915434463,92.9593901251,7.68791754645
off_to_on,62.8019880423,76.4614076825,10.4312793533,3.93239801643,88.7742642461,125.381299111,157.229985326,53.0673397373,4.69443063303,63.7808718864,85.7685848935,126.793581331,107.787919689,21.2722410583
off_to_on,69.4930041473,83.3926386738,11.8695767819,5.02577995226,96.3607895093,135.899040517,172.924679434,59.9457260014,5.75054322643,70.4843755738,92.6560100708,136.710489917,115.029037846,29.3260793627
off_to_on,71.1912367514,84.3210108777,12.5366357017,5.9110900975,97.0516678793,136.596642034,175.873712758,62.5645691295,6.583340753,71.9786575666,92.4220913577,136.568216768,113.854239341,31.5285409405
off_to_on,67.6193372286,79.0137423608,12.3852265412,6.53840165764,90.6116147064,127.14130518,165.509530526,60.6153783152,7.12855075502,68.0698666168,84.951781294,126.099751179,104.129562834,28.4714901069
off_to_on,58.9529176426,67.7690215833,11.4357071604,6.87411704083,77.4090582461,108.065227688,142.406815154,54.1748520493,7.3383606369,59.0287513432,70.7810972246,105.931508549,86.4582570626,21.5043540759
off_to_on,45.8213742922,51.4084246614,9.77468154913,6.90321851478,58.404956103,80.7498426776,108.268465314,43.7111055035,7.18727117103,45.5804482734,51.0611717786,77.5590601277,62.1518285019,12.4738246252
off_to_on,29.2619737081,31.2162000275,7.5468736917,6.62956457748,35.0814678281,47.3236731574,65.7979894744,30.0505929368,6.67563714556,28.8481720477,27.4578049305,43.2336711754,33.1285982041,3.40204925619
off_to_on,10.6300708961,8.82935307918,4.94096910283,6.07430762854,9.31520708633,10.4805279798,18.4667298755,14.3074915886,5.83038947897,10.2544035534,1.99529759895,5.76742187055,1.74718621533,-3.84563911736
off_to_on,-8.5263406469,-13.9116092339,2.1709097361,5.27276510992,-16.7934773729,-26.7655745364,-29.8031931316,-2.21823149407,4.70281952137,-8.6117012548,-23.1398272902,-31.7254095128,-29.4097586799,-7.85276697181
off_to_on,-26.6149750336,-35.1363718078,-0.545300846817,4.27027465783,-41.1180633825,-61.3642006153,-75.0087103217,-18.1639242223,3.36370809222,-26.147553552,-45.8143902965,-66.1247228924,-57.7798021651,-7.86073965484
off_to_on,-42.1545438646,-53.1245867831,-3.00689557467,3.11767442989,-61.7092992628,-90.5209312724,-113.449604141,-32.2355241817,1.89644005023,-40.8948338456,-64.1597135631,-94.6072331949,-81.0670430029,-3.86605210919
off_to_on,-53.9197256609,-66.4720350616,-5.04932069363,1.86705715829,-76.9821763178,-111.96631346,-142.084600647,-43.3326338921,0.389007867242,-51.6842259712,-76.7546304978,-114.921987531,-97.4634889557,3.4052137283
off_to_on,-61.0593505181,-74.2245186406,-6.55873254384,0.568351583855,-85.8654093476,-124.171093095,-158.820177741,-50.6533878161,-1.07406246885,-57.7506101697,-82.7594931015,-125.607555105,-105.820624584,12.6375478341
off_to_on,-63.17421508,-75.9642078743,-7.48039696331,-0.732895064858,-87.8963945178,-126.483183732,-162.69952789,-53.7672093084,-2.41884996467,-58.8050919028,-81.9858703773,-126.125796495,-105.751584305,22.1555930295
off_to_on,-60.3455884795,-71.8385291901,-7.8201253186,-1.99639430898,-83.2508291619,-119.170720862,-153.97030567,-52.6471934887,-3.58739288937,-55.0550060963,-74.8941997192,-116.896528527,-97.6521790214,30.2050458056
off_to_on,-53.1113210173,-62.5283875819,-7.63874693773,-3.18676374729,-72.7038718529,-103.366585419,-134.023850155,-47.6585925584,-4.54069246252,-47.1690755496,-62.5203124096,-99.2289928554,-82.6384843546,35.2400309949
off_to_on,-42.3927864431,-49.1597398436,-7.04048543595,-4.27227806915,-57.5279245813,-80.9215645511,-105.213765166,-39.5051345781,-5.25915569422,-36.1914838081,-46.3404009686,-75.1583674169,-62.4086057343,36.1723339269
off_to_on,-29.38185817,-33.1693432679,-6.15686160737,-5.22321691327,-39.3397692778,-54.1843292293,-70.5761332321,-29.1400019279,-5.7406426158,-23.4149097393,-28.0915000975,-47.2070445516,-39.0453201206,32.5448575373
off_to_on,-15.4019528214,-16.1410082463,-5.12828751313,-6.01037169427,-19.915876226,-25.7351925763,-33.4853577222,-17.6525641501,-5.99662171269,-10.2277335285,-9.56991272633,-18.0995243351,-14.7833649633,24.6041796992
off_to_on,-1.76022446542,0.367853197987,-4.08577229424,-6.60423963408,-0.998402699051,1.89401091091,2.71288413162,-6.14483216579,-6.04718909532,2.04604633501,7.56750359997,9.53469478029,8.23074502474,13.2630857753
off_to_on,10.3911551071,14.9886409108,-3.13509550733,-6.97530106552,15.8847926812,26.4803550976,35.0478546459,4.38731399201,-5.91583580025,12.2946328675,21.9750217219,33.4346756272,28.1579108591,-0.0390657636294
off_to_on,20.1681624911,26.6739053026,-2.34542730651,-7.09556643711,29.5650030475,46.3200919415,61.2087498406,13.1539287304,-5.62483674721,19.7359265079,32.7424311946,51.9258894308,43.639238035,-13.5549166286
off_to_on,27.0296630695,34.7847195014,-1.74373806838,-6.94132626806,39.3262137303,60.3653214215,79.7365844405,19.6403331505,-5.19198890428,23.9904863785,39.4583948214,64.0577193635,53.903300176,-25.4919235876
off_to_on,30.8060935739,39.1242305215,-1.31553034653,-6.49678237146,44.9381510757,68.2736357812,90.1036132265,23.6386446662,-4.62917026261,25.1014864861,42.2073461378,69.6466792639,58.7974669698,-34.2787904189
off_to_on,31.6806289301,39.9156560141,-1.01155447101,-5.75802506129,46.6277752852,70.3689527099,92.6758338379,25.2392611204,-3.94286687477,23.5000928124,41.5034353857,69.2238300957,58.7428516548,-38.7952676376
off_to_on,30.1276438945,37.7302379259,-0.759355290931,-4.7366862948,44.9962727404,67.523431915,88.5693736002,24.7853721996,-3.13647398786,19.9218332965,38.1733795141,63.8973633656,54.6223161912,-38.5315325063
off_to_on,26.8187885643,33.3770534955,-0.477852942566,-3.46256861237,40.8956170918,60.9804930166,79.4251162034,22.7983900488,-2.21387270902,15.285971343,33.2066821451,55.1521807181,47.619440261,-33.6547740064
off_to_on,22.5109974168,27.7712549162,-0.0927728105491,-1.98463413688,35.2837184408,52.1461400557,67.1359417526,19.8858568919,-1.18356298165,10.5547478162,27.5956509749,44.6160600203,39.0322733861,-24.9751079779
off_to_on,17.932706972,21.7996371403,0.449339307259,-0.369928646626,29.079398079,42.3790812517,53.5660926907,16.6454031344,-0.0625308637968,6.59195265665,22.1884100294,33.8256129723,30.0882598595,-13.818250389
off_to_on,13.6842177193,16.20212069,1.17054302953,1.29971238937,23.0376299236,32.8090947096,40.3017744143,13.5784282024,1.12094131585,4.04025146737,17.5755886107,24.0242347745,21.7856301286,-1.82613137755
off_to_on,10.1655750218,11.484854513,2.05587766723,2.93301472531,17.6618236292,24.2079261714,28.4662649483,11.0253606623,2.32615456356,3.23400776443,14.0259394726,16.0187944332,14.7819775767,9.28321291834
off_to_on,7.54094800635,7.87562467206,3.05346788776,4.43620224667,13.1639408221,16.9284939788,18.6224177853,9.13089618033,3.50093314691,4.15935608119,11.4785837596,10.1127103977,9.34336097251,17.9600253317
off_to_on,5.74290009657,5.32582953035,4.08031709222,5.72079087993,9.47581707277,10.9175748497,10.7720124235,7.84301589751,4.58467074058,6.4666646216,9.59099388967,6.1216099084,5.35815757945,23.0356124469
off_to_on,4.51398153143,3.55637872875,5.03293344,6.71134534435,6.30729374245,5.79600334288,4.44688240097,6.94451898965,5.51319167063,9.5331815815,7.8334533907,3.46562138728,2.41034962828,23.8736356796
off_to_on,3.47759492731,2.13848328328,5.80125161525,7.35226044613,3.23977869744,0.990362082991,-1.12677402156,6.1109930655,6.22483877714,12.566599639,5.6137929338,1.32123506182,-0.101676570684,20.4403219225
off_to_on,2.2258782093,0.595341423604,6.28385623625,7.61271619178,-0.161330464083,-4.10736915612,-6.82007332487,4.9852877442,6.66698759952,14.7344815628,2.41170904575,-1.1928243059,-2.82117688071,13.2869057303
off_to_on,0.410016526431,-1.49210570484,6.40234271423,7.48916651759,-4.23456042067,-9.97961230216,-13.3844026272,3.25620531922,6.80209311114,15.3007818411,-2.09941131324,-4.82592676899,-6.28765729269,3.45102120494
off_to_on,-2.18173641953,-4.3924780467,6.11278950254,7.00502758337,-9.12951680369,-16.8495316856,-21.261718232,0.728614529894,6.61241486222,13.7496065721,-7.96329941758,-10.0324493728,-10.8135724195,-7.70442630167
off_to_on,-5.57097082039,-8.15919959458,5.41273912172,6.20759126455,-14.7490097054,-24.5965718382,-30.4536064391,-2.62640179741,6.10273371521,9.87804754692,-14.899400703,-16.861317278,-16.4029569204,-18.687947959
off_to_on,-9.56964269332,-12.6040994347,4.34273075492,5.16255185607,-20.7363068222,-32.7359533797,-40.4711519461,-6.64964638052,5.30064366432,3.84418911562,-22.3171020788,-24.9160262706,-22.7252014528,-28.0809059603
off_to_on,-13.7976156301,-17.3137861519,2.98220020889,3.94684694798,-26.5105301242,-40.4667202862,-50.3749490171,-11.0040822121,4.25433533394,-3.83736072807,-29.3848697919,-33.3921496805,-29.1485925875,-34.7140393727
off_to_on,-17.7348531813,-21.7065545642,1.44035204019,2.64073128148,-31.3455708812,-46.7820130561,-58.9004292845,-15.2162529595,3.0281341177,-12.3526826524,-35.1450202599,-41.1874197685,-34.8289522814,-37.7952064171
off_to_on,-20.8004591947,-25.1212621372,-0.156698957754,1.32009283164,-34.4809030254,-50.625212501,-64.6501722882,-18.7429901956,1.69636418776,-20.6912868951,-38.6575713542,-47.0682488842,-38.8401095843,-36.9737495337
off_to_on,-22.4464867992,-26.9245645853,-1.68072134512,0.0499693958773,-35.2473831007,-51.067974819,-66.3240289008,-21.0535631026,0.336334322705,-27.7806325173,-39.1517258579,-49.8676767582,-40.3262913871,-32.3380118388
off_to_on,-22.2519595698,-26.6198798612,-3.01606414521,-1.11996179384,-33.1883476165,-47.482129297,-62.9513596601,-21.7148804445,-0.978650054321,-32.6340092148,-36.1617808094,-48.684519409,-38.6528235189,-24.353581856
off_to_on,-20.0022503005,-23.9409146679,-4.07228199129,-2.1574430209,-28.1564996629,-39.6775820049,-54.0884817228,-20.4666363439,-2.1853672225,-34.4912374857,-29.6259412863,-43.0527452409,-33.5313529781,-13.758967799
off_to_on,-15.7409035197,-18.9146314364,-4.79304818179,-3.04712507861,-20.3702252022,-27.9827872225,-39.9487651878,-17.2745230165,-3.23512031708,-32.9323677724,-19.9314471146,-33.0539605607,-25.099188145,-1.44112385272
off_to_on,-9.7848972106,-11.8828709335,-5.16027719412,-3.78774100476,-10.418664686,-13.2524080356,-21.4421409882,-12.3526522977,-4.09606086202,-27.9480559212,-7.89691897371,-19.3538233968,-13.938835126,11.6852984049
off_to_on,-2.69965492769,-3.47785189629,-5.19308128593,-4.38755108551,0.78772334517,3.20266248511,-0.11375990162,-6.15070762398,-4.75323394889,-19.9560915243,5.30816599897,-3.15409527166,-1.03245672965,24.7740368555
off_to_on,4.76393164322,5.44642910493,-4.94192614118,-4.85888729663,12.1163081618,19.7562400782,22.0136935002,0.693539489791,-5.20651846973,-9.76086398158,18.2977463218,13.9356796707,12.3444561023,37.1043845128
off_to_on,11.7624999047,13.9182728764,-4.47902015822,-5.21274114224,22.3488143034,34.6612938498,42.6751275325,7.4306104894,-5.46693627735,1.53963919849,29.6399954788,30.0909895669,24.7768274498,48.0942966052
off_to_on,17.470636952,20.9737752514,-3.88647502834,-5.45431167861,30.3370245782,46.2720042559,59.6447896631,13.2945110317,-5.55202635993,12.6874777034,38.0417409,43.504023289,34.890513975,57.2741473344
off_to_on,21.19327575,25.7862484627,-3.24404173974,-5.58026443738,35.156115755,53.2627198782,71.0261589629,17.6036932517,-5.48109171174,22.4215777421,42.5209906199,52.6223592528,41.5345867534,64.2345627692
off_to_on,22.463980887,27.7811276282,-2.61822194278,-5.57817173865,36.233817,54.8126565716,75.509300995,19.8536406489,-5.27111219061,29.6369808224,42.5431512684,56.3611537253,43.9395626594,68.5676859456
off_to_on,21.1147314257,26.7196524581,-2.05428599362,-5.4282523668,33.4364702086,50.7292546064,72.5586315753,19.7878423591,-4.93398009481,33.5253309816,38.1011148551,54.2584166173,41.8286865954,69.8231912863
off_to_on,17.306613192,22.7387864951,-1.57224113723,-5.10715658769,27.0987445375,41.4911721189,62.5030613223,17.4367531161,-4.47547876009,33.6778573023,29.726891975,46.5504691436,35.4656192316,67.4978728453
off_to_on,11.5162197889,16.3408699623,-1.16716308507,-4.59320697846,17.9914339454,28.2028370729,46.5136823601,13.1186915038,-3.8961254345,30.1371147607,18.4318377664,34.1555460497,25.6306065134,61.07099446
off_to_on,4.47876786595,8.33354178086,-0.813628448829,-3.87225730902,7.23036720333,12.4647656993,26.4696667555,7.40190131344,-3.19368454116,23.3906207783,5.58243661784,18.5662091869,13.5271651165,50.0878820815
off_to_on,-2.90492930995,-0.272495285869,-0.473366104843,-2.9432087843,-3.86223897582,-3.82426620525,4.72867661463,1.03244185351,-2.36687484431,14.3073194401,-7.27232708336,1.66397988014,0.631094113598,34.2831324514
off_to_on,-9.68529831767,-8.39426744614,-0.104774539406,-1.82224486598,-13.9258431557,-18.7073488274,-16.1683948492,-5.16259334578,-1.41958743469,4.02544768084,-18.5990805803,-14.5194396352,-11.4981831261,13.7243140295
off_to_on,-14.9888351549,-15.018141485,0.327302119872,-0.545010696836,-21.7365871567,-30.4197787032,-33.8190709877,-10.3834974713,-0.364832536447,-6.19317944316,-27.0769779119,-28.0623692388,-21.4185118662,-11.0508472055
off_to_on,-18.133838512,-19.33286401,0.843149606819,0.833752389049,-26.3655643058,-37.6157536708,-46.2640245892,-13.9632584235,0.772342877642,-15.1230800087,-31.7667052719,-37.3996195186,-27.9908202744,-38.9344081268
off_to_on,-18.7210923902,-20.8357212705,1.4424759224,2.24324384677,-27.2987655885,-39.5405266386,-52.2336163731,-15.4553463503,1.95358127335,-21.7281203794,-32.2285704715,-41.5218050778,-30.5244989202,-68.2141872691
off_to_on,-16.6869362324,-19.3971879806,2.10233442176,3.6020506178,-24.5022623616,-36.1244413135,-51.302778972,-14.6919434639,3.12795790022,-25.2877037204,-28.5736149406,-40.1004983345,-28.8625180623,-96.6275169563
off_to_on,-12.311336585,-15.275183492,2.77900487088,4.82538514974,-18.4236526615,-27.9859336306,-43.9333208023,-11.8046446351,4.23481186336,-25.4800459699,-21.4409006587,-33.5224165742,-23.3947794707,-121.512592287
off_to_on,-6.17980285718,-9.07706273241,3.41352985022,5.83322420331,-9.92954758126,-16.3430907476,-31.3982171054,-7.2048462999,5.20841672557,-22.4124230893,-11.904313661,-22.8283758806,-14.9981429233,-140.052187713
off_to_on,0.895611290017,-1.67474130126,3.94002764477,6.55831078174,-0.187672807661,-2.84595269073,-15.5987236883,-1.52662064072,5.98395560942,-16.5955222734,-1.32195436086,-9.56586110615,-4.91172201444,-149.588544354
off_to_on,7.98531719944,5.91514476605,4.29546815459,6.95298167966,9.49023293261,10.6473582575,1.20010447273,4.45994685292,6.50405393662,-8.86654460126,8.85091968181,4.42409743156,5.43502832966,-147.97388448
off_to_on,14.1661836526,12.6693361552,4.42937094675,6.99393129284,17.8231986632,22.3199277659,16.6787645541,9.95292693233,6.72501792349,-0.272450557657,17.2594835322,17.2561461495,14.6174704054,-133.910738587
off_to_on,18.6434808382,17.6951596438,4.31189773739,6.68429741754,23.7296301049,30.6366506904,28.7748309257,14.2258415658,6.62194460339,8.07020168927,22.8302426059,27.251610611,21.4071780989,-107.23205497
off_to_on,20.8541369589,20.3479774729,3.93906171115,6.05281711186,26.4669041182,34.5434551893,35.9539891751,16.723376008,6.19200708547,15.1196680308,24.9105199084,33.1570577255,24.9333180711,-69.074067281
off_to_on,20.5373927393,20.3129341748,3.33422330018,5.15019780576,25.7232958778,33.5984423962,37.4039223619,17.1325353435,5.45545682662,20.0384931048,23.3477697281,34.3010732481,24.7922119156,-21.9052473983
off_to_on,17.7635966444,17.6402133719,2.54561655739,4.04322319556,21.6503513367,28.0179111189,33.1255000836,15.4198140075,4.45418806091,22.291454526,18.4985039017,30.6688402972,21.0907461989,30.6086231673
off_to_on,12.9178023909,12.7296492431,1.64026311105,2.80741095561,14.8321884115,18.632222385,23.9103269598,11.8297803904,3.24803397748,21.7001797213,11.1665390261,22.8857941364,14.4187182213,83.9021881143
off_to_on,6.64116173369,6.26769101545,0.695187411949,1.51921728751,6.19699328111,6.75904267443,11.2097194064,6.84591047465,1.9092627781,18.4489157341,2.48015794027,12.1143995004,5.75522113226,132.947395388
off_to_on,-0.26105262424,-0.87363023473,-0.212737978548,0.248816863408,-3.11607182463,-5.98709847162,-3.08468422171,1.11975937632,0.515971617285,13.0427750394,-6.27377110996,-0.119868702012,-3.67664666674,172.784911908
off_to_on,-6.93143262809,-7.76087977876,-1.01677858497,-0.945627775392,-11.9153339027,-17.9213963676,-16.9163585492,-4.62110668576,-0.854794618964,6.22621334303,-13.8348441189,-12.1476590966,-12.5854155296,199.089283002
off_to_on,-12.5764874119,-13.5286633736,-1.66864485793,-2.02153757603,-19.1180150328,-27.5193477413,-28.3556506335,-9.67318999442,-2.13336177516,-1.12537581599,-19.1470605109,-22.3884746379,-19.7919596275,208.698224814
off_to_on,-16.5705341219,-17.4960193313,-2.14386945445,-2.95299602996,-23.8921381404,-33.6191456897,-35.8664722029,-13.4510303016,-3.26245076711,-8.12492694585,-21.5047021361,-29.5641955484,-24.3897458182,200.036645756
off_to_on,-18.5332188774,-19.2536231531,-2.44345835535,-3.7293812746,-25.7596566901,-35.568264562,-38.5107707447,-15.5620638033,-4.20038280184,-13.9870439217,-20.6460435903,-32.8639714574,-25.8624288802,173.375682482
off_to_on,-18.3704707083,-18.7101294973,-2.59159619106,-4.35196001195,-24.6473798024,-33.2950024069,-36.0631038656,-15.8523280368,-4.92221451815,-18.1202778229,-16.7824163268,-32.0385630581,-24.1430855155,130.885330172
off_to_on,-16.2740924453,-16.0920443013,-2.62979797792,-4.82914638053,-20.8799245789,-27.2967517843,-29.0209441152,-14.4173101651,-5.41885224482,-20.1869405006,-10.5594565897,-27.4127049894,-19.6080105808,76.4640146007
off_to_on,-12.6811895917,-11.8983005762,-2.60845219262,-5.17131077361,-15.1172794218,-18.5487704668,-18.5115146104,-11.5773228849,-5.69447615446,-20.1242708522,-2.95701013615,-19.8159926293,-13.0075121155,15.3565659783
off_to_on,-8.20035973251,-6.81721558426,-2.57710864176,-5.38606657613,-8.24739774441,-8.34848575726,-6.11079388867,-7.82188257233,-5.76282698996,-18.1266556532,4.85723002287,-10.4444302046,-5.34515376741,-46.4002021522
off_to_on,-3.5161893968,-1.61879635818,-2.57506565385,-5.47486149158,-1.25044104828,1.88072069354,6.39730439843,-3.73192429234,-5.643038815,-14.594269911,11.6989244211,-0.674445891271,2.27589143383,-102.641524676
off_to_on,0.713520589645,2.96131692333,-2.62377296612,-5.43147086944,4.94501597023,10.7969894147,17.285432328,0.108302087455,-5.35572368024,-10.0581108802,16.5384725296,8.14248200963,8.81631417216,-147.769463345
off_to_on,3.9526476668,6.32908159545,-2.72229391635,-5.24266877172,9.59281433923,17.3284703332,25.1320606324,3.19656844217,-4.91992759184,-5.09430232694,18.6482480475,14.8742977741,13.4499271077,-177.393392734
off_to_on,5.86008867021,8.11489338924,-2.84660357653,-4.8909878518,12.2284357621,20.8159783181,29.0194649031,5.1828326975,-4.3513975604,-0.241362085079,17.7051191686,18.7639386598,15.6772011884,-188.835990121
off_to_on,6.3313327173,8.22035046773,-2.95290842204,-4.35912731852,12.7230186045,21.0902252935,28.6525365711,5.91430479903,-3.66235646868,4.06719739567,13.8343226372,19.524319998,15.3872056498,-181.4399956
off_to_on,5.50293720021,6.82278602006,-2.98454737228,-3.63528324112,11.2854862907,18.474018889,24.3825761612,5.44937808833,-2.86271485438,7.5457548884,7.58926989007,17.360412805,12.8599447472,-156.635273631
off_to_on,3.72016601311,4.33777049358,-2.88146866598,-2.71850111072,8.41388901558,13.7110342223,17.1344389174,4.03910274113,-1.96239845777,10.0702719916,-0.128993348791,12.9170786934,8.71000615064,-117.755690441
off_to_on,1.47350700767,1.34601935847,-2.59085853884,-1.62311420174,4.80454048771,7.83355814435,8.24965799026,2.07971219282,-0.974276290321,11.6631743111,-8.20048975005,7.16230550943,3.78109113569,-69.6271131734
off_to_on,-0.68568691038,-1.50365979865,-2.07729083347,-0.38143946865,1.23361970088,1.99039712151,-0.72962115104,0.0439574559861,0.0829342768911,12.4546141785,-15.4444032693,1.22484710802,-0.991882070564,-17.9772193538
off_to_on,-2.23724605321,-3.60033984931,-1.33080470865,0.955859633029,-1.57027255127,-2.73833419915,-8.30266801313,-1.59795933292,1.18241512609,12.6290915157,-20.7839832756,-3.78833868952,-4.73185145208,31.259167275
off_to_on,-2.77779050666,-4.46969110176,-0.371597038383,2.32200145587,-3.04309351054,-5.51133748715,-13.2415422005,-2.45566513644,2.2881812122,12.3685757574,-23.3951455221,-6.96693457625,-6.75725444231,72.6519555673
off_to_on,-2.08693278085,-3.85054840521,0.749502916064,3.63878507737,-2.87426036422,-5.85567753207,-14.7772670189,-2.28235538965,3.35555075447,11.8034888977,-22.8184032358,-7.73812630737,-6.68764425321,101.915435878
off_to_on,-0.164197778334,-1.73791488771,1.95499674166,4.82327064016,-1.05435063752,-3.73672741817,-12.7134070474,-1.01541438174,4.33326006302,10.9811617892,-19.0193317963,-5.95274898929,-4.50172259275,116.395774735
off_to_on,2.7686998721,1.61386874653,3.14868512693,5.79564786522,2.12513346904,0.441295787461,-7.45079320408,1.21208135146,5.16706815946,9.85796372466,-12.3903058249,-1.90451448906,-0.539525044742,115.346422325
off_to_on,6.30031314389,5.72803496895,4.22661137812,6.48730532681,6.11935483763,5.903445179,0.0794241643349,4.09053533738,5.80445248317,8.31679982895,-3.69462571149,3.71965533676,4.55106181586,99.9593058097
off_to_on,9.8915198002,9.9766192443,5.08949896627,6.84805805055,10.2173575468,11.6297130468,8.56348648587,7.18060612156,6.19980970669,6.20682328642,6.03784731487,9.94978287721,9.91494192616,73.1515829339
off_to_on,12.9576352077,13.6751511396,5.65496376687,6.85158393437,13.6552683864,16.518590696,16.5106123465,9.9803769748,6.31947368463,3.39783418585,15.6479389737,15.686078384,14.6221154754,39.1394537357
off_to_on,14.9580922274,16.1865102779,5.86779348775,6.49834755239,15.738030911,19.5633097163,22.4850899127,12.0026848039,6.14586153433,-0.161317669275,23.9975971209,19.8715952185,17.8115388783,2.85783116948
off_to_on,15.4801448239,17.018366351,5.70684817046,5.81562049493,15.951057237,20.013832085,25.3297663364,12.8508937623,5.6801592641,-4.39237914281,30.1126538343,21.6579544433,18.8248460324,-30.696074352
off_to_on,14.3040268801,15.8996651536,5.18760920847,4.85459303875,14.0448208568,17.4999789957,24.347334449,12.2816776119,4.94314549503,-9.05674379727,33.2988913978,20.5391033492,17.3098964159,-57.1085146351
off_to_on,11.4398397795,12.8248187724,4.36002112898,3.68495727812,10.079584206,12.0970777588,19.412318571,10.2453578189,3.97399806049,-13.7525353217,33.2168699631,16.4331126086,13.2787423592,-73.100512884
off_to_on,7.13071319766,8.05911607907,3.30194014789,2.38767182747,4.42351541224,4.32424178323,10.9971546125,6.89772627972,2.82719736976,-17.9439755716,29.9073628616,9.69999873832,7.11149205713,-76.9149847597
off_to_on,1.82183611401,2.10465535825,2.10912793561,1.0468461526,-2.29551897593,-4.92444145369,0.108660850924,2.5815516332,1.56789300249,-21.0219068372,23.7665465763,1.09326091112,-0.494353237967,-68.4930684225
off_to_on,-3.8999687991,-4.36805177885,0.883216397687,-0.258223008028,-9.27725084129,-14.5054796538,-11.8554256546,-2.21951300794,0.266299442928,-22.3887880669,15.4772067187,-8.34722211071,-8.62140216165,-49.4220239877
off_to_on,-9.38711020977,-10.6126155497,-0.2806519832,-1.45988163309,-15.6623359439,-23.1895063276,-23.3083054212,-6.94780784471,-1.00819523788,-21.5566603563,5.9081106297,-17.4445681278,-16.2621218749,-22.6678477737
off_to_on,-14.0205444601,-15.9097609637,-1.30477435241,-2.50702022887,-20.6548039201,-29.8383659356,-32.7042226742,-11.0494508853,-2.19250362836,-18.2432936567,-4.00246247053,-25.0539807598,-22.461544752,7.86585100417
off_to_on,-17.2943892263,-19.6656610417,-2.13691833126,-3.36754663174,-23.6354306582,-33.5694050066,-38.7626012147,-14.0515640086,-3.23427071867,-12.4505930447,-13.3617429949,-30.2262298994,-26.4518487813,37.8889623173
off_to_on,-18.8834799543,-21.4913091871,-2.75436742971,-4.02828530721,-24.2492565793,-33.8826170397,-40.6530186718,-15.627596901,-4.09480217221,-4.51066006844,-21.4200877563,-32.3412542168,-27.7590733792,63.3091364659
off_to_on,-18.6841457622,-21.2515600697,-3.16351265386,-4.49252476563,-22.4543960982,-30.731904819,-38.1137834619,-15.6412085137,-4.75025267272,4.91139082072,-27.6388963821,-31.1922944989,-26.2664991112,80.7699822937
off_to_on,-16.8225393371,-19.0770610182,-3.39518488447,-4.77575719867,-18.5251031429,-24.5301041452,-31.4868530927,-14.1623760362,-5.19108824669,14.863100564,-31.7218666055,-27.0085401303,-22.2257533605,88.0724402092
off_to_on,-13.6297248508,-15.3378550294,-3.496552588,-4.90038715117,-13.0088976098,-16.0872967052,-21.664325753,-11.4535367611,-5.42007520376,24.1971906561,-33.6087478215,-20.413583403,-16.214518073,84.4264460194
off_to_on,-9.58767734839,-10.5831276345,-3.5209132409,-4.89029683873,-6.64439332282,-6.4918488486,-9.95488347084,-7.92801183226,-5.44924043653,31.7022065998,-33.4366748707,-12.3266195099,-9.04764049709,70.5046365142
off_to_on,-5.25463746492,-5.45654472848,-3.51701007814,-4.76613104839,-0.252280680951,3.04792671223,2.10958965498,-4.0870530537,-5.29636589012,36.2562325674,-31.4789657433,-3.82185654378,-1.65530451207,48.2976835606
off_to_on,-1.18126060199,-0.600151201096,-3.51956378425,-4.54201120499,5.38415469376,11.3778293427,12.9981991955,-0.444989768819,-4.9816083192,36.9840983825,-28.0742259634,4.03226095497,5.05330402501,20.7979536677
off_to_on,2.16973934999,3.43864396334,-3.54251326014,-4.22413199416,9.63112918625,17.5616768387,21.4025820201,2.546328626,-4.52477212261,33.3965029076,-23.559306713,10.3295644475,10.3204069289,-8.43916551071
off_to_on,4.48840302554,6.28309994895,-3.57603991416,-3.81137568149,12.092428583,21.0108306721,26.4228821382,4.56254722845,-3.94362014879,25.4904388599,-18.2180694409,14.4548115508,13.6447485291,-35.7917833766
off_to_on,5.6572020446,7.77500381041,-3.58786852337,-3.29774836175,12.6604814166,21.5603523553,27.69068045,5.45164716383,-3.25340887444,13.7942379046,-12.2543416508,16.1652775481,14.8459901386,-58.0556428903
off_to_on,5.75986820751,7.98753310214,-3.52868099946,-2.67614932143,11.5230765523,19.4808489868,25.4109017421,5.25202574875,-2.46761235329,-0.652948204752,-5.79254340124,15.6133637737,14.079182622,-72.8498639366
off_to_on,5.05838631038,7.20165880968,-3.34084491662,-1.94277350909,9.12504530895,15.4247102233,20.3168719457,4.18123907476,-1.59958900427,-16.3891451081,1.0959348227,13.3073341207,11.7976804288,-78.8915793391
off_to_on,3.94201129419,5.85017641525,-2.96914068133,-1.10134875111,6.09099111112,10.3152430235,13.5456851557,2.59721751977,-0.664779554386,-31.6779758163,8.34750090846,10.0167255629,8.67063254088,-76.106997518
off_to_on,2.8564213533,4.43835977945,-2.37184683757,-0.166437252946,3.12098584902,5.19571803113,6.45293581201,0.937876690046,0.317071124944,-44.7019849971,15.8528949274,6.63739321138,5.46800585265,-65.5705640989
off_to_on,2.22413538581,3.45376322339,-1.53046077282,0.834820832942,0.875195540116,1.06129356976,0.394916247446,-0.351723364761,1.32018647681,-53.7785789059,23.4079389679,4.03728405652,2.93095175411,-49.2883897952
off_to_on,2.36865653273,3.27932733147,-0.456504960384,1.86289954892,-0.134948880588,-1.30069591666,-3.48876078578,-0.893644563309,2.3119682485,-57.572203102,30.680578597,2.90697051863,1.64750018086,-29.8634730155
off_to_on,3.45425638191,4.12343432507,0.805727708638,2.86809060166,0.367602080586,-1.43787541325,-4.4591938041,-0.441495078678,3.25343849132,-55.2756257887,37.2037474821,3.63827991469,1.95274090078,-10.0955236689
off_to_on,5.45097007199,5.97798971224,2.1810603511,3.79448073168,2.37623072661,0.691949029766,-2.30088299012,1.0748322509,4.10100892583,-46.7359934659,42.3992675895,6.25013706217,3.86895891198,7.42460806895
off_to_on,8.13058161728,8.61136503337,3.56985690669,4.58518959821,5.59547949893,4.70907725633,2.63583642156,3.53107200024,4.80945466138,-32.5074195693,45.6325899136,10.3736279654,7.09518388269,20.6675594074
off_to_on,11.0947063116,11.5977565371,4.85823560415,5.18815774099,9.4811591396,9.86584256363,9.47964145122,6.62020237377,5.33576565999,-13.8205457968,46.2925574071,15.2993558253,11.048188004,28.4168106844
off_to_on,13.8312181868,14.3789841246,5.9307680442,5.56168539408,13.3201364968,15.158529757,16.9644217536,9.89244970704,5.64339218595,7.53029534368,43.8854543205,20.0807296355,14.9492253323,30.3870869672
off_to_on,15.7909472092,16.3497972734,6.68399072469,5.67895497273,16.3382476144,19.4809746997,23.6187997674,12.818176196,5.70631432486,29.3712912884,38.1292203043,23.6783051268,17.9438954198,27.1987812265
off_to_on,16.4734253131,16.9541071332,7.03892217619,5.53091695777,17.8205217097,21.7972734515,27.9914539868,14.8647477128,5.51236418284,49.3844592824,29.0324523111,25.1239557455,19.2374561584,20.2189104964
off_to_on,15.5089601635,15.7777690311,6.95090062415,5.12715723761,17.2259607871,21.3080787704,28.8792563167,15.5763654474,5.06531340498,65.3669098377,16.9439680194,23.6804316467,18.2254514153,11.2983553674
off_to_on,12.7246855072,12.6238654778,6.41541619191,4.49465660634,14.2797817014,17.5857515488,25.5245717866,14.6453224722,4.38539605559,75.4833594338,2.56216580923,18.9722487625,14.6000204421,2.44932553277
off_to_on,8.18442666157,7.55884186954,5.4691559244,3.6746550248,9.02919369647,10.6580428377,17.7523103664,11.9642878667,3.50814450181,78.4814539206,-13.1012685637,11.067787211,8.41564490033,-4.48579268491
off_to_on,2.19591167477,0.921975700206,4.18613083567,2.71809846122,1.85398977947,1.02735808901,6.02584570902,7.65185924342,2.4816430585,73.8435707436,-28.8023427671,0.499395106886,0.103869491132,-8.12366874875
off_to_on,-4.7164839894,-6.70408717362,2.66941852502,1.6803347814,-6.57028662706,-10.3780817753,-8.58751741746,2.04737637229,1.36251726976,61.8562291625,-43.1828828902,-11.7828199082,-9.56614085232,-7.74492362478
off_to_on,-11.87032577,-14.5583845618,1.03963833246,0.61580957313,-15.3520222606,-22.3150686418,-24.5379154016,-4.32468752983,0.211144525399,43.588124902,-54.9125042872,-24.5182700936,-19.5765380084,-3.38646810041
off_to_on,-18.5073915262,-21.7937803516,-0.578303227509,-0.42651838764,-23.4953243758,-33.3831973397,-39.9851029809,-10.8161652161,-0.913330143322,20.7788697582,-62.8370784038,-36.2901568548,-28.7874007811,4.18895853256
off_to_on,-23.8885426029,-27.5837511401,-2.06845834533,-1.40646250106,-30.0285683577,-42.2078469623,-53.0352715001,-16.7342573599,-1.95757463116,-4.34864900194,-66.1146419913,-45.7058109291,-36.0837331345,13.63732418
off_to_on,-27.3882533884,-31.2291971046,-3.33538122139,-2.294240807,-34.1319394311,-47.6229720213,-61.9899559,-21.4275616061,-2.87771847753,-29.3301484923,-64.3206469362,-51.5783359087,-40.5225742498,23.266099593
off_to_on,-28.5758410703,-32.2505673986,-4.31255412191,-3.07037677899,-35.2463351152,-48.8283454828,-65.572728515,-24.3674744112,-3.64168531879,-51.7274791452,-57.507977863,-53.0844763355,-41.4598474406,31.3168005702
off_to_on,-27.2722568153,-30.4525912562,-4.96675132171,-3.72407001207,-33.1486314217,-45.4995254912,-63.1024912801,-25.2140611804,-4.23001985988,-69.390345836,-46.2128136308,-49.8768909695,-38.6393744309,36.2522444913
off_to_on,-23.5746876604,-25.9527020108,-5.29798566118,-4.25047976437,-27.9830629508,-37.835505483,-54.5896779245,-23.8576952751,-4.63523720522,-80.6818181283,-31.404406129,-42.1353578917,-32.2317608853,37.0039673641
off_to_on,-17.8456828505,-19.1692800867,-5.33530496839,-4.64752883945,-20.2446281945,-26.5377694468,-40.7424617576,-20.4311585372,-4.85992882168,-84.6420298348,-14.3842200063,-30.5499444533,-22.817848234,33.1424680416
off_to_on,-10.6684161715,-10.7713957759,-5.12927106297,-4.91289727913,-10.7171127738,-12.7240378382,-22.8825698731,-15.2909818185,-4.91402474063,-81.0723669476,3.353417224,-16.2386110107,-11.3191164489,24.9456448533
off_to_on,-2.7743274897,-1.59700858986,-4.7423825054,-5.04182533512,-0.374565973431,2.21101812477,-2.78273800095,-8.97099832958,-4.81171191535,-70.5323913618,20.2819121643,-0.610729165462,1.11528776075,13.3569076361
off_to_on,5.04690220035,7.44916964173,-4.2389352535,-5.02619145725,9.740014721,16.7686692769,17.5515601795,-2.11479341637,-4.56853010158,-54.2524493138,35.0042474353,14.8046963706,13.2493641132,-0.158540058769
off_to_on,12.0428127432,15.5043074728,-3.67582421638,-4.85509825303,18.6421231346,29.52889389,36.1261870559,4.60355210161,-4.19910746388,-33.9749950006,46.3960284704,28.5427284057,23.9097666053,-13.8354470265
off_to_on,17.5862986071,21.8480782946,-3.09557801667,-4.5169248153,25.522117603,39.3183769357,51.1953025272,10.5596746314,-3.71586879462,-11.7458534389,53.7123785784,39.3735018972,32.1239736028,-25.8731635374
off_to_on,21.2449036431,25.9821443225,-2.52252584023,-4.00253158928,29.8352410056,45.3416769104,61.4599526566,15.2495157992,-3.12887075644,10.3180455177,56.6463418655,46.4381381451,37.2290149849,-34.7023470943
off_to_on,22.8226041991,27.6785484218,-1.96248191395,-3.30907814642,31.3540156178,47.2591123597,66.2030142536,18.3413401248,-2.44671917006,30.2561089093,55.3330836565,49.3324952624,38.9370729903,-39.2134891985
off_to_on,22.3694004139,26.991569019,-1.4057790818,-2.44377205575,30.177253692,45.2027237133,65.3446152233,19.7030721505,-1.67833423064,46.4601432283,50.3014779685,48.1292889499,37.3505194225,-38.9137198438
off_to_on,20.1585944336,24.2327623738,-0.832971642573,-1.42683298014,26.6961175091,39.7304948867,59.413541989,19.4024475953,-0.835179982542,57.8175572446,42.3816102323,43.337884804,32.9261018873,-33.9899501908
off_to_on,16.636101108,19.9140000749,-0.222134429043,-0.293038029674,21.523634484,31.7275886207,49.4418748048,17.6813162212,0.0665125094749,63.7878124154,32.5823321682,35.8097168412,26.3950125672,-25.2710390045
off_to_on,12.3498782697,14.6675864488,0.44353376417,0.908597867474,15.3989724728,22.2704387242,36.8004812196,14.9089628309,1.00400972432,64.4072589075,21.9565177705,26.6045926794,18.6514695214,-14.0970107114
off_to_on,7.87006319907,9.15541933071,1.1691098498,2.11718603939,9.08092891472,12.4741702529,23.0005963702,11.5220330508,1.9472425782,60.2267405237,11.4726287104,16.8380878842,10.6263984034,-2.11705652263
off_to_on,3.71133148417,3.98026020274,1.94347089215,3.26424568982,3.24607416061,3.34538218955,9.49050806497,7.96019691602,2.85915588143,52.1945940774,1.90952125187,7.53215594019,3.16430283151,8.95192945165
off_to_on,0.268259166319,-0.388608170971,2.73771006759,4.27947647035,-1.59427363165,-4.33931837101,-2.52410129442,4.60686902913,3.69733915361,41.5038639277,-6.21258749455,-0.510218178532,-3.07970003431,17.5696154592
off_to_on,-2.22778420172,-3.66557578753,3.50674374368,5.09734845161,-5.1473359433,-10.1131710941,-12.21214576,1.7431440798,4.41683665171,29.4259652974,-12.6577989055,-6.78974680169,-7.70920064256,22.5834336387
off_to_on,-3.72509230739,-5.76882968968,4.19390276127,5.66368056513,-7.35626852841,-13.8483229361,-19.1853016391,-0.479189712296,4.97384453332,17.1533243216,-17.4562287031,-11.1448956854,-10.6140176792,23.3770654647
off_to_on,-4.34035114925,-6.80905914556,4.73783260594,5.9413404709,-8.38100593606,-15.7327003255,-23.4961232395,-2.04276017281,5.32985299941,5.67079447988,-20.8475283226,-13.7329917646,-11.9540892788,19.9370595441
off_to_on,-4.32263682667,-7.05001535849,5.08066734456,5.9142863984,-8.54731833948,-16.2010309274,-25.5703958647,-3.04840473976,5.45570388807,-4.32960007423,-23.1974170758,-14.9639803677,-12.1043003588,12.8314584462
off_to_on,-3.99919258778,-6.84820026181,5.17624395469,5.58937457011,-8.27339039589,-15.8328939335,-26.0875527716,-3.68136429737,5.33502298672,-12.4829873588,-24.9019646554,-15.3992437325,-11.5703436196,3.10776255036
off_to_on,-3.71195365804,-6.5817716912,4.99711478869,4.99564673513,-7.98625946288,-15.2350976095,-25.8301772972,-4.16608647938,4.96655339595,-18.7350401958,-26.2956174306,-15.6326744205,-10.8896005776,-7.87067604156
off_to_on,-3.75485950506,-6.57999777234,4.53929523428,4.18115007473,-8.04155033045,-14.9273868815,-25.5274651782,-4.7173302017,4.36505210068,-23.2816387798,-27.5777847778,-16.1732939242,-10.5327521021,-18.6224388302
off_to_on,-4.32155706132,-7.06413102688,3.82402166777,3.20767778918,-8.65900196436,-15.2492934604,-25.7175538251,-5.4955454458,3.56059683515,-26.4778023262,-28.7694234381,-17.3478745555,-10.8211913017,-27.7489630655
off_to_on,-5.47125773098,-8.10851528688,2.89623858814,2.14410420329,-9.88348972198,-16.302110775,-26.6499276152,-6.57357647992,2.5963575666,-28.7325373314,-29.7060294497,-19.2384541249,-11.8724705917,-34.108954516
off_to_on,-7.11757148158,-9.6274299667,1.82001526548,1.05918129263,-11.5770652966,-17.9341457864,-28.2423218357,-7.9197737947,1.52508654194,-30.4073224658,-30.067553432,-21.6639193604,-13.5814432096,-36.9426677181
off_to_on,-9.04156229493,-11.3891358635,0.67153856216,0.0147353255377,-13.4426234598,-19.7704916115,-30.0977554132,-9.39992028926,0.404744244321,-31.7343981332,-29.4398947395,-24.2078704226,-15.639172953,-35.9319223861
off_to_on,-10.9265927931,-13.0544287391,-0.469326638906,-0.939858498369,-15.0749110442,-21.2816396617,-31.5778796046,-10.7973992254,-0.706217253029,-32.7671754054,-27.3976812173,-26.2878255864,-17.5859313853,-31.1929938424
off_to_on,-12.4092953475,-14.2333482528,-1.52772491209,-1.77123103934,-16.0304518385,-21.8793466834,-31.9201590889,-11.8482077614,-1.75336131719,-33.3695624663,-23.5947313246,-27.2545481905,-18.8895301407,-23.2106242426
off_to_on,-13.1386873414,-14.5510588371,-2.44154647291,-2.46319554376,-15.9051757515,-21.0241535817,-30.3797816337,-12.2851693069,-2.69005787655,-33.2446805928,-17.8473957838,-26.505791756,-19.0365773915,-12.7304896447
off_to_on,-12.8343595409,-13.7126802901,-3.16717588903,-3.01547906712,-14.4075013892,-18.3273814586,-26.3735706113,-11.8843443128,-3.48016692229,-31.9972486406,-10.1970367435,-23.5966949425,-17.622507088,-0.633049728387
off_to_on,-11.3349403449,-11.5571498762,-3.68253057337,-3.44029357884,-11.4154491977,-13.6314901781,-19.6030353333,-10.5063654796,-4.09938800088,-29.2187506225,-0.941035469305,-18.3296765892,-14.4266185663,12.1870480267
off_to_on,-8.62960342067,-8.09196440715,-3.98708063638,-3.75734024591,-7.00889770807,-7.05616307318,-10.1369959442,-8.12624815852,-4.53524031016,-24.5810884744,9.37356819694,-10.8098423178,-9.46077626362,24.9150281524
off_to_on,-4.86798248852,-3.50358651446,-4.09899296118,-3.98806261323,-1.4719269221,0.997191650936,1.55958792828,-4.84700487054,-4.78582632129,-17.9232144716,19.9941294814,-1.45710608396,-2.98445414017,36.86947266
off_to_on,-0.347080419424,1.85805439633,-4.04996215002,-4.15006757309,4.73527565885,9.88349054695,14.655839941,-0.894841130375,-4.85769003344,-9.316360599,30.0388743957,9.02734771526,4.51616147923,47.5105564443
off_to_on,4.52287598436,7.51873094384,-3.87861666802,-4.25260193511,11.0309278729,18.7891545957,28.0406907304,3.40354809874,-4.76318660581,0.903275622328,38.5957326058,19.7359480567,12.3820319586,56.4083827869
off_to_on,9.2686738184,12.9371181593,-3.62357270044,-4.29381123409,16.784687814,26.8335164847,40.4523675254,7.65843723677,-4.51781905142,12.1406772295,44.8301650489,29.6606832124,19.8603834653,63.1855804449
off_to_on,13.4132564448,17.5718749984,-3.31722571802,-4.26023910366,21.3986638998,33.1817775409,50.6335454019,11.4640173289,-4.13796602468,23.5875403759,48.0872853701,37.8154292557,26.1978609384,67.4542447517
off_to_on,16.5354439478,20.9491788737,-2.98122092528,-4.12868854415,24.38480042,37.1532939556,57.4904052741,14.4482455913,-3.63932927152,34.3019707867,47.9743614477,43.3577681963,30.7346769703,68.7691552308
off_to_on,18.3219914539,22.7213961536,-2.62425424951,-3.87020912059,25.4277076674,38.3098457633,60.233397516,16.3186715345,-3.03628630594,43.3121285418,44.4125484095,45.69364676,32.9868042858,66.6165103397
off_to_on,18.6050097668,22.7090175019,-2.24247185676,-3.45564792633,24.4242619731,36.5116516011,58.4802741796,16.8979815202,-2.34216649385,49.7300962196,37.6510134765,44.5508385717,32.7051981734,60.4505225648
off_to_on,17.379998872,20.9205199007,-1.82231846989,-2.8619540409,21.4947780589,31.9337287768,52.3074629194,16.1445572527,-1.57030342534,52.8606954251,28.2418153742,40.0117201408,29.904487476,49.7802222506
off_to_on,14.802581524,17.5480375637,-1.34529739473,-2.07829209478,16.9647149054,25.0410081692,42.2432568534,14.1555353255,-0.735578950159,52.2905761861,16.9792310183,32.5016526656,24.8579967164,34.2974391135
off_to_on,11.1650421803,12.9401437352,-0.793806944634,-1.11102013009,11.3200893316,16.5265171963,29.2044756222,11.1523495734,0.143914376693,47.9455368231,4.81191376697,22.7354156351,18.0606905263,14.0262107628
off_to_on,6.85653421961,7.55616309608,-0.15705329394,0.0132790337127,5.14341848994,7.22206991013,14.3860162651,7.45116564328,1.04549212288,40.1083003064,-7.26033247565,11.6297738012,10.1659753183,-10.5341536583
off_to_on,2.31292671948,1.90880970465,0.563967864445,1.24727348079,-0.960427182642,-2.0054822774,-0.881047850056,3.42262856608,1.94113835909,29.3942583221,-18.2917178126,0.19458790836,1.90564230378,-38.3037646019
off_to_on,-2.03655941241,-3.49673815376,1.35327990222,2.52509354602,-6.43795138607,-10.3577719054,-15.2833006197,-0.553338504318,2.79766912288,16.6882494713,-27.484382608,-10.582672244,-5.99585268388,-67.5842339213
off_to_on,-5.81866176471,-8.21910651353,2.17910284701,3.76713967963,-10.8502598912,-17.1941065405,-27.6702318399,-4.13148999391,3.577917925,3.05049548692,-34.2599525079,-19.8438682668,-12.9013207953,-96.1104303156
off_to_on,-8.75499210172,-11.9251838351,2.99561102825,4.88699473784,-13.9175851325,-22.0948202718,-37.1723025559,-7.03821398373,4.2428979716,-10.3963020219,-38.3011434253,-26.945278681,-18.3248976421,-121.202027303
off_to_on,-10.6859989751,-14.4176492482,3.74708363824,5.79965881178,-15.5399043633,-24.8914484741,-43.2776933182,-9.09697408968,4.75473506033,-22.5845038717,-39.560237875,-31.5111302222,-21.9728616599,-140.009613942
off_to_on,-11.5777639878,-15.6431140514,4.37389329624,6.43013732397,-15.7920942182,-25.6614696988,-45.8598812812,-10.2395499858,5.08003257565,-32.6092547056,-38.2358779315,-33.4506670092,-23.7574682713,-149.833872175
off_to_on,-11.5119583058,-15.681290973,4.81949582387,6.72135299898,-14.8957947526,-24.690563279,-45.1553172918,-10.5025148264,5.19324588713,-39.8135867219,-34.7237808607,-32.9390835253,-23.7840069311,-148.481717197
off_to_on,-10.6616398746,-14.7182536414,5.03743018833,6.64042663706,-13.1734149161,-22.4098814473,-41.6973860464,-10.010488625,5.07962058143,-43.8414157145,-29.5501011726,-30.3675514911,-22.314982323,-134.61283953
off_to_on,-9.25740328815,-13.008893368,4.99733279255,6.18256918502,-10.9920319535,-19.3190764039,-36.218542462,-8.94947677466,4.73729092366,-44.6533934084,-23.2978376853,-26.2714552819,-19.7182326254,-108.025785101
off_to_on,-7.54946002218,-10.8348495668,4.68911391167,5.37212069008,-8.7060087763,-15.9073209498,-29.5362508068,-7.53479794726,4.17823563044,-42.5055430617,-16.5367498794,-21.2483072434,-16.4075435858,-69.8357408256
off_to_on,-5.77140918458,-8.46435618923,4.1247125904,4.26062024574,-6.6068637139,-12.5841594776,-22.4396558874,-5.97857713502,3.42793264138,-37.8953896861,-9.76578747466,-15.8773841455,-12.7847063342,-22.5066801164
off_to_on,-4.1107786067,-6.11963963117,3.33719768753,2.92214829623,-4.88737331054,-9.62986110306,-15.5927101229,-4.46149366818,2.52372190953,-31.4842618216,-3.37436051095,-10.6519271884,-9.19102113488,30.2825447153
off_to_on,-2.69002270819,-3.95590050515,2.37736307283,1.4465019173,-3.62435598057,-7.17141855129,-9.46606281387,-3.11251179888,1.51205095389,-24.0070826712,2.37463614427,-5.93206042845,-5.87418972522,83.9372461976
off_to_on,-1.55980750492,-2.05380261393,1.3083168312,-0.068995458183,-2.78149591075,-5.18603876354,-4.30499959553,-1.99886221668,0.444918205201,-16.1819784212,7.34071159382,-1.92289384405,-2.97374311583,133.387267414
off_to_on,-0.70440281817,-0.425131360398,0.198835564949,-1.52811466329,-2.23041560378,-3.52959422637,-0.134923422171,-1.12683289186,-0.624075736404,-8.63133974713,11.484433382,1.32180073904,-0.525088677258,173.623618059
off_to_on,-0.0571536848453,0.97076915119,-0.883593523599,-2.84382342504,-1.78547661607,-1.98372517095,3.19980486757,-0.452239782972,-1.64362175066,-1.82374450125,14.8350135934,3.87378304168,1.52058597599,200.269914394
off_to_on,0.477407412055,2.20370585274,-1.87910833163,-3.94502706577,-1.24588365957,-0.312662741798,5.97255650202,0.101961223015,-2.56811861097,3.95724385582,17.4541230758,5.88886835228,3.26552068717,210.11819347
off_to_on,0.999025065115,3.34722184825,-2.74037757525,-4.78130675112,-0.43784790922,1.68025700921,8.49863120818,0.624388690885,-3.36027202618,8.61542949233,19.403070525,7.55804391818,4.8299352695,201.558846378
off_to_on,1.58904262868,4.45576927095,-3.43551144826,-5.32528624744,0.750085666766,4.10588715258,11.060019183,1.1940748264,-3.99266172239,12.2176213274,20.7191393183,9.05982511518,6.31834707559,174.844184465
off_to_on,2.29323959609,5.54839382192,-3.9487311735,-5.57255921561,2.34402609776,6.95985490585,13.8428103365,1.86294169895,-4.44821151367,14.9482832961,21.404641065,10.5215047937,7.79322353511,132.143628862
off_to_on,3.1126747597,6.60146325118,-4.27889626827,-5.53939921307,4.2772993629,10.1147946511,16.8965549349,2.64460137935,-4.71964819024,17.0515396801,21.4295476917,11.9948245796,9.25985443785,77.3735408255
off_to_on,4.00352835105,7.55123557429,-4.43630559997,-5.2587169588,6.3992046926,13.3348860844,20.1208260913,3.51096156378,-4.80816500234,18.7701857389,20.7458884208,13.4487546354,10.6641333215,15.8131248821
off_to_on,4.88537075554,8.30528485352,-4.43842983434,-4.77489572465,8.49795116405,16.3096895415,23.2796006662,4.39674463743,-4.7215959833,20.2912329805,19.3099052935,14.7790115443,11.902620251,-46.4541161851
off_to_on,5.6559091043,8.76028019571,-4.3053632095,-4.13820958915,10.333557526,18.7012231385,26.0396131943,5.2107147604,-4.4724462291,21.7060482046,17.1066124435,15.8311809049,12.842206643,-103.210049319
off_to_on,6.20929090676,8.82259046427,-4.05578414762,-3.39950789673,11.6750561276,20.1962624196,28.0252362577,5.85136287339,-4.07610658587,22.990591318,14.1711047319,16.4322735114,13.3452394911,-148.803105796
off_to_on,6.45461462291,8.42781449373,-3.70408981882,-2.60574287052,12.3358640604,20.5552409232,28.8802207018,6.22417937352,-3.54951364001,24.0080251367,10.6017282743,16.4245203326,13.2952963592,-178.795137862
off_to_on,6.33145386143,7.55565222058,-3.2591417566,-1.79674703191,12.2017129874,19.6499412003,28.3260677409,6.25752896122,-2.91040983588,24.5325456735,6.56189125204,15.695307502,12.6189997404,-190.472925058
off_to_on,5.81988914771,6.23745788196,-2.72476617088,-1.00346113825,11.2469429898,17.4842137897,26.207903564,5.91452665295,-2.17723202878,24.2901559042,2.26953787039,14.1982819515,11.3002380212,-183.158910654
off_to_on,4.94361759774,4.5551744071,-2.1018415527,-0.247602693664,9.53700597347,14.1948761101,22.5212221588,5.1991116225,-1.36953069848,23.0097100876,-2.02428413716,11.9625662144,9.3847107414,-158.280224776
off_to_on,3.76597589674,2.63189315769,-1.39152743911,0.457421259495,7.21733851375,10.0332246741,17.4162790447,4.15557549357,-0.508716831185,20.4762002323,-6.06419960501,9.08933362551,6.97454098866,-119.18530438
off_to_on,2.37994161881,0.615745388342,-0.598986024434,1.10469228322,4.49096640681,5.33069759919,11.1806565477,2.86193576044,0.38113404448,16.578093905,-9.62159061595,5.73728817402,4.21446653912,-70.7295040967
off_to_on,0.894162722549,-1.34003771118,0.263145657502,1.69146198887,1.58893696332,0.454649037342,4.20395528984,1.41855987789,1.27271034265,11.3415427258,-12.5224092502,2.10046532007,1.27252612513,-18.6807499369
off_to_on,-0.582354969428,-3.09744752113,1.17224664169,2.21676034138,-1.26132996215,-4.2384342783,-3.06884975209,-0.0658250361624,2.1353829799,4.94627981355,-14.6666212678,-1.61708936861,-1.68103443129,30.9804631177
off_to_on,-1.95418237357,-4.55095521585,2.09473354036,2.67930530814,-3.86456686266,-8.44482640436,-10.1874987606,-1.48827051296,2.93579336617,-2.27930265517,-16.035616551,-5.22496741248,-4.49281918769,72.7787461931
off_to_on,-3.14970137052,-5.63885821058,2.98693991782,3.07599291137,-6.07861348558,-11.9442352075,-16.7421338393,-2.7635348277,3.63917837279,-9.88345417405,-16.6860573125,-8.56423948924,-7.04009837869,102.38895507
off_to_on,-4.126114417,-6.34695967629,3.7978845128,3.40112423962,-7.82483790049,-14.6150593175,-22.3980906762,-3.83195605166,4.21137214295,-17.333494943,-16.7310989569,-11.5167739347,-9.23736360631,117.128165572
off_to_on,-4.86874976444,-6.70420537634,4.47365356885,3.64639762111,-9.08699672036,-16.4328026765,-26.9156767999,-4.66224145347,4.62130131303,-24.069840274,-16.3122749307,-14.0051853955,-11.03512101,116.234004902
off_to_on,-5.38527905044,-6.77133019007,4.96285524112,3.80157968029,-9.89956090648,-17.4531448877,-30.1537529282,-5.24911199327,4.84369093782,-29.564625344,-15.5671615673,-15.9845354575,-12.4119878419,100.896887626
off_to_on,-5.69641323755,-6.6247934772,5.22241687103,3.85568366523,-10.328352112,-17.7837487069,-32.0588934378,-5.60668503064,4.86163916021,-33.3774643769,-14.5988924523,-17.4285969861,-13.3624780576,74.0458676982
off_to_on,-5.82527473946,-6.33909551692,5.22291797296,3.79843609571,-10.4476117859,-17.5506966653,-32.6443645182,-5.75923328549,4.66870936317,-35.2014256298,-13.4534793239,-18.3145877271,-13.8836918218,39.9198039509
off_to_on,-5.78784677634,-5.97082667764,4.95269519589,3.62180508494,-10.3181504171,-16.8661919462,-31.9647052757,-5.73139299382,4.27023153706,-34.8937552538,-12.1097035637,-18.6105708689,-13.9643086679,3.48306824509
off_to_on,-5.58664180553,-5.54746263677,4.42011374188,3.32139055271,-9.97091608494,-15.8037227376,-30.0920812248,-5.53993630442,3.68359431597,-32.4880065636,-10.4842411644,-18.2691536404,-13.5787889297,-30.2355558359
off_to_on,-5.20905858405,-5.06304181529,3.65364863844,2.89752774545,-9.39924063618,-14.3853631202,-27.0997655935,-5.18886910194,2.93743294646,-28.1867123697,-8.45200847443,-17.2297909677,-12.6886016942,-56.7933693775
off_to_on,-4.63093550396,-4.48159707439,2.69972110133,2.35601795956,-8.56135999792,-12.5835397799,-23.0562695211,-4.66893201817,2.06975857221,-22.3362281058,-5.87890892163,-15.4301618219,-11.2508174759,-72.8891964659
off_to_on,-3.82473231795,-3.74778166616,1.61854447531,1.7084609,-7.39285227669,-10.3368424087,-18.031144984,-3.96169354638,1.12521041034,-15.3875386422,-2.66170248676,-12.8250716871,-9.23280208202,-76.7534719717
off_to_on,-2.77078110682,-2.80277861086,0.478504714376,0.97221076198,-5.8267328177,-7.5767746826,-12.1107970484,-3.04749022381,0.151724995913,-7.84838787903,1.23195204256,-9.40952471461,-6.63032364136,-68.3259977585
off_to_on,-1.4693254878,-1.60255023467,-0.650207720726,0.170006137325,-3.8174213711,-4.26019838929,-5.42026987196,-1.91565865595,-0.803010478739,-0.232877752987,5.73079556947,-5.24135442428,-3.48541079239,-49.2035736197
off_to_on,0.0492455138991,-0.134955360663,-1.70191166783,-0.670669398046,-1.36392206738,-0.40099183957,1.85463746526,-0.574966050553,-1.69493088119,6.98537330572,10.6414287763,-0.458361923526,0.10002453582,-22.3707337039
off_to_on,1.71839630061,1.56766364488,-2.62092270666,-1.51845020126,1.47250703826,3.90565173263,9.45109968338,0.93801793976,-2.48643217982,13.4112712818,15.6488609075,4.71459380606,3.95837336854,8.24455668484
off_to_on,3.43547271565,3.42314427996,-3.36558282234,-2.33915052887,4.56014632353,8.47178737115,17.0243417237,2.55461684793,-3.14839530462,18.7537305788,20.338235463,9.97172084371,7.86078878071,38.3260136504
off_to_on,5.06855688407,5.30296185455,-3.91042781927,-3.09702309468,7.70052858293,13.0215693158,24.1577825206,4.17519178998,-3.66122789094,22.8367319646,24.2364582286,14.9467242309,11.5327405164,63.7575315319
off_to_on,6.46974416439,7.0445417913,-4.24636507624,-3.75622475189,10.6445613364,17.2130742306,30.3893594608,5.67620905887,-4.01489095907,25.5960989403,26.8690899347,19.2461963347,14.6795802281,81.1652456693
off_to_on,7.49323670233,8.47094024294,-4.37901835559,-4.28249640281,13.1194131909,20.6748273105,35.2521596542,6.92266920341,-4.20801149665,27.0639992473,27.8250469499,22.49224069,17.0191799084,88.3418554099
off_to_on,8.01566042642,9.41506132332,-4.32564442315,-4.64504097221,14.862586482,23.0520915368,38.3246365384,7.78434627125,-4.24629657247,27.3446466618,26.819857544,24.3686880742,18.3172331695,84.4999161587
off_to_on,7.95541975951,9.744667259,-4.11120166806,-4.8185417239,15.6581916003,24.0560508965,39.2834932655,8.15351500793,-4.14054398938,26.5855768499,23.7477826645,24.6641710907,18.4199881126,70.3256334019
off_to_on,7.28782732072,9.38412521991,-3.76422936178,-4.78520986603,15.3698066759,23.5081716932,37.9511814414,7.96143110755,-3.90457801262,24.9491104082,18.7141607223,23.3052815153,17.2791840075,47.8327425596
off_to_on,6.05322126143,8.32919070053,-3.3131690339,-4.53669574089,13.9645752685,21.3724308713,34.3301388443,7.19085778151,-3.5534227607,22.5882007441,12.0417777644,20.3741041923,14.9648320676,20.0433797605
off_to_on,4.35625504374,6.65211145278,-2.78363483041,-4.07565449058,11.5243447363,17.7697218065,28.6174013309,5.88241183896,-3.10196415361,19.6298868514,4.24857824901,16.1064800593,11.6631101984,-9.45432852293
off_to_on,2.35587200922,4.49580219442,-2.19694100452,-3.4167372121,8.24151496153,12.9713506283,21.1958756469,4.13336992895,-2.56425430171,16.1681950424,-4.00188023769,10.8701075421,7.65879901641,-37.0069599635
off_to_on,0.24695372952,2.05755941185,-1.56995642607,-2.58679177917,4.39956690622,7.37171864663,12.6019569173,2.08870026866,-1.95349534635,12.2667684001,-11.9717663303,5.12462827919,3.30404181523,-59.3839891064
off_to_on,-1.76398193413,-0.435518928672,-0.916118240817,-1.6241083215,0.340612817222,1.44354492541,3.47278585378,-0.0747092245759,-1.28262113969,7.96997233952,-18.9332362776,-0.631319641057,-1.02261014408,-74.1869329863
off_to_on,-3.48559270175,-2.75585132517,-0.247238629308,-0.57663112401,-3.57562451037,-4.31820894089,-5.52031737267,-2.16856323728,-0.565292812022,3.31993806391,-24.2545232486,-5.91892461936,-4.96126296048,-80.1262980508
off_to_on,-4.76703953867,-4.70501749435,0.424388191139,0.500826907253,-7.01557470683,-9.45565596555,-13.7433736993,-4.0155504972,0.182946506171,-1.62387036825,-27.476100362,-10.3356087252,-8.2134300753,-77.1335775674
off_to_on,-5.51790400802,-6.13915867986,1.08410749632,1.55020326191,-9.71196003156,-13.6018321643,-20.6663369195,-5.47038635495,0.943641466965,-6.76634018216,-28.3662124905,-13.6008476584,-10.5762012906,-66.2998734772
off_to_on,-5.71947251317,-6.98613912018,1.71372371272,2.5143513059,-11.4944000549,-16.5210808069,-25.9153809184,-6.43641387689,1.69478566001,-11.963232351,-26.9477224772,-15.584632326,-11.9627159735,-49.657406021
off_to_on,-5.42541364503,-7.25171347217,2.29134513208,3.34136628108,-12.3059563166,-18.1299749416,-29.3034988324,-6.8752990707,2.41078152909,-17.0154338622,-23.492116493,-16.3143000592,-12.4058157013,-29.8417115526
off_to_on,-4.75148820776,-7.01366176937,2.79237985449,3.98862864039,-12.2032137291,-18.4957651976,-30.8352281811,-6.80838786318,3.06311364401,-21.6727322822,-18.4811110902,-15.9586991577,-12.0442902845,-9.68774160546
off_to_on,-3.85566246677,-6.40478074786,3.19158521194,4.42611864995,-11.3400261801,-17.8128509093,-30.6852377038,-6.30957170653,3.62173802062,-25.6475555141,-12.540933469,-14.7921314942,-11.093830606,8.1796497204
off_to_on,-2.91156937701,-5.58744990182,3.46586452727,4.63861302199,-9.93759917425,-16.3612561896,-29.1545466718,-5.49083521128,4.05707604578,-28.6376990137,-6.35831973561,-13.1436995764,-9.80723663982,21.7019974869
off_to_on,-2.07942128793,-4.72392202379,3.59734825741,4.6264875726,-8.24573820661,-14.4539882723,-26.6116514304,-4.48282081425,4.34240218576,-30.3557542191,-0.589990901537,-11.3400537877,-8.43020344091,29.6415288985
off_to_on,-1.4790198453,-3.94727733246,3.57621886654,4.40500743738,-6.5015083011,-12.3819860974,-23.4282319489,-3.4135517676,4.45634464058,-30.5619199075,4.2216026717,-9.65069408293,-7.15981946896,31.7014654179
off_to_on,-1.16932520057,-3.33798095604,3.40275457437,4.00216868235,-4.89198937443,-10.3658168087,-19.9199922035,-2.38876816806,4.38518756436,-29.0962493385,7.71431212034,-8.244710885,-6.1126025597,28.501117893
off_to_on,-1.13814000698,-2.91017230317,3.08817528229,3.45533777006,-3.52718646953,-8.52224575582,-16.3023753649,-1.47709004546,4.12467661776,-25.9062360481,9.74474510181,-7.16615570648,-5.30748531263,21.4162693456
off_to_on,-1.30395215338,-2.61029894559,2.6540578857,2.80709238917,-2.42754386619,-6.851426552,-12.6684794834,-0.702453247417,3.68108426848,-21.0659879787,10.3938084594,-6.33234276379,-4.66683616332,12.3147383524
off_to_on,-1.53008219371,-2.3287111077,2.13031835586,2.10077514267,-1.5281562356,-5.24708573724,-8.99283365312,-0.0450801821216,3.07137927571,-14.7840435291,9.93884802251,-5.55572442622,-4.03570851483,3.23134096381
off_to_on,-1.64928440699,-1.92266400591,1.55199676725,1.37631309601,-0.699030496094,-3.52823318892,-5.16034131667,0.54916967834,2.32245341504,-7.39805316899,8.79686114037,-4.58611592826,-3.21649262168,-3.96622819242
off_to_on,-1.49516769856,-1.24717984607,0.955289102186,0.666822758113,0.221940286339,-1.48722459188,-1.01534552412,1.15265105771,1.46947228735,0.644044052746,7.44760367824,-3.1665782177,-2.01348180251,-7.86965624963
off_to_on,-0.935524900291,-0.188728495477,0.373410784538,-0.00358613151532,1.38884177509,1.0539604724,3.57787079567,1.83577137071,0.553520212737,8.81523342143,6.34848123002,-1.09376692356,-0.279993623405,-7.73761446031
off_to_on,0.0978916935138,1.30404436366,-0.167073722639,-0.620560718055,2.90735806305,4.18908073571,8.67415259135,2.64638093213,-0.381212107927,16.5505066229,5.85442791252,1.72755013169,2.04006532029,-3.59016720508
off_to_on,1.58831850909,3.19813303752,-0.648874026386,-1.17876562031,4.80133910944,7.88465088144,14.1976801037,3.5924932884,-1.29040422661,23.2941228388,6.15531484676,5.24559149882,4.88377436601,3.82046348141
off_to_on,3.42569884555,5.36702521674,-1.06511828068,-1.6798238457,6.9926220946,11.9571506649,19.913553216,4.63170913581,-2.13244884047,28.5485517667,7.24086640745,9.24595414976,8.05972363663,13.1541345708
off_to_on,5.41340332087,7.59720761619,-1.41881282795,-2.12929995891,9.29846913283,16.0760237431,25.4278962712,5.66973698924,-2.87089595473,31.9202482173,8.89895357664,13.3635500692,11.2605121428,22.716157792
off_to_on,7.28993429755,9.61054330563,-1.72067696373,-2.5332298785,11.4482591138,19.7940837003,30.2192026826,6.56898486798,-3.47629813334,33.1575534231,10.7480747611,17.1220836074,14.0968405198,30.7411390114
off_to_on,8.76323893424,11.1001845492,-1.98567829232,-2.894772546,13.1179724462,22.6025146409,33.6985395874,7.16655095288,-3.92734257761,32.1766572803,12.2995706627,19.9966187403,16.1493112989,35.6820025011
off_to_on,9.5531509091,11.7753631169,-2.2288163595,-3.21154596661,13.9780112126,24.0034578119,35.2912452058,7.29932205615,-4.21124965468,29.0726336276,13.0404384598,21.4908338287,17.0309783376,36.459355069
off_to_on,9.43596204222,11.408684718,-2.46084433352,-3.47411367635,13.7474789488,23.5898839272,34.5286737108,6.83255628047,-4.32350570464,24.113977657,12.524223902,21.2177400059,16.4515489978,32.6335642681
off_to_on,8.28444817443,9.87873854821,-2.6846553638,-3.66591975045,12.246603751,21.1206152192,31.1360602713,5.68750430719,-4.26706841797,17.7206950372,10.4559080587,18.9714300562,14.2733083911,24.474663152
off_to_on,6.09697634516,7.20108276195,-2.89298274559,-3.76475402455,9.43878644293,16.5783273239,25.1021559547,3.86346466116,-4.05122702136,10.4276569953,6.75723503149,14.7780787117,10.5494888183,12.9213842035
off_to_on,3.01059704702,3.54199104804,-3.06787976232,-3.7455949165,5.45487005528,10.2002089145,16.7180802921,1.45022689936,-3.69031262972,2.83647615209,1.60150781063,8.91690750634,5.53791337643,-0.562270218609
off_to_on,-0.704876089733,-0.788409711321,-3.18218144095,-3.58445909846,0.594536284509,2.47448104207,6.57668398001,-1.37192126885,-3.20243701246,-4.43958689973,-4.58883356223,1.90585178339,-0.313957248032,-14.2091077589
off_to_on,-4.67215691339,-5.36411454699,-3.20284498977,-3.26271767377,-4.69706898963,-5.89928951207,-4.47088985311,-4.34571987972,-2.60839586535,-10.832344616,-11.1831476596,-5.54832437731,-6.41239919544,-26.2142487504
off_to_on,-8.44869477956,-9.68974800629,-3.09576441499,-2.77124346995,-9.87574790895,-14.0828747638,-15.3985611208,-7.16310237678,-1.930814226,-15.8713817509,-17.4176209229,-12.6304430406,-12.0848282023,-35.0030328894
off_to_on,-11.5807739382,-13.2601722586,-2.83140426077,-2.11374924796,-14.3624334915,-21.1968152245,-25.1196045339,-9.50114539091,-1.1935477151,-19.2273506063,-22.4947638844,-18.5180693432,-16.6630715669,-39.4608812223
off_to_on,-13.6625286508,-15.6255756696,-2.39043747632,-1.30876490251,-17.6169730829,-26.4302880585,-32.6178212049,-11.0633099751,-0.421294870717,-20.7413157503,-25.6938264599,-22.4900965069,-19.5716106342,-39.0913497933
off_to_on,-14.3918788414,-16.4532449151,-1.76853007495,-0.389872457045,-19.2115253679,-29.1486814496,-37.0782774389,-11.6204294146,0.360667493245,-20.4369400755,-26.476547303,-24.0277250876,-20.4086253841,-34.0802401185
off_to_on,-13.6154809562,-15.5772676728,-0.979500244356,0.595951957639,-18.8931595773,-28.9837617784,-37.9994186477,-11.0456124808,1.12673566752,-18.5140233432,-24.5728324278,-22.8932060468,-19.0081134742,-25.2583087317
off_to_on,-11.3560108602,-13.028714968,-0.056282563524,1.59178175619,-16.6263227752,-25.8931099302,-35.2700876205,-9.33778416486,1.85132432703,-15.3238364253,-20.0333711873,-19.174257451,-15.4735046458,-13.9705301351
off_to_on,-7.81730914128,-9.04126706492,0.950578329404,2.53561218756,-12.6083103291,-20.1792747682,-29.1991459866,-6.62993018642,2.50938751336,-11.3286403341,-13.2405348827,-13.286441757,-10.1767954572,-1.87364775048
off_to_on,-3.36583612891,-4.03046317793,1.97683734459,3.3660989617,-7.25441888776,-12.4643615352,-20.4914989217,-3.18008053331,3.07715435941,-7.04952876002,-4.87457376855,-5.93142799411,-3.72181747044,9.30615981266
off_to_on,1.50989221944,1.45166242985,2.95045195036,4.02846977473,-1.15359826288,-3.62182581926,-10.1715410362,0.654602186925,3.53306657285,-3.00808754906,4.16165893062,1.98481493384,3.12480287139,18.0187002997
off_to_on,6.25713554918,6.78134690061,3.79877679506,4.479877899,5.00043162871,5.32676653414,0.537625481503,4.4578954705,3.85885294889,0.33184016465,12.8503508129,9.46410685368,9.52682781381,23.1022427022
off_to_on,10.3267769361,11.3392347184,4.45615051444,4.693529727,10.4940654622,13.3371836998,10.3644473722,7.80394899323,4.04063401828,2.61586849175,20.1849369699,15.54411195,14.6839668103,23.9332131199
off_to_on,13.2423860282,14.5880689357,4.87090218683,4.66107310243,14.6837050366,19.4739409564,18.1493674129,10.3098117279,4.06992489344,3.63843134485,25.2982229046,19.4254076679,17.9359777593,20.4937948236
off_to_on,14.6613308128,16.1416581667,5.01086854403,4.39295929812,17.0786873647,23.0302261144,22.994213015,11.6841573159,3.94440100816,3.36521448085,27.5752165289,20.58028318,18.8512843245,13.3511806479
off_to_on,14.4196649618,15.815783711,4.86670566768,3.91675719002,17.405949492,23.6200624073,24.380221877,11.7656201231,3.668310619,1.93588435951,26.7352854303,18.82806084,17.2878282947,3.55572926498
do_nothing,12.5545671433,13.6539598015,4.45257369929,3.27366630357,15.6473932131,21.2298978381,22.2381908033,10.5453849941,3.25245672532,-0.353486285925,22.8722287683,14.365975156,13.4173586613,-7.52289852442
do_nothing,9.3010459954,9.92422280467,3.80412808246,2.51370830026,12.0444724895,16.2221093541,16.9603999952,8.17067381727,2.71372329253,-3.08659349124,16.4464370225,7.7504939138,7.70912692355,-18.3941912864
do_nothing,5.06305305455,5.08696441304,2.97411501336,1.6902414461,7.068903906,9.28933141078,9.35169046498,4.92827773301,2.07417794602,-5.77780344323,8.2297388052,-0.169366919238,0.874370378883,-27.648692678
do_nothing,0.362595489458,-0.262285345268,2.02618955254,0.85451670933,1.36299374963,1.36517944624,0.525304920214,1.20995503298,1.35983645869,-7.93212190871,-0.79008752895,-8.35861824871,-6.22171924744,-34.133589084
do_nothing,-4.22656717619,-5.46781541765,1.02780596182,0.0509674889473,-4.34275565563,-6.49708696249,-8.24329822141,-2.53601739593,0.59921491576,-9.10739749881,-9.53271343142,-15.7291014545,-12.6693633152,-37.0782129705
do_nothing,-8.15194145241,-9.89668001659,0.0431381324106,-0.686197804261,-9.32393962597,-13.2619685264,-15.685550692,-5.86093253925,-0.178182953719,-8.97151333827,-16.9603875977,-21.2811180356,-17.6307048561,-36.155189377
do_nothing,-10.9523904071,-13.0187491096,-0.873041604537,-1.33473156519,-12.9559265672,-18.0469164553,-20.7093415222,-8.37207859683,-0.943296363163,-7.34774633682,-22.2070544079,-24.2350852403,-20.4481438479,-31.4742407906
do_nothing,-12.3160226067,-14.4733184196,-1.67975918438,-1.88429106252,-14.7944076312,-20.2372308607,-22.5462777904,-9.78208489508,-1.66873138354,-4.24270745926,-24.6845880947,-24.1355795364,-20.7301351145,-23.5168061735
do_nothing,-12.118240609,-14.1135089088,-2.35201493608,-2.33473097845,-14.6320410482,-19.5652740984,-20.8566804798,-9.94466715141,-2.32969368809,0.146803960667,-24.1524164301,-20.9137107176,-18.4029907828,-13.0287576141
do_nothing,-10.4349881778,-12.0226560847,-2.88058020673,-2.69311894212,-12.5236252467,-16.1434096298,-15.7779247399,-8.8720388743,-2.90459659733,5.44930397734,-20.7417985924,-14.899290294,-13.7217047402,-0.89413154157
do_nothing,-7.5295883322,-8.50064960325,-3.26960948624,-2.97002303376,-8.77649329098,-10.44634175,-7.90931227044,-6.73169590485,-3.37536410957,11.1551614645,-14.9321554816,-6.78096673465,-7.23825600589,11.9859246835
do_nothing,-3.81512964945,-4.02221719046,-3.53258105659,-3.1757100542,-3.90753616956,-3.24539272864,1.76478095672,-3.82304076553,-3.72749509916,16.6703518208,-7.48327451517,2.48052264685,0.26848969268,24.7879482448
do_nothing,0.202355942105,0.827100615708,-3.68731427038,-3.31688632975,1.42721870642,4.49623733673,12.0033812294,-0.537014094418,-3.94998683602,21.3815202893,0.666960308007,11.7745466364,7.89204892999,36.8205765206
do_nothing,3.99212638702,5.42858183981,-3.7509292966,-3.39451107814,6.52085010808,11.7529261114,21.4719113691,2.69582918814,-4.03522806395,24.7250208563,8.52522187373,19.9820524979,14.7136652891,47.5338115059
do_nothing,7.06910244582,9.2111000183,-3.73559889943,-3.40303197244,10.709616978,17.5732178988,28.9179096146,5.46183303872,-3.97896205577,26.252014352,15.1692248796,26.1176143851,19.9185444589,56.4883853746
do_nothing,9.05691282753,11.7242631228,-3.64579507056,-3.33116110228,13.4601620713,21.2051063682,33.3359607743,7.4177993672,-3.78039002585,25.6820558403,19.8613174192,29.4533657064,22.897756716,63.2992972566
do_nothing,9.7352436417,12.6942774287,-3.47747926206,-3.16406203814,14.438176319,22.1932450303,34.0998119777,8.33449951472,-3.44244017014,22.9388486147,22.1345561676,29.608661276,23.3225945682,67.5735250565
do_nothing,9.06535778062,12.0553466784,-3.21936279614,-2.88659233638,13.5494796539,20.4352778161,31.0441259842,8.12445575123,-2.97217521561,18.1638517012,21.8406888899,26.5940190316,21.1819465025,68.8637832517
do_nothing,7.19069856495,9.95281708656,-2.85602315157,-2.4870744368,10.9483166103,16.190163388,24.4851789104,6.85048373297,-2.38126090006,11.7059661984,19.1548655502,20.8041013724,16.7782567165,66.6575250766
do_nothing,4.41292671116,6.71815457111,-2.37235434998,-1.96097702964,7.01218442357,10.0379725434,15.1780870506,4.71411880972,-1.68637839561,4.08829224281,14.5378762231,12.9613501146,10.6831930555,60.4135103856
do_nothing,1.14708163859,2.81965351276,-1.75860257311,-1.31389204735,2.28707662755,2.79724750769,4.21670678286,2.02577459173,-0.909442898214,-4.04438875916,8.66243311045,4.01844316531,3.65948050266,49.64828605
do_nothing,-2.13765335761,-1.20399769259,-1.0151262416,-0.563288876232,-2.58899531631,-4.58828798251,-7.10998279406,-0.839073856824,-0.0774931655608,-11.9915140848,2.31469098722,-4.96689665915,-3.44024727549,34.0635664371
do_nothing,-4.98324567218,-4.81796643993,-0.15604050008,0.261297304745,-6.97348955603,-11.1778655225,-17.4854768244,-3.49156017407,0.777856216034,-19.0685872761,-3.71478678079,-12.9677562585,-9.78385567233,13.6948015866
do_nothing,-7.005149661,-7.56312277906,0.788943178296,1.11975815569,-10.3057769237,-16.1590610151,-25.7347614369,-5.58185708609,1.62145944294,-24.6768790827,-8.73543671701,-19.1164636113,-14.6646762236,-10.9467815825
do_nothing,-7.94323668813,-9.11578931378,1.77491285625,1.9644541501,-12.1808198084,-18.9534880592,-30.9722619539,-6.84528395023,2.41617674449,-28.3631883096,-12.2424474545,-22.80887061,-17.5873512043,-38.7700002244
do_nothing,-7.69459380019,-9.32754372447,2.74448977947,2.74444545737,-12.4003055838,-19.2888111752,-32.7093563104,-7.13598474061,3.12482996982,-29.8630904914,-13.9728790877,-23.7713572347,-18.323714373,-68.0669451058
do_nothing,-6.32408314363,-8.24010930164,3.63265308119,3.41037429824,-10.9947039029,-17.2279294795,-30.9077964243,-6.44386394325,3.71243624533,-29.1230911208,-13.9256538196,-22.0827212192,-16.9321088717,-96.5658019418
do_nothing,-4.0516873531,-6.0738795887,4.37309097454,3.91936224258,-8.21380902752,-13.1521908805,-25.9728613899,-4.89282023684,4.14852762434,-26.2996095033,-12.3441635276,-18.1493515837,-13.7385823595,-121.583280002
do_nothing,-1.2188711758,-3.19226216222,4.90527455474,4.23927918695,-4.48768129037,-7.70183061893,-18.6882712801,-2.7208956081,4.40933523838,-21.7354398701,-9.66548721602,-12.6383848038,-9.28353245373,-140.271319847
do_nothing,1.76097917034,-0.0472885501665,5.18132523557,4.35182709638,-0.363909250948,-1.68260534985,-10.1026860352,-0.245402186563,4.4796146103,-15.9169356223,-6.44472988674,-6.37904489009,-4.24190157259,-149.936501052
do_nothing,4.46090483023,2.88562048708,5.17175469576,4.25404793664,3.56977124571,4.04797249705,-1.38394142825,2.18193307591,4.35391575687,-9.41732668861,-3.26617300302,-0.246339394197,0.671662578707,-148.395989481
do_nothing,6.49933439134,5.17454222506,4.86929608023,3.95808668217,6.76665556569,8.69889128601,6.33880555841,4.22351737385,4.03715459914,-2.8330531649,-0.654360971659,4.95678168487,4.79957786043,-134.323442154
do_nothing,7.59158651968,6.4903904272,4.29029672501,3.48928394254,8.79491920063,11.6522099398,12.1236425862,5.60148356288,3.54441435777,3.27938566231,1.00220841155,8.60300711545,7.6270573013,-107.534029047
do_nothing,7.58706372934,6.65075872535,3.47346917572,2.88290258417,9.39426115938,12.5437178134,15.335515058,6.13422659665,2.89998758038,8.458866249,1.50434380966,10.3166360783,8.84570446533,-69.1608095057
do_nothing,6.4874160502,5.64263781696,2.47615129845,2.17997499257,8.50804154504,11.3073194503,15.7215646767,5.75915949963,2.13575034195,12.3813143455,0.865542200643,10.0127741015,8.38720350914,-21.6852330994
do_nothing,4.44367759333,3.62140382239,1.36855672614,1.42286588422,6.2871254471,8.17796264376,13.4331898019,4.53894601052,1.2890292592,14.8834211928,-0.696878536234,7.89587681242,6.42360051978,31.1984953528
do_nothing,1.73330355804,0.886779977559,0.226756562023,0.651164613351,3.06558609585,3.653690076,8.99320972797,2.65077195104,0.400170276222,15.9665042805,-2.80062710066,4.41939661687,3.33527431426,84.8840931687
do_nothing,-1.2792511108,-2.16040851154,-0.87471412817,-0.10155105534,-0.687765309732,-1.57707392338,3.21393481333,0.360519596307,-0.489960248397,15.7810656456,-4.96083301129,0.213474028512,-0.348008133719,134.294923713
do_nothing,-4.19263758738,-5.07436058975,-1.86970612983,-0.809688862192,-4.43488964899,-6.732344393,-2.92161429808,-2.01430703883,-1.34231888833,14.5948982765,-6.66643617233,-4.00834117309,-4.02413963104,174.421549401
do_nothing,-6.62235616146,-7.42541305444,-2.70594640326,-1.45616941736,-7.64183575479,-11.0438845694,-8.39848367118,-4.14765577004,-2.12168374431,12.7494565104,-7.45934956386,-7.54996759858,-7.10290977079,200.893518904
do_nothing,-8.25082368906,-8.85780576982,-3.34856710566,-2.03155299444,-9.8498493495,-13.860362137,-12.3094992179,-5.74810179811,-2.79817422197,10.6104230556,-7.00513143091,-9.82743233462,-9.08596653226,210.514886591
do_nothing,-8.86719898491,-9.13646851072,-3.78136279039,-2.5320303074,-10.734870061,-14.7327134226,-13.9772852994,-6.59640156968,-3.34822549252,8.51884527297,-5.1454360159,-10.4448785296,-9.63205446643,201.693205954
do_nothing,-8.39201849459,-8.17691810843,-4.0057895837,-2.95671544014,-10.1478755856,-13.4708940849,-13.0428818021,-6.57264274602,-3.75502106609,6.74885019562,-1.92534304541,-9.24261272352,-8.59946233265,174.70158263
do_nothing,-6.88392968127,-6.05481309962,-4.03802929574,-3.3047813917,-8.13135192521,-10.1653803594,-9.51019182648,-5.66976157012,-4.00844917779,5.47685689058,2.40765210731,-6.31206031849,-6.0609759799,131.731919977
do_nothing,-4.52832715129,-2.9945463532,-3.9046905893,-3.57299423472,-4.91052172268,-5.17171432843,-3.74170683164,-3.99212891814,-4.10469483926,4.76555038983,7.43222275478,-1.97718924132,-2.2904755494,76.7225748677
do_nothing,-1.61013571223,0.66093908992,-3.63787371992,-3.75412846614,-0.861368216861,0.938643795829,3.59244287537,-1.7399339919,-4.0456037889,4.56389248306,12.6048887819,3.25352528276,2.27590600389,14.972091881
do_nothing,1.5249903933,4.49453250939,-3.2703652832,-3.83659513949,3.53951896792,7.45356578841,11.6039867013,0.81806139404,-3.83795511969,4.72238323214,17.3273624603,8.75680497102,7.09794473393,-47.4212604679
do_nothing,4.51543544599,8.06728578063,-2.83165294026,-3.80540905049,7.77606985322,13.6108967214,19.3016840683,3.37940881451,-3.49275781936,5.02091362953,21.0203352532,13.8757050085,11.6004712003,-104.230603386
do_nothing,7.02822756865,10.9716853883,-2.34527303241,-3.64439321877,11.3565162076,18.6922357285,25.7164514125,5.64569614357,-3.02464799672,5.20509014529,23.1940130038,18.0010392538,15.2441770093,-149.802442669
do_nothing,8.79770398571,12.8790799078,-1.82775706726,-3.3393033944,13.8715761681,22.1077805091,30.0201069068,7.35817396239,-2.45141587647,5.02602972852,23.5065707601,20.6426202087,17.5890710798,-179.703581857
do_nothing,9.65358387953,13.5755914691,-1.28916691104,-2.88138585689,15.0399540666,23.4619432623,31.6229656768,8.32688928373,-1.79364363295,4.27840273977,21.8036984552,21.4818957983,18.3430636564,-191.231931734
do_nothing,9.53549572141,12.982648279,-0.734947255873,-2.27078514632,14.7361196818,22.5925083445,30.2389660471,8.45002555894,-1.07439546483,2.83193780091,18.1352019414,20.4006295115,17.3905469622,-183.725879248
do_nothing,8.49300868961,11.1604900435,-0.168618206598,-1.51921053183,12.9979364792,19.5799535,25.9117684688,7.72161928203,-0.31887699839,0.652610732586,12.7477761914,17.4838435366,14.7987481667,-158.631438782
do_nothing,6.67222390816,8.29529066398,0.405288401553,-0.651353666884,10.0144762183,14.727622571,19.0006281204,6.22744648575,0.446023620124,-2.18883366633,6.05612134244,12.9987841409,10.8026199042,-119.316726039
do_nothing,4.29170629303,4.67259287351,0.978661500195,0.295286070657,6.09689565232,8.51714588043,10.1300402675,4.13041398227,1.19238493401,-5.52173086624,-1.40288505641,7.35467300869,5.77169025109,-70.6554134354
do_nothing,1.61175386342,0.641291515891,1.53813786783,1.27229086218,1.63722374298,1.54636688548,0.111499967439,1.64804275119,1.89213041224,-9.0927670207,-9.02652524584,1.05008838446,0.16427863904,-18.4304843681
do_nothing,-1.09843223095,-3.42674073765,2.06467641202,2.22380438183,-2.93892000681,-5.54128808409,-10.1513299704,-0.974559153854,2.51812938359,-12.5932637363,-16.2059238074,-5.38424950643,-5.5244219982,31.3671818315
do_nothing,-3.59123418811,-7.17618634806,2.53450287382,3.0912431733,-7.21938921017,-12.1267142921,-19.761494531,-3.49254983011,3.0454654311,-15.6929770265,-22.3821862859,-11.4397706144,-10.8137678287,73.2572455651
do_nothing,-5.66505874624,-10.3023770113,2.92130122128,3.81869096676,-10.8466770781,-17.6759586676,-27.9196114586,-5.68658443617,3.4527729586,-18.0762921744,-27.0932505145,-16.6752057657,-15.2827281878,102.915076831
do_nothing,-7.18023845805,-12.5765149796,3.19930448953,4.35831253556,-13.5488323918,-21.7856081989,-33.9967156212,-7.382658507,3.72351150451,-19.4765994116,-30.007475184,-20.7484269294,-18.6041934877,117.663054152
do_nothing,-8.0653575602,-13.8600986502,3.34677447167,4.6751009964,-15.1575664978,-24.2090302898,-37.5822634035,-8.46479367888,3.84703520405,-19.7050388248,-30.9420623583,-23.433224527,-20.5660151188,116.747629006
do_nothing,-8.3144399571,-14.1082392217,3.34928304713,4.75034642034,-15.612957775,-24.8626601813,-38.5042785673,-8.87993263101,3.8193246073,-18.6706261016,-29.8664550914,-24.6216413896,-21.0782552031,101.369901411
do_nothing,-7.97669949492,-13.363021332,3.20223030227,4.58337463945,-14.955994349,-23.8142324625,-36.8224496343,-8.63551032655,3.64327929267,-16.3898878221,-26.8925748119,-24.3144409596,-20.1679165931,74.4696669686
do_nothing,-7.14142857233,-11.7391833778,2.91215198285,4.19133087451,-13.3116430168,-21.2569814658,-32.7983056515,-7.79107444874,3.32851827937,-12.9853941443,-22.2549542567,-22.6035591661,-17.9637782547,40.2948985431
do_nothing,-5.92098635153,-9.40504331249,2.4965617457,3.60704143202,-10.8660161423,-17.4751323071,-26.8489821391,-6.44592425119,2.89069411006,-8.67382095424,-16.2843775631,-19.6508388769,-14.6747307609,3.81613634271
do_nothing,-4.43472331428,-6.56172901263,1.98231035588,2.8752414869,-7.84145436902,-12.8063629398,-19.4922955323,-4.72496654118,2.35038677654,-3.7452606212,-9.37857245922,-15.6669865041,-10.5651525724,-29.935377473
do_nothing,-2.79610859567,-3.42343040757,1.4026854532,2.04767158542,-4.47298328607,-7.60638532262,-11.2908235341,-2.76485538842,1.73169607742,1.46368099543,-1.97292608567,-10.8936739166,-5.93045720576,-56.5183009247
do_nothing,-1.10444248317,-0.200687508855,0.793681976914,1.17768939844,-0.988762069203,-2.21955438741,-2.80158131154,-0.702050765153,1.0606872566,6.59998344856,5.48669466153,-5.59029108782,-1.07512678142,-72.6360730014
do_nothing,0.558486304162,2.9121734765,0.19001056771,0.315096030467,2.40398648401,3.04225251049,5.46401670574,1.33619400802,0.363858991203,11.3243706285,12.5679220883,-0.0253456168017,3.70546670507,-76.5258764032
do_nothing,2.12741350668,5.74526480353,-0.378543810459,-0.498169411064,5.52726995399,7.91201078539,13.0675237863,3.23759749843,-0.33320753112,15.3386176362,18.8724351367,5.5287891705,8.13914804499,-68.1348842622
do_nothing,3.54965648442,8.15760599605,-0.889856295427,-1.23095031708,8.23559732262,12.1722609568,19.6580648811,4.90767935109,-1.00689325944,18.407602128,24.0534259278,10.7999068523,11.987419622,-49.0662409865
do_nothing,4.78001312573,10.0389243939,-1.33088057992,-1.8640998252,10.4157109267,15.6543392911,24.9759988582,6.27042719523,-1.63620622557,20.3744071858,27.8305460842,15.5211301481,15.0532771276,-22.3082767741
do_nothing,5.77633243142,11.3100458941,-1.69755891662,-2.38995576829,11.9845785031,18.2348014973,28.8487223227,7.26780318904,-2.20305535031,21.1675995051,30.0027342027,19.4391360559,17.1873697025,8.21093571442
do_nothing,6.49724502972,11.9229770521,-1.99328169359,-2.81025827253,12.8873283047,19.8315770085,31.1821775407,7.85906693954,-2.69218415275,20.8006338251,30.4588841127,22.3264284562,18.293231482,38.1792524643
do_nothing,6.90290932468,11.8613628977,-2.22619819133,-3.13292688194,13.0963281432,20.4017154852,31.9513408435,8.02064270719,-3.09086840422,19.3640871116,29.1857402825,23.9973675235,18.3317854345,63.4888172793
do_nothing,6.95883856004,11.1414446247,-2.40587653098,-3.36827192212,12.6118919156,19.9415596125,31.1920695046,7.7468569119,-3.38851664027,17.0120379295,26.2718841332,24.3263354885,17.3247073794,80.7772806603
do_nothing,6.64208386805,9.81307754507,-2.5399268149,-3.52528593322,11.464313943,18.4890422524,28.9954264985,7.05141374666,-3.57632326435,13.9443347279,21.9063780014,23.2653202664,15.3557107635,87.8506715385
do_nothing,5.94841302352,7.95993832773,-2.63121637943,-3.60863543466,9.71625728113,16.1268139957,25.5042830528,5.96906621575,-3.64710853941,10.3867223078,16.3706926154,20.8575797096,12.5685243895,83.9348266214
do_nothing,4.89876799275,5.69785754384,-2.67621534298,-3.61685514749,7.46410499708,12.9842734929,20.9109075685,4.55666880656,-3.5954400032,6.57082103818,10.0230163624,17.2440717354,9.16038826636,69.727176877
do_nothing,3.54327781304,3.17031456242,-2.66482675822,-3.54205366611,4.83681689741,9.23643478004,15.453612102,2.89272851904,-3.41807162927,2.71579822251,3.27489887862,12.6600441415,5.37031700009,47.2487746144
do_nothing,1.96145333825,0.540521393887,-2.58180659449,-3.37119989863,1.9911407586,5.09795865135,9.41046701967,1.07472447519,-3.11466936777,-0.9867328158,-3.43870115112,7.42048883545,1.4621249978,19.5237553189
do_nothing,0.257837471101,-2.01986606245,-2.40960365115,-3.08880859186,-0.897345991929,0.8115270926,3.08861086501,-0.786180664053,-2.68872529538,-4.38346419543,-9.69370143504,1.89487757169,-2.29685092616,-9.86380250714
do_nothing,-1.44678635854,-4.34465199266,-2.13219270422,-2.68061777674,-3.64705908171,-3.36911445235,-3.19134329206,-2.57292585122,-2.14850839705,-7.36515633383,-15.1122090268,-3.52657572516,-5.65943450307,-37.2704775044
do_nothing,-3.02766405647,-6.28817992133,-1.73927831555,-2.13768418675,-6.08592016183,-7.19991063338,-9.11508530197,-4.17219112433,-1.50786736966,-9.86728350036,-19.3948825397,-8.47126021525,-8.42201666632,-59.4807495014
do_nothing,-4.37012322367,-7.7396461922,-1.23014578335,-1.46023933037,-8.06765109893,-10.4684800871,-14.3966525464,-5.48478154879,-0.786696135765,-11.8659328458,-22.3462389812,-12.6221456647,-10.4445762651,-74.1144350412
do_nothing,-5.38324874459,-8.63450637508,-0.616449464528,-0.660661647236,-9.4865003066,-13.0141396723,-18.7999161936,-6.43533918389,-0.0108982594378,-13.3697800472,-23.8893139651,-15.7500498604,-11.6642630971,-79.9013697097
do_nothing,-6.01092455869,-8.9610040475,0.0766407789231,0.234972062097,-10.2880124118,-14.7427128969,-22.1562782618,-6.97989333814,0.788260097537,-14.4093367664,-24.0672256041,-17.7353437163,-12.1000845439,-76.7908813521
do_nothing,-6.23828695545,-8.76039857991,0.811283404072,1.18710471693,-10.4738540148,-15.6334132401,-24.3755690278,-7.10995179814,1.57544423334,-15.0249271304,-23.0308390328,-18.5755628622,-11.847320778,-65.8879716985
do_nothing,-6.09230206643,-8.12032845229,1.53984934477,2.14479329368,-10.0995094645,-15.7361948842,-25.4479833278,-6.85227890278,2.31314138982,-15.2549772534,-21.0136588112,-18.3773768642,-11.061730999,-49.2328145036
do_nothing,-5.63611173858,-7.1617940432,2.20957532742,3.04952410982,-9.26474477093,-15.1594555819,-25.4362514401,-6.26413870106,2.9640116565,-15.1261750204,-18.2970015125,-17.333720709,-9.93519295283,-29.461667708
do_nothing,-4.95783678073,-6.02131086472,2.76842067436,3.8403485544,-8.09793030189,-14.0496133211,-24.4588798648,-5.42450370305,3.49349095039,-14.646868211,-15.1701085806,-15.6892501161,-8.66588589479,-9.40261868838
do_nothing,-4.15550803822,-4.8306873535,3.17134132081,4.45974497742,-6.73640940866,-12.5655737631,-22.6669265348,-4.42242079387,3.8723893033,-13.8047218308,-11.8908658147,-13.6992553751,-7.4272271689,8.33326706253
do_nothing,-3.32054079696,-3.69745244363,3.3860853201,4.85949738116,-5.30590118145,-10.8521812276,-20.2180850107,-3.34426299989,4.07921087726,-12.5691704282,-8.65299346168,-11.5884142291,-6.34029059668,21.706615829
do_nothing,-2.52253670872,-2.68907432728,3.39763714859,5.00586148834,-3.90227167149,-9.01718220325,-17.252574236,-2.26187589099,4.10194031308,-10.8986159056,-5.56486908765,-9.5160415906,-5.45423755817,29.5016547965
do_nothing,-1.79810783137,-1.82371891041,3.21059531374,4.88336671279,-2.5788091436,-7.11590614752,-13.8752865753,-1.22358578075,3.93909169716,-8.75169055196,-2.64359222546,-7.55370763155,-4.73835407468,31.443648081
do_nothing,-1.14586152569,-1.06942223307,2.84904029153,4.49676794493,-1.34139358897,-5.14678803689,-10.1477869471,-0.249660206767,3.59989537572,-6.10129709211,0.174316984525,-5.67931927928,-4.08770389003,28.1710259528
do_nothing,-0.528733039869,-0.352305232021,2.35380064153,3.87089128275,-0.152750224161,-3.05915600756,-6.09217330335,0.666857735327,3.10359392242,-2.9496282921,3.00676741961,-3.78923032814,-3.34238452355,21.0730974633
do_nothing,0.116355592236,0.426980200023,1.77740413777,3.04838151399,1.05450528783,-0.7726353931,-1.70673199988,1.55388617763,2.47791915683,0.657967260476,5.98822720505,-1.72703187177,-2.31820144878,12.0236045591
do_nothing,0.862807198525,1.37079672161,1.17735190331,2.08562058949,2.35785461536,1.79459415059,3.00891799527,2.4494884306,1.75691389089,4.62250600804,9.22599051482,0.675173655958,-0.844588967551,3.0546201039
do_nothing,1.77506210534,2.55943519643,0.608623246115,1.04731049416,3.82105235214,4.69325321339,8.02351806928,3.38822428999,0.978332906493,8.78633141349,12.757774479,3.54953512065,1.19586874186,-3.9775256875
do_nothing,2.88893793547,4.02746562679,0.116464096294,0.000371306039611,5.47053802337,7.91185669923,13.2444554331,4.38700041273,0.180898301196,12.9351052718,16.5181329482,6.94717285535,3.83266028609,-7.6833318268
do_nothing,4.19513032651,5.74568436093,-0.269493153532,-0.99212417604,7.27641482116,11.3530603903,18.4949394662,5.43301461305,-0.598310243256,16.8076886525,20.3203116169,10.802983687,6.98341609194,-7.3455567701
do_nothing,5.62914942266,7.61224961202,-0.53889021329,-1.87628195018,9.14190912521,14.822770798,23.5038583157,6.47623824765,-1.32607963326,20.1138479356,23.8582125215,14.9175746626,10.4457222068,-3.01072064769
do_nothing,7.07015086219,9.45542000057,-0.701491224257,-2.61140086437,10.9041329576,18.0356845965,27.912543669,7.42831436178,-1.97471182118,22.5586981834,26.730318353,18.9610975267,13.9075329694,4.54340796747
do_nothing,8.34984580743,11.0486680488,-0.785018511695,-3.17227169489,12.3473364161,20.6385378844,31.3002326312,8.16883190927,-2.52298849213,23.8717976339,28.4841264146,22.5005876154,16.9764116287,13.9552813066
do_nothing,9.27111954672,12.1370580468,-0.83020993612,-3.54959565957,13.2278857275,22.2495502816,33.2270311521,8.55879298698,-2.95643584339,23.8379668391,28.6763309049,25.0487902447,19.2249848332,23.5157216186
do_nothing,9.63438291953,12.4719309817,-0.883746505083,-3.74860231878,13.3082248608,22.5097623862,33.2900978137,8.45988851166,-3.26696213181,22.3263503574,26.9411702187,26.1289197914,20.2473513423,31.4537176563
do_nothing,9.26827530834,11.8494134575,-0.990032369994,-3.78617275543,12.3953851254,21.1396291434,31.1860714996,7.75712462049,-3.45201417707,19.3140692281,23.0574758321,25.3468884503,19.7191455379,36.2263361606
do_nothing,8.0603634699,10.1473142992,-1.1830109659,-3.6869505863,10.3784810986,17.9927435801,26.7709241751,6.38157407839,-3.51344750857,14.901088344,17.0043564377,22.4607391917,17.4528610496,36.7677865889
do_nothing,5.98311286312,7.35476981287,-1.47923788037,-3.47902861386,7.2592832602,13.0982137484,20.1077893409,4.3297031563,-3.45632245796,9.31365020283,8.9962878858,17.4366508153,13.4401041848,32.660048228
do_nothing,3.11073831103,3.58962056266,-1.87329309772,-3.18982103941,3.17048985865,6.68413033053,11.4940899192,1.67592276794,-3.28782397524,2.8947517665,-0.509385934382,10.4820808139,7.87372479125,24.2003534168
do_nothing,-0.376442544969,-0.900096605208,-2.33631754054,-2.84267008813,-1.62229448253,-0.823313730476,1.46145295141,-1.42426481978,-3.01645974753,-3.91844652551,-10.8361531072,2.04927424569,1.14514148848,12.357132532
do_nothing,-4.2019424973,-5.75214130762,-2.81803960106,-2.45460297916,-6.73678641273,-8.82740073702,-9.2547756145,-4.74198325086,-2.65162690401,-10.6288489011,-21.1427431767,-7.19382765708,-6.18464863088,-1.37678746627
do_nothing,-8.01716396572,-10.5227776888,-3.25217314929,-2.03547119492,-11.7078677447,-16.6138591966,-19.7755337185,-7.99355610353,-2.20356269587,-16.7223747823,-30.5034827812,-16.4238003578,-13.4383258081,-15.2095024251
do_nothing,-11.4373805242,-14.7330314736,-3.5645863365,-1.58849604256,-16.0358767535,-23.4242154149,-29.1624249371,-10.8683670052,-1.68362084997,-21.7154833506,-38.0059927384,-24.7471241462,-19.8942627577,-27.3182483641
do_nothing,-14.0855976145,-17.9232492774,-3.68322848987,-1.11204197716,-19.2438987537,-28.5412879119,-36.5175123014,-13.0629999172,-1.10475414211,-25.2023142262,-42.8547726436,-31.3009551504,-24.8689357258,-36.1191783456
do_nothing,-15.6388910109,-19.7092617203,-3.54852003577,-0.602269694531,-20.9369761976,-31.3763406681,-41.0867420561,-14.3175628376,-0.482044297351,-26.8962301391,-44.4678035393,-35.3568386039,-27.7995378024,-40.4980426817
do_nothing,-15.8711627592,-19.8328626925,-3.12280003112,-0.0562066711746,-20.8554428254,-31.5465175072,-42.353878913,-14.4495269042,0.166891710659,-26.6609099125,-42.5535716757,-36.4138968675,-28.3160945068,-39.9679373713
do_nothing,-14.686419236,-18.1997093155,-2.39750644219,0.525272705849,-18.9149323987,-28.9318316969,-40.1122495031,-13.380467833,0.821773113811,-24.5271098196,-37.1579014942,-34.2688235742,-26.2933183144,-34.7320560735
do_nothing,-12.1376739227,-14.899103792,-1.39702829367,1.13503833115,-15.227017912,-23.7031594388,-34.5037882392,-11.1517979163,1.4599161349,-20.6926977811,-28.6734688088,-29.0525896243,-21.874737287,-25.6441865982
do_nothing,-8.42829787334,-10.202285056,-0.178583061214,1.75825481038,-10.0967467129,-16.31614083,-26.0186348992,-7.92685211362,2.05693421007,-15.5054060206,-17.8094153572,-21.2278125047,-15.4650181377,-14.0752042239
do_nothing,-3.89486598913,-4.53856134187,1.17201725096,2.37213523832,-3.99626038207,-7.47019271967,-15.4533886661,-3.97838399368,2.58785707229,-9.42972856766,-5.5235132625,-11.5457371977,-7.69044101438,-1.70765239108
do_nothing,1.02701903838,1.5485023126,2.54831032694,2.94696942372,2.48316197368,1.96358478425,-3.83144755252,0.337585308087,3.02857919101,-3.00126822847,7.07583776486,-0.967057839304,0.668364706614,9.70939537951
do_nothing,5.85013466525,7.45995633395,3.83394468358,3.44832012429,8.69535375433,11.0375990806,7.70606534177,4.61879551178,3.35749144492,3.22662493869,18.8465140865,9.44434712351,8.76361198816,18.608065341
do_nothing,10.0906287658,12.6084247477,4.91498433103,3.84012302799,14.0121964376,18.8347619865,18.0261750104,8.46037262147,3.55711415876,8.73808772923,28.7346258935,18.641961663,15.7769244278,23.8157173715
do_nothing,13.3238013366,16.4849673044,5.69226784738,4.08830853991,17.8962669369,24.574143188,26.1315563083,11.4997926469,3.61554005421,13.1057034261,35.8868734198,25.7165670969,21.0133443478,24.7053027043
do_nothing,15.2336359449,18.7175179146,6.0923112003,4.16449991236,19.9640276887,27.7019862349,31.2738850681,13.4576260842,3.52751352638,16.0314668024,39.7397386599,30.0005358442,23.9810186616,21.2627003927
do_nothing,15.649730138,19.1135257493,6.07541955038,4.04933884956,20.0314187973,27.9564204586,33.0387311957,14.1689414448,3.29501508536,17.3731610051,40.0748148873,31.1433159502,24.4465326256,14.0648693154
do_nothing,14.5668269658,17.6813657601,5.64002310139,3.73504393186,18.13584713,25.3974135341,31.3910837289,13.6013703145,2.92728027536,17.1532501623,37.033841519,29.1485641832,22.4589325259,4.17625564071
do_nothing,12.1443637848,14.6277615252,4.82272871663,3.22690890372,14.5315376377,20.3978939274,26.6754960212,11.8575063008,2.44025178189,15.5494545799,31.0921111593,24.3682977268,18.3394838492,-7.01720940747
do_nothing,8.68603436671,10.3315211513,3.69411841008,2.54358112168,9.65862526443,13.5969508898,19.5705988815,9.16130550533,1.85553147651,12.8683488838,22.9941674074,17.4549745052,12.6386164149,-18.0087971063
do_nothing,4.60195727896,5.29691746073,2.35085580961,1.71610609505,4.0897634321,5.82092353632,11.0035834229,5.83020918365,1.19895596881,9.5053348101,13.6604135156,9.27783240337,6.06572024833,-27.3749339865
do_nothing,0.358303936919,0.0926396350904,0.905112080626,0.785862541311,-1.53905338104,-2.01764484681,2.03541445281,2.2365421733,0.498956898149,5.89593532866,4.07677720389,0.81438582602,-0.599091077026,-33.9524025547
do_nothing,-3.57914498707,-4.7159439197,-0.527365018292,-0.198373431864,-6.60470849098,-9.03035363553,-6.26870116243,-1.2368955357,-0.215119130536,2.4643334178,-4.81853646604,-6.96892033615,-6.59990172688,-36.9648489962
do_nothing,-6.80029614241,-8.63268417132,-1.83908039073,-1.18391905841,-10.5705865874,-14.4585996017,-12.9672120094,-4.24141711943,-0.914567429078,-0.424685499257,-12.2371589523,-13.231675248,-11.2945360106,-36.0842382129
do_nothing,-8.99789025295,-11.2865227006,-2.94111746953,-2.11788061641,-13.048349933,-17.7612427746,-17.3524138249,-6.50162970141,-1.5726289703,-2.50476015897,-17.6193290802,-17.355665381,-14.2275429761,-31.4242773056
do_nothing,-10.0006445853,-12.470557859,-3.77079578095,-2.95071359956,-13.8402229868,-18.6734420289,-19.0292901387,-7.844400205,-2.16546065208,-3.63354747388,-20.6805167559,-19.0105198333,-15.1777936491,-23.4740550517
do_nothing,-9.78845528238,-12.1598119707,-4.29587599509,-3.63935386478,-12.956750768,-17.2296940892,-17.9535678733,-8.21420848445,-2.67274888553,-3.80223828994,-21.4215798368,-18.1813334765,-14.1753403229,-12.9893411491
do_nothing,-8.48814455583,-10.5060447257,-4.51499810592,-4.14970044017,-10.6082485879,-13.748870915,-14.4249715669,-7.67333173836,-3.07799855005,-3.12840360205,-20.1030644993,-15.1558922614,-11.4863091608,-0.864666269652
do_nothing,-6.35082521095,-7.8109619113,-4.45453181374,-4.45831903136,-7.17161055742,-8.78404510133,-9.03754264329,-6.38732252523,-3.36857382617,-1.83366399384,-17.18895103,-10.4744583455,-7.56879346039,11.9893965739
do_nothing,-3.71435354463,-4.48192986891,-4.16246814341,-4.55332439881,-3.1373223234,-3.04444091295,-2.59443813225,-4.59815988539,-3.53559423836,-0.209519382845,-13.2689620744,-4.84988227694,-3.0064150599,24.7424993009
do_nothing,-0.956226017494,-0.976456330893,-3.70032865235,-4.43447795915,0.955997506301,2.69966220957,4.00090985473,-2.58900879121,-3.57379459736,1.42395308121,-8.9709866391,0.930547947213,1.57106630377,36.7000413512
do_nothing,1.55660424737,2.2570402252,-3.13427001852,-4.11259575001,4.5907487698,7.71627512263,9.8625954313,-0.645510927232,-3.48144125795,2.76109501276,-4.87593285114,6.1081042567,5.56933701969,47.3130580788
do_nothing,3.51429752516,4.83442778528,-2.52659563688,-3.60839710863,7.33416642869,11.4022832891,14.2335453356,0.981174402883,-3.26036267312,3.54990803099,-1.44635131753,10.046905798,8.50265636389,56.1476717578
do_nothing,4.70108701188,6.48009877011,-1.92875434954,-2.95093631315,8.88874125411,13.3538031146,16.5761828068,2.10478177741,-2.91610615996,3.62278140012,1.02233883333,12.3076325968,10.0494133399,62.8281832136
do_nothing,5.01812421224,7.05504277909,-1.37663478084,-2.17575215607,9.12320670563,13.4078927504,16.631470017,2.62406868522,-2.45818360094,2.91522535696,2.42283115389,12.6920384476,10.0837140268,66.9738729026
do_nothing,4.48977055878,6.5659058317,-0.888595802458,-1.32285077712,8.08083270469,11.6513008302,14.4399008422,2.53046657911,-1.90032557854,1.47080766318,2.8281470393,11.2539179517,8.68007566792,68.1514924067
do_nothing,3.25322820552,5.15483888706,-0.466265120324,-0.434613003272,5.96489970827,8.39649763921,10.3232878779,1.90284660295,-1.26063436312,-0.567667377661,2.45827845314,8.2768801323,6.09203473429,65.8627844222
do_nothing,1.5336713961,3.07250720565,-0.0977480842115,0.446303687878,3.10427217651,4.12961114802,4.83143548685,0.890771825223,-0.561517161279,-2.97894432005,1.6279691427,4.22372474951,2.70893451601,59.5795054479
do_nothing,-0.39107131411,0.638766120915,0.237428263249,1.2790112551,-0.0954689713334,-0.561516945957,-1.33770886921,-0.310871837305,0.170705261503,-5.49283788541,0.68472530222,-0.334203960785,-1.00212863833,48.8284487933
do_nothing,-2.23097772527,-1.80307174069,0.562513656435,2.02632993283,-3.20817619269,-5.06860866441,-7.43267799914,-1.4919184665,0.906584140661,-7.82432328658,-0.0529175043387,-4.79706477914,-4.56060244062,33.317591216
do_nothing,-3.72366239246,-3.93191682351,0.897818508009,2.65655671447,-5.84275910788,-8.84222901412,-12.7447178845,-2.45723451067,1.61473979992,-9.70769027875,-0.347437809638,-8.61469154256,-7.53407780017,13.0837619939
do_nothing,-4.66816455856,-5.48845447286,1.25595127102,3.14498668321,-7.69092715502,-11.4585535084,-16.6929161975,-3.05308182356,2.26342620767,-10.9265326933,-0.0772275718269,-11.3525694603,-9.58917148182,-11.3657997206
do_nothing,-4.94838892038,-6.30370190438,1.63868041169,3.47509691492,-8.56114706797,-12.6653583175,-18.887695601,-3.18608922435,2.8223578216,-11.336166524,0.750089139861,-12.7376499521,-10.5256707488,-38.9492877268
do_nothing,-4.54356205558,-6.31352797683,2.03580833574,3.6392962808,-8.3951157382,-12.4022721489,-19.1656754977,-2.8326232122,3.264642486,-10.8762908195,2.00678925934,-12.6793823242,-10.2906489458,-67.973106095
do_nothing,-3.52503322459,-5.55824055154,2.42612014236,3.63915129859,-7.26566313245,-10.794177204,-17.5932309221,-2.03783986629,3.56863171379,-9.5731327693,3.47395441201,-11.2651378223,-8.97229126343,-96.1837860186
do_nothing,-2.04071611713,-4.16849052071,2.78015511878,3.4850221892,-5.35763257972,-8.12046350375,-14.4405388728,-0.905221151301,3.71949183196,-7.53173820608,4.88446715262,-8.73287201651,-6.77604084146,-120.919111926
do_nothing,-0.290151477243,-2.34057159127,3.06428986835,3.19508523318,-2.93555762259,-4.76607612191,-10.1318524839,0.421275436303,3.71031855667,-4.92028086629,5.97242360523,-5.42687998406,-3.98797198965,-139.353213212
do_nothing,1.50566497856,-0.305459386446,3.24545477527,2.79377440582,-0.303553554143,-1.16250284765,-5.18063535478,1.77938283394,3.54266192411,-1.94910968491,6.52056520052,-1.74443418647,-0.931709911127,-148.814154285
do_nothing,3.1350483022,1.7035232275,3.29575048822,2.30974057677,2.23643329738,2.27224730288,-0.119654603483,3.01150019409,3.22639260124,1.15236147115,6.39796243809,1.91827196452,2.07441632249,-147.137997464
do_nothing,4.42255765492,3.47974550501,3.19629057601,1.77349107959,4.42208803924,5.18610011581,4.56396765117,3.98508782505,2.77891581469,4.15791228648,5.58202851756,5.2131400493,4.75397213848,-133.012908727
do_nothing,5.24853295979,4.86524546544,2.93975512585,1.21492569699,6.05904198151,7.3309512167,8.48030698796,4.60771283414,2.22381501031,6.86343327391,4.16167765085,7.8742301574,6.8982946127,-106.262625932
do_nothing,5.55901876484,5.76328344024,2.53136786578,0.661017033355,7.03690475528,8.58206911482,11.3690631049,4.83498711388,1.58907315672,9.10083931072,2.32161673569,9.7355620138,8.37929417549,-68.021684239
do_nothing,5.3654652473,6.14077613431,1.98826703773,0.133886064642,7.33196111338,8.93777879457,13.1105014829,4.67086238348,0.905065939605,10.7462918711,0.31085522375,10.7322621999,9.14914679543,-20.7653082709
do_nothing,4.73520047903,6.02155864786,1.33748547267,-0.350506651807,6.99758154881,8.50143790626,13.7160281662,4.16098110234,0.20254133348,11.7229929831,-1.59895635914,10.8874084234,9.2289752493,31.8261825746
do_nothing,3.77502064383,5.4727842959,0.612949732927,-0.782896289782,6.14518991521,7.4503125166,13.3025445859,3.38083059887,-0.48920864476,11.9995829037,-3.15818786285,10.2890459455,8.69022147434,85.1673043578
do_nothing,2.61114454139,4.58764841941,-0.147976780371,-1.16040695002,4.9198516871,5.99766540206,12.0568547372,2.42115030601,-1.14381438204,11.5856443407,-4.17935827212,9.06303502549,7.63324571185,134.20768291
do_nothing,1.36910279006,3.46789569326,-0.907860711141,-1.48543937947,3.47502869181,4.35495634229,10.1973269404,1.37329898028,-1.73882189675,10.5259311711,-4.56607804479,7.34747903171,6.16764985328,173.967530517
do_nothing,0.156853955192,2.20922750464,-1.63200087512,-1.76389752664,1.95074962331,2.70047599269,7.93966121489,0.317075998641,-2.25617289418,8.89470833963,-4.32611226932,5.27351853579,4.39796131449,200.106879222
do_nothing,-0.946389508091,0.891856658305,-2.29033792344,-2.00299317854,0.458457163573,1.1591362488,5.47210928719,-0.687138202001,-2.68220571466,6.79108472723,-3.56658478279,2.95547497263,2.41681923352,209.458284944
do_nothing,-1.89432780758,-0.422763484997,-2.8583378327,-2.20893575913,-0.925691136533,-0.204174697044,2.94315311481,-1.60098162917,-3.00727675364,4.33556425041,-2.4723598243,0.491046024324,0.30597194454,200.453011637
do_nothing,-2.67078354538,-1.68934904792,-3.31692061259,-2.38484373237,-2.15899753556,-1.37788152082,0.461916126798,-2.40556068183,-3.22514920862,1.6673808343,-1.27146309,-2.03007115149,-1.85642704965,173.380575627
do_nothing,-3.28128234657,-2.87186425281,-3.65168503392,-2.52919842279,-3.22343088346,-2.38632990043,-1.8910401495,-3.09485334507,-3.33231811625,-1.05833188778,-0.193576274175,-4.51268591496,-3.98520450784,130.440073321
do_nothing,-3.74132009885,-3.93466969475,-3.85180233743,-2.6351000163,-4.11268846659,-3.26628362123,-4.04692270222,-3.66692779717,-3.32743452463,-3.6747353052,0.571197164418,-6.84248207719,-5.97804823122,75.566761378
do_nothing,-4.06416612573,-4.83451294951,-3.90899570104,-2.69048507893,-4.81862664811,-4.04288860943,-5.93140598818,-4.11523255507,-3.21095859043,-6.00996005911,0.906134444844,-8.87716969302,-7.70973296845,14.0457358064
do_nothing,-4.25104464489,-5.51593918369,-3.81698059559,-2.6793371009,-5.32057609336,-4.71063945991,-7.45228116103,-4.42217383281,-2.9851168594,-7.89695218594,0.78833957918,-10.4464927193,-9.03375652185,-48.0474898864
