label,COUNTER,INTERPOLATED,AF3,F7,F3,FC5,T7,P7,O1,O2,P8,T8,FC6,F4,F8,AF4,RAW_CQ,GYROX,GYROY,MARKER,SYNC,TIME_STAMP_s,TIME_STAMP_ms,CQ_AF3,CQ_F7,CQ_F3,CQ_FC5,CQ_T7,CQ_P7,CQ_O1,CQ_O2,CQ_P8,CQ_T8,CQ_FC6,CQ_F4,CQ_F8,CQ_AF4,CQ_CMS,CQ_DRL
off_to_on,-11.1509799067,-12.0867240397,-11.2555879911,-0.644286601338,-5.25564286377,-12.7020379315,-15.6711174879,-10.0126417166,-1.46383529002,-12.0023445391,-6.56680449441,-11.8976739706,-10.7098675802,5.75855211704
off_to_on,-8.02186958814,-8.72591669709,-8.68612723577,-0.976427184815,-5.19141871573,-9.11222693886,-12.5299399362,-7.92839953814,-1.96094766016,-9.80911912466,-5.78038162542,-8.615186615,-8.22623928373,-24.5120885606
off_to_on,-3.87049272913,-3.92233040073,-5.10810281669,-1.28115277851,-4.46466141603,-3.91417407556,-6.6070440757,-4.5793794657,-2.16586021802,-5.98774243693,-4.02344063741,-4.07286657843,-4.43996785414,-53.2194108149
off_to_on,0.358120304062,1.11285501651,-1.4041467571,-1.61846059634,-3.25248579692,1.65491287268,0.744020569217,-0.784998804237,-2.15443570134,-1.54016748556,-1.66663098551,0.459861574708,-0.273289993966,-76.6914521113
off_to_on,3.8865568762,5.24509646165,1.76113891814,-1.96086109277,-1.74732813316,6.37008806626,7.79214969121,2.6901214297,-1.99269206556,2.54175806937,0.827471362733,3.9318511347,3.38700953916,-90.6635868555
off_to_on,6.25236500699,7.69803668667,4.05328245033,-2.18378318047,-0.116703182546,9.33442092649,12.8811718882,5.3060195716,-1.70230223901,5.52602268886,3.0026475545,5.78723523462,5.8978224582,-91.0656926148
off_to_on,7.33131290261,8.20563544858,5.44224294078,-2.10799937418,1.50653540656,10.1690086132,14.8600926631,6.8078876787,-1.25848597256,7.07299217257,4.49804977415,6.04434817794,6.97202005036,-75.3065161058
off_to_on,7.25728264431,7.00665191265,6.0777221908,-1.57986022132,3.00639659962,9.03446163872,13.3733195994,7.18547158132,-0.620088322006,7.2302960052,5.11031263249,5.17352833044,6.67940857346,-43.6357883279
off_to_on,6.29357253004,4.70401635026,6.13658081683,-0.557503236486,4.25492455702,6.50050216207,8.93584194353,6.57747131717,0.222859195895,6.3188912978,4.81872533055,3.84255813911,5.35724290817,-0.0284535486669
off_to_on,4.71785580298,2.04872866588,5.71400734871,0.834209727884,5.09454597457,3.32673743531,2.77911439824,5.17908170882,1.20712835019,4.77076738899,3.77190122828,2.63844720431,3.47418863831,47.8950670125
off_to_on,2.76369808496,-0.278961672352,4.80129549361,2.30768922579,5.34901500339,0.23617953215,-3.48545924731,3.1948227298,2.18161397672,2.98336907421,2.2419892628,1.87009810391,1.49561986097,90.1283885587
off_to_on,0.626313227799,-1.82989482413,3.34888157734,3.4817545285,4.86695648309,-2.24918621718,-8.29286405264,0.845040769854,2.931318776,1.23553040813,0.558137746577,1.51353684413,-0.214521474344,116.543208796
off_to_on,-1.4939232086,-2.45498714808,1.37307306145,3.9967505905,3.58553259407,-3.87557510588,-10.5281103547,-1.59951086036,3.23575019998,-0.323900290706,-0.965880539137,1.29966878846,-1.44117597326,119.601281575
off_to_on,-3.35432654196,-2.28270666959,-0.954543065019,3.63702887057,1.58930619921,-4.63207484173,-9.80354742153,-3.79806008874,2.9428617316,-1.63506005716,-2.09447193205,0.889470877832,-2.12040658142,96.7236035285
off_to_on,-4.67700741789,-1.63034651042,-3.28721227777,2.41648649993,-0.86339500104,-4.66752138879,-6.54026910112,-5.37083561416,2.03183464318,-2.67075820227,-2.71033017483,0.0539991373169,-2.31276824404,51.53565174
off_to_on,-5.21171199459,-0.885953750532,-5.17239086761,0.593724504071,-3.36553065372,-4.19468366783,-1.83430693528,-5.98788252286,0.640175399772,-3.39903214387,-2.82368164493,-1.2151586052,-2.16435197228,-6.52034204459
off_to_on,-4.83228208316,-0.395301939144,-6.18851750281,-1.39270267072,-5.43920972356,-3.41752950095,2.85703275489,-5.48723880673,-0.957793300285,-3.7804356276,-2.54956025182,-2.70204002329,-1.86504142628,-64.2502098388
off_to_on,-3.62021763365,-0.376986833101,-6.09467622311,-3.05012275325,-6.64796095671,-2.49626977673,6.12684653112,-3.96923192142,-2.41714473405,-3.79279452248,-2.05993178987,-4.05769489767,-1.60566819314,-107.976194053
off_to_on,-1.88612752019,-0.875735424968,-4.92924678674,-3.97755991952,-6.71059886455,-1.54370839547,7.01922262434,-1.8131982836,-3.41352132552,-3.46006140624,-1.52439783225,-4.93694604854,-1.53275031068,-127.131140543
off_to_on,-0.101787292968,-1.75486910305,-3.01187569256,-3.9826354207,-5.58067009338,-0.634868592577,5.30902058698,0.410418570545,-3.73052634035,-2.86041599543,-1.05697704201,-5.11747012792,-1.70337334315,-117.148499956
off_to_on,1.24620087769,-2.72515991146,-0.841738932097,-3.13047766882,-3.4651370029,0.18648648391,1.5790582355,2.11571783251,-3.31571923058,-2.10195487209,-0.685434412137,-4.55371343747,-2.0508673236,-80.779950026
off_to_on,1.83181793866,-3.40674294952,1.07182535525,-1.70951445093,-0.775274752012,0.909494118332,-2.93544873751,2.90537517538,-2.28836606396,-1.27493863653,-0.353395566061,-3.35335730222,-2.37832898325,-27.411173941
off_to_on,1.62389645412,-3.41911062917,2.38074545143,-0.128316684552,1.97521459403,1.55827441814,-6.701623998,2.72230841857,-0.898468271031,-0.406605259128,0.0446567033827,-1.70165746383,-2.39573300603,29.4667746822
off_to_on,0.916746846404,-2.48844326127,3.00304346501,1.21850724308,4.29314861101,2.18093404645,-8.3498951001,1.87989130257,0.547437047828,0.551499355078,0.606563781727,0.218465385526,-1.80469342821,75.9189478741
off_to_on,0.230513021091,-0.551997220672,3.1178185516,2.06776126721,5.81276102581,2.81731678214,-7.11066382684,0.944762488165,1.76833845034,1.68628378045,1.36339158928,2.26522026686,-0.415533105001,101.303339073
off_to_on,0.106098485612,2.16977238112,3.05145064561,2.34884933009,6.35710283294,3.45151630272,-3.0938055055,0.505423606079,2.57279280918,3.04303836977,2.24014267839,4.31608259226,1.73828551579,101.00051678
off_to_on,0.866367026671,5.16489929034,3.10160457063,2.17143368304,5.94200968165,3.97043269636,2.68452493245,0.911292954604,2.88760205231,4.53506208989,3.05345227127,6.20221394281,4.3336507486,77.360941187
off_to_on,2.43764886566,7.70720863532,3.3736131576,1.75032725777,4.7311800474,4.15658297007,8.55351980582,2.0882050344,2.74770741372,5.88945232344,3.55200339304,7.64538894687,6.77835086876,38.640134058
off_to_on,4.31194364732,9.01862997136,3.70210445821,1.30139627524,2.9665450155,3.73576184451,12.659749435,3.51579752078,2.25773151679,6.66940267308,3.49083068368,8.25065641919,8.33395084313,-3.6966025302
off_to_on,5.68288357264,8.48613775552,3.69875165863,0.951576925271,0.90317655101,2.4785970314,13.5288748187,4.39449030112,1.5442031448,6.38691397779,2.71781858508,7.58732050253,8.32089783299,-38.4337693305
off_to_on,5.72345073001,5.87602021926,2.91640719424,0.698438261191,-1.22893470127,0.327527436659,10.5488844624,3.95515972115,0.717986437598,4.68190518178,1.24418522447,5.34973942534,6.35101673662,-57.7581740751
off_to_on,3.91475241519,1.47571175432,1.07020410259,0.433332892606,-3.22939643547,-2.50035229829,4.21960876499,1.80189953832,-0.140772840844,1.50926221635,-0.726651526343,1.54512378972,2.51221476437,-59.1682628875
off_to_on,0.306136800701,-3.8964422808,-1.77255391201,0.015639356257,-4.90865748372,-5.48732488617,-3.92354139333,-1.84643177139,-0.974358313552,-2.7403940955,-2.8259437656,-3.37178626177,-2.56571346254,-45.6305967745
off_to_on,-4.39907379639,-9.0397258948,-5.11721375553,-0.635566703809,-6.06799465991,-7.89893721836,-11.706877933,-6.12398012272,-1.72583837585,-7.24838172777,-4.59932455482,-8.49295022189,-7.8049537681,-24.048038386
off_to_on,-8.98320969436,-12.6557941717,-8.12675991921,-1.4735001377,-6.50110619066,-8.97249572487,-16.9308071078,-9.73232655252,-2.31972708294,-10.9276326118,-5.61937443539,-12.6176659143,-11.9252839754,-2.63703464054
off_to_on,-12.0525139286,-13.6995076512,-9.85404545304,-2.31111763578,-6.02969131793,-8.16153195589,-18.0183128298,-11.3477944917,-2.65894315086,-12.704818356,-5.59960575968,-14.5567899887,-13.7819645052,11.8694570533
off_to_on,-12.473951793,-11.6953073626,-9.55100922816,-2.87345012207,-4.56779621014,-5.35639849103,-14.5012858207,-10.0899673113,-2.64393568064,-11.8466156342,-4.47661008379,-13.4975351385,-12.7000508903,16.2696427248
off_to_on,-9.7684758558,-6.91852651593,-6.95009991368,-2.89752296898,-2.19238678809,-0.996676715706,-7.18979307773,-5.88566406079,-2.20882182847,-8.22620822871,-2.43576609331,-9.30998025037,-8.70196273488,11.5648598042
off_to_on,-4.32465689502,-0.374552203873,-2.41535212882,-2.24209464149,0.811773288427,3.98134508815,2.03603173333,0.41209036029,-1.36019986733,-2.43522567733,0.127647486864,-2.68142826788,-2.55147763257,2.12292520184
off_to_on,2.64951874756,6.43268244141,3.09980393794,-0.96342711816,3.96149416739,8.36620710283,10.7550232636,7.2119368204,-0.200946851249,4.31045995658,2.70114215414,4.98752737878,4.40968314577,-6.28250197093
off_to_on,9.43444934647,11.8858145904,8.28700064827,0.675586998435,6.6513169913,11.0057762821,16.6970601715,12.6350671834,1.0746036565,10.4584293094,4.77536959362,11.9153108086,10.5933894819,-8.80582369492
off_to_on,14.277755741,14.6848221715,11.842761825,2.27134591594,8.28552134879,11.1531730776,18.3877687637,15.0900743669,2.21759730414,14.5243981261,5.95903483697,16.4117373433,14.5728281337,-3.39106074364
off_to_on,15.8972479196,14.1971169619,12.8423298143,3.40061827474,8.43262098497,8.71005508394,15.549852069,13.7829938216,2.98495165034,15.4960572076,6.05861327736,17.3496766023,15.4498807629,8.48417107444
off_to_on,13.8511479577,10.6222220911,11.0090454385,3.75538177436,6.95625918656,4.28067911736,9.14236257105,8.98906437003,3.20467468653,13.1143904407,5.10515617764,14.4886870682,13.077392607,22.4097843221
off_to_on,8.6607742503,4.92190765238,6.79390595381,3.24364137667,4.07889874338,-0.989872437644,1.03432901101,1.98944063038,2.82481393645,7.94662742624,3.32683595074,8.54671233859,8.07592441984,32.7329455961
off_to_on,1.65061256802,-1.46139835917,1.24166830625,2.01984402537,0.352554708978,-5.74759921206,-6.57593496613,-5.31176776952,1.92942680527,1.22900348304,1.08102633946,0.995424693994,1.6468574538,34.7000401646
off_to_on,-5.43921331034,-7.01035895614,-4.31119888447,0.433581121904,-3.46139906608,-8.82690707393,-11.8076453191,-10.9663778487,0.715911517918,-5.4715683028,-1.23109092255,-6.35664490072,-4.75646433043,26.2690449522
off_to_on,-10.9430425466,-10.5388118603,-8.60897898834,-1.08529516203,-6.57281528674,-9.58465470218,-13.6083036028,-13.5668999182,-0.558907060323,-10.6735191523,-3.24346366744,-11.8619701804,-9.79957854392,8.9448007598
off_to_on,-13.710268572,-11.4782649038,-10.8033687496,-2.16422756233,-8.35371293497,-8.06281588717,-11.978410483,-12.6464723874,-1.64622793948,-13.350903409,-4.68030390934,-14.4590540683,-12.5742663077,-12.6499798252
off_to_on,-13.3677773655,-9.96697437015,-10.6387287416,-2.59964172674,-8.48577856866,-4.9302030645,-7.85935462828,-8.7682640679,-2.36474093489,-13.1543088628,-5.38089413621,-13.899804647,-12.7641953077,-32.3009801251
off_to_on,-10.3394982148,-6.72922860508,-8.45137648025,-2.40455365418,-7.02397572864,-1.22958205987,-2.74515635288,-3.28599302554,-2.63452759856,-10.4303853946,-5.29818833087,-10.7239725641,-10.6396489048,-44.2735526179
off_to_on,-5.63925883754,-2.7988625071,-5.00099839284,-1.77817423365,-4.36171117195,1.97749421789,1.83552361573,2.13138913211,-2.47778946152,-6.05288077336,-4.48199342261,-6.01018013397,-6.90551816479,-45.1954276592
off_to_on,-0.522935372473,0.813699466515,-1.20439731958,-1.01260692352,-1.11270234564,3.94344192309,4.78864287993,6.04159596439,-1.99086056006,-1.13412113379,-3.05836612969,-1.00327563327,-2.46677066734,-35.100088797
off_to_on,3.87819887707,3.40156088168,2.13376214598,-0.374522052299,2.05168456215,4.43297070421,5.72684306222,7.65323871975,-1.30149687163,3.28484260172,-1.21257867899,3.25039723536,1.80943559759,-17.2919483884
off_to_on,6.8286343282,4.70607978599,4.50826808951,-0.00773513422249,4.5607811509,3.72741100007,4.97440386808,6.99790744054,-0.528965153895,6.47232717728,0.823701514806,6.14384092724,5.26812872361,2.88064812951
off_to_on,8.09498824475,4.896004111,5.77164687232,0.106928635166,6.05582393454,2.44779580616,3.33230595942,4.81037193054,0.239038652851,8.11407373212,2.78604124501,7.56514921834,7.54267660849,19.8751133652
off_to_on,7.8818041214,4.40929830457,6.06665415048,0.121367102518,6.43022494141,1.27454630339,1.71124976819,2.18151041905,0.947350148251,8.28287308027,4.39859029352,7.77876048859,8.53643223777,29.7523362097
off_to_on,6.64918238376,3.73000263795,5.67994509851,0.234333808002,5.79975728397,0.675490798899,0.77707614668,0.124708364071,1.55707847964,7.30761685816,5.40726966364,7.20445425058,8.34396565024,31.2910349231
off_to_on,4.89733340156,3.18775569992,4.88577843809,0.58657263787,4.42493921012,0.744734570866,0.735287097696,-0.781886397697,2.02443068361,5.60651458013,5.62271043173,6.19571479623,7.15851637123,26.0582639175
off_to_on,3.00118332473,2.85076267984,3.84251879707,1.18087887452,2.61906722284,1.20723087907,1.31915882105,-0.553203383031,2.28853038028,3.5493984885,4.96405255096,4.90735695405,5.20492696505,17.470915422
off_to_on,1.14585068656,2.54224432558,2.57538039392,1.86109621895,0.673431154752,1.57697815448,1.96486243001,0.287243227931,2.2774137908,1.39062222018,3.49049104285,3.29656387666,2.71574633711,9.25556942435
off_to_on,-0.63362300683,1.96201488738,1.03943399281,2.36077307192,-1.18158925993,1.39681953792,2.0882107722,0.983717020378,1.93239830575,-0.721406801581,1.40799789994,1.24146548022,-0.0569825377977,3.92659334222
off_to_on,-2.34781091507,0.856796207775,-0.776574168422,2.40453115957,-2.7785708253,0.457935172624,1.34602316113,0.896830250719,1.24161950264,-2.68456433157,-0.955765568211,-1.28856128065,-2.8195851729,1.87796979712
off_to_on,-3.94530806987,-0.831713222601,-2.75988310196,1.82380514271,-3.99251742081,-1.0916662037,-0.219762275079,-0.216060612877,0.26776179958,-4.37691123425,-3.20644352205,-4.09713185646,-5.23322200137,1.43402581926
off_to_on,-5.25794884234,-2.89937347644,-4.64269177568,0.641754161684,-4.71903247184,-2.79321118204,-2.20383137754,-2.09558596655,-0.844546354419,-5.6244109115,-4.95688001444,-6.72967009407,-6.94688303438,-0.177040937787
off_to_on,-6.02591404517,-4.91767305956,-6.04922751563,-0.907451162122,-4.86913513268,-4.05750544139,-4.00506993141,-4.0845026,-1.88946544933,-6.22201503891,-5.9028014367,-8.57146169858,-7.66495826862,-5.33138173887
off_to_on,-5.9912494596,-6.36163093441,-6.60577906978,-2.43593319083,-4.38724790996,-4.40439535179,-5.06353495266,-5.39281909667,-2.64606603032,-5.99982718234,-5.88219564725,-9.04394796675,-7.2279768494,-14.6197687979
off_to_on,-5.01667414021,-6.77935307042,-6.0716659715,-3.51863035325,-3.28485824438,-3.6621544123,-5.06767424563,-5.41470172592,-2.93686034491,-4.90341268765,-4.90470223276,-7.82490144184,-5.67480918294,-26.1591080258
off_to_on,-3.17475117314,-5.94210092668,-4.43970442822,-3.82942747665,-1.67205331351,-2.04396401803,-4.05092620111,-3.97156915302,-2.67990083988,-3.04935054275,-3.14549649677,-5.00443993876,-3.25807797648,-35.9494325328
off_to_on,-0.764738684579,-3.92368485425,-1.96596484441,-3.24944559127,0.23287049954,-0.0688069545327,-2.34681488788,-1.38851263556,-1.91655476786,-0.726698296229,-0.90727044938,-1.11029616065,-0.400412625087,-39.2221672917
off_to_on,1.75510948908,-1.08560661481,0.884575342855,-1.90949818917,2.12822477445,1.64212980672,-0.431717043181,1.62127894274,-0.804676073091,1.66242326984,1.43890365555,3.01603042246,2.39901503668,-32.3292748285
off_to_on,3.89653981479,2.02174432339,3.55846667315,-0.151909148551,3.6870425244,2.61078183928,1.27035527081,4.21431525861,0.421559259943,3.7043000126,3.51971560479,6.45446115179,4.67944399601,-14.4777690506
off_to_on,5.2827416319,4.80421057186,5.55860860744,1.57479694627,4.63305514451,2.6880563409,2.5345335048,5.71375276611,1.51265780098,5.08053893057,5.01953836682,8.47276970326,6.11858525096,11.3824544959
off_to_on,5.74821564502,6.76625168608,6.56462090695,2.85175992662,4.810161303,2.10176766408,3.37220363321,5.83097115842,2.26637560808,5.64129043226,5.72486183577,8.73194905913,6.58714036386,38.9478296612
off_to_on,5.36024678156,7.60864226353,6.49136419061,3.41009265279,4.22137383698,1.34374420756,3.94836457013,4.7308481486,2.57267562197,5.41931116653,5.54903858088,7.3606357562,6.14435200522,60.2216440514
off_to_on,4.35742318399,7.260568372,5.47292152843,3.19662535529,3.02309086798,0.939651684484,4.42419536916,2.92398872961,2.42871893473,4.58345079878,4.53741584402,4.87698742826,4.9829203494,67.9792408311
off_to_on,3.03451359567,5.85073808217,3.78713384243,2.3667549236,1.47625261553,1.19577791492,4.80506578823,1.03786712517,1.92236861111,3.35449869503,2.85535430563,1.99194352365,3.34925582006,58.2491654694
off_to_on,1.62443186622,3.64189580102,1.75571372053,1.21234496249,-0.128564000658,2.03090341126,4.87419067013,-0.4351966823,1.19340917929,1.92083318763,0.762288681894,-0.630511477526,1.4717052667,31.9583699079
off_to_on,0.228058627027,0.96017667068,-0.340255037039,0.0547203962001,-1.5458986291,2.971513361,4.25589670105,-1.30980445532,0.388338582437,0.389934842703,-1.4251828596,-2.56811852459,-0.477236348786,-4.88127129608
off_to_on,-1.1787862902,-1.85612490948,-2.30094876375,-0.857167905266,-2.62464596482,3.32529899755,2.59440163734,-1.7319274269,-0.375099179878,-1.20490987273,-3.37802056027,-3.72323328069,-2.37557125113,-42.6135303668
off_to_on,-2.66619456293,-4.47993096239,-3.99801275788,-1.40847814841,-3.31704381421,2.47509562834,-0.221874944182,-2.05193312006,-1.02325398683,-2.84857757885,-4.80293977044,-4.27259179269,-4.11409173931,-70.6408882205
off_to_on,-4.23675898224,-6.59972323867,-5.33081551005,-1.62283088586,-3.64895026204,0.181677491566,-3.89007767487,-2.60597585026,-1.52066766352,-4.46777941855,-5.48782269947,-4.51498330232,-5.55186024316,-80.5912426229
off_to_on,-5.73358911285,-7.92405536845,-6.1797483187,-1.61490127194,-3.66843589295,-3.22866695283,-7.66549251177,-3.50447398803,-1.85071023376,-5.87478727351,-5.33650441932,-4.68651097246,-6.49385623719,-68.9623070763
off_to_on,-6.8200653963,-8.20440784335,-6.38780745358,-1.51610106904,-3.39818647855,-6.88018687566,-10.5160280758,-4.52456362847,-1.99547896268,-6.76586574694,-4.38521733933,-4.82350405603,-6.71040567414,-38.3866724733
off_to_on,-7.05433573231,-7.28289727127,-5.78782716634,-1.40660883341,-2.81512228164,-9.58336081095,-11.4269334598,-5.16126778366,-1.92681886369,-6.78795446795,-2.79568306126,-4.73172042252,-5.99953601181,2.9292451294
off_to_on,-6.04243727097,-5.154627145,-4.27071412127,-1.28188354269,-1.86860082769,-10.2231072868,-9.75934694536,-4.82621633724,-1.6142074094,-5.65852756392,-0.824912371004,-4.07600479402,-4.27322605863,43.4753802734
off_to_on,-3.61822578732,-2.02057938866,-1.86908564191,-1.06576185221,-0.531199520609,-8.16958393404,-5.53380369256,-3.1192892899,-1.04659294388,-3.29859796332,1.22219990183,-2.55458270131,-1.63483797692,71.7624221782
off_to_on,0.0194948649764,1.69728693405,1.18041651212,-0.662051901676,1.13971567035,-3.56368531232,0.475391951873,-0.0631132654189,-0.257822084626,0.0723272901113,3.04656236797,-0.0861726841324,1.58640267726,79.7059046374
off_to_on,4.27405197685,5.39881198385,4.42935556285,-0.0203502106982,2.95909063599,2.63516420374,6.88962272843,3.80214894448,0.65773350757,3.92273732965,4.40227828451,3.06991511909,4.86607608852,65.0434196152
off_to_on,8.25103781434,8.40803146127,7.28027890551,0.814040092344,4.61533753415,8.87332982197,12.0898197742,7.51746245036,1.54992856874,7.49558369849,5.1276001922,6.31733876295,7.58129114547,32.045252628
off_to_on,10.9743800055,10.1152278485,9.11138913148,1.68962081098,5.72597878843,13.4401444966,14.686693021,9.9784444124,2.24089560384,9.97966902635,5.15514349877,8.86087506201,9.1513034437,-9.70531753495
off_to_on,11.6582575007,10.1219544688,9.4314134963,2.38499204022,5.93753194027,14.9825513228,13.9455924821,10.2965265525,2.56982384018,10.7204002126,4.5041182116,9.93903686877,9.18335071987,-48.1019791848
off_to_on,9.95061022926,8.34732291077,8.01999924466,2.68008704839,5.04058978132,12.9306951035,10.0229422041,8.12198769823,2.44038182971,9.40786739492,3.26279877586,9.07377736881,7.58102340082,-72.0444316417
off_to_on,6.0680393025,5.06289174347,5.01069750484,2.43595392468,3.06143651516,7.69362008294,3.93090360323,3.81007034502,1.85427892358,6.18387406736,1.57100145851,6.25037631828,4.58247854813,-74.6599502873
off_to_on,0.773601710902,0.843760037009,0.88936389561,1.6524892354,0.295319642455,0.558377017951,-2.76245698254,-1.63752278011,0.918277216812,1.63246615716,-0.390747456004,1.96240499149,0.716346289175,-55.272807588
off_to_on,-4.80202775278,-3.55202597393,-3.59494142056,0.481269542005,-2.73688361311,-6.67702090987,-8.40055571221,-6.84618611106,-0.17927075922,-3.34683845039,-2.40507512704,-2.89812714885,-3.31273371824,-19.5592112181
off_to_on,-9.44588475317,-7.34331634488,-7.58488064866,-0.812781353746,-5.40266935747,-12.2197496621,-11.719614344,-10.4718102988,-1.2158105273,-7.74897377225,-4.22115430233,-7.27307538451,-6.7773328572,22.1329041144
off_to_on,-12.1708537709,-9.88304818587,-10.2967118337,-1.92818904056,-7.11305223779,-14.7839070545,-12.187057672,-11.6022212832,-1.99109961751,-10.6983342136,-5.56784911646,-10.2198529028,-9.07843266403,57.7844356805
off_to_on,-12.4566983908,-10.7748286004,-11.185051756,-2.61545186081,-7.47455760882,-13.9231528455,-10.0915756433,-10.0242642417,-2.37510493453,-11.6452195322,-6.1851344366,-11.1544388568,-9.85739555215,77.140213342
off_to_on,-10.3567858916,-9.92599364202,-10.0536166879,-2.7467131441,-6.3931308089,-10.0994600176,-6.36707172579,-6.26979802548,-2.33296658212,-10.4738371791,-5.87501065932,-9.9828676173,-9.0456578433,74.5898312495
off_to_on,-6.44673924057,-7.53430568807,-7.09087253542,-2.34360667854,-4.09901037036,-4.48217613959,-2.22494879532,-1.42936117994,-1.92112485117,-7.49975676987,-4.5626644597,-7.08756424918,-6.84838417001,50.6907856586
off_to_on,-1.64034474424,-4.02328870778,-2.82833025074,-1.55617416978,-1.08564199108,1.44162583455,1.26709897403,3.19937374925,-1.25885479404,-3.36694765193,-2.34925142862,-3.18349605642,-3.67613738629,11.9393634485
off_to_on,3.06361996133,0.0488976380857,1.96454091181,-0.603639497581,2.01821019185,6.30938857232,3.50894435627,6.50765052704,-0.487488173853,1.11905946179,0.466089548689,0.900151264349,-0.0495812477977,-31.0996686039
off_to_on,6.82446486414,4.08227107269,6.42460543714,0.299130699416,4.60451013124,9.23548924445,4.48579799373,7.88494185208,0.267409996627,5.1723304406,3.41268483809,4.4378848248,3.49609184184,-66.7394609481
off_to_on,9.12444459161,7.51293596131,9.7508973147,1.002223893,6.2248795707,9.97334418912,4.65172085121,7.34535281984,0.918601130096,8.17540292024,5.92800610842,6.95826430191,6.48692236226,-85.3516517705
off_to_on,9.81933814866,9.87088179342,11.3460374275,1.44817466937,6.6751235318,8.85937209387,4.63947108529,5.44188094753,1.41961191523,9.76539541074,7.47782252945,8.28976829015,8.55726638173,-81.9081987984
off_to_on,9.07942136168,10.821569597,10.9217789264,1.66059657888,6.00740954779,6.58706953329,4.92127082173,3.01343992087,1.75096251556,9.84944168844,7.68792709521,8.50564148445,9.47046417645,-57.2219359156
off_to_on,7.26033365589,10.198283617,8.5527704087,1.703952093,4.4758577924,3.91201839442,5.56080142246,0.864493893759,1.90056795187,8.5626085565,6.45004943581,7.80665925039,9.12249452289,-17.6037947717
off_to_on,4.76078007831,8.02873640621,4.6688055565,1.6352824851,2.44116446658,1.40080678172,6.15878281163,-0.505724957888,1.85029242583,6.19458813262,3.96784441588,6.39876368587,7.53931555544,26.9084433691
off_to_on,1.91946414382,4.55205281163,-0.0166235225053,1.47047892362,0.2694475674,-0.692685700448,6.01744560528,-1.03253575944,1.57682387962,3.11371861494,0.724063955644,4.41765959708,4.87467198183,65.2233038273
off_to_on,-1.01936916362,0.215579945015,-4.63393031341,1.17998191843,-1.74276487345,-2.39749480556,4.46214459701,-1.0382385787,1.06753379792,-0.290637614797,-2.62702303759,1.92791837652,1.40849632584,88.03354446
off_to_on,-3.87401553675,-4.36074042354,-8.32215318739,0.715066515392,-3.39946766309,-3.8780257882,1.19405557464,-1.03841980958,0.34405006723,-3.63944419385,-5.41457188184,-1.00983222615,-2.46014787115,90.0783313695
off_to_on,-6.45714500411,-8.45940430644,-10.4007549007,0.0518911698166,-4.59297412433,-5.24758537576,-3.46931849013,-1.48465855877,-0.518643807426,-6.57438398221,-7.11041853206,-4.24023072455,-6.23467386957,71.2805792082
off_to_on,-8.51546520066,-11.3756171171,-10.5118067394,-0.767943260539,-5.26602231745,-6.43109432684,-8.57227846152,-2.5455667406,-1.38942063053,-8.76121696427,-7.44740644154,-7.43470661497,-9.36485852925,36.5334401797
off_to_on,-9.71673657264,-12.5456177616,-8.6974446082,-1.62097679479,-5.37375378167,-7.13910378516,-12.7462309194,-4.00964569891,-2.10066753823,-9.90148532173,-6.46407577803,-10.0795009461,-11.315330989,-5.72891866788
off_to_on,-9.70300637266,-11.6660644169,-5.38935559809,-2.32083655239,-4.86822331435,-6.96590092135,-14.6197874985,-5.3454526053,-2.48760373846,-9.76246959195,-4.46636064973,-11.5527350214,-11.6531898005,-45.7390098049
off_to_on,-8.20033770598,-8.77505924176,-1.30782686043,-2.66928460184,-3.71578792729,-5.57188386629,-13.2803455828,-5.89553946068,-2.43586626793,-8.22537268906,-1.92321067243,-11.2795989692,-10.1413462957,-74.7769553161
off_to_on,-5.14953128872,-4.2718375864,2.70758506244,-2.52240213671,-1.94112820623,-2.8748633102,-8.62872529068,-5.13211143239,-1.92121927502,-5.34102207933,0.666886816801,-8.92333170932,-6.81832670645,-87.1203425222
off_to_on,-0.808814464036,1.13424968861,5.89305046018,-1.84756427815,0.322572253383,0.830504664566,-1.49866344966,-2.88111125911,-1.02646043016,-1.3745767619,2.89469281909,-4.55123231312,-2.0431487197,-81.1165759965
off_to_on,4.21685315359,6.53829734645,7.72912429031,-0.748863832922,2.80392841573,4.88018965825,6.51162077337,0.566256375817,0.0723895561642,3.18158973077,4.50923717581,1.28412274788,3.51349038914,-59.1933409017
off_to_on,9.04535455768,10.9963370566,8.03752452217,0.550598522927,5.10621922934,8.38375490546,13.4539605562,4.4955251493,1.14817382105,7.64344181997,5.42283084668,7.58791640432,8.94286326132,-26.9116693961
off_to_on,12.6816856181,13.6936780333,6.98184826784,1.76568887027,6.77094405266,10.461999533,17.5676834274,7.95285901942,1.98063690838,11.2257232026,5.6628156867,13.0960012636,13.2357924469,8.59803439136
off_to_on,14.2425776977,14.0940070166,4.97790982156,2.6273602868,7.3816449901,10.5040536781,17.7760850493,10.0125609822,2.41238164491,13.1796516156,5.3003703884,16.5458317206,15.4682777433,40.3542903439
off_to_on,13.1857577958,12.0434888815,2.54773986356,2.95616561822,6.68098457907,8.36101701974,13.9910674254,10.0444862488,2.38536210067,12.9552855735,4.39328584064,16.9831185225,15.0040632208,62.9507418962
off_to_on,9.48192878763,7.81301836442,0.168006985349,2.70723175032,4.66546766358,4.41382034063,7.13628881427,7.90038446311,1.94732058166,10.3538748967,2.97065192441,14.0269590985,11.6713114561,73.3828951605
off_to_on,3.6783744019,2.07139657419,-1.83762415212,1.9732344866,1.62497855413,-0.506562633405,-1.11285276413,3.96613735051,1.22798716169,5.62997874981,1.06639104607,8.02098241743,5.86657479681,71.1788731236
off_to_on,-3.17190336345,-4.20907832444,-3.3317475464,0.946939487821,-1.89189687248,-5.32276156144,-8.78878793865,-0.930947622768,0.395019978505,-0.492834950467,-1.21601060472,0.0217894662789,-1.45340420835,57.9505336162
off_to_on,-9.70884370212,-9.90522800837,-4.32154662723,-0.141282619636,-5.18497478926,-8.97902506248,-14.1517638159,-5.72859470157,-0.394157684023,-6.91407814851,-3.64315531467,-8.38663881307,-8.91151542304,36.6295510266
off_to_on,-14.5527117406,-13.9362579856,-4.87100376583,-1.08803750773,-7.55867706043,-10.698793587,-16.1211568089,-9.38939098982,-1.02843692111,-12.3534527448,-5.83461216366,-15.4213401008,-14.9707303783,10.694142851
off_to_on,-16.6169189149,-15.4709080568,-5.01296483883,-1.76201587134,-8.48834931779,-10.1646837366,-14.5045664661,-11.1443082778,-1.45673590225,-15.6214004267,-7.31394949971,-19.5024838452,-18.2696436371,-16.378876813
off_to_on,-15.3728279535,-14.1125916768,-4.70490486244,-2.11735677378,-7.75276223586,-7.57936436375,-9.97756288831,-10.6607589018,-1.67842174941,-15.9053889552,-7.62608047114,-19.6362137988,-17.9584822855,-41.3509894727
off_to_on,-10.9998469809,-10.0209409593,-3.85122962165,-2.17623302362,-5.49628632242,-3.5995766074,-3.84110188104,-8.10048682653,-1.71858510965,-12.9993175925,-6.48931685451,-15.6821696228,-13.9476204971,-61.2275874301
off_to_on,-4.37715156886,-3.93070360895,-2.38327330658,-1.99342262815,-2.20206904339,0.833029357759,2.35770147227,-4.06222663335,-1.60154683637,-7.40681810962,-3.92964577655,-8.43018973253,-6.99067858459,-73.2270480377
off_to_on,3.09143530061,2.95638898988,-0.35889670545,-1.6213643384,1.41910556187,4.71910648292,7.22817819817,0.569403651379,-1.33543365948,-0.273786271038,-0.342120792631,0.547584648251,1.44068170345,-74.9241368351
off_to_on,9.78764838856,9.20388690183,1.9704026077,-1.09183401178,4.59713430183,7.23322808946,9.85629522401,4.82929638141,-0.914731880778,6.85225720771,3.55707164229,9.24813371874,9.47948975143,-64.6853916853
off_to_on,14.256147686,13.4590411521,4.16843464171,-0.421231109067,6.68548897682,7.90954779252,9.97175518569,7.88443682596,-0.338967894606,12.3884738395,6.88929592126,15.7161438041,15.3144412383,-42.3449627359
off_to_on,15.5584488706,14.7863761374,5.71360542021,0.365410266382,7.31181524289,6.74286308435,7.93960825008,9.20850420908,0.362248499966,15.1182497344,8.84460314197,18.5325388762,17.6543434242,-9.89173345017
off_to_on,13.511189173,12.926790469,6.1635368569,1.20605283208,6.45749115337,4.18326424106,4.59979918192,8.68275315194,1.11131701187,14.5165592052,8.91698304219,17.1827031425,16.0752807639,28.1694829156
off_to_on,8.73922578728,8.39872019621,5.32663121957,1.9862991428,4.44589313701,1.02233347158,1.00999862818,6.60238783038,1.78328753789,10.8988704803,7.06698732521,12.1964309546,11.1424550011,65.0992087524
off_to_on,2.51831020482,2.39253021976,3.36972359324,2.54955259262,1.84323410971,-1.80963398121,-1.83947388662,3.58648574658,2.22926073099,5.33750264978,3.75306556928,5.00749130693,4.25758672317,92.9993572232
off_to_on,-3.5616547266,-3.53366339302,0.807089931026,2.73436194828,-0.700696471297,-3.49446109922,-3.27301297377,0.410365295835,2.31725188648,-0.643569147737,-0.186952413191,-2.4422202628,-2.73698897326,104.569015084
off_to_on,-8.02820477431,-7.88470431769,-1.64265990855,2.42820505061,-2.62801667313,-3.56639294572,-3.08818436132,-2.20101289808,1.9772046318,-5.51388355221,-3.77348440732,-8.2515081953,-8.08876382658,95.1410704314
off_to_on,-9.93369511406,-9.66406619403,-3.29311445662,1.61815376529,-3.61564826131,-2.07535219353,-1.59422169296,-3.76620072642,1.23361824618,-8.18918332579,-6.16958950709,-11.1054785958,-10.6420545941,64.4064009954
off_to_on,-9.11709881237,-8.6772803907,-3.73850410904,0.417486132986,-3.64530818846,0.385228070701,0.478042411333,-4.17207146422,0.212314938386,-8.34733259475,-6.9210401142,-10.6514695924,-10.1618081088,17.2148532062
off_to_on,-6.23360558637,-5.59474391124,-3.01762994563,-0.945677163398,-2.98051241808,2.81652502286,2.17977808266,-3.68826847227,-0.883713429417,-6.49852129576,-6.07289447302,-7.58043265627,-7.36500649451,-36.9639292042
off_to_on,-2.53087655093,-1.73491051019,-1.6190888646,-2.17860829781,-2.05743100694,4.10390886747,2.6220481945,-2.85762870244,-1.82370693239,-3.77606135511,-4.12320677006,-3.37448084551,-3.64084405749,-85.9692645812
off_to_on,0.570351009642,1.38024955974,-0.30824356673,-2.99974821529,-1.32270422336,3.39159021896,1.26644882212,-2.28711558734,-2.40904365057,-1.50719608195,-1.82941106733,0.212547235512,-0.543787899203,-117.880342423
off_to_on,1.96560754312,2.56259622146,0.174795459953,-3.2166716577,-1.06914904864,0.433700464927,-1.8477591489,-2.40086416343,-2.52490484544,-0.703721919497,0.0658649747713,1.78123428699,0.774902181423,-124.196522686
off_to_on,1.26689828748,1.408118992,-0.560306501672,-2.78098949189,-1.32360054036,-4.201487511,-6.0156339701,-3.23938322714,-2.1675526189,-1.65057039901,1.09351396029,0.811249148772,0.00123038917129,-102.351955802
off_to_on,-1.02893285884,-1.50620977604,-2.33526334922,-1.80204571335,-1.82764907784,-9.17231606143,-9.97062918224,-4.38554090547,-1.43933719538,-3.74939823528,1.20898645022,-2.10515783435,-2.20273950019,-56.7651735741
off_to_on,-3.68018197451,-4.77188484935,-4.391907422,-0.514895135522,-2.12438754928,-12.6824175083,-12.1881083471,-5.06475077351,-0.514437907221,-5.69555944652,0.780251132682,-5.42524396835,-4.42263633705,1.99447898647
off_to_on,-5.12608858947,-6.62347757647,-5.62111762673,0.786735267991,-1.72984869617,-13.0200060027,-11.3348284338,-4.41033857064,0.412133399533,-5.95303514373,0.415120688974,-7.18854925296,-5.021381617,59.7979881392
off_to_on,-4.07445473422,-5.59903836511,-4.97435929839,1.83049405272,-0.336987469099,-9.17276465313,-6.75163417345,-1.82206234836,1.17498935211,-3.38004416562,0.689373379454,-5.76251895592,-2.80437376476,102.63870354
off_to_on,-0.0577943125672,-1.16604789669,-1.92164200206,2.43305805293,2.01669424676,-1.32032014286,1.17962224441,2.70158526345,1.67259532696,2.21192514696,1.87612574151,-0.552426452752,2.41264162697,120.375377304
off_to_on,6.24489834204,5.91834063852,3.21603904902,2.53550610165,4.88235594263,8.98648602115,10.9281693668,8.38808396596,1.87665427309,9.78216414635,3.78113309975,7.58563841767,9.55164186712,109.447854362
off_to_on,13.0638907583,13.674247159,9.20639957018,2.19866488137,7.47173169887,19.0749840691,20.0528801908,13.7686676629,1.81770760207,17.2063217314,5.75505506814,16.412470319,16.4625462856,73.7561548707
off_to_on,17.9991948201,19.4207510406,14.1809696325,1.5647581579,8.8630915265,25.8162586759,25.7776208236,17.0296807905,1.55651407157,21.8467177193,6.89250739729,22.8883509546,20.5370806928,23.4336194295
off_to_on,18.7751601927,20.6226741757,16.1924504393,0.802498631242,8.29045879887,26.5509338459,25.7807596619,16.5628138481,1.15491402979,21.400236962,6.35945220136,24.1281040749,19.5767905749,-28.1197177673
off_to_on,14.0640244607,15.8051737606,13.8912395653,0.0565221721583,5.43054730343,20.008058432,18.9838713979,11.5562319414,0.658294697586,14.7623208688,3.73909085853,18.4409808344,12.640161111,-68.0479970971
off_to_on,4.10385602505,5.2279645141,7.09538832383,-0.582172100895,0.591472802545,6.91454090699,6.08852965268,2.42885744047,0.0953624653106,2.61038794897,-0.729007810572,6.10716668714,0.573685424675,-87.5476104904
off_to_on,-9.12453651905,-8.93861943101,-2.95993984757,-1.07820940466,-5.2724990002,-9.94497832526,-10.3481674064,-9.06597927654,-0.507494057557,-12.5266467316,-6.11394053553,-10.4046387914,-13.9893300854,-84.0353561869
off_to_on,-22.2742113388,-23.0503621781,-13.8185737031,-1.43136301966,-10.7483506828,-26.3069039334,-26.3913029183,-20.1536978155,-1.10685698432,-26.7971901129,-10.9962874441,-26.9159893565,-27.2196187044,-61.3764412662
off_to_on,-31.5017697564,-32.9586072109,-22.4289064378,-1.64729098054,-14.3198982193,-37.5367885027,-37.686875508,-27.7259772699,-1.63005422887,-36.0474471399,-13.862816861,-38.6321522181,-35.1388243764,-28.1934247971
off_to_on,-33.6005351874,-35.2479830234,-26.0346444132,-1.71538693986,-14.7998328776,-39.9736997349,-40.6672637894,-29.2301476569,-1.97923443169,-37.0545860111,-13.5783496553,-41.55744562,-34.8272105579,5.12100529713
off_to_on,-27.0593785042,-28.3670294336,-23.0622440499,-1.60496468519,-11.7124874199,-32.1120570756,-33.6633096756,-23.5010025534,-2.05375461893,-28.5993350522,-9.78582072033,-33.8078652949,-25.4207404336,29.6791875433
off_to_on,-12.7029504493,-13.2811388737,-13.7155094215,-1.28165827876,-5.50472319502,-15.2371280488,-17.5747348358,-11.2656108231,-1.78443011461,-12.0255088346,-3.09908023715,-16.3939553898,-8.56571111024,40.6077696549
off_to_on,6.32538873674,6.59608023852,-0.0627460334613,-0.736006344637,2.49510605017,6.72840691885,4.14704079871,4.8704393508,-1.16694356552,8.92923544665,4.9881741385,6.81625569325,11.8513279201,38.0394459114
off_to_on,25.2858361269,26.2226632721,14.4467570684,-0.00991808463117,10.3786557942,28.1785863075,26.259509645,20.9994318476,-0.280345832263,29.0317642965,12.4673382512,30.0040824509,30.6638017527,26.3756986202
off_to_on,39.0981173344,40.2926328395,25.9190543056,0.793265961236,16.148465204,43.3397557089,43.0650422636,32.9206637697,0.719124866145,42.9529915929,17.3566649562,46.9551011032,42.8235303223,12.1986705904
off_to_on,43.7813680374,44.755633658,31.1351576625,1.52308613812,18.2643337425,47.9180692339,49.9658974495,37.3073173347,1.63019525185,46.7725041908,18.2634862976,52.8244707642,44.8373405987,1.64711638175
off_to_on,37.6509878774,38.0358998085,28.5139689756,2.01858251297,16.0865760987,40.3854167632,44.7922709601,32.6891075521,2.25644996543,39.1412623494,14.7987554772,45.5871776113,35.813278394,-1.78995406352
off_to_on,21.8995572671,21.5697844976,18.6157681153,2.15553007934,10.080894882,22.5001020292,28.5010741314,19.946431215,2.45880376809,21.7425896398,7.71630771333,26.7222105904,17.7919533923,1.6933167769
off_to_on,0.362681476858,-0.521010372455,4.01959719118,1.88736700062,1.71611703766,-1.11988482211,5.01376043698,2.14733973469,2.19374627223,-1.10585210672,-1.26989992395,0.898913337429,-4.75366739941,8.65874740082
off_to_on,-21.4867197806,-22.5425785386,-11.3991398755,1.26427444415,-6.92351024023,-24.2663066159,-19.788815149,-16.2470330078,1.52491136117,-23.6096155023,-9.94112919111,-25.2674794395,-26.1182882484,14.0907185013
off_to_on,-38.0356605054,-38.8085308382,-23.5765893015,0.422433357403,-13.7031530233,-40.8862443392,-39.6433460968,-30.5899692762,0.604344473322,-40.0839418699,-16.1708354727,-45.0387881419,-40.9206173685,13.6078578581
off_to_on,-45.084842008,-45.2208790862,-29.4179937633,-0.453677852173,-17.0158303435,-46.7851693854,-49.6045269066,-37.3209805941,-0.370091475594,-46.5064526077,-18.4908319311,-53.4220234783,-45.5640415488,5.36101789054
off_to_on,-41.0012445613,-40.3846805481,-27.6538621683,-1.18320076371,-16.2054001636,-40.7777993941,-47.3772038769,-34.929232636,-1.20707882599,-41.5829457954,-16.4652765682,-48.5318364645,-39.1790659142,-9.09955755823
off_to_on,-27.1308405788,-25.9321623575,-19.1403133179,-1.63722264527,-11.7118331782,-24.9462524729,-33.8948208963,-24.3271504633,-1.7673668566,-27.0221504574,-10.7706698506,-32.0494107861,-23.7830293007,-25.3037923547
off_to_on,-7.35696790668,-5.97496367182,-6.52576419786,-1.76740906584,-4.90141701046,-3.94156093309,-12.983651037,-8.53161245789,-1.98922143481,-6.95667467968,-2.9688376627,-8.65585393622,-3.62946052714,-37.4947202289
off_to_on,13.0510614242,14.1316052986,6.59514625006,-1.60659122071,2.35926873599,16.4401352082,9.77398336108,8.23987494982,-1.88839462329,13.2953057101,4.95009508083,15.3703970272,16.039525765,-40.7923515902
off_to_on,28.9427086979,29.3250017174,16.7634802868,-1.24364878928,8.24998373586,30.9564433132,28.6274836846,21.7762141737,-1.53640646033,28.7409519123,11.1141011889,33.9543537169,30.4542351002,-33.0732190797
off_to_on,36.6899134722,36.2071413423,21.6333841468,-0.784437876251,11.4955645194,36.3695516733,39.2207422943,29.0173454698,-1.02803205391,36.0419501698,14.2456563607,42.8782225087,36.5602588718,-15.861562753
off_to_on,35.080647549,33.8548727372,20.5520051487,-0.314972040749,11.6693786847,32.220713994,39.6768069867,28.8028450247,-0.451342831969,34.2828054481,13.9387640732,40.8076968651,33.697198216,6.10126288606
off_to_on,25.4645257271,23.8627131885,14.5886099776,0.119073634394,9.22147394972,20.7283407878,30.9130045957,22.0259021936,0.129200472236,24.9888656031,10.6742600208,29.4225212711,23.5548205071,26.4519157092
off_to_on,11.1521875488,9.65750908597,6.04236684087,0.510183569833,5.24209116226,5.89394163507,16.1409402052,11.1860559736,0.672838578924,11.4447082125,5.59247567206,12.6704675629,9.47476207202,39.3789600818
off_to_on,-3.70091109583,-4.65397766709,-2.37758343367,0.867841468604,1.05486997374,-7.85405340715,-0.24467557681,-0.480623037784,1.14974129744,-2.42506906409,0.112092113661,-4.5681179977,-4.64183555558,41.5810758204
off_to_on,-15.3505602199,-15.5171991032,-8.41407963344,1.19028960827,-2.21675458876,-17.0206744091,-14.0107368484,-9.99614873954,1.52483762434,-13.2345266478,-4.47876734793,-17.9548238743,-15.4614896987,33.3016406665
off_to_on,-21.4661852958,-20.8591356262,-10.887446124,1.44408585865,-3.96705943266,-19.9788311602,-22.2408782459,-15.4451740995,1.7488120308,-19.0084664074,-7.33772552886,-24.8459513785,-21.0417306001,18.0792421968
off_to_on,-21.5954930439,-20.4595909971,-9.90507609953,1.56284330384,-4.21493745494,-17.2152829647,-23.9692053948,-16.3600528739,1.76315133193,-19.5111382304,-8.20979365539,-24.8008320265,-21.1380765868,1.33161984737
off_to_on,-17.0016622996,-15.7100888156,-6.62800660253,1.46799270023,-3.48365882177,-10.8708070364,-20.1520689253,-13.6112492065,1.51927358486,-15.991791452,-7.37808820773,-19.3560056828,-16.9654984742,-11.6792488154
off_to_on,-9.99364496776,-8.90915071325,-2.71833505813,1.10433023848,-2.51656678796,-3.79335850737,-13.0603646227,-8.89572089461,1.00465148769,-10.5021478322,-5.46765925793,-11.220824653,-10.5618508741,-17.7304526705
off_to_on,-3.02506236836,-2.38002849624,0.310867674358,0.47570625821,-1.94533939675,1.52977781188,-5.3540281789,-4.03991790666,0.264490224714,-5.06794149221,-3.18704216679,-3.22464026803,-4.01249351489,-16.6662766083
off_to_on,2.11232044609,2.27362680538,1.60744631699,-0.335336519949,-2.03712587528,3.78253158429,0.821314309333,-0.374822752965,-0.592133403223,-1.01692572685,-1.10052173267,2.60484324075,1.19024986996,-11.1984386836
off_to_on,4.73925482515,4.53966940497,1.18760924661,-1.17498935065,-2.61082056376,3.11466861016,4.41796012288,1.6106740832,-1.40766909576,1.32080680364,0.499409506361,5.53675171684,4.45913451439,-5.57648154386
off_to_on,5.27262097588,4.91784010912,-0.204055687216,-1.85362929103,-3.14541930078,0.864562435609,5.59279626957,2.25096866408,-2.01105757007,2.48028120745,1.59425087239,6.09008320876,6.04088213666,-3.66058163862
off_to_on,4.80805854701,4.47924585518,-1.49527863052,-2.19919571982,-3.03009739777,-1.13630108167,5.36276372154,2.37303375626,-2.26251576014,3.40217878704,2.33908531394,5.53410275163,6.65149882568,-7.16315987553
off_to_on,4.50710304341,4.2778861691,-1.77188602149,-2.11069658161,-1.8532164066,-1.38244965731,4.99318073034,2.81746386796,-2.09388179239,4.86577665252,2.91661284352,5.18128083175,7.00492218364,-14.7697989524
off_to_on,5.04776701974,4.86093916567,-0.655035135687,-1.59287411083,0.385347042773,0.682619712551,5.38192141995,4.01625702809,-1.53086074422,7.05736839353,3.41241264208,5.77103169679,7.44031651088,-22.5216132073
off_to_on,6.35045098763,6.06309006303,1.5680777958,-0.759061373151,3.22338071985,4.4653074676,6.67876944226,5.79348231935,-0.689145614249,9.44655877961,3.7619442956,7.17998464611,7.79172716265,-25.359652838
off_to_on,7.66670403613,7.14246613857,4.09341800671,0.199694007384,5.869536621,8.49516249934,8.26829784754,7.45484800339,0.25495581036,11.0088079529,3.78556524055,8.54679206266,7.53091973979,-19.2750604983
off_to_on,7.96778782821,7.17411773043,5.95104438944,1.06919940075,7.47270859085,11.0410276741,9.09305330974,8.11187396435,1.11024443102,10.6891656,3.28977393798,8.7273990156,6.09683061576,-3.24813100985
off_to_on,6.45233121486,5.51691821599,6.40420145929,1.6719863148,7.42762992937,10.813229272,8.16124068094,7.09328146038,1.71830200139,7.90528579158,2.185758409,6.86779339388,3.24970335138,19.8026676632
off_to_on,2.95215376067,2.148716479,5.23173348609,1.91250927616,5.60225320405,7.47360875191,5.01928313055,4.26593885966,1.98858060193,2.8744395522,0.570145561515,2.84396130076,-0.716705457312,43.5098057607
off_to_on,-1.93412616226,-2.27186625243,2.78431863163,1.79347836581,2.40103219291,1.76237610337,-0.00398953913356,0.13061087609,1.91131070985,-3.37671433476,-1.27064715492,-2.61560971728,-5.00551724134,59.9209617719
off_to_on,-7.03144096208,-6.63837857459,-0.196681054238,1.39999957218,-1.36077177757,-4.79070944918,-5.87252156714,-4.34478556882,1.54667153241,-9.32971280664,-2.93879209953,-8.17048721938,-8.58211940898,62.1647970515
off_to_on,-11.0169864605,-9.81889129031,-2.90814116622,0.859960893836,-4.72593328064,-10.4374850415,-11.1941909606,-8.08001784047,0.99675589601,-13.4939990503,-4.05735260588,-12.3632204843,-10.5617703082,47.0187098722
off_to_on,-12.902291434,-11.0817944563,-4.81040485098,0.297247073587,-6.90759549024,-13.8242413757,-14.6935308382,-10.2713242793,0.372013822751,-14.918894541,-4.40364332552,-14.1541092999,-10.549080195,16.4602942983
off_to_on,-12.3634358881,-10.3385074822,-5.80065123551,-0.204167393797,-7.5290466829,-14.3990498532,-15.6090033504,-10.6459841187,-0.23568900372,-13.4893843407,-3.98769461397,-13.2677076586,-8.7748330139,-22.4114625996
off_to_on,-9.78231355285,-8.0975110135,-6.15478469414,-0.61282269182,-6.70279156246,-12.4620007782,-13.8601774107,-9.47360509151,-0.765406008128,-9.88604949422,-3.03973357642,-10.2076835765,-5.96076470091,-59.1691531775
off_to_on,-5.99070825865,-5.15398323269,-6.2651621397,-0.936984914198,-4.92317567431,-8.86502077946,-9.93849191753,-7.33439234333,-1.18370795789,-5.23129687383,-1.90661897467,-5.9448437126,-2.96403704201,-83.0698100803
off_to_on,-1.84453717799,-2.16360733757,-6.3025221885,-1.19518433527,-2.82055929445,-4.52271111296,-4.60236497794,-4.75896313459,-1.47112287984,-0.581298043293,-0.895943718471,-1.43220387676,-0.359659528807,-86.3639213482
off_to_on,2.16143962205,0.687268277314,-5.9808917086,-1.38569268748,-0.881754378578,0.0192955008001,1.45322575714,-1.92328960907,-1.60784130169,3.5029261212,-0.132710140558,2.81450970031,1.83704898541,-66.8445180764
off_to_on,6.03798667979,3.73283850439,-4.57695303331,-1.47071493178,0.741935577596,4.73616948773,7.77303991975,1.42865065379,-1.56762050082,7.09698883964,0.504590015886,6.8537943883,4.15019246297,-28.7940271461
off_to_on,10.1098351746,7.53689226555,-1.25347223528,-1.38441573934,2.2500209615,9.90240981656,14.0633413869,5.75637306767,-1.32432548318,10.6801400835,1.32740037599,11.0807856621,7.29032259954,18.0204286865
off_to_on,14.5556287873,12.3603497329,4.40514548795,-1.06311351059,4.01404011485,15.5873019055,19.8963135223,11.2558757863,-0.869016865554,14.6140906128,2.6654733022,15.7051100865,11.5910060376,61.0402435819
off_to_on,18.8986965727,17.6296777607,11.8622708488,-0.485473629528,6.27257958627,21.1189773228,24.3703412641,17.3594479631,-0.22974396842,18.5749564352,4.63729422654,20.1962981771,16.4842009819,88.5009960067
off_to_on,21.7385324638,21.7012458405,19.3723704388,0.295279138871,8.83388784617,24.832656991,25.9677507108,22.4746973531,0.516275365739,21.245642256,6.95673415122,23.0149825832,20.3001241298,92.8321332692
off_to_on,20.9575213089,22.1425980385,24.2105835307,1.14361051699,10.9374909138,24.3432667605,22.8081271065,24.1888709212,1.24643221191,20.5112743719,8.87556640164,21.8741727708,20.5918924547,72.8485455041
off_to_on,14.4598999781,16.5613176511,23.4397156135,1.86631201361,11.3823876156,17.3803490374,13.3398850006,20.0038274534,1.81501382662,14.2125777082,9.32756851355,14.5715142029,14.9928406737,34.0847045551
off_to_on,1.2569984989,3.76667123114,15.0468664118,2.26492555409,8.93318523661,2.96191715949,-2.70447609868,8.43907579621,2.08915669022,1.26177961914,7.2723725586,0.168240365412,2.37657760667,-12.8111364195
off_to_on,-17.5016531887,-15.1575317685,-0.916765939576,2.19968137689,2.89738122624,-17.5338445073,-23.4564516323,-9.87127091113,1.98754614326,-17.291517908,2.15532245756,-19.9321495996,-16.102852722,-55.1247669759
off_to_on,-38.0399418979,-36.3645013108,-21.6541001249,1.64249766878,-6.33002048395,-39.9139754383,-44.6056250279,-31.5647729173,1.50867894059,-37.7434377838,-5.66848976835,-41.5291732604,-36.5727625169,-81.6527788242
off_to_on,-54.3974723619,-53.7209588236,-41.792424953,0.698625548006,-16.9928934093,-57.7203911359,-59.9815685586,-50.8264712567,0.738113082902,-54.1617607589,-14.7236559836,-58.188622701,-52.9632238697,-85.7660511081
off_to_on,-59.9045312122,-60.3337340615,-54.5646512986,-0.413588461274,-26.1575791091,-63.8554102109,-63.0906861565,-60.707848127,-0.169193860732,-59.8578129008,-22.5599749205,-62.8949893092,-58.5503786828,-67.1022105368
off_to_on,-49.3988797125,-50.8174979642,-53.814417911,-1.42097664457,-30.405422243,-52.9419211726,-49.3016686192,-55.2703223129,-1.02699425332,-49.6113274153,-26.3006040416,-50.4411118117,-48.1992735972,-31.4578301144
off_to_on,-21.5286736146,-23.6356635408,-36.2894632905,-2.07433062544,-26.9045482561,-23.7102239571,-18.0306201824,-31.9632926543,-1.66485798237,-21.9891627685,-23.5039516041,-19.8279508149,-20.6404095432,11.0158790141
off_to_on,19.70337647,17.3334943948,-3.46570924935,-2.22223003723,-14.5610905443,19.4675023051,25.892316653,6.58128644619,-1.96979352993,19.0903108817,-13.1158386387,24.224871457,20.0498892427,48.7351685624
off_to_on,64.906862198,62.7532380251,37.8461132411,-1.85534965248,5.14477105107,66.6494744257,72.3868509319,52.1262109976,-1.90992135942,64.3023974105,3.79722756281,71.4231522501,64.4847419865,71.8625579744
off_to_on,101.141627179,99.6605407303,76.579892444,-1.10625989078,28.0045503992,104.331175291,108.132059567,92.2408365278,-1.53404347826,100.734246248,23.8390864683,108.017011859,99.8420375003,74.8597290072
off_to_on,115.386226942,114.930265089,100.150303397,-0.204720888611,47.8125436972,119.090296497,120.140656456,113.452049159,-0.949184436764,115.339769792,41.7941576424,120.568416558,113.316912893,57.7583056982
off_to_on,98.7700460611,99.5081840193,98.238469724,0.596430672737,57.9210940496,101.943018526,100.003935544,105.408702786,-0.285308762804,99.1694795258,51.8508159333,100.394778819,96.2859819771,25.8835515843
off_to_on,50.2717770346,52.1247028013,66.5509874854,1.09984434809,53.2664549227,52.0721146911,47.5020807275,64.8437660818,0.34010025123,51.0819923916,49.2912897869,47.3021108408,47.9114354981,-11.8003427883
off_to_on,-21.4622581207,-18.8483638531,9.29711695551,1.22056585632,32.2872053018,-21.428877759,-27.7525729194,-2.03418055197,0.846199159058,-20.4087383822,32.1954817929,-28.7766589386,-23.122397369,-45.2011943665
off_to_on,-99.1168599816,-96.3336513686,-60.6524353186,1.00310011937,-1.91174373285,-100.705343144,-107.541164405,-79.7947982489,1.19561423935,-98.0923623658,2.6110195312,-109.141517238,-99.6406680627,-65.7583281895
off_to_on,-160.665041812,-158.429524233,-124.358746507,0.59450273269,-41.6613165989,-163.273204011,-169.223657204,-147.051160516,1.38504020504,-159.979277403,-33.2897104833,-170.723144583,-159.901470377,-68.5584162819
off_to_on,-185.460798571,-184.437874669,-161.753321593,0.18456054855,-76.2818842076,-188.249922138,-192.005362239,-182.158713061,1.42685454003,-185.367462731,-66.3060132006,-192.555086946,-183.597928435,-53.4073934519
off_to_on,-160.818229407,-161.417960479,-157.68694751,-0.0649284599049,-94.8346000525,-162.990569437,-163.586775052,-169.879428643,1.33177959492,-161.422406061,-86.4394521881,-162.536026282,-158.323201254,-24.65919912
off_to_on,-87.0365629958,-89.2479727875,-107.315512758,-0.0767871619538,-89.3930700171,-88.0740443099,-85.1283499847,-107.012752844,1.1010923026,-88.2354321376,-85.7563724537,-82.3602365946,-84.5025027131,10.0748257574
off_to_on,20.9375958909,17.610744735,-19.0200857616,0.11817431054,-57.8905565782,21.1492629691,27.2755939753,-5.05318575204,0.731816653404,19.4535101859,-61.0962673415,31.1873386061,22.9793926539,41.9483981837
off_to_on,136.165528616,132.622946631,86.3868900602,0.397943655385,-5.59577779374,137.357532153,145.531306374,111.362573711,0.231918838436,134.840018623,-15.7631244345,149.428719324,137.395969563,63.0996437499
off_to_on,226.377482845,223.694031219,180.388798659,0.598879358448,55.4298011569,228.040476484,236.510534305,210.26122414,-0.362547397154,225.658609322,40.4760560356,239.007648374,226.746296462,68.5234740722
off_to_on,263.019379272,262.122605783,234.422525952,0.579549184357,108.995478209,264.604278417,271.34542708,261.082589551,-0.977998863148,263.208376695,93.3321271567,271.321454964,262.691475553,57.1710895696
off_to_on,230.137538961,231.486806545,228.423519787,0.276008064887,139.021832151,231.236858365,234.432453917,243.982962461,-1.50864947042,231.266898175,127.552982975,231.48611717,229.360107767,32.0574271472
off_to_on,130.347156614,133.725402749,157.714344368,-0.270560922805,134.260876157,130.795272269,129.346799221,156.870316422,-1.83786587983,132.135204132,131.236989505,124.035891853,129.303457958,-0.600037894206
off_to_on,-14.2203766961,-9.71436597452,35.9490057107,-0.922787799459,92.1239199382,-14.3518310693,-20.436505298,17.7753971597,-1.87007573824,-12.3118643476,99.6944345101,-26.679728512,-15.4979187958,-32.9647370282
off_to_on,-166.722888303,-162.45249948,-107.169223882,-1.4888810039,20.3674677274,-167.215012352,-176.695212227,-138.609251311,-1.5627747156,-165.33490052,37.6429316443,-181.970320283,-168.333700057,-57.4842932756
off_to_on,-285.178532561,-282.56576104,-233.175896917,-1.7826686053,-64.0899345884,-285.789857007,-296.408507495,-269.68160601,-0.947005528296,-284.847003533,-41.1089599064,-298.954250019,-287.231616325,-68.6533711597
off_to_on,-334.272095696,-334.330286916,-305.354010657,-1.68203656049,-139.147699627,-334.839834892,-343.864543426,-336.749741284,-0.127904422248,-335.23249883,-116.665021177,-342.665760788,-336.715230346,-64.2258454147
off_to_on,-296.000532912,-298.957057764,-299.543303422,-1.167438868,-183.375293415,-296.477876712,-301.439299004,-316.575579739,0.73657267607,-298.074500708,-168.11208269,-296.619685919,-298.487826018,-45.6104659578
off_to_on,-175.894280186,-181.041661688,-212.019308654,-0.32955175591,-182.166704109,-176.316873029,-175.735825649,-209.143325298,1.47319604305,-178.506382137,-179.35603577,-168.587044383,-177.774752626,-17.3883856348
off_to_on,-2.70251290978,-8.55071760357,-61.8819268923,0.654561559978,-132.408193649,-3.1115359333,3.01372196064,-39.0762085544,1.93611664904,-5.03447718629,-144.073569126,10.3954595548,-3.16975564323,13.8943137262
off_to_on,178.701556476,173.996701443,113.098926995,1.56787404688,-44.1784357218,178.332548478,188.451775731,150.093830878,2.04173143869,177.459232509,-68.2553737676,193.814649635,180.325648988,41.3336430351
off_to_on,319.402355587,317.45727775,266.309229027,2.20774988859,61.2198470245,319.192942719,330.595117794,307.46987839,1.78560932144,319.778895551,30.5849562964,332.25603892,323.342435652,59.2627356412
off_to_on,380.139870565,381.793276552,355.155868844,2.43299615376,156.553242861,380.261217032,389.836255689,388.986302591,1.23748824797,382.18364401,127.538643829,387.237806113,385.929644233,64.445739869
off_to_on,342.645259175,347.62830517,353.298951021,2.19243913277,215.927547554,343.226683377,348.37530016,370.158415822,0.517615646367,345.867623022,196.780895617,342.283694464,349.095077579,56.6054306195
off_to_on,215.222282565,222.174780841,258.619877988,1.53053103085,222.030413672,216.250022003,215.659105787,253.569268284,-0.236587892319,218.715191938,218.663593809,207.930519182,220.64821923,38.2093202823
off_to_on,30.8193678002,37.6679137309,94.4463041648,0.572193172846,171.2562014,32.0811865169,26.1139212326,68.7397429385,-0.902394920742,33.518934511,185.409925862,19.1026076546,33.4980246693,13.6396615728
off_to_on,-161.955705927,-157.363878705,-96.4978060398,-0.506306252962,75.1578764317,-160.841673589,-170.273657184,-135.746518338,-1.39297472593,-160.9385519,103.714115886,-174.469610125,-163.233373888,-11.9745241608
off_to_on,-312.319741981,-311.525594238,-263.786689914,-1.51211855556,-42.3083940485,-311.788346217,-321.836068032,-305.674689771,-1.66381066106,-313.407116278,-6.61506975329,-322.039763086,-317.777009638,-33.9238788446
off_to_on,-381.38422176,-384.795597604,-363.289276084,-2.26908183475,-151.066597506,-381.75553266,-389.531545111,-396.307214612,-1.70623850726,-384.375384422,-117.704153369,-385.84227434,-390.04503307,-48.7880937844
off_to_on,-352.724165912,-359.443867738,-369.402249258,-2.64492979923,-223.008670825,-354.049562801,-357.521120771,-384.760344815,-1.5345801719,-356.832177849,-201.012966102,-351.245236771,-362.562465277,-54.841699232
off_to_on,-236.421800266,-244.493856412,-281.959611688,-2.57037112663,-239.609469529,-238.411883096,-236.995400168,-276.050193803,-1.17471654779,-240.497175548,-235.024538504,-230.18420823,-244.863854346,-51.9954683843
off_to_on,-65.5336453845,-72.5386642941,-125.847471534,-2.04936277002,-196.905679641,-67.6101748367,-62.2749591169,-101.116045628,-0.659745885169,-68.4076021829,-211.054620858,-57.0337014556,-70.1817795696,-41.4161543669
off_to_on,113.803657897,109.99163058,56.4624345752,-1.16008860186,-106.431993861,112.335695431,119.478580736,92.4600096836,-0.0337237223776,112.964413448,-135.533822924,121.672246228,114.443027537,-25.0396888818
off_to_on,255.557154518,256.097642344,217.144046862,-0.0458286124573,8.11684939443,255.270283598,261.741601371,254.153302932,0.640500437442,256.99739988,-28.1309566909,260.480689646,261.575154457,-5.17350491622
off_to_on,326.321514471,331.039723737,316.327444306,1.10491459936,117.490362181,327.444375175,331.257192803,344.485590715,1.27639348231,329.627017813,83.7114485757,327.269689663,336.310300439,15.7126957454
off_to_on,313.584744615,321.03078769,332.583721129,2.08824710497,194.817444359,315.88467039,316.190477173,345.216235693,1.76852425867,317.815557846,172.232233922,311.019576486,324.992043561,35.0365940849
off_to_on,227.573836895,235.489687487,267.658405215,2.72126270137,222.598721261,230.396844491,227.697159229,262.943956898,2.01002095082,231.556183888,216.658671454,223.125197776,237.413185899,50.1246792372
off_to_on,96.5554981139,102.594815211,144.370802897,2.87860015009,196.827002943,99.0213989529,94.8836748062,125.434040228,1.9199670487,99.2362596971,208.327750576,92.3115639421,102.25928869,58.3665240396
off_to_on,-42.5577269017,-40.0949272592,-1.29815471517,2.52088297537,127.214135093,-41.2658675079,-44.8697314752,-27.7845671046,1.47261187395,-41.8080054018,152.284328992,-44.8692216201,-42.405151241,57.6029523431
off_to_on,-155.152380336,-156.810532196,-131.211337552,1.70709058577,33.6800490654,-155.504029398,-156.983231323,-157.364286637,0.717556585564,-156.381703277,65.0910494678,-154.791052795,-160.428336593,46.7208304841
off_to_on,-218.031986051,-223.077544249,-215.690052216,0.586004042366,-59.6619941163,-219.973082051,-218.732660651,-234.877732557,-0.218569240449,-220.737027601,-30.3087604961,-215.461632876,-227.151807852,26.2838271031
off_to_on,-224.171798445,-230.886246157,-240.620193179,-0.632897861695,-131.138216357,-227.1247139,-223.781613979,-249.252694145,-1.15314739687,-227.495024171,-111.032324086,-220.806707405,-234.595409283,-1.06508898391
off_to_on,-182.15837058,-188.435424563,-209.257498086,-1.72292561574,-166.835174201,-185.204104728,-181.327360668,-207.394652504,-1.88802671548,-185.177317847,-160.09464438,-179.752831241,-191.158188882,-30.6868793165
off_to_on,-111.126272557,-115.163229571,-138.743765258,-2.48752072339,-163.223107927,-113.309055508,-110.785610847,-129.446277678,-2.25901057521,-113.134116995,-170.058613224,-111.04845287,-116.569128993,-56.651713396
off_to_on,-33.3569807445,-34.2058628107,-53.0129272129,-2.79961376325,-126.623981304,-34.0056724077,-34.2740060604,-40.795846327,-2.1799711822,-34.0433371495,-143.695021743,-36.0243567797,-34.2576751059,-72.9986479155
off_to_on,32.7752384552,34.9740427785,25.2451007098,-2.62348938575,-70.0593945497,33.8225541289,30.3784309429,36.2189620195,-1.6678589783,33.2936238201,-91.8115932783,28.0879112645,36.0863578167,-75.264164105
off_to_on,77.2537123386,81.4161899928,80.8693736908,-2.01488816572,-8.75043329112,79.6019719184,73.8643308312,88.1836852443,-0.840232793164,78.5468934835,-29.2380189503,72.1649732002,83.3732253118,-61.8447492636
off_to_on,99.1688580633,103.718038381,108.949707126,-1.10142076083,44.195968582,102.011837605,95.8593806536,112.452208122,0.114712131338,100.696421305,29.6058607934,95.5954535442,106.161731048,-34.74351441
off_to_on,104.103503392,107.550855543,113.597078974,-0.0506206552979,80.6387943624,106.510063639,102.158728736,114.939416192,0.987082515423,105.423274599,74.1891060994,103.542362581,110.142070963,0.608470961813
off_to_on,99.6720873712,101.1177814,103.807464914,0.964630769671,98.1677899409,100.909109144,100.102429879,105.284572039,1.59878797397,100.576997947,99.5190083568,102.625643361,103.554704833,36.5025514187
off_to_on,91.2534919317,90.6339416487,88.3989310683,1.79463009365,98.9431423866,91.0293357627,94.3760464002,91.6186227849,1.84600062426,91.7923930615,105.807346541,97.0102885214,92.6447115413,64.8168275546
off_to_on,79.6717337329,77.6829836132,72.13541373,2.33044418453,87.4110572939,78.2144430429,84.9199387431,77.0880128578,1.71879831499,80.0582686476,96.6868334825,86.5232596096,79.0166802057,79.0931610733
off_to_on,61.6401484569,59.387371729,54.483392608,2.51045864828,67.9755230513,59.586422691,67.6823274861,59.3989819889,1.29370600154,62.0979283424,76.9255642624,67.4559229142,59.8254421414,76.2297759185
off_to_on,32.5810283007,31.1025782362,31.2720984837,2.31949461524,43.5558243667,30.7220228502,37.7169017028,33.324884175,0.703409257798,33.196595424,50.6080198116,35.5351972401,30.4994295078,57.2849385672
off_to_on,-9.56466059107,-9.71080828441,-1.68846872896,1.78532026664,15.4692466795,-10.5826460991,-6.86169575591,-5.11487456689,0.0946613302904,-8.91555564493,20.4065642409,-10.3743725421,-11.3678752681,27.1452656805
off_to_on,-61.335532347,-60.2671705675,-44.7690281133,0.975819608194,-15.5407362204,-61.2427948308,-61.9169835868,-54.7724074835,-0.411819698066,-60.9548945839,-11.9823754735,-65.5939608219,-62.8039448683,-6.84474062681
off_to_on,-113.034660309,-111.456242031,-92.2742492265,-0.00323991599542,-47.8109856231,-112.017478924,-116.790664237,-107.626393303,-0.747574826382,-113.274169514,-44.691325711,-119.338675676,-114.493869911,-36.8790990449
off_to_on,-150.861417315,-149.735873034,-132.943978639,-1.01312128537,-77.6702543592,-149.463720608,-156.749193138,-150.147367399,-0.902522346412,-151.951358476,-74.5777113093,-157.218668068,-152.731439889,-56.715202774
off_to_on,-161.292261519,-161.410642966,-153.234858942,-1.89425804216,-99.4400504467,-160.182275123,-167.668893003,-167.479790422,-0.911990317428,-163.19920373,-96.8782456633,-165.805257187,-163.758658977,-63.1375646017
off_to_on,-136.161282105,-137.784212105,-142.260514198,-2.48847328987,-106.72834544,-135.856578714,-141.304871345,-148.973793016,-0.831926253667,-138.537501969,-105.98604851,-137.651836905,-138.958072911,-56.4670656886
off_to_on,-76.5148012835,-79.2293733603,-96.5300097115,-2.66986010316,-94.6391437531,-77.1734167972,-79.1547245714,-92.9715106801,-0.712711293262,-78.7685015373,-97.1974928073,-74.8721454306,-78.9233848903,-40.0382475618
off_to_on,6.33631669438,3.48569667171,-22.5894035875,-2.37775167142,-62.073280706,4.97829235166,6.6582575897,-8.91698407395,-0.581233632035,4.8671870308,-68.8030037716,10.1951019817,5.25890130499,-18.894366524
off_to_on,93.1878856113,91.3430902852,63.637096599,-1.64153040499,-13.1626755438,91.7096541688,96.0396502502,84.2362722146,-0.43675620487,93.0163106379,-23.6606799642,97.7139950488,94.2347479939,1.82188497336
off_to_on,162.143334151,162.186629096,140.840842013,-0.58685632931,42.8765525008,161.206898556,166.419768185,163.027913498,-0.260382705618,163.446421974,30.5046100553,165.750789784,165.585258573,18.2481439685
off_to_on,195.018666871,197.208850679,188.473670381,0.582983331142,93.6486890734,195.10211662,199.36172682,206.363471322,-0.0327713204836,197.552508914,82.4192799979,196.653313518,200.387610287,28.5461546683
off_to_on,182.854263468,186.686381279,193.041596688,1.62943776787,126.779180029,184.054936507,186.117646759,201.997781225,0.248010843704,186.005015933,119.961088114,182.330975718,188.98287297,32.8600853935
off_to_on,128.698895188,133.045473472,152.428693114,2.33526275274,133.447317791,130.682682441,130.291295241,150.445659458,0.556133469225,131.65690995,133.477933021,126.693480746,134.021607857,32.6289237475
off_to_on,46.736071759,50.2223932928,76.7667423155,2.55969588515,111.108803389,48.8521700378,46.730670109,64.984232356,0.839504160433,48.7365165556,118.682053919,44.4501763122,49.7584418327,29.6083190406
off_to_on,-41.9522552642,-40.473840223,-14.4737609181,2.27537279292,64.4859692817,-40.4355774155,-42.9621934799,-32.2710017127,1.03277356607,-41.4021261615,78.1549121889,-43.3134480039,-42.175163925,25.0255614362
off_to_on,-115.577860418,-116.626565186,-98.2229200722,1.57466458262,4.45022575951,-115.206726902,-116.801787564,-116.916150541,1.07717869186,-116.559538391,20.9167586592,-115.308803992,-119.120921714,19.1950688655
off_to_on,-157.776042319,-161.059237352,-154.497451638,0.642319594466,-54.8938269699,-158.714326095,-158.588666848,-169.280804303,0.940174812456,-159.952207922,-39.8677125774,-155.96049067,-163.794933451,11.705546554
off_to_on,-161.746110882,-166.258668477,-171.876295834,-0.297833372979,-100.028667241,-163.720903771,-161.94312561,-179.670204673,0.628076592711,-164.482471652,-90.3734777866,-159.223470764,-168.718656703,2.04212887842
off_to_on,-131.218483409,-135.586555535,-150.080077227,-1.04562573958,-121.572464219,-133.624303723,-131.067723721,-150.252191008,0.187562101978,-133.78925404,-119.735121924,-129.241744311,-137.394860624,-9.67523506543
off_to_on,-78.1779701813,-81.1213835556,-99.0010770265,-1.47687557924,-116.493935047,-80.295706196,-78.2535642304,-93.2041480276,-0.30422730392,-79.9833244823,-122.720611659,-77.8960025592,-82.0881256913,-22.2025502121
off_to_on,-18.3537427892,-19.101353729,-34.7447995757,-1.56887249511,-88.3944335249,-19.5983970965,-19.2289592748,-26.0051567163,-0.757597132272,-19.0778156827,-100.704923049,-20.318092023,-19.2057711632,-33.1925891438
off_to_on,33.842997389,35.3291021822,25.7923654235,-1.39180745414,-45.9023149021,33.7389867325,31.9117927781,34.3425284606,-1.09062951705,34.1798180993,-60.7538452393,29.9545737327,35.9952923928,-39.7741282131
off_to_on,69.208835704,72.2708742954,69.9016685449,-1.07076629871,0.177279044446,70.140607783,66.4711579581,76.1524985193,-1.24620552214,70.3097796198,-13.2300073157,64.5396575716,73.5657033009,-39.5022129023
off_to_on,85.3057143514,88.8630946303,91.9951595247,-0.733138129786,39.9652027927,86.8799650493,82.4935229899,95.4385411287,-1.20170855917,86.7368096982,31.2332192722,81.4479392345,90.631798551,-31.3263498266
off_to_on,85.4632456823,88.4106095479,93.7437192168,-0.46118410175,66.8797338095,87.176571468,83.5545661449,95.3302988421,-0.970121029593,86.8143913032,64.4179614078,83.8951082654,90.4850154305,-16.193794493
off_to_on,75.949230844,77.5295400342,81.7316400773,-0.267210268663,78.6345313934,77.3814435706,75.8042296116,83.1227812468,-0.593865055258,76.9579489388,82.1027719649,77.4837169228,79.698803464,2.97533552037
off_to_on,62.6392272157,62.659122774,63.8119558752,-0.100048556831,76.7555099999,63.5816106571,64.6476736338,66.377612508,-0.134392976386,63.2379999995,84.2193547259,67.0860488476,64.6394294674,21.9797755774
off_to_on,48.5770603484,47.3977910314,45.718349998,0.120474148013,65.0329956061,49.0485116536,52.4562384809,49.7205261619,0.339183751311,48.8581127848,73.7797821483,54.7466195618,48.8337185284,36.4893221631
off_to_on,33.3392607328,31.6645180143,29.2475912466,0.455279977567,47.6502904475,33.4952959731,38.1676259296,33.5620799803,0.760023516299,33.4630399723,55.1622771389,39.3972641516,32.183427389,43.2785278514
off_to_on,14.3076157497,12.8653536024,12.593226159,0.903853330834,27.7498065817,14.2957800105,18.7920371109,15.0967204461,1.07105969879,14.4006004329,32.4841622529,18.364993978,12.1820750728,41.1278784606
off_to_on,-10.8567344489,-11.6065189844,-7.50971322969,1.38619146056,6.92664749582,-11.0175885244,-7.9702582168,-9.03468435679,1.23032281715,-10.7695861633,8.64641164828,-10.1179500248,-13.5648314135,31.0944017683
off_to_on,-41.7391306925,-41.7566118295,-32.913043694,1.75823453928,-14.3005550091,-42.1897967835,-41.2563749285,-39.7192198114,1.21482955837,-41.7406336205,-14.7185317822,-44.6178320847,-44.7544027297,16.0769782615
off_to_on,-73.8907074789,-73.5163558297,-61.8215733805,1.85754282124,-35.4193119137,-74.8496831466,-75.9078589379,-73.4218653611,1.02349260732,-74.118138461,-36.5746470385,-79.5507572857,-76.9920649544,-0.151275252308
off_to_on,-99.4362456388,-99.1870492237,-88.2796060076,1.56414188269,-54.8772297651,-101.037707825,-103.318946538,-102.295936361,0.678730163896,-99.9962693122,-55.5681555998,-106.163944881,-102.343305284,-14.0919522701
off_to_on,-109.479320972,-109.775580776,-103.735874449,0.854741599242,-69.6560552019,-111.608355141,-114.087037305,-116.479561969,0.225752698379,-110.372047808,-69.4332410888,-115.229375059,-111.77025065,-23.4536670775
off_to_on,-97.4515975145,-98.3949857834,-100.169153912,-0.170436687824,-75.7775472998,-99.6661740772,-101.52325366,-107.781026413,-0.271624969259,-98.5398331883,-75.1119514959,-100.500212013,-98.5862238304,-27.5702813436
off_to_on,-62.1159933539,-63.4159070854,-73.5766778513,-1.30037412317,-69.6316225692,-63.7168178087,-64.6760318767,-73.3347221936,-0.739154411433,-63.1555229924,-69.6423961822,-61.6055742959,-61.5859046739,-27.2134313391
off_to_on,-8.99472502524,-10.0766359849,-26.4122040682,-2.26435782416,-49.6308228128,-9.24404337827,-9.63517536015,-17.7370825404,-1.10359082371,-9.71472398335,-51.4991339796,-5.19325173007,-6.55420684243,-23.9382798644
off_to_on,50.4654391658,50.2130054149,32.1011333931,-2.80696405471,-17.5014679081,52.0435012162,51.5209953146,47.3166155793,-1.30537512394,50.2646788468,-21.8225915747,56.2704548276,54.5868532189,-19.2683094693
off_to_on,101.858844337,102.801569083,88.0906788029,-2.76369757077,21.3968435439,105.211958545,103.91915989,105.967375387,-1.30973383981,102.23152843,15.0455683382,107.790592786,106.873827656,-14.0660170319
off_to_on,131.995320492,134.055160654,126.986882883,-2.11309287693,59.0003470384,136.431127325,134.217167764,142.811792751,-1.11346244896,132.830301489,52.0825297716,136.19616015,136.679915304,-8.33903163576
off_to_on,132.896043062,135.527032366,138.004235238,-0.988250644886,86.5368410975,137.200109948,134.621240433,147.665335576,-0.745682967545,133.959936694,81.1385130488,134.114217731,135.91145923,-1.53680281625
off_to_on,104.257592376,106.615494333,117.611159526,0.356346888829,96.9927206618,107.034244891,105.238357161,118.831984162,-0.262473013198,105.282834437,95.1044346216,102.22503944,104.583049628,6.81974321491
off_to_on,53.5510326331,54.7981702759,70.7747769842,1.61270936585,87.2463523163,53.6902891415,53.9801397084,63.7397579527,0.263137235837,54.3318899068,90.0097326247,49.0381784904,50.8774812986,16.479141124
off_to_on,-6.26307002704,-6.63377223164,9.53314483254,2.50113831365,59.1397561062,-9.15158223185,-5.91931926643,-3.28842073073,0.753287098562,-5.80683238872,66.344453813,-11.7224518523,-11.3351369026,26.0951121996
off_to_on,-60.6124351429,-62.5625573742,-50.6259606675,2.84141766304,19.1006180922,-65.9651483919,-59.8993228676,-65.3696484742,1.13689847457,-60.4305410694,29.1315864948,-65.2280309815,-66.6722487896,33.367363764
off_to_on,-97.4771020644,-100.406895186,-95.352487492,2.59308061657,-23.5910470787,-103.85259325,-96.2271167696,-108.033299308,1.35887358425,-97.4430768829,-13.3181204163,-99.7727853467,-102.699434067,35.6929854183
off_to_on,-110.490139996,-113.436428377,-115.458810669,1.85495264247,-59.3457381518,-115.963077573,-108.96515742,-123.184258366,1.38612154036,-110.489049254,-51.6006465012,-109.757623816,-113.215183637,31.1181102082
off_to_on,-100.055157388,-102.034447823,-109.0972696,0.827216880782,-80.8109573759,-102.819574011,-98.8858326125,-110.817225622,1.21068085765,-100.06282943,-77.6839130203,-96.5539125937,-99.3604370995,19.2376793626
off_to_on,-72.2911294566,-72.6607065128,-81.494649968,-0.24960561563,-84.6364229817,-71.2784280809,-72.2284474148,-78.070807756,0.85065355269,-72.4047983029,-86.8889813667,-67.1427732563,-68.3494544136,1.68103278056
off_to_on,-36.3702763639,-35.0694129839,-42.517951011,-1.15866847417,-71.961304416,-31.6655863413,-37.9447881226,-36.1483322741,0.349411605447,-36.7704879278,-78.8132979354,-31.1921913702,-30.4496839405,-18.0494198866
off_to_on,-1.32043444076,1.10353252904,-3.07635073313,-1.75494124326,-47.572567004,5.7838981347,-4.54903546248,3.66353357995,-0.227170901973,-2.17445310175,-56.9898080077,2.27904621791,4.59812144774,-35.3951947671
off_to_on,26.551344241,29.1468078291,28.30445765,-1.98579725176,-18.1234720157,33.9092186506,22.2820406891,33.4236793365,-0.796351699715,25.205909764,-27.4953509593,27.4579618658,30.4261176666,-45.9861861561
off_to_on,44.7998015046,46.5712277157,47.5705638131,-1.88256697643,9.92025586431,50.0754546073,40.6079321792,50.2755947074,-1.26796260834,43.13823196,2.9560618166,42.7144370739,45.2338835927,-46.9217709504
off_to_on,54.3506099337,54.6403542669,55.3121999892,-1.53105722414,31.9130604688,55.7826613011,51.5187106516,56.0745917138,-1.55778077588,52.7655622472,28.7830375463,49.8586078153,51.1038270178,-37.6700517068
off_to_on,57.8245965289,56.5699783454,55.2043031803,-1.03462729201,45.7687072226,54.8334685551,57.358589802,55.3084153776,-1.60340463504,56.8339098623,46.6360340454,52.2044630826,51.9415173239,-20.2852140006
off_to_on,57.5454995008,55.3096869804,51.542462107,-0.483587277871,51.7062574904,50.9698519602,59.7936926811,52.3378026592,-1.37950748912,57.6238264977,55.5878397908,52.3845322799,51.0377630957,1.13414541238
off_to_on,54.1476887404,51.9075615619,46.9855843321,0.0600263075396,51.2794898807,46.0146702459,58.6270302343,49.1712899773,-0.90825758105,55.5369697972,56.5296065465,50.8839009765,49.3249446235,21.57466673
off_to_on,46.3742795591,45.1413046718,41.4486442041,0.560601290073,46.2046412925,39.2653556844,51.8806632392,44.6887001201,-0.260893973576,48.9444077694,51.1615713637,45.8980783702,45.0464028231,36.4682444019
off_to_on,32.1019462486,32.5179351487,32.5528388243,0.995347998171,37.5188773709,28.3168202519,37.0787783694,35.57577253,0.45182360969,35.3229655454,41.0665459339,34.5263252063,34.9285549639,42.8629968809
off_to_on,10.077662684,12.1404811838,17.360565001,1.33834919707,25.4046442483,10.873441899,13.1201507931,18.496363162,1.09965842095,13.1300293731,27.2513304585,14.7322061113,16.2976990802,40.0657295495
off_to_on,-18.4715179157,-15.4426810376,-5.4269273942,1.5515413616,9.69216694505,-13.3081037578,-18.1530267794,-7.49739990742,1.55956756869,-16.4704802841,10.2897923547,-12.83260203,-10.8245903588,29.604419846
off_to_on,-49.1626625447,-46.3009132192,-33.8335961197,1.58798575739,-9.26082550127,-41.2608513173,-51.486850142,-39.4268084386,1.742688001,-48.8827797632,-9.08937178685,-44.0061929473,-42.6223724231,14.5848988469
off_to_on,-75.1491594142,-73.629072159,-62.3371713916,1.40688472546,-29.7890021252,-67.0301903749,-79.2097151724,-70.4847700594,1.61461073731,-76.8127636263,-29.336502398,-71.7656835428,-71.9662294403,-1.30073261992
off_to_on,-89.0516153695,-89.6422911676,-83.2109038455,0.994348656424,-48.6844497298,-83.3072722983,-93.4505351725,-91.8742849829,1.20334044162,-92.324347408,-47.7461229512,-88.2240763943,-90.4227051919,-14.7753622878
off_to_on,-85.4704071465,-88.2185197991,-89.0619151592,0.381024213884,-61.7275433723,-83.9178974981,-88.8186941585,-95.7765541602,0.592579858547,-89.5242753667,-60.724356464,-87.293852914,-91.1125343899,-23.6898361784
off_to_on,-63.1424374349,-67.3077120601,-75.6370042228,-0.351636478632,-64.8774895963,-66.2378953852,-64.5457051693,-78.3518985407,-0.0979349289542,-66.8817342866,-64.6666466641,-67.0348911864,-71.3635740395,-27.28610774
off_to_on,-25.8863477121,-30.1620355909,-43.8103650655,-1.08083377575,-55.7192791358,-32.5911993764,-25.2372607256,-41.61093417,-0.739698442336,-28.2709288587,-57.1742766632,-30.7779227102,-34.132301454,-26.0227368288
off_to_on,18.1022353058,15.1548899636,0.0678177520425,-1.66647068077,-34.6172273848,9.9618880132,20.1318173247,6.62278232153,-1.22296795658,17.7379596404,-38.1568469484,13.461786766,12.4090551623,-21.118891481
off_to_on,58.4477712498,57.9014314012,45.6956279557,-1.98354679989,-5.09150229335,51.4552386327,60.710140364,54.7482324305,-1.47752575392,60.1844978562,-10.3613855137,55.1517432793,57.0628611165,-14.0377862331
off_to_on,85.5778080877,87.7535110623,81.7623927586,-1.95369628631,26.807336345,81.8814889547,86.9318342143,90.7763052751,-1.48205207959,88.8811676659,20.9544612867,84.288147178,88.8690506798,-6.10172717664
off_to_on,93.4920546845,97.8249101364,99.328185411,-1.56677672947,53.9948648519,94.1259995017,93.2789840055,105.927339437,-1.26116116042,97.3760160517,49.1908578532,94.2994722428,100.342855342,1.66774299121
off_to_on,81.3896871754,86.5967874829,94.4883020101,-0.886364692211,70.2695901647,85.9802635896,79.7164978173,97.2095687213,-0.872800200018,84.7230076739,68.0951183294,83.839851881,89.5967197713,8.51043579972
off_to_on,53.6358157893,58.1310021953,69.4227295464,-0.0376634063134,72.0358071919,60.5795824489,51.3508072132,68.1174976637,-0.391119225921,55.4930453309,73.4507365879,56.9054050081,60.6574191901,13.8016480203
off_to_on,18.1381978608,20.5515439455,31.5065793407,0.81889313362,59.2732728811,25.1745871289,16.4995067797,27.2629168019,0.109628382152,18.0813824284,64.2266448252,21.3022927699,21.9319581499,16.9726520756
off_to_on,-16.2444788112,-16.620831414,-9.15904246592,1.52156913807,35.4479966854,-11.2725151112,-16.0879097544,-14.5211119494,0.56607305123,-18.0444710896,42.8196732585,-13.936989126,-16.5810882928,17.5606836714
off_to_on,-42.3334379675,-45.3245500795,-42.8987542628,1.94064989941,6.41726245404,-40.7928371187,-39.8520052569,-47.5504909977,0.930202564735,-45.1736861664,14.3239463427,-41.2597933998,-46.3302162413,15.380785834
off_to_on,-56.411727309,-61.0358824461,-63.2027671226,2.00383232516,-21.2849595894,-58.4920428908,-51.995138424,-65.9674267185,1.16867690227,-59.3039825387,-14.9190846234,-56.508780058,-62.4647117675,10.7261475251
off_to_on,-58.6325322249,-63.4419843426,-68.1656223368,1.70878304981,-42.2079949907,-63.3706595718,-53.5494929203,-68.871371864,1.26009351953,-60.6357512446,-39.0116865372,-59.4788206663,-64.6135212681,4.46568722398
off_to_on,-52.0667973452,-55.63083349,-60.2527362932,1.12112423323,-53.2356760056,-57.7501594687,-48.077268631,-59.660286105,1.19345000444,-52.5940671417,-53.9017753219,-53.0800515725,-56.0771453571,-2.06212060978
off_to_on,-40.9052081427,-42.2676712159,-44.6506656152,0.359161268126,-53.9875090454,-45.6925173088,-39.6487265893,-44.006844482,0.969643838484,-39.9040417188,-58.0984093549,-41.5840676052,-41.905862713,-7.37311346869
off_to_on,-28.6066494235,-27.5644966461,-26.9539556071,-0.43095189408,-46.3483412028,-31.1406439173,-30.9803546395,-27.3666076704,0.605601586171,-26.5557075469,-52.5652297113,-28.7301785597,-26.7103900875,-10.2873250614
off_to_on,-16.7398878132,-13.856850243,-11.12667068,-1.10444658056,-33.4094546111,-16.5440574744,-22.4949781724,-13.0211304482,0.13857791518,-14.4675488976,-39.945661408,-16.4521010704,-13.0795028315,-10.3377278767
off_to_on,-4.92770276376,-1.292113241,1.50667605017,-1.54587235342,-18.2813577894,-2.46845539454,-12.6450210591,-1.37304726389,-0.372753783047,-3.31723548768,-23.4838488535,-4.67347157711,-1.16773063804,-7.96302729277
off_to_on,8.18371085184,11.3599045617,11.9518027529,-1.69036799637,-3.22981997192,11.7624339765,0.707322866573,9.34171065872,-0.853126120278,8.50119709814,-6.06376387777,7.85240630372,10.4997196323,-4.37940815358
off_to_on,23.4443858886,25.2383751529,22.183547859,-1.53409282586,10.5937967707,26.7922959063,18.5126721502,21.3520893766,-1.22207391241,22.3062168705,10.3159964633,22.1243468759,23.4678473208,-1.14905074698
off_to_on,39.9368861116,39.9965326204,33.423350939,-1.13163693869,22.8293894593,41.9892736294,39.1973082134,35.4864232659,-1.40992111513,37.7038420941,24.5312531486,37.5969287243,37.8039208307,0.409634750934
off_to_on,54.5633410815,53.1688009441,44.8734616648,-0.580884565636,33.245889223,54.8765624209,58.4346195589,50.0198140119,-1.3742133563,51.9979928302,35.9216173275,51.6450437626,51.3051279316,-0.252235432022
off_to_on,62.7568853195,60.6564812317,53.5136442699,0.00128628612819,41.12534434,61.5819194073,70.243378183,60.7997178531,-1.11165851256,60.7684501268,43.7775503971,60.1007034902,59.8763496362,-2.66588228179
off_to_on,60.1099250286,58.2047657948,55.1046448644,0.506606469593,45.040309953,58.2035402673,69.0777023297,62.6709615974,-0.661597473542,59.4515416645,47.0451637098,58.713907961,58.9901692024,-5.49104319053
off_to_on,44.303431111,43.3044158878,46.0203771189,0.859228419587,43.1829123781,42.5737309641,52.1365558214,51.6637474435,-0.0994460214675,45.3210316449,44.4487078213,44.9834165553,45.6694263244,-7.02246467612
off_to_on,16.5516618186,16.7343750773,25.1582894077,1.02932451628,34.1450283838,15.6883384403,20.9761744982,27.0603041048,0.478426841996,19.0642779591,35.021255285,19.6140943221,20.181159883,-5.87678724952
off_to_on,-18.0824465518,-16.9429772116,-4.89504684952,1.03276084897,17.8274600487,-17.8502792655,-18.2791383351,-7.54219095416,0.974370149936,-14.7353984095,18.824576129,-13.0373758956,-13.2981145367,-1.59832891725
off_to_on,-51.7436605451,-50.2470208205,-38.0068291306,0.917327921849,-3.93572105093,-50.6808087647,-56.337432296,-44.699977714,1.3084755851,-48.5063750853,-2.48127978454,-45.8049796889,-47.4166289328,5.05884374631
off_to_on,-75.9426848069,-74.8051516639,-66.0207711507,0.740441775901,-27.3725783952,-74.6396761421,-83.3660021102,-75.0768257749,1.4323052054,-73.7621240418,-25.5363807402,-70.6400166037,-73.6254659173,12.298972898
off_to_on,-84.1192137204,-83.8877203341,-81.1955403145,0.546346280303,-47.5008789958,-83.2090774234,-91.9901028118,-90.266412129,1.33465471208,-83.6667388367,-45.8047300324,-81.0019462714,-84.7633417217,17.8583879132
off_to_on,-73.7348750297,-74.5806402232,-78.7231302359,0.351339235429,-59.4184795862,-73.6207004242,-79.6422504517,-85.5142023965,1.03929431465,-75.2129351026,-58.6419446111,-73.9010848188,-77.3593231933,19.7814954773
off_to_on,-47.1625231286,-48.8262212031,-58.4282782703,0.142911134224,-59.755098727,-47.8675811102,-49.4437021983,-61.3748824886,0.59687393152,-50.2494676129,-60.5999577358,-50.8854619361,-52.840447283,17.1119833263
off_to_on,-11.0486939231,-12.9488896422,-25.0220267791,-0.106434946374,-47.793010324,-12.2421400721,-9.30032651851,-23.7025199634,0.074283776805,-14.9913995015,-50.5396589199,-17.6269270462,-17.2070193669,10.2397702156
do_nothing,25.6455864417,24.1897728959,13.2110071346,-0.415828190799,-25.8527581602,24.4717313841,30.4887070116,18.0459351567,-0.455534973234,21.824535295,-30.1545990545,17.752809379,20.7258418925,0.774398384617
do_nothing,54.2679376751,53.7878546946,46.8598279389,-0.772774595203,1.22103191549,53.5579930645,60.3032739799,53.6237842481,-0.921697905846,51.5115188395,-3.68893437211,47.0463061818,51.9247926976,-9.0017630205
do_nothing,68.8909573333,69.585050584,68.1431978242,-1.12076626986,27.3351615793,68.8316333912,73.9326054752,74.9750645262,-1.26144338215,67.8695749889,23.1019662022,64.2269661497,69.7006039411,-16.8846508562
do_nothing,67.7499496802,69.4278067352,73.0567373075,-1.36544557279,46.7881690008,68.2086167202,70.087683251,78.3988661817,-1.42533742105,68.7042445018,44.4445778168,66.8970509133,71.4038124767,-21.412054475
do_nothing,53.2973034789,55.4621958761,62.2301068037,-1.4004419982,55.7594484716,53.9159975693,52.270073849,65.2293565224,-1.38286178368,55.9954743939,56.0371223383,56.5134733674,58.7547301633,-22.1903742136
do_nothing,30.9625656206,32.9925426943,40.2854281311,-1.14609508077,53.1914929623,31.3599610047,27.1544697393,40.9038394862,-1.12860690585,34.7734439422,56.0831291204,37.430391839,36.8047175558,-19.7810005777
do_nothing,7.1442129127,8.4995470715,14.0158083671,-0.587976793686,40.8247357722,7.12801786451,2.14357455687,12.8526969314,-0.687719491228,11.198995439,45.5731519577,15.1989236421,11.9968052533,-15.2319834844
do_nothing,-12.8168104995,-12.4348643523,-9.90842761429,0.199919708313,22.4338681864,-13.1310184168,-17.0039431554,-11.9773661436,-0.117985733671,-9.41890931461,27.7724983695,-5.21997634065,-9.93079735828,-9.49406050049
do_nothing,-25.9915980621,-26.5804899622,-26.8848747147,1.05895129324,2.57289796841,-26.2186957887,-27.665351259,-29.0910354252,0.494247248559,-23.9830434786,7.13026944373,-20.7114822565,-25.466238292,-3.01032821296
do_nothing,-32.1618388663,-33.464199758,-35.3455388107,1.77980997169,-14.7267265704,-31.8355445012,-30.5378503306,-37.2839884382,1.04584304047,-31.9540821053,-12.0038832919,-30.3751604304,-33.8167536453,4.3103642247
do_nothing,-33.1029248885,-34.7279036092,-36.523607149,2.15934801009,-26.8873470524,-31.9360926114,-28.5981476527,-38.2005570816,1.43543987251,-34.7091006446,-26.4402049104,-35.0205737815,-36.343973449,12.7067564361
do_nothing,-31.2683848136,-32.8323072893,-33.2618743003,2.06370724245,-33.0992818154,-29.3667399197,-25.3679134472,-34.9438989453,1.58515679817,-34.3118557951,-34.6874580637,-36.1378883072,-35.3156323439,21.9438636705
do_nothing,-28.4804547504,-29.7120412726,-28.442642863,1.47704927959,-34.0156345975,-26.4009761406,-23.2340723803,-30.398924537,1.4598322904,-32.2831310307,-36.8810561049,-34.8587491105,-32.5743368038,30.7803163528
do_nothing,-25.170290762,-25.9482071595,-23.7110948806,0.518005335636,-31.0475641981,-23.7740097661,-22.4926829395,-25.9767714698,1.07793746795,-28.9010163465,-34.2344079939,-31.3701938885,-28.6975525125,36.8577938392
do_nothing,-20.438867838,-20.7624352394,-18.9878769601,-0.584629777156,-25.5988324603,-20.5734843615,-21.4517679117,-21.2579601788,0.510109324285,-23.2923057994,-28.2992825993,-25.0060739376,-22.9678217127,37.202041933
do_nothing,-12.8447154594,-12.7673812783,-12.9047113534,-1.55228469283,-18.5565834354,-14.9707342226,-17.4821702102,-14.6050782068,-0.135327200469,-14.215565166,-20.3514874233,-14.9229075042,-14.1018704647,29.2715497754
do_nothing,-1.5172170904,-1.08489506265,-3.9009913681,-2.13591184563,-10.2109816307,-5.42887396513,-8.52418486093,-4.40389601818,-0.736526274637,-1.13402477315,-11.1244988544,-1.00411993126,-1.35626937984,12.222956861
do_nothing,12.934536982,13.7062589169,8.55128054674,-2.18965480784,-0.574365333025,8.16413641677,5.61273913163,9.66156587,-1.18554379311,14.9461926821,-0.940909051991,15.4649618116,14.5310887927,-12.1061385542
do_nothing,28.1516366612,29.2513127936,23.1682038255,-1.71496580861,10.1049518506,23.9486131949,22.720602461,25.8939316506,-1.41145479346,31.2945089241,9.887150876,31.7113307542,31.0304963268,-38.9820035368
do_nothing,40.5534771816,41.9165806531,36.8968191253,-0.860089613667,20.9184273014,38.3969428118,38.6758771256,40.7753273118,-1.39293120072,44.0721861568,20.6302511894,44.0851924418,44.3369779403,-61.5961136676
do_nothing,46.4856115281,47.9431632889,45.8060452352,0.12584327398,30.2013860383,47.3828190557,48.7664995101,50.0309018219,-1.157417338,49.5466528807,29.9325032929,49.1743963819,50.5566483958,-72.8336667961
do_nothing,43.5459810818,44.8167225587,46.4930349268,0.969822461861,35.8566819504,47.6185496109,49.3578656926,50.1596527936,-0.768298563273,45.4433201195,35.9649623198,45.0053888853,47.1154379866,-67.522228835
do_nothing,31.5657329034,32.3112307256,37.4504985676,1.45820597783,36.0024160202,37.9108582319,39.2600581963,39.8294473362,-0.305106780318,31.9001169672,36.9219986995,31.8585248183,33.8336648794,-44.4398210139
do_nothing,12.8496327477,12.7819606845,19.8432675236,1.49906366896,29.6997445245,19.7501914518,20.2761026543,20.577213203,0.156432691507,11.6319404092,31.6841392336,12.3617977711,13.2256708088,-7.34299242982
do_nothing,-8.43315323944,-9.42961113538,-2.63380043103,1.14342620623,17.467174173,-2.99931548535,-3.27308642061,-3.47794866427,0.558414977936,-10.787215764,20.384822176,-9.20037836482,-10.1228026923,35.4754319219
do_nothing,-27.4904679606,-29.2750450803,-24.7908568407,0.559189067924,1.35689958024,-25.2040346999,-25.8648985986,-26.8207348953,0.865565382285,-30.2782583616,4.63817947619,-28.1273713654,-30.8934749957,73.135985148
do_nothing,-40.3260879508,-42.4992919102,-41.5033525123,-0.0324363409768,-15.471083867,-41.9627226484,-42.4442747378,-44.1950751123,1.06140518569,-42.7594660693,-12.6972570912,-40.6489536482,-44.6120184199,95.1538183045
do_nothing,-44.825974724,-46.8235669335,-49.2341330552,-0.435315752967,-29.5537913451,-49.9759473097,-49.8477960589,-52.1301374423,1.13965481093,-46.2601392642,-28.1744158422,-44.9031944077,-48.8988262985,94.5814006751
do_nothing,-41.145921464,-42.4068330835,-46.9788072608,-0.54421491869,-38.0443730242,-48.323431033,-47.5052873842,-49.8037737362,1.0962902674,-41.2676882553,-38.6332302999,-41.2226967804,-43.9649903883,70.3150256912
do_nothing,-31.3165866796,-31.4694877334,-36.3273534409,-0.375460436839,-39.4402600595,-38.429950415,-37.2374585091,-38.9793352261,0.926845189218,-30.2329885159,-42.0144936971,-31.6800265347,-32.2215472513,27.7705171103
do_nothing,-18.2855446427,-17.2858501931,-20.6775159252,-0.0525995726792,-33.8889966238,-23.3110229585,-22.3164606148,-23.1125751727,0.630734235838,-16.4820284583,-37.8530899766,-19.1273187421,-17.2098635467,-22.3823858883
do_nothing,-4.81907155325,-2.98118817809,-3.95172802538,0.246632561371,-22.9979385255,-6.44693579176,-6.21853707339,-6.03258985414,0.22073048131,-2.9967135925,-27.3074886088,-6.14570851949,-2.30814539952,-67.1230539383
do_nothing,7.29020954615,9.38496658331,10.6649255057,0.36195360816,-9.25213566353,9.26045517063,8.42510281147,9.26580793095,-0.267223230234,8.4495976915,-12.7454877755,5.67315423067,10.2728021007,-94.775071969
do_nothing,17.4245267049,19.1183271468,21.494076676,0.214218516409,4.72575052291,22.0738716333,20.3031908226,21.2687306017,-0.769677425443,17.4909198723,2.94622039689,15.8577424293,19.8412642877,-98.3661972386
do_nothing,25.739721706,26.5225696105,28.4017053205,-0.162288599906,16.8066637869,31.4004724022,29.2239751165,29.8454187556,-1.20112541254,24.6881576285,17.0835704123,24.6116478473,26.8530394326,-77.6071808609
do_nothing,32.4205828656,32.1083571351,32.1843666489,-0.630808964995,25.6823932846,37.2877972145,35.438885595,35.5522544909,-1.47002644717,30.6512552753,27.7105049653,32.0616597272,32.0587650729,-38.8697429952
do_nothing,37.0036755175,35.8032459979,33.6572138999,-1.00232521424,30.8362173138,39.7617600173,38.8895612998,38.7394415256,-1.50192393219,35.216840987,33.8013679052,37.6046455539,35.6156538617,6.82129062474
do_nothing,38.1470405981,36.5810873,32.9108839408,-1.10669387945,32.2562412025,38.3843631706,38.7947069057,38.9348261394,-1.26281093056,37.1085969566,35.151666852,39.717493318,36.6184153605,47.1336323945
do_nothing,34.0225790842,32.7376947949,29.1132861424,-0.858658417293,30.0887424238,32.2893071175,33.8231084361,34.8420530534,-0.774794056429,34.2942503118,32.0869942421,36.3892287092,33.3146386834,72.0433930106
do_nothing,23.2154455474,22.7409859366,20.9756014243,-0.294455939217,24.4336104481,20.7156040336,22.8155255605,25.0003089759,-0.117842192047,24.9386730312,25.1715668155,26.0489040616,23.9590946816,76.5879046732
do_nothing,5.7582729495,6.30358233347,7.68767864821,0.434730591592,15.3959749453,3.80537400817,5.74280244333,8.83298290865,0.584493968252,8.56717068475,15.0651566118,8.61581126603,7.95812275802,61.9300269132
do_nothing,-16.1815986785,-14.8156811605,-10.1100743024,1.11072011751,3.36718967099,-16.7272290644,-15.5600818516,-12.400220153,1.19240597343,-13.0820884469,2.57842623676,-13.8034893855,-13.2120516628,34.4817002975
do_nothing,-38.3519656834,-36.7114562372,-29.8092067536,1.52106311966,-10.6229346886,-37.4406579285,-37.2960641316,-35.2435143078,1.58287931374,-35.9592608169,-11.1421904302,-36.9533873886,-35.7846853231,3.47536317925
do_nothing,-55.3262098544,-54.1105023386,-47.1072869465,1.53105605095,-24.7030384639,-53.7282579856,-54.4239805937,-54.5676012973,1.67912604025,-54.5304561994,-24.4537135134,-55.3232147973,-54.4032597924,-22.138144901
do_nothing,-62.0559078059,-61.85943743,-57.1001032689,1.12980445702,-36.2887152708,-61.0161890687,-62.0444488045,-64.9178050311,1.46805149003,-63.3430587518,-35.2446383944,-63.6844501678,-63.6073100112,-36.4101575871
do_nothing,-55.5640401397,-56.6452746856,-55.8724604287,0.43434143205,-42.5974329827,-56.2361361146,-57.0124287489,-62.2790244623,1.00110286036,-58.8270941483,-41.2453741273,-58.7830645868,-59.6347307992,-37.866324437
do_nothing,-36.1696293321,-38.3318351851,-42.0263327506,-0.349352544239,-41.4364446306,-39.0547093309,-39.1974459349,-45.6345534755,0.378958296807,-40.6928892411,-40.588555199,-40.5925939231,-41.9010981976,-29.3391075353
do_nothing,-7.75471535333,-10.3846842888,-17.551090558,-0.994503397602,-32.0100102822,-12.3760188701,-11.8926719952,-17.7126543649,-0.274708965907,-12.3839795797,-32.4573689816,-12.646064954,-13.5821627655,-16.3571965084
do_nothing,23.1023559302,20.8466799556,12.3615656323,-1.32700132471,-15.4408322321,18.1424877225,18.8492065464,15.4321386479,-0.842304045739,19.6479863096,-17.5836499361,18.7367198844,18.9867716103,-4.77826135419
do_nothing,48.9077870487,47.822369001,40.591633079,-1.27893750673,5.23386558368,45.4848258513,45.8009187111,45.953759776,-1.23606328671,47.6713822989,1.62871729078,46.1308197629,47.9718324637,1.42582535639
do_nothing,63.3951631706,63.9603282653,60.0909530344,-0.904548862787,25.6658093804,63.1797101854,62.5805778681,66.4122805689,-1.41088393877,64.871554002,21.4730154495,63.0790905377,66.2580707185,1.43556478443
do_nothing,63.3338408137,65.5415964653,65.9668198475,-0.354491381344,41.2649168443,67.1156659139,65.4545495179,71.9279091913,-1.36473456686,67.3058083106,37.7547526695,65.8934998137,69.508532892,-2.49770014949
do_nothing,49.4078089998,52.7446591928,56.9519958933,0.180981370618,48.4263524864,56.6836847769,54.3360045315,61.5798446525,-1.12924479908,54.9791518433,46.8423009427,54.6083933276,57.389718787,-6.35719062978
do_nothing,25.8834105875,29.4746868666,35.7606427337,0.538875170129,45.5337125143,34.8808957379,32.6660709848,38.5883745471,-0.755703833703,31.7020590288,46.6425463304,32.7974319624,33.5671717343,-6.30964011973
do_nothing,-0.802503137983,2.06551329697,8.20882453369,0.636591264087,33.4144888391,7.35508585091,6.24752099503,9.23410808412,-0.302057856272,3.80714127979,37.1944864344,6.35141263413,4.49305361658,-0.495545098458
do_nothing,-24.0390326498,-22.6869938178,-18.5973022089,0.493401260204,15.0963693442,-19.279448952,-18.5474882777,-19.1017429309,0.175302815376,-21.8164358982,20.6842771877,-18.3423378195,-22.5863039998,10.0534617618
do_nothing,-38.9444768398,-39.4893696861,-38.3874105627,0.214303041055,-5.05961513745,-39.2944001885,-36.5810570749,-40.1038222103,0.624199029061,-39.7003161161,0.866650480952,-36.1990763246,-41.7263779545,21.7269055581
do_nothing,-43.5592978857,-45.8722843906,-47.4570451711,-0.0560385183628,-22.5709115152,-49.2782984752,-45.1815752703,-50.1796314824,0.995882014568,-47.1463844585,-17.9328854761,-44.6391337597,-49.802655426,29.7474408988
do_nothing,-38.9886923333,-42.4849987523,-45.4538326913,-0.191172156884,-34.0065598612,-48.7310607178,-44.4583910868,-49.1020561457,1.24447113486,-44.5631535104,-31.9294307097,-43.8635015648,-47.0038428328,30.1221837938
do_nothing,-28.5411245705,-32.3596887911,-35.0240268985,-0.130962575873,-37.7652140843,-39.7177577155,-36.7011039921,-39.5147772872,1.32984003764,-34.7818901273,-38.7705425589,-36.2200762639,-36.2335117181,21.3613339515
do_nothing,-16.2603438093,-19.5061352888,-20.5325886615,0.0972919073892,-34.2493758059,-25.8048136688,-25.190076934,-25.585781084,1.22504447974,-21.7033737777,-37.9596364477,-24.9968377202,-21.7371138687,5.27726736151
do_nothing,-5.43631043836,-7.40891197915,-6.38428556424,0.391505179597,-25.4395545495,-10.7274767216,-12.9259486679,-11.3759761865,0.926513924479,-8.8335643573,-30.725821824,-13.1512930823,-7.51747804856,-13.4740973422
do_nothing,2.35820790858,2.0133524481,4.42001443839,0.615500544883,-14.071367761,2.71599027335,-1.76240499328,0.454178339621,0.46292268636,1.74658217657,-19.4386075818,-2.45563926442,3.87343690169,-28.9681150858
do_nothing,7.40003394848,8.64937749689,10.990786023,0.652062737898,-2.73408782255,13.1871334268,7.78208714771,9.1585656856,-0.101999642343,9.64921765403,-6.80411559854,6.67363589511,11.7737079923,-36.1310338124
do_nothing,11.1559446767,13.6383488495,14.3338544757,0.448666135676,6.79670594208,20.6522666005,16.0606890238,15.5377663192,-0.676042473406,15.6859194134,4.87406483619,14.6939008726,17.0185426125,-32.6152874505
do_nothing,15.1811086115,18.3348523448,16.3926238312,0.039423332241,13.7981880968,25.7309934597,23.4823437399,20.9476351467,-1.15473456714,20.9192054511,14.142587607,22.1032035518,20.9842436725,-19.718742131
do_nothing,20.0843784654,23.2918014256,18.8106578848,-0.464208224501,18.3976407083,28.9126800572,29.7768560304,26.1806759952,-1.44388343189,25.7320459497,20.4599472914,28.6876482242,24.5434753053,-1.9819622326
do_nothing,25.0184450647,27.726040289,21.9634258416,-0.910103892783,21.0860320816,30.0275317379,33.7186936084,30.7442538132,-1.48237687933,29.3528726148,23.9313947855,33.2263476246,27.4103896019,14.4149893566
do_nothing,27.9186038342,29.7106001155,24.6730401731,-1.1561577296,22.2025398195,28.2190333636,33.4702241652,32.8706940236,-1.25842610333,30.0580635566,24.8933735236,33.8175247292,28.1631748954,23.8854999313
do_nothing,26.3933422034,27.0202277417,24.7220962773,-1.11718006636,21.6330648182,22.4255409249,27.4188501994,30.2694942216,-0.814025483495,25.9701080716,23.5608849711,28.707621584,24.9282698943,23.4842902049
do_nothing,18.8923974635,18.2720544845,19.9435633097,-0.792208745209,18.8551580208,12.1418668659,15.1470346854,21.3046131659,-0.235874346,16.1030491104,19.8991791527,17.2719605357,16.4200311895,14.0088544415
do_nothing,5.65374840356,3.86582955543,9.41856285625,-0.263825158785,13.3002505594,-1.90501819176,-1.91148454887,6.08310709976,0.364840902179,1.18607744663,13.7654136749,0.70696897943,2.86952487661,-0.272063829302
do_nothing,-10.9911836625,-13.7067637159,-5.74046421359,0.329038095176,4.85855498027,-17.5122788111,-20.4736430695,-13.0445897993,0.878022436658,-16.1295302961,5.23603234121,-17.9119030663,-13.5900103636,-13.1923773106
do_nothing,-27.1264378251,-30.3719673973,-22.3865057867,0.83451197593,-5.71833577832,-31.3669456355,-36.1590206478,-31.8516694963,1.21837070272,-31.834874089,-5.05473494433,-34.311125749,-29.3000774578,-19.0142846167
do_nothing,-38.4261227906,-41.6673658024,-36.1736960816,1.1324301731,-16.7289788805,-39.9487877469,-44.7802952934,-45.4068552111,1.34096078271,-41.7438049796,-15.7540239063,-44.2495554072,-40.1282235365,-14.6665980981
do_nothing,-41.5794921614,-44.2054000762,-42.9563500145,1.16591829519,-25.8362264799,-40.6679516246,-43.7276807947,-49.6613462668,1.24535606938,-42.8770253074,-24.9283816764,-44.879033907,-42.827771434,-1.06711561993
do_nothing,-35.4428496684,-36.8714844513,-40.2437921636,0.951153653257,-30.7081584738,-32.8180685253,-32.9357091444,-42.8770823672,0.968732223651,-34.537462659,-30.4999591502,-35.7418685006,-36.2019726496,16.9898114409
do_nothing,-21.4871335531,-21.3040574188,-28.1653422893,0.564487705335,-29.7702274849,-17.9709854732,-15.0508088122,-26.3567984174,0.571768535166,-18.6622562777,-30.8525570536,-19.0262419027,-21.6259613186,32.3964155994
do_nothing,-3.36769395281,-1.46108480194,-9.57103471646,0.113591678325,-22.7938853641,0.367412881065,5.30012758745,-4.17861102393,0.12270714761,0.703341096011,-25.3973108714,1.03798970057,-2.71146680497,38.2410404517
do_nothing,14.2337126755,17.5888361457,10.791056159,-0.296288796889,-11.0930487609,17.7523129275,22.9120412318,18.0023285372,-0.31546683573,18.6419345073,-14.8849422706,19.45040798,15.7842005554,30.4057518937
do_nothing,27.079266992,31.2296250594,27.7409499976,-0.589726203057,2.76514905285,30.1168191641,33.5973088954,34.6813803048,-0.691944050868,30.879535986,-1.33051667085,31.9437294494,29.4237883472,9.33267630365
do_nothing,32.6353906116,36.6686684653,37.2622381387,-0.734600386616,15.6554896779,34.9599361262,35.4220268141,42.1640208245,-0.969221257906,35.0492990356,12.4512182273,36.2040950193,35.4136692416,-19.7027330208
do_nothing,30.6905878532,33.6475186999,37.6710482193,-0.739928060379,24.769639641,32.0001909231,29.1594282185,39.5874905452,-1.12094610695,31.2698150952,23.5656415031,32.4004128238,33.327750518,-47.9813666572
do_nothing,23.1476438623,24.274288272,29.966774999,-0.641854916038,28.3808450198,23.0840694788,17.8221894573,28.9708487039,-1.12991667939,21.862344467,29.7891833442,22.8715754415,25.0032722367,-66.00160913
do_nothing,13.1175120247,12.084312714,17.2780198508,-0.485024791015,26.2498319796,11.4088171818,5.46964159175,14.3150783091,-0.988860436912,10.3499351191,30.1167803488,11.1267527316,13.6895132989,-66.5789592197
do_nothing,3.6943356005,0.711121935999,3.64616939297,-0.306811759672,19.5540495401,0.363166883323,-4.25640574071,0.114759147911,-0.704498723062,0.138893015073,24.942876676,0.554777100199,2.80104218501,-47.3785208659
do_nothing,-3.11001425925,-7.32666326103,-7.38209880919,-0.129390898254,10.3921957416,-7.58383588291,-9.32822278157,-10.1593230603,-0.302983709692,-6.61705626126,15.8392800815,-6.67501749973,-5.24332596261,-12.0305858695
do_nothing,-6.88140115353,-11.2878279231,-13.836642384,0.0393273870906,1.06118614939,-11.5519057239,-9.83895753834,-15.0623307396,0.166794956246,-9.56192258325,5.02726416232,-10.1348984402,-9.67228486109,30.5853986307
do_nothing,-8.61375890389,-12.1184586912,-15.7128205686,0.198550621209,-6.62974095727,-12.2643794255,-7.66946281647,-15.335025067,0.635511177913,-9.928646678,-5.26514469549,-10.9363899352,-11.2985073453,68.7290470662
do_nothing,-9.94619694188,-11.7076083956,-14.5819767337,0.345913392363,-11.7757074954,-11.4523220648,-5.48666919781,-13.2254059824,1.02304087015,-9.71233187887,-13.3483984582,-10.9410098356,-11.8229489703,91.1708174125
do_nothing,-12.1835993761,-11.8372611444,-12.6396325571,0.471717957145,-14.4083251753,-10.9218376884,-5.49382867743,-11.2944313229,1.25432710011,-10.5982848083,-18.3614361426,-11.7427050283,-12.8363449898,90.5420351636
do_nothing,-15.5328962726,-13.279474864,-11.6131652247,0.558580304052,-15.1812559721,-11.676757817,-8.43567048474,-11.2108056275,1.27755218871,-13.1012691297,-20.254666483,-13.854373675,-14.9552675188,65.651435106
do_nothing,-18.8864676382,-15.4153878437,-11.983815573,0.586222672012,-14.8770743968,-13.4522180294,-13.249645771,-13.0217866749,1.07909270114,-16.2733926864,-19.5290266308,-16.4325573918,-17.4604622091,22.0593359715
do_nothing,-20.2504067797,-16.5253530293,-12.8309509699,0.538923452084,-13.9606034734,-14.8406801261,-17.4941526482,-15.1803008051,0.690080296066,-18.0986964117,-16.8746102734,-17.646452784,-18.5889261698,-29.2840329054
do_nothing,-17.6437980402,-14.6190326008,-12.3421818873,0.412270367647,-12.3690500261,-13.9506675971,-18.3780345545,-15.2979738648,0.181696681004,-16.4092753284,-12.8702658656,-15.5318227103,-16.3566207751,-74.9607134734
do_nothing,-10.0948546641,-8.45097637027,-8.7580814884,0.216534780387,-9.61916929116,-9.32442858978,-13.9809494294,-11.301853137,-0.350164249295,-9.94300244214,-7.85854105313,-8.97216791349,-9.56597125954,-102.740715127
do_nothing,1.68937269953,1.71112025261,-1.34355315508,-0.0243170522538,-5.17230748151,-0.736408678127,-4.1803310636,-2.51272947923,-0.806777425224,0.899148606143,-2.02126880898,1.60436701266,1.43014579383,-104.939729586
do_nothing,15.2814365429,13.902064154,9.03256037767,-0.277128981333,1.11400577108,10.4612306275,9.08628022404,9.80498864874,-1.10877648938,13.9240544961,4.41182905783,14.1139187838,14.5460934326,-80.5424888695
do_nothing,27.1775691918,24.9640196307,19.9704809083,-0.505600843093,8.65949315993,21.605526884,22.3404128792,22.6632868717,-1.21237919062,25.7288583224,10.9479223732,25.3640694435,26.474291709,-35.5134887151
do_nothing,33.914232466,31.5716791863,28.2645383337,-0.675876470843,16.1238730916,29.5256328871,31.6833401038,32.2800222305,-1.11545586344,32.7991075405,16.7374589287,32.073796859,33.7268557214,18.7724638024
do_nothing,33.2532730755,31.3998654058,31.0182759874,-0.760580491383,21.7075365117,31.5986347362,34.1121079416,35.3802858307,-0.852675681624,32.722582594,20.6760942322,31.994709313,33.8325393493,68.5322969117
do_nothing,24.995825949,23.9934878819,26.728801374,-0.741422284742,23.7008428739,26.67609181,28.55370972,30.3861118642,-0.482471956152,25.0681678773,21.6891708871,24.7192073089,26.2442103644,101.184329191
do_nothing,11.1179985025,11.0079363539,15.9245709754,-0.611273780496,21.0871339123,15.5438228007,16.2481287304,18.0505339452,-0.0708808428647,11.600961317,19.102321129,11.8766062915,12.6136704071,108.597815421
do_nothing,-4.82837421588,-4.27648966297,1.10646216021,-0.376533146832,13.9731337094,0.747090758203,0.353550022362,1.29925827439,0.322363602468,-4.24889796724,12.9560229849,-3.35430030003,-3.67650900397,89.1349441851
do_nothing,-18.8356090518,-17.9915767109,-13.9970977232,-0.0596572403713,3.67594359636,-14.1576740139,-15.0698396872,-15.6633337894,0.651761195512,-18.4708851505,4.13262135864,-17.2367603997,-18.56036333,47.9778738505
do_nothing,-27.6784175295,-26.8932142738,-25.5952758086,0.299476740289,-7.58253998086,-25.6614713266,-26.3242415141,-28.6602183661,0.887185133287,-27.7203139936,-5.77239403175,-26.6134680523,-28.5410323673,-4.30546038588
do_nothing,-29.8338982082,-29.3154991494,-31.003028045,0.645463453454,-17.2814629272,-31.3074166602,-31.1417247066,-34.7957024726,1.01031490598,-30.2855800654,-14.8116507655,-29.7912155437,-31.7069189797,-54.5455313081
do_nothing,-25.7764457602,-25.5416781159,-29.4027438858,0.914249794967,-23.3068850765,-30.3110573602,-29.2040304218,-33.2284846532,1.01016717127,-26.4528756306,-21.1721167985,-26.8833295688,-28.1687167635,-90.3577596603
do_nothing,-17.5817921627,-17.4937094677,-21.950137426,1.04517827411,-24.523297487,-23.6169019364,-21.9821085088,-25.2269118412,0.881381262899,-18.1787514453,-23.6333388946,-19.5328071578,-19.7981594588,-103.249676348
do_nothing,-8.03197728064,-7.89857135817,-11.2234913086,0.996094220183,-21.0276280075,-13.4192918136,-12.0171279957,-13.5402492161,0.627008407842,-8.23926285009,-21.8548745607,-10.1699300775,-9.40976715913,-90.6620939888
do_nothing,0.411983896009,0.724202577017,-0.25465068329,0.757375800284,-14.0184521893,-2.36043242202,-1.95737324264,-1.36397212267,0.264741596033,0.792259263754,-16.4107368278,-1.11836929005,0.276264038199,-56.4507311321
do_nothing,6.37554197045,6.86265192261,8.48033371223,0.359941062361,-5.34903417991,7.28694092686,6.27347272032,8.69642011989,-0.166933995222,7.34627507921,-8.57592876049,6.10528026369,7.49188606153,-9.7262146939
do_nothing,9.8061178635,10.3157130827,13.7429271792,-0.126674307933,3.06216927046,14.1700962858,11.8876812169,15.292183913,-0.607142381432,11.1570787381,0.0490331648469,11.0581208122,11.7968833957,37.6066832609
do_nothing,11.6362433437,11.9284092445,15.6678589114,-0.60730191766,9.75348927573,17.9860290633,15.1275771174,18.4304242387,-0.978932144574,12.9980936092,7.94452717003,14.156001397,13.8776591839,73.9432105571
do_nothing,13.0650528692,12.9197675168,15.3603364325,-0.982676776162,14.0070691585,19.2118477069,16.7616344024,19.0446122256,-1.20398570644,14.0193948843,13.9828671314,16.1295409771,14.9098230255,90.8910531491
do_nothing,14.7966050351,14.1226934463,14.1728614501,-1.17381900158,15.8351601993,18.6093073177,17.4545865305,18.2813951729,-1.22260772718,15.0074866249,17.5670122829,17.4305551658,15.7941395257,85.2530573847
do_nothing,16.5787119659,15.4781087866,12.9930559125,-1.14208796959,15.7188899347,16.7476479361,17.3144713734,16.8426977595,-1.01300829771,15.9037635174,18.5917719695,17.872773005,16.6123291599,59.5951037682
do_nothing,17.2492498214,16.007180543,11.8484473616,-0.898697055929,14.2422786361,13.755288913,15.8213803982,14.6721211935,-0.60300833862,15.7947987935,17.2872322481,16.6746058491,16.5427853614,21.301396475
do_nothing,15.2757918223,14.27600656,9.98493870079,-0.500672312251,11.7910751209,9.39259444223,12.1609532178,11.1069407731,-0.0689508240278,13.3777571963,14.0374402573,12.8860258279,14.2725306969,-19.573521608
do_nothing,9.55964765454,9.153138354,6.36666470011,-0.0345986561057,8.44253581226,3.38742296037,5.79874006144,5.40463367958,0.479589632381,7.69507286221,9.25859183913,6.00504665748,8.72502483336,-53.0315409427
do_nothing,0.154650331641,0.529246796682,0.362561646932,0.406541436712,4.07916454081,-4.14407825497,-2.98177088301,-2.61500234083,0.925992830223,-1.18996180478,3.37725841972,-3.50398346656,-0.21768408436,-71.6759909161
do_nothing,-11.4261540878,-10.3264671734,-7.69673808339,0.746033014772,-1.34362200382,-12.4084433513,-12.8472802209,-12.1254672672,1.17642225608,-11.8906115183,-3.10831153558,-14.0486141632,-11.3280770501,-72.3947778806
do_nothing,-22.4845401784,-20.9584672858,-16.3568944472,0.938743401074,-7.51632080796,-19.939708876,-21.6339962072,-21.2798066592,1.18434860401,-21.935009785,-9.54623255724,-23.2203033364,-22.1825814213,-56.7736113848
do_nothing,-29.9293274302,-28.4319961475,-23.3756683926,0.975211710476,-13.6302825788,-24.9351071374,-26.9728748257,-27.6792871736,0.962102472127,-28.4941912506,-15.1044627879,-28.5017849613,-29.8342479368,-30.2131576958
do_nothing,-31.312043636,-30.3108616386,-26.4525442552,0.874889489225,-18.4631043027,-25.8158733357,-27.0985927955,-29.1696546151,0.575733940784,-29.3446828027,-18.852146273,-28.1209502371,-31.7815073887,-0.100174872099
do_nothing,-25.7228399751,-25.5438439718,-24.0805174144,0.672778344236,-20.691860073,-21.8057912205,-21.5302182188,-24.6631697093,0.124767889226,-23.7040252118,-19.9507353096,-21.7275744017,-26.8772103422,26.3611284656
do_nothing,-14.2030419191,-14.9202839007,-16.18787874,0.405699075352,-19.3324400132,-13.3011707999,-11.3472075051,-14.6581538557,-0.286691827454,-12.6125274708,-17.9014770475,-10.6223856713,-15.8309326331,43.9921830514
do_nothing,0.495570115517,-0.910692079956,-4.30918265588,0.103791688924,-14.1422904537,-1.87748975792,1.06691777046,-1.23381044082,-0.578332000033,1.30125851442,-12.7598297484,2.56969572572,-1.10147586294,50.644427605
do_nothing,14.7333284636,13.0637945758,8.80001906838,-0.210092238285,-5.82610222373,10.0885923688,12.7374934374,12.504798266,-0.712669724169,14.6037721327,-5.22691438092,14.681594084,13.7996602637,47.160470922
do_nothing,25.0997706402,23.6769908752,19.9796425685,-0.514416806954,4.05045408677,20.060595935,21.0154444937,23.3465337979,-0.699299093162,24.1143479128,3.43515265585,22.9675800157,25.3556934739,36.4461818306
do_nothing,29.4305711936,28.6875497779,26.6246819924,-0.781021390436,13.4298047412,26.0298654318,24.3651988816,28.9335511449,-0.584010618666,27.8612364102,11.6568856642,25.9050553374,31.0773625954,22.0932465636
do_nothing,27.3715639058,27.52898354,27.4476172974,-0.971001256451,20.3024654431,27.0197161437,22.740939129,28.4202985792,-0.427558404951,25.600204221,17.9162965456,23.5536511339,30.1663226329,7.10653460967
do_nothing,20.311045818,21.3115607859,22.7810159215,-1.03866248611,23.2436941895,23.2498343566,17.4284640051,22.6080364084,-0.282153510133,18.7281080722,21.0900655466,17.3603296974,23.59727817,-6.80207582405
do_nothing,10.7392528048,12.271122831,14.3336972797,-0.944108283133,21.7738546546,15.9335942894,10.4369763506,13.5308848466,-0.174133815583,9.65266729882,20.6965707651,9.50977409435,13.6253389064,-19.1539396554
do_nothing,1.30313316164,2.90316282152,4.51824264509,-0.670657153221,16.4331761265,6.8135207883,3.69680019107,3.67455328328,-0.0986345241021,0.880133535615,16.9640439844,2.08827377468,2.93373552245,-30.0093954069
do_nothing,-6.07470133823,-4.87445702123,-4.37930077315,-0.240142217866,8.56256307796,-2.37520105906,-1.61293512809,-4.86134379544,-0.0274636139726,-5.82262412272,10.7170988359,-3.60940473161,-6.24371541102,-39.042156216
do_nothing,-10.6883978653,-10.2185288549,-10.8731540864,0.281330385658,-0.11813843354,-10.3173126899,-5.34514158711,-10.9417035021,0.0735267366249,-9.88101254646,3.13389688862,-7.37023709987,-12.7044666388,-44.8897929662
do_nothing,-12.9972871205,-13.3582700956,-14.5606057962,0.791922821542,-7.98139392308,-16.2813732127,-8.18033802543,-14.5189105283,0.22471539072,-11.8360165679,-4.53781044922,-9.86195308467,-16.3791776551,-45.1780341712
do_nothing,-14.0995343421,-15.1449396797,-15.9479017765,1.17667443011,-13.8573679666,-20.0255729502,-11.0481328496,-16.2977421781,0.418524384304,-12.8117748617,-11.2167909306,-12.0568838913,-17.9717856368,-37.3281085262
do_nothing,-14.9902905764,-16.3866852431,-15.9405714579,1.33843886307,-17.1925806619,-21.5462200496,-14.4448300446,-17.1278631055,0.616504294987,-13.7843986411,-16.1198290078,-14.551365332,-18.3413769149,-19.8967985147
do_nothing,-15.9438176594,-17.2834563934,-15.2500879144,1.22753207285,-17.9881951102,-20.8285960251,-17.9648787278,-17.4162841069,0.759207184499,-14.9839034138,-18.7816277593,-17.0938233731,-17.924535411,6.0891784269
do_nothing,-16.2985192995,-17.2256294933,-13.9909863083,0.859869915976,-16.5884470596,-17.7442640856,-20.278729234,-16.8345992191,0.785630518445,-15.6986430202,-19.0017102079,-18.5470210279,-16.4649288362,36.4350530184
do_nothing,-14.7480331646,-15.0580516321,-11.6494222103,0.316517637768,-13.4378841889,-12.157280211,-19.604029647,-14.4619946738,0.655482550907,-14.5777132837,-16.7793294613,-17.3266532886,-13.173387457,64.1864039523
do_nothing,-10.0220971747,-9.70516914395,-7.43551803603,-0.276475561653,-8.92116322564,-4.19070955869,-14.5044654007,-9.31036952119,0.366422203092,-10.3120617704,-12.2883461697,-12.1528253701,-7.24698968308,81.2391756337
do_nothing,-1.66694638334,-0.887427363458,-0.858124300841,-0.782379036274,-3.34623857601,5.48631906583,-4.6969696209,-1.00293389005,-0.0398984674336,-2.40669912573,-5.90918624998,-2.80626612725,1.48945100291,80.7812715466
do_nothing,9.4221434987,10.3969790689,7.74581580977,-1.09161185566,2.94457147036,15.5207373522,8.48191926765,9.70448323459,-0.485369806411,8.29646253312,1.70859626888,9.44226501376,12.1228184505,59.8115202123
do_nothing,20.9787224013,21.872332907,16.9891762859,-1.15103248701,9.41734857756,24.0093322903,22.1891145195,20.8232771139,-0.874392386179,19.5996046753,9.6109128839,21.9499549942,22.6146182261,20.8345045162
do_nothing,29.9204250313,30.5302066837,24.663874074,-0.975356006487,15.2522207123,28.9188558182,32.793064458,29.5566807439,-1.11845605679,28.4952019461,16.5917111921,31.3825843304,30.2641995925,-27.9998605037
do_nothing,33.3179128962,33.5622061606,28.381772715,-0.637407871013,19.3973792728,28.6814980859,36.9870061516,33.1411097458,-1.15890240847,32.1134477752,21.3654025716,34.7516645147,32.5435103325,-74.5853112342
do_nothing,29.4385704009,29.356819509,26.4115444037,-0.241135907629,20.7919279554,22.7635548455,32.9204679292,29.8170699542,-0.98133863814,28.7379431102,22.8404754318,30.4504443279,28.0114789525,-106.043652344
do_nothing,18.4764487395,18.1891283826,18.3989125123,0.112898023039,18.6985877346,11.9884905379,20.9404052364,19.5686950721,-0.61810763749,18.5117711781,20.4240764219,18.9104942733,16.9620784842,-112.520834389
do_nothing,2.67822203555,2.32638877577,5.68126719523,0.357527257364,13.0270559192,-1.53488377344,3.65372078871,4.33528103053,-0.139058255223,3.55536266291,14.2573160824,2.62207670266,1.53975243324,-90.4164502898
do_nothing,-14.2136671806,-14.5244146885,-8.95423205782,0.474489300756,4.51427093371,-14.8953573388,-14.7455254353,-12.4203365227,0.36576246962,-12.5745770828,5.28758807371,-14.5177299055,-14.7584102877,-43.9538615447
do_nothing,-28.0334658865,-28.2642733944,-22.018371884,0.490999877256,-5.33258613721,-25.1418093235,-29.6818706095,-26.6700064147,0.806038579184,-25.9171678005,-4.87173766471,-28.3263806311,-28.0519231674,15.5385499323
do_nothing,-35.4246242165,-35.6010333324,-30.3342949772,0.460002789907,-14.544076505,-30.0873027858,-37.5435896275,-34.9940175027,1.10841846137,-33.2832412342,-14.2763960807,-35.5558071981,-35.2009151889,72.5580554731
do_nothing,-34.8169377187,-34.9978234576,-31.9765689144,0.432627344038,-21.1698659638,-28.893785223,-36.7212294145,-35.5761661389,1.22752542835,-33.1754350801,-21.0964923846,-34.8051692745,-34.7077480346,111.770565747
do_nothing,-26.8237505949,-27.0573942686,-26.8154329145,0.434011037831,-23.7886650655,-22.2474482176,-27.9998477047,-28.686356674,1.14977666204,-26.1468919232,-24.0463870683,-26.8315058773,-27.0962023904,122.471652594
do_nothing,-13.9417789111,-14.2291172254,-16.4867652072,0.452041864194,-21.8852465072,-12.0750608012,-14.191517475,-16.498763739,0.891308982623,-14.4970446336,-22.6745002364,-14.1781034071,-14.6539478682,101.781661179
do_nothing,0.318222737107,0.036883298129,-3.81299622484,0.443384741874,-15.974126755,-0.90961759393,0.842009008066,-2.3286350202,0.492486102366,-1.43964392578,-17.4317322473,-0.27874173879,-0.648418355649,55.5518673849
do_nothing,12.5486299589,12.3770963223,8.10757673471,0.354352110735,-7.43370734723,8.86902252303,13.4220084117,10.4287002314,0.0112986103819,9.94134209038,-9.50792832532,11.629901937,11.6945658181,-3.33616099423
do_nothing,20.4179349777,20.4636887782,16.8174415705,0.148319282685,1.88898687253,15.6592903648,21.1135951795,19.2809472098,-0.483178570597,17.5740430053,-0.498466664768,19.407724542,20.0915872362,-58.7724293433
do_nothing,23.181730442,23.5073016231,21.1113823781,-0.171335898174,10.1696982961,18.9311353477,23.2695915763,23.2164817632,-0.917475404674,20.8274861395,7.98831650138,22.4347991078,23.6886345928,-96.1456809169
do_nothing,21.6005020682,22.1862311401,21.1602266129,-0.552355371498,16.0373689578,19.1213201492,20.9152686246,22.7152848058,-1.22155491435,20.3821581757,14.6641027674,21.4640755,23.0103609949,-106.526939272
do_nothing,17.3581960096,18.0923964751,18.1546086284,-0.903308442943,18.8190816194,17.2154804301,16.0769696869,19.2503312986,-1.33850199828,17.6545617016,18.748715116,18.0251352209,19.4538562136,-89.0246223688
do_nothing,12.2529399397,12.9557971565,13.6543161539,-1.11957786746,18.5495203309,14.2136175236,10.8531890804,14.522377785,-1.23553202178,14.0504551169,19.9884722319,13.6591100027,14.5725168159,-50.6272345732
do_nothing,7.49560392674,7.97083995434,8.92618092229,-1.11722047723,15.7817041133,10.7069345753,6.60164844926,9.75433303165,-0.914115091134,10.3682970303,18.5426191574,9.30619805382,9.45501021685,-3.66605323324
do_nothing,3.38315680918,3.48096111169,4.53564892462,-0.863150577363,11.3013690518,6.73428821824,3.54659637702,5.3235203797,-0.415812433928,6.59117034479,14.8165547292,5.08054260531,4.44090328055,38.2111817066
do_nothing,-0.555977834188,-0.886212940982,0.335176591449,-0.391026506014,5.86805660071,1.9613449263,0.928354611815,0.854266432784,0.179556900101,2.12913551223,9.32493615254,0.491461447059,-0.742117522221,64.2158188878
do_nothing,-5.04785898811,-5.73398572232,-4.18181017113,0.203113477123,0.0764355407777,-3.91449528175,-2.40462001642,-4.30577048148,0.765258088018,-3.62238446831,2.63626926273,-5.0221773094,-6.51882442711,69.4086980368
do_nothing,-10.444477097,-11.3069987702,-9.34813079371,0.784690081821,-5.6335320272,-10.7290773152,-7.23574458105,-10.46378675,1.22759981553,-10.6791599871,-4.6012942781,-11.5088594313,-12.9212119908,55.6182737924
do_nothing,-16.2774708418,-17.0807596634,-14.8720322582,1.21669174564,-10.8607797125,-17.5998594998,-13.3885770439,-17.1127943637,1.47058635162,-18.1125242207,-11.6019097949,-18.1556400123,-19.2288400271,30.1257291955
do_nothing,-21.2102595734,-21.7341384672,-19.6927911008,1.39691989084,-15.1131746461,-23.0004166406,-19.5665009303,-22.8489309493,1.43912809284,-24.1331424607,-17.4241709113,-23.3566973627,-23.9861711818,2.70697987083
do_nothing,-23.4352386788,-23.5440067353,-22.2360874891,1.28507273743,-17.7596939767,-25.1718217606,-23.7101849983,-25.7461900339,1.13422580369,-26.6222226223,-21.0529187208,-25.2050388332,-25.4266774194,-17.860759199
do_nothing,-21.3732886376,-21.0592803864,-20.9902818974,0.911888171358,-18.1207584079,-22.7400426765,-23.7488468369,-24.0650298115,0.615220618291,-23.9263100033,-21.5953064804,-22.2306664284,-22.1561434377,-26.6049897527
