label,COUNTER,INTERPOLATED,AF3,F7,F3,FC5,T7,P7,O1,O2,P8,T8,FC6,F4,F8,AF4,RAW_CQ,GYROX,GYROY,MARKER,SYNC,TIME_STAMP_s,TIME_STAMP_ms,CQ_AF3,CQ_F7,CQ_F3,CQ_FC5,CQ_T7,CQ_P7,CQ_O1,CQ_O2,CQ_P8,CQ_T8,CQ_FC6,CQ_F4,CQ_F8,CQ_AF4,CQ_CMS,CQ_DRL
off_to_on,-1.03379152637,-5.63231613581,-1.35680191158,-0.161365382259,0.724652772346,8.41300098797,0.0158342555431,2.56052738021,-0.10699615415,-2.10204277621,-2.50510286774,-7.36363542767,-4.93828382492,-29.1718920242
off_to_on,-4.48777483704,-5.82122891794,-4.30815346305,-0.0151406511058,2.29397827796,3.06947330921,-1.2118896258,1.53395844977,-0.0853550849149,-2.48481098268,-1.80916834096,-5.27263398195,-6.07969225751,7.14009182484
off_to_on,-4.65870764742,-2.22628697611,-3.60820452545,0.116102214811,1.56801543631,-5.05314826925,-1.88956224625,-1.79751032003,0.0545262071813,-2.86839882975,-0.408235577948,-1.10817390749,-3.9360879461,36.6215087068
off_to_on,-0.737198076657,1.67353703845,0.27685741655,0.301169933178,-1.77829698691,-6.70088170088,0.0919301859883,-3.17598631465,0.252943741132,-0.160323613188,0.833244528814,2.82982741505,1.26791763841,-0.761782926875
off_to_on,3.09536361377,3.5047446888,3.10124166801,0.32256452821,-4.69866587418,-2.24866483564,3.75973992141,-0.893843350942,0.266706611693,4.56303054649,1.7443377442,4.9527576583,6.06916126628,-45.7510303306
off_to_on,3.50275629526,3.13948265236,2.51073332601,-0.120503012309,-3.78885528437,0.912879852319,4.63437045767,2.24066555668,0.053194569826,5.63321746146,1.84812662584,4.37053008094,6.40694196443,-24.3001961314
off_to_on,1.78861479086,1.36224513061,0.53451464625,-0.736607663363,0.397265412644,0.148741028625,0.056939606663,2.70618712926,-0.153523378275,0.731577644548,0.568515461467,1.42618866702,2.0052422094,25.1265861179
off_to_on,0.612454566915,-0.732144840374,-0.190484400583,-0.774144980927,3.89279278243,0.23785510379,-5.82078866073,0.377309572322,-0.179743847409,-4.75675896965,-1.32986175803,-1.97094688993,-3.16696828686,22.7712301648
off_to_on,-0.0995100937016,-1.66651098618,-0.0229653424948,0.00866048678156,4.2091110343,4.04159534235,-5.7080770902,-1.89239888931,-0.107009035221,-4.41870934825,-1.95225466856,-3.4660501828,-4.99766573682,-14.4994998301
off_to_on,-1.71012678103,-0.847830442505,-0.623720712624,0.921705697957,2.42981159749,6.63931346452,1.37474975481,-1.73324786855,-0.0657315455005,0.662767847194,-0.63574179297,-2.35637016524,-2.96966520413,-10.59298593
off_to_on,-3.25496825281,0.178170821937,-1.65664622863,1.08131926679,0.218763532874,2.33999922119,7.43252102461,0.424519375853,-0.0281568823246,3.66246059109,0.962689645919,-0.405304756386,0.197902665816,30.152068083
off_to_on,-2.20621034502,-0.506687258368,-1.3984707166,0.325131116103,-2.23647016487,-5.84215997422,4.71239490608,1.98320124891,0.0753732498644,1.24480094133,1.01122242605,0.158109992721,1.74366287207,30.3368391407
off_to_on,1.34544025837,-2.07565167553,0.226123855334,-0.698619609787,-4.13400534292,-8.64357028657,-4.15123934478,0.904180542896,0.175975431859,-2.61151599525,-0.111144948918,-0.425618482577,1.34730218522,-21.6387846786
off_to_on,3.72902118803,-1.58190766479,1.36333882835,-1.13741375275,-3.2326868705,-2.48585972035,-8.55017293996,-1.76238895713,0.152045891758,-2.55419801429,-0.644402731869,0.349311015713,0.791289435766,-47.0903390594
off_to_on,2.01172774521,1.61972326791,0.944470065881,-0.619925471419,0.414889776117,5.14981522106,-2.80216437316,-2.56471017741,0.0223226088092,1.25223325629,-0.0570793299271,3.21109618221,1.34702002072,-9.0164657455
off_to_on,-1.96466728114,4.09893463848,-0.028837789885,0.39410322394,2.75010161752,4.85995328038,6.42446428935,0.0562583556338,-0.0831965797678,3.88601751206,0.501191426827,4.63771855854,1.78081942713,28.6318842426
off_to_on,-3.38641235948,2.59619548952,-0.247599744416,0.938878676598,1.10747979791,-2.24269577052,8.05037154175,2.98684349883,-0.108114904654,1.99991121051,0.219986427707,0.902718934246,-0.0948612845562,11.8252885429
off_to_on,-0.302660927404,-1.36325409004,0.210779851171,0.510316485261,-1.01243593127,-5.40502312133,0.483694286313,2.1559983772,-0.102507678565,-2.33691898289,-0.258892846199,-5.56681413604,-3.5817571984,-17.9204492758
off_to_on,3.65406108507,-3.26373528085,0.487392370522,-0.303239445105,1.03372259823,1.39679384884,-6.33297196974,-1.39585597278,-0.0895233113169,-4.20110326636,-0.134295100639,-7.245199923,-4.53600413869,-4.27140986034
off_to_on,3.44058350928,-1.48856682383,0.192930806143,-0.514992540622,4.78996233428,10.0012436545,-4.05346722755,-2.50608031128,-0.0258192291852,-1.44242785107,0.248346064361,-0.879210950237,-0.485138317273,26.5016693268
off_to_on,-1.08803576754,0.889341765123,-0.537170484864,-0.0256304131004,3.21591930653,7.5548138949,2.80213306216,0.306291173958,0.0856730862052,2.81615285817,0.114003410699,6.88441760647,4.85602621403,18.2020676582
off_to_on,-4.77670959121,0.638924656773,-1.37246558693,0.319349470877,-4.15504926074,-5.79984207818,3.32580673199,2.14169659954,0.152691053167,3.66547688088,-0.416391928382,6.80099946686,5.14907269555,-15.18929398
off_to_on,-3.53363567267,-1.32872935227,-1.57079932109,0.0390158682469,-8.7180822404,-14.9979759452,-3.62465634084,-0.536850648176,0.111532730864,0.204159162234,-0.544731546391,-1.13169270685,-0.284743798059,-19.3644566923
off_to_on,0.818273198248,-1.54393545046,-0.302116847828,-0.318127535627,-4.30073961327,-8.54120303789,-6.74568313708,-3.48955719846,0.012930183192,-3.2595040495,-0.0216650307089,-7.28096148921,-4.90820322924,2.02711482386
off_to_on,3.5650961249,1.19687613848,1.96514368044,-0.178386889746,3.96207128063,6.33891485819,1.35592791654,-0.925802941105,-0.0573278268671,-2.48418574179,0.564693204936,-4.47292657035,-3.25191744188,0.490291472072
off_to_on,3.15947693384,4.12458323876,3.10488633265,0.112295035705,6.76347479064,12.7465364723,11.527192077,4.48774183057,-0.081996608621,1.40883762698,0.630455362272,3.40224781399,1.98957030482,-20.7807188821
off_to_on,1.52259716944,3.60204902416,1.49073950307,0.0262663693853,2.95352769329,5.49779526604,9.08898941404,4.50751474611,-0.0870790129966,3.5061559853,0.183122276562,7.00823811921,3.87480780778,-9.15010165029
off_to_on,-0.416696398059,-0.830031426842,-1.7191260595,-0.0788294054936,-0.871265255447,-4.08800244419,-5.22142619603,-1.94992646292,-0.0691325216092,1.3576040054,-0.389739931327,2.85164483878,0.45899751683,34.012947321
off_to_on,-3.28547875902,-5.57534235932,-3.48821258151,0.369693172681,-1.03481529232,-5.00750398709,-14.499375596,-6.14218596325,-0.0125708107745,-2.35849125204,-0.673891472757,-4.01638642955,-3.35753218718,38.9959516335
off_to_on,-5.13201184659,-6.0068154209,-2.18289045301,0.796540487307,-0.552507855331,-0.037374555754,-7.67354369253,-2.15401083535,0.0540009815936,-3.57503203018,-0.41087030346,-6.80900510153,-2.87435949789,-15.4261558164
off_to_on,-1.90338350695,-0.944050400332,0.797002176667,0.0957454306835,-1.99976199971,1.6487397978,6.13529962202,4.24028200149,0.0825756880673,-1.32532633824,0.254137250396,-3.40184968417,0.901661863316,-51.5779591679
off_to_on,5.24195739985,5.46881337594,2.73121099748,-1.30672397316,-2.89907975408,-1.36124224796,10.6173772997,4.24556183328,0.0706665026386,2.12491923208,0.7181016719,3.11592614351,3.65855101548,-9.55941756893
off_to_on,7.92414413422,7.1659361338,2.2218303172,-1.46185009694,-0.775135126601,-3.05261660218,3.34552907147,-1.2665184579,0.0481917058888,3.92710959933,0.498518870013,7.25696483044,3.02309955004,52.4849516655
off_to_on,1.00149932755,2.36710390894,0.0493534560132,0.328746513487,1.99211668264,-0.9990072092,-4.06769685562,-4.16565973813,0.016007984041,2.56868960815,-0.142702617909,4.96952901377,-0.026927440027,42.6965589431
off_to_on,-8.16008236347,-4.17052144276,-1.83717386863,2.01775561139,2.04790514938,1.04306859553,-3.65825824017,-1.4043919724,-0.0433757729314,-1.2412797916,-0.523661544386,-2.32528326884,-3.05199510404,-27.3676007911
off_to_on,-7.72881777722,-6.17093344738,-1.89994875392,1.34791988437,0.517941091761,1.14973080864,0.308805927545,2.13988121005,-0.101595051353,-4.44044387451,-0.437287532401,-7.59907122691,-3.85586786587,-67.2263928475
off_to_on,2.1914780556,-2.58647085909,-0.223978045817,-0.922734531266,0.5342120101,2.1332689313,1.12185936524,2.51065266387,-0.0972760843541,-3.79485273287,-0.249364243783,-5.13705226444,-1.66552084192,-39.9882419089
off_to_on,8.89016851423,2.06065865238,1.47199090448,-1.91567144507,1.48270435333,4.50321458832,-0.535866298378,1.33088574974,-0.0252440672944,0.402858443788,-0.111986254313,2.2481363049,1.85019880086,10.6741200599
off_to_on,4.46171384175,3.59131900885,1.47322312646,-0.532052139848,0.188269906621,3.43157571604,-0.555874588547,0.456536721445,0.0453330173178,3.9894322673,0.279742713612,6.17461085126,3.62634830412,49.5091892263
off_to_on,-3.86412287925,2.22041567144,-0.0542749874139,1.21293344354,-2.9857396817,-3.17518661942,0.7399946886,-1.44373595918,0.063649106943,3.61771952279,0.895507079429,3.21842127449,2.39864745481,76.3680225136
off_to_on,-5.33862045235,0.332425052714,-1.3084446364,1.15115651411,-3.74338153525,-8.86101558656,0.205181565927,-4.17989454475,0.0548285687491,0.507910070824,0.971039906426,-1.53342552414,-0.0593517712481,65.0536977783
off_to_on,-0.809662264479,-1.14905974237,-1.09117223009,-0.254568992634,-0.291465465322,-6.34859778146,-1.78863713906,-3.67632140988,0.0548994572265,-1.92684700575,-0.0152385381131,-2.67539451456,-1.64093811714,-22.5309637592
off_to_on,1.24717557629,-2.31170499993,-0.0429588693274,-1.03491212224,3.54787966114,2.06900601093,-1.81810279188,1.51964221564,0.041850060076,-2.4879075822,-1.30882830415,-1.38851473991,-2.22657737286,-132.754420543
off_to_on,-0.673950093115,-2.13262498629,0.668358062657,-0.512103887528,3.37986604126,7.45459155629,0.945857865969,5.89180016451,-0.0173350408256,-1.98569394129,-1.51481808567,-1.03830930267,-2.12268290651,-133.420198772
off_to_on,-0.178892424526,0.293002888163,0.898497592049,0.322633942404,-0.167272810005,5.80915142016,3.61819576201,4.07772580828,-0.0875923963179,-0.384469435676,-0.286763952186,-0.587728512287,-0.411383699507,7.42015967719
off_to_on,4.11842358212,3.00352038013,0.977626226537,0.637887644634,-2.83998832908,1.20580389019,3.67394706549,-1.05354105753,-0.0973269933307,2.38346629421,1.15282340464,2.19890933598,2.70498732078,142.201701417
off_to_on,4.870882735,2.63539646535,0.522195479185,0.569479377233,-2.10991889253,-1.86516132203,1.10492723093,-2.92035015844,-0.0379195990284,3.6804252216,1.38267127484,4.22478160909,3.83236790277,126.477631224
off_to_on,-1.59194289774,-0.837709446561,-0.873890231095,0.302447500573,0.686255845425,-3.360812727,-2.81566828813,-1.25239141502,0.0260105514514,0.62481415571,0.348063777545,0.775828539186,0.332707134078,9.43970038468
off_to_on,-7.58950495028,-3.37783722035,-2.16679606052,-0.327606465886,2.54468982373,-4.05105535479,-5.99958408487,-1.1478525312,0.0478215160834,-4.22820545132,-0.700634388878,-5.20040079969,-4.43850049862,-59.3931458591
off_to_on,-4.82825092222,-2.05688150344,-1.62841634802,-1.01008718304,1.659023192,-2.6395106907,-5.50994448604,-3.24029094119,0.0463928427913,-4.33669574394,-0.697449898441,-5.19346775145,-4.14242100305,-52.1821989777
off_to_on,3.05414817524,1.17531296661,0.674648700937,-0.870333066152,-1.20338597346,0.925174149548,-0.323724741678,-2.18263132346,0.0490940585126,1.62512188977,0.0769766967012,2.01178740821,1.64280943002,-56.1706271664
off_to_on,5.98513346708,2.51958137049,2.48061419553,0.196337311456,-3.12361317428,3.47026490284,5.94252232294,3.5991367973,0.0397677689496,6.34492839493,0.445838845272,6.97912236555,5.81881517301,-76.4680454588
off_to_on,2.03178432404,1.3281605359,2.00524403323,0.991012311614,-1.66270782585,2.91075771603,7.91527190419,7.46101310596,-0.00335460951195,3.26806197733,-0.132051425316,2.8868267109,3.09908864217,-14.9578654637
off_to_on,-1.5135854125,-0.110216010306,0.0130849043221,0.5867673561,1.97633716096,1.29155328739,4.20371710073,3.67036049656,-0.0543044111015,-3.955002138,-0.79855846228,-4.33889228369,-2.84605528972,122.044612388
off_to_on,-0.57031126527,-0.564329064536,-1.4665902695,-0.25206453097,3.55433000096,0.704769599055,-1.86431694563,-3.87168327765,-0.0662185813358,-6.25495503145,-0.405530946564,-4.97772072963,-4.81430878934,164.019890961
off_to_on,0.475406717226,-0.943153343518,-1.58365222162,-0.189975427557,0.872227088107,-0.450956123151,-6.39076640701,-6.75620632315,-0.0352103325044,-1.45525660333,0.783213682927,0.358433916445,-1.71279570962,20.7720123256
off_to_on,-2.15905734954,-1.62252699025,-0.919438568772,0.589170403457,-2.93277140443,-3.51360760347,-7.09881333221,-2.95213786764,6.19404466929e-05,3.73320126026,1.208399684,3.12615859389,1.46770271917,-146.693189044
off_to_on,-4.53200060684,-1.36252620886,-0.0591318825049,0.596642434106,-3.06423320593,-5.06210685045,-2.97852586702,2.08060079368,0.0156180734614,3.77846438216,0.130132099267,0.64925225286,1.66136514486,-135.674296046
off_to_on,-1.44554475503,0.37040500184,0.832103758135,-0.657120257972,0.683227263945,-1.38491761239,3.8978479212,3.4251430656,0.0237654936076,0.69581777698,-1.12539167395,-1.1863601586,0.82856099827,10.3668516178
off_to_on,4.58472424962,2.05016722103,1.29522492331,-1.75529806145,3.63371056469,4.45620903758,7.21909611914,1.39460960673,0.0361878904197,-1.17279549218,-0.850558101075,0.817831624062,1.01082789826,83.3565602252
off_to_on,6.28691921827,2.14342738056,0.756500867743,-1.24772687776,2.25148848514,5.681680466,2.77708941684,-1.10994159905,0.0389630317334,-1.48499105558,0.577022760913,1.9571416634,1.0000971333,26.3229102114
off_to_on,1.64477779963,1.00525687111,-0.361522484962,0.459043831001,-1.71551157101,1.43294196991,-3.96171754431,-1.91199719085,0.0178984991611,-1.76155688585,1.1021145494,-1.18467119808,-0.410210355735,-16.6013282694
off_to_on,-3.86128357168,-0.294589993521,-0.778521960212,1.77235328142,-3.85143645469,-2.36232865298,-3.40079382369,-0.206536163722,-0.0142150394888,-1.0473290762,-0.0790744355164,-3.7849571654,-1.57812318452,32.9030196105
off_to_on,-4.75885637205,-1.55306802693,-0.0775297125169,1.83292836415,-2.15301095986,-2.2576492817,3.69514007243,2.75633522375,-0.0331242737867,1.77015478171,-1.28604047725,-0.611357382672,-0.895664649574,62.7990989355
off_to_on,-1.53209976016,-2.56775797616,0.555121866646,0.957528112126,1.51471798353,-1.2930952545,5.53962717244,3.50363264823,-0.0328844848251,3.75696729064,-0.720921679395,4.41632762284,0.15425212135,-17.2659454119
off_to_on,1.57053740705,-2.13304451181,-0.035818690305,-0.347954282772,3.82058997539,-1.86919826337,-2.78210185504,-0.0636663675,-0.0246916180602,1.10984801801,0.947436414408,3.48023960484,-0.42870713726,-104.547614808
off_to_on,1.8912259684,0.274365579629,-1.21554443738,-1.73594155427,2.79483336873,-1.14024284524,-9.83632513773,-4.80497241066,-0.0146512523463,-4.10859612848,1.49450770448,-2.86690578245,-1.44866275705,-66.1968515161
off_to_on,0.337577621908,2.73071524813,-1.287849109,-2.44254173483,-0.789705519528,2.44738461076,-4.3643138185,-5.28985713298,0.00128449044144,-5.24147840918,0.172835102785,-5.91250093507,-0.347994593787,42.8012344429
off_to_on,-0.516207578757,2.79882091324,0.219479386233,-1.532644218,-3.80815369786,4.03094424312,6.50138464233,-0.90793945658,0.0224465642548,0.0117419620339,-1.37536575069,-1.30032849125,2.35356856882,71.218249811
off_to_on,0.589533806527,0.793786888387,1.81825967087,0.742438644287,-3.28040330687,-0.00435758913663,7.53318180932,3.40975202011,0.0371017740542,5.84644713787,-1.31530352419,5.01775036678,3.42825594491,10.0232211107
off_to_on,2.07583700299,-0.836945735224,1.82053194542,2.58681181959,0.473098428858,-3.92896005087,-0.775522179833,4.13501389572,0.0344410477833,5.51742682233,0.22086121472,5.32962969282,1.4532689891,-18.0039771194
off_to_on,1.25915038307,-1.10574030158,0.305269251784,2.39621065117,3.68200791239,-0.513138017399,-3.65446647363,2.84720035762,0.016062210129,-0.44711986655,1.52209536831,-0.0766090727944,-1.5867813984,22.4907944658
off_to_on,-1.84239900966,-1.20846361887,-1.09802013768,0.532787313186,3.07749491869,5.72567875849,2.926017502,1.68646782336,-0.00711982849831,-5.45382969059,1.25382300195,-4.62542280412,-3.23491703598,32.6773929674
off_to_on,-3.70114244456,-1.57488469348,-1.21162711131,-1.2084226489,-0.459671585705,3.37592793072,5.38523601535,-0.406875829236,-0.0251125736646,-4.67585513197,-0.304890396485,-3.93735618596,-2.87029159337,-31.50773981
off_to_on,-1.79427719227,-0.865079391325,-0.578252220224,-1.64056950758,-3.1166382038,-7.12872066042,-3.7375906453,-4.00288229088,-0.0337608433095,0.348914527594,-1.62080766063,0.312105740208,-0.999823861725,-74.8852028765
off_to_on,1.51818631233,1.10649367645,-0.42822250366,-1.08022502994,-2.52982156307,-10.8964662898,-11.2787121309,-5.72161209081,-0.032357879736,4.15576605671,-1.34819789658,3.43271244407,1.48437309922,-25.5316125604
off_to_on,2.19512969607,2.04007459283,-0.734439071973,-0.390943419576,0.136407017897,0.0297244724914,-4.25018837546,-2.74650707714,-0.0201253721567,2.96958531846,0.26701436968,2.44518220645,2.94463476731,43.3913398196
off_to_on,0.503102502521,0.61944987392,-0.161337196086,0.0845982673809,2.15238479086,12.6435053106,7.77969910258,1.94629815581,0.00249639606919,-1.63113239087,1.46728110448,-1.33044839168,2.07160161644,38.4630653749
off_to_on,0.197176578247,-0.848308263984,1.68229322919,0.459395091014,2.01311393958,9.97734622978,7.3675303104,3.61123252434,0.0285144384665,-4.06588367925,0.95226235308,-3.31672414364,-0.0290063117062,-5.10436701403
off_to_on,1.87253248483,0.144562199386,2.87084242502,0.780394624455,0.257471035768,-4.34087443021,-2.12098175107,2.93658480742,0.043822803517,-0.780128111514,-0.397855754664,-0.576490015909,-0.827382699443,-0.829299406583
off_to_on,1.60542028883,1.84851655701,1.3062930352,0.932452330959,-1.36121555375,-10.9913913293,-2.37761556613,3.69371072384,0.0374951975507,4.78864516472,-0.641334077634,3.8478917892,-0.0752603351746,34.1904960184
off_to_on,-2.18451628314,0.600871878827,-2.01094974737,0.754834129681,-1.29577683266,-2.64845627736,7.69271429675,4.41966274771,0.0132637309455,5.34886487824,0.383532360098,3.85752840473,-0.214278564942,17.6899512328
off_to_on,-4.89472136941,-2.95731954201,-3.49508643286,0.0799137689571,0.30704501756,6.69158252938,7.8816679168,-0.445277836939,-0.0136765235385,-1.01407511537,0.677276945977,-1.43677932,-2.06335892973,-43.7961283158
off_to_on,-2.18031444548,-3.90687590501,-1.40670788757,-0.96674019186,1.40123031929,3.63677309729,-9.40842047508,-9.67788585704,-0.0316562274102,-7.31513006413,-0.802077584244,-5.57199976621,-2.77002406937,-59.5312961709
off_to_on,2.96733616031,-0.214762204936,1.67140172073,-1.58573836038,0.250738124812,-5.49217786906,-21.9427771349,-12.7440543387,-0.0388260266342,-5.95694136651,-2.06766226316,-3.23105563025,-0.139513009741,-6.41272259565
off_to_on,4.08724881237,3.75402828689,2.10844430738,-0.866111361562,-2.05008398975,-6.05683662393,-8.56304903262,-2.96272618414,-0.0346347169625,1.45672875764,-0.72550283551,2.27306198685,3.26245918334,36.1594439203
off_to_on,0.503296334083,3.18074385078,-0.0433977420735,0.824283143697,-2.43810068906,2.67169556674,17.3742832542,11.4849602267,-0.0153330755562,6.30960251343,2.15091983179,3.88880293869,3.29260318879,20.3550853493
off_to_on,-2.19766458672,-0.504199096091,-1.43885120515,1.66209446393,0.28397980218,8.13520324596,24.3931255343,15.7941275989,0.0156762174792,4.15977610579,2.90575489064,0.888249283115,0.174226709606,-3.53710860278
off_to_on,-0.737847841052,-2.10059885115,-0.218659579768,0.452891330303,3.58345621383,4.01237617428,5.65418230491,5.91458330252,0.0412507397138,-0.625272487369,0.255417624534,-1.13237187387,-2.01055600072,9.37574627504
off_to_on,1.67910781554,-0.231535718517,1.71296552753,-1.45318578193,3.94337330537,-2.57870279269,-14.3732748381,-7.68646887788,0.0445898150488,-2.18678712187,-2.68704080526,0.399159744627,-1.28963809613,21.6837770455
off_to_on,1.1036170017,1.36188440335,1.72859700028,-1.47613323953,0.72580770892,-4.22833697055,-15.2627896757,-12.9345083649,0.0268034278597,-0.746367193706,-2.41393358534,1.54048930119,0.110427765204,-4.1324646439
off_to_on,-1.41648573622,0.0250348853209,-0.080962627936,0.799509382618,-3.36434825072,-2.96772217911,-3.74390418344,-7.73092941797,0.00230293505429,-0.20188830691,0.471763100458,-0.818699955308,0.0366686149066,-26.6332718347
off_to_on,-2.32708860412,-2.04991439745,-1.71011078691,2.69219760888,-4.97647591702,-2.78194083709,3.60151157119,1.5596906177,-0.0192391924754,-1.3871800534,2.35740745668,-3.46054882122,-0.511322929601,-2.50471192125
off_to_on,-0.890810681897,-1.68475145731,-2.08703595417,1.61853816892,-2.75291946645,-1.33127558439,4.06833423019,7.89570690551,-0.0359297516135,-1.67021086028,1.37784444606,-2.10749778299,0.028403387757,20.2559906684
off_to_on,0.804463789523,0.521280425637,-1.53244858644,-1.55180398706,1.7264115734,3.9174089531,4.54979924035,7.79619865309,-0.0420574819515,0.00107572809428,-0.772813833057,1.61871125618,0.788979201774,-21.7465332311
off_to_on,1.35124207886,1.62877354704,-0.275352164768,-3.39086652475,4.79639697671,7.52852388752,5.16891149159,2.06578462231,-0.0284681964813,1.52803659839,-1.65857885931,2.8235024926,0.193519301777,-76.6850521703
off_to_on,0.984981234299,0.887854317628,1.61326929507,-1.94032765474,3.57265100918,2.85465996855,0.944650607865,-4.37430465111,0.00168643671172,1.36930511625,-0.926451939176,0.741422261231,-1.03260808227,-31.2024051487
off_to_on,0.248927377523,0.197059610374,3.03962482602,1.16137158124,-0.769589198236,-5.87849060301,-5.48739386958,-5.71948118688,0.0295788261299,0.693137866347,0.243883129354,-0.938242994856,-0.820769451224,102.999632962
off_to_on,-0.212222716563,0.579838058742,2.46601495309,2.7766089533,-3.4849217051,-7.36161782452,-5.8185130885,-1.31524771151,0.0394191424488,0.793726832417,1.03264756115,-0.264058544898,1.03078421406,161.780021638
off_to_on,0.321430514791,0.70956513504,0.0403357030159,1.70441043461,-1.60719292943,0.61527820149,0.215525212497,3.03629685355,0.0321432885507,0.769433451462,1.24723833608,0.744518735328,2.4479151437,37.0219539457
off_to_on,1.05728219609,-0.550512669324,-2.23129990877,-0.457522402095,1.98678726743,7.17810352082,3.83171799489,2.19731613975,0.0164047671453,-0.621468192064,0.657050223413,0.302942788097,1.66422457545,-157.845395033
off_to_on,-0.211566048077,-2.02277268604,-2.85109275541,-1.42458391681,2.03584887947,3.51254926725,0.972929371849,-1.63475458468,-0.00294951702556,-2.35481046918,-0.622721701428,-0.526395570323,-0.931956359575,-204.217337664
off_to_on,-3.27641818755,-1.78854169593,-2.11446380332,-0.600803542918,-1.88439224835,-5.01150572324,-2.23982970965,-2.41673446085,-0.0211279361505,-2.25900209126,-1.49038982656,-0.559661541006,-3.24864282661,-39.359542353
off_to_on,-3.92804261718,0.0697822511859,-0.702752201032,0.635692954028,-4.40541323397,-6.99385528287,-0.445742733443,0.959574993776,-0.0308314219477,-0.160589615553,-0.893605982723,-0.66341267419,-3.14217675341,163.121229576
off_to_on,0.457641846636,1.50655126533,1.34236877437,0.655392822567,-1.54927026902,-0.504643155685,2.75129897193,3.42804878551,-0.0325416758774,1.68779825575,0.506278054349,-1.48107501638,-0.360831594644,189.888183231
off_to_on,5.5361070569,1.12144454508,3.31092238357,-0.61561806597,3.76383892416,5.93688246258,1.87192600033,1.45686503315,-0.0327925773779,1.46661297746,0.914524142411,-1.44216249082,2.59414651176,26.9714502416
off_to_on,4.76741939399,-0.145924664895,3.20355398943,-1.65229406012,5.49769480773,5.70862004267,-1.53099794328,-2.085374085,-0.0210368424671,0.0178268514001,-0.0778126392699,0.822036953144,2.76557885995,-134.393968573
off_to_on,-1.07695854961,-0.292852342758,0.245338544098,-1.07491050554,2.09095345549,0.969305414762,-2.45709998784,-2.63491558587,0.0270543938305,-0.357095163376,-0.764981449828,3.62390849233,0.585124775347,-126.202515911
off_to_on,-4.47769915115,1.06530408116,-2.98142649872,0.765506168823,-2.36786292117,-2.93439952072,-0.588621641155,-0.393059221078,0.0949693992185,1.01585776403,0.176104829605,3.86718806143,-0.439340051444,6.88661310289
off_to_on,-1.97932325339,1.88507570866,-3.0933437679,2.18181887454,-3.85474990649,-4.17650693776,0.693103500967,0.90317885582,0.101826030588,2.00221643198,1.53111317636,0.817320663662,0.896410979794,85.2841093859
off_to_on,1.2906081197,0.134884456487,-0.345913514998,1.9712066329,-2.50893456062,-3.49115614487,0.591808488261,0.0191120842609,-0.00585379271236,0.208414936532,1.14944418185,-3.21040616847,1.08264366359,33.4971169683
off_to_on,0.430448565847,-3.08726798169,1.64447463081,0.442308341941,-0.664659257292,-0.919383700462,0.866993935808,-0.398688541417,-0.141433718381,-3.34858799226,-0.845976721039,-5.21594820018,-2.36314931936,-39.108979886
off_to_on,-1.58300650162,-4.02785125551,0.885500393862,-1.2632712255,0.649359679859,3.00809080167,1.23605289278,1.4260874659,-0.139422486437,-4.40487067949,-2.01455349011,-3.55415770894,-5.33834890573,-18.2228553778
off_to_on,0.165071619655,-0.786866294681,-0.565377324412,-2.21944913994,1.74328502889,5.19670697723,-0.103722134776,3.16362774953,0.0273290295589,-0.56436299921,-0.958424034526,1.09273791841,-2.18792404532,46.3718151658
off_to_on,3.36403628473,3.52726745567,-0.217523463475,-1.94045959115,2.33718619749,2.76892415666,-2.13100041452,1.44341051852,0.167722217299,4.57324788799,0.742167144952,5.27779195921,4.66561411335,34.3658469431
off_to_on,1.97985348278,3.96422840088,0.984279956576,-0.391784138083,1.5613503482,-2.49865941831,-1.88465793313,-3.18321195759,0.0981841952209,4.77225759859,0.842479492741,4.76983764451,6.25031233384,-44.3888600782
off_to_on,-3.09483535329,0.104901968709,0.562110769702,1.56262309123,-0.326106534492,-5.22914407516,0.445151769515,-6.08917798062,-0.0982469934567,-0.812064964149,-0.35736951079,-0.652756510227,-0.187133331759,-65.4684356757
off_to_on,-4.32043184498,-2.88627547203,-1.05397825857,2.31535082027,-1.6469079298,-2.47385955633,1.65399660916,-3.52491053611,-0.162232333997,-5.47803175294,-0.547467030359,-5.26256777985,-5.95424928731,5.84991493091
off_to_on,0.875861477721,-0.888191615744,-0.924259553895,1.09768484953,-1.21541467023,2.81644135316,0.916292786881,3.01526717677,-0.0096018148572,-2.92207414518,1.0843462801,-3.22873941531,-2.67364872245,58.423035709
off_to_on,5.55860654078,3.25899124405,1.44923019633,-0.772412066981,0.0878313004956,4.95656701747,0.652493939352,7.78669593095,0.148480494398,4.27093400119,2.39662037819,3.5012265392,5.31962077134,18.3507166033
off_to_on,3.19374344881,3.04211593264,2.50420383221,-1.22887993774,0.289490870267,1.55140076028,1.37185020328,6.22249335896,0.103310804727,7.15387619162,1.0533018558,6.40888779038,6.59301897893,-35.3069464221
off_to_on,-3.1947077163,-2.82870259183,-0.382989689778,-0.114059722186,-1.08086304409,-3.88981380626,0.33641966589,-0.588127414808,-0.0613806915462,1.43404014363,-2.14998118728,0.90078033813,-1.40105713781,-11.6148681277
off_to_on,-5.81569568162,-7.72255362177,-4.291117481,0.600567466312,-1.94600613225,-5.3387277793,-2.93378935705,-6.88316813452,-0.109048125851,-6.99931251297,-3.85359276551,-7.19854289174,-8.86194830531,39.2902470685
off_to_on,-2.45998394787,-4.85114211018,-3.88094789394,-0.326973806689,-0.0954319965918,-0.719075902878,-4.32613766378,-7.6725623061,-0.000274092709262,-8.97540489786,-2.01310827507,-8.29030790705,-6.93309876498,19.6014704282
off_to_on,2.31170427135,3.99661098863,1.30527824537,-1.49515639654,3.33413218466,5.11451444689,-1.13784851894,-3.01021975191,0.0737594125404,-2.45792657522,1.66084036066,-0.612785675657,1.57158739208,-43.7092185485
off_to_on,4.12270529071,9.87468540048,5.52051321345,-0.854844629297,4.25000743115,5.29290716492,3.28200488425,2.95849994151,0.00258324175378,5.94105561955,3.60793577319,7.83890977512,7.43131278297,-45.368558946
off_to_on,2.67594137098,6.7093891852,3.89649694748,1.16527599448,0.675282436995,-0.669968031278,4.26012686211,6.21994469304,-0.0833341400077,8.76101662552,2.30725353194,8.80564136535,6.41889498915,17.5424044085
off_to_on,-0.152525849248,-2.09276407078,-1.32672745788,2.05634495702,-3.82221975042,-5.53252071296,2.10583307499,5.54231841134,-0.0371896162433,4.7572081737,-0.4022312723,2.39418571902,1.63284550988,43.5254952932
off_to_on,-2.27063958674,-7.86417209705,-3.86899129603,0.70586838225,-4.06648571419,-3.2076939623,-0.00166824071744,1.99988270106,0.0715489664075,-1.61588740184,-1.81163621327,-4.55890719953,-2.51545749198,0.730123218823
off_to_on,-1.90502605662,-6.0977550309,-1.60638965544,-1.06488465426,-0.211892550509,3.0437617334,-1.56650280919,-2.33355016376,0.0803266319442,-5.43764212602,-1.32701202347,-6.41926158212,-4.21584354129,-26.5188872651
off_to_on,0.546963146729,-0.221015539444,1.24890505872,-1.09647282073,2.28418379105,4.69914263083,-3.60667771745,-5.06354457479,-0.0079174100579,-5.01270953682,-0.422007005549,-3.33618476465,-3.38279002789,8.72125662039
off_to_on,1.65776361191,3.44112298347,0.606909853533,0.193908879342,0.429434717763,-0.515789269494,-4.13538707651,-4.54352761658,-0.0486373238007,-1.87840046395,-0.197507833149,0.745933975156,-0.9271820709,36.6329780626
off_to_on,-0.87899894841,2.60633369788,-1.83871732762,0.687235685721,-1.92212065766,-5.50049102408,-0.505450047037,-1.38521545256,0.00112766115074,1.13483486381,-0.136891366481,2.45659784237,0.936152816393,-0.773739910584
off_to_on,-3.8829924368,0.175359475346,-1.63714963572,-0.291610701587,-0.00867170074515,-3.41705518126,4.4463197084,1.79522901061,0.0290131453123,2.03479006174,0.490957119662,1.3567128315,0.608583119473,-45.5594654669
off_to_on,-2.25709527093,-0.341442770546,1.58054149303,-1.16957078651,4.17153286092,3.36808896981,4.63941179566,2.95359169326,-0.0271162992885,1.07973991349,1.11077214082,-0.459779859808,-0.338657909759,-25.285286853
off_to_on,3.25074808841,1.13901503001,3.6065454166,-0.564045467335,4.26178744304,6.81588055677,-0.108226574708,2.41267228719,-0.0730546810803,0.376576642741,0.697369072505,-0.445884384939,0.972881944292,22.9924691865
off_to_on,6.21506113382,2.02924072897,1.88024623323,0.788505760366,-1.16100295103,3.24660924244,-3.10993984851,1.54235483977,-0.0220825980401,1.43530926715,-0.401265247316,1.88854670817,4.00194473948,21.5963479253
off_to_on,3.26116137579,0.631863936979,-1.11197268369,1.2440751852,-6.11159944732,-3.41739368192,-0.902293280218,0.634528529203,0.0583796232698,2.99905919986,-0.747881923771,3.97775818988,4.58481445246,-13.5771459757
off_to_on,-1.80797116887,-2.04340476331,-1.976332363,0.524690406633,-5.07218738345,-7.06808941621,1.70450866142,-0.727776095677,0.0596742170008,2.15109113153,0.0339007337505,2.43852206409,0.469948567449,-9.01063533567
off_to_on,-4.225241317,-3.65707210021,-1.14997502565,-0.225359002798,0.294248651414,-4.90126853956,0.1259262618,-1.95700710941,0.00339741848636,-1.87290584663,0.611582836814,-2.84156140806,-5.15940398514,30.8185889045
off_to_on,-4.02810322591,-2.8410054087,-1.05395870653,-0.290162069983,4.32128205721,1.56341108531,-2.32622595312,-1.90094000605,-0.0122893484753,-5.77945894287,-0.0295434214319,-7.35816333407,-7.16012923017,30.5532435819
off_to_on,-2.95761921979,-0.111971317041,-1.47736418233,-0.189829109807,4.34139553261,7.48487237763,-0.825623964536,-0.953050362744,0.0174297700698,-5.38395691351,-0.973567025661,-6.11376748719,-3.97862914483,-20.9515833295
off_to_on,-0.251668856439,2.72012448868,-0.190560552974,-0.487146484342,1.84107035433,7.14415811337,1.7891584167,-0.819338965338,0.0104355201592,-0.638361019985,-0.762005571604,0.5478808587,1.48796537271,-46.7141371147
off_to_on,4.14374995609,3.77299042265,2.45047015571,-0.750619829493,-1.16569282212,-0.596814378556,-0.0857693802596,-1.50245857191,-0.0457122878195,3.9257144357,0.337238902693,6.5169742959,5.28067658018,-10.1863328168
off_to_on,5.98921865524,2.39090108053,3.17027083316,-0.308470823916,-3.48117771569,-8.63443988614,-3.59790198463,-0.413706211514,-0.0661389087772,4.47998292928,0.776538296986,6.44869377334,5.40557417914,26.6643878442
off_to_on,2.08696945169,-0.218612968703,0.817699420546,0.547489544686,-3.49299695652,-7.66053390711,-0.601948592806,3.76452679014,-0.0131957198899,2.26415773209,0.202428956643,1.79745703898,2.61928165071,11.0516351536
off_to_on,-3.18287820433,-1.96360999984,-1.53325597197,0.884991373707,-0.325886968786,2.14394099265,7.60597321348,7.47964028268,0.040401277602,1.09526048219,-0.0445366368466,-1.4914488966,-0.479924158788,-17.0631989108
off_to_on,-3.06325734506,-1.92351880355,-1.26331986191,0.448921742261,3.44559414815,9.44946655189,8.83061646946,5.20451784261,0.0332009805853,1.49433982901,0.699387579899,-0.950973986119,-1.83292938554,-3.20973569441
off_to_on,0.98348679535,-1.13718358876,-0.142642789722,-0.0835801137981,3.50029267637,5.27939420456,-2.32288189754,-3.41568050873,0.00690569647412,0.082205569293,1.03060349764,-0.42600892586,-2.11178337065,26.8639080382
off_to_on,1.12314115667,-0.935338312623,-0.926155839452,-0.183947650205,-0.55019107417,-5.04475136763,-13.8360014996,-11.2546800871,0.0182315950566,-4.49484328196,-0.393017526787,-3.53824339386,-3.35447341891,18.456867344
off_to_on,-3.85320871692,-0.992505706834,-2.26594996912,-0.100829067599,-3.77717230593,-8.46714211154,-11.0718252759,-10.3571936005,0.0360158692472,-7.88861380575,-2.30350863047,-7.04692461014,-4.84822911735,-14.6134189818
off_to_on,-5.45714859153,0.0592069380577,-0.7636208682,-0.191702740956,-2.07645158426,-1.19949559032,3.19949834488,-0.590875322765,0.00303594916093,-4.91900168919,-2.06952225045,-4.42590142444,-2.79078377249,-19.1837516087
off_to_on,1.14458382383,2.2074625768,2.83418698865,-0.29411540803,2.25559899689,6.844428714,12.6755074488,9.66833676558,-0.0531681795555,3.10334884571,0.60430680234,4.42153981974,3.82139917272,1.30998717758
off_to_on,8.17440963211,3.40914430199,3.76310552664,-0.192560217478,3.50581229411,5.70361677685,9.05188816365,11.7773890811,-0.0578180167312,8.94895848573,2.83673314474,11.1251010883,9.24848273125,-0.396887048756
off_to_on,5.99624033815,1.96322173751,0.326333913171,-0.136494072561,0.119339526572,-2.12428421976,0.0623257752077,4.96722266623,-0.00938914662622,7.60850227407,2.08867596718,8.3996206606,6.82503139865,-21.0787356992
off_to_on,-2.42647921121,-1.15566561392,-3.03673859509,-0.278762763761,-3.39477493956,-6.43157461529,-4.46805961066,-3.95578176669,0.0226788347723,1.38778641327,-0.636554156854,-1.09802536568,-1.85217860868,-9.21807326046
off_to_on,-5.92558201532,-3.15971842386,-1.93520893123,-0.0866350076306,-2.46310411771,-2.86986892312,-4.74485470778,-7.96584684816,0.0122045843456,-3.88550000396,-2.17335363672,-8.15297212184,-7.77668198885,33.6938326607
off_to_on,-1.48914814916,-2.46985369468,1.66290033869,0.815858445938,1.78201980229,3.15282567835,-5.05479770827,-5.83653902222,0.00567174358464,-5.34608076955,-1.13746936488,-7.60670639859,-5.56974171484,39.0329723279
off_to_on,2.55767657215,-0.23887364109,2.40011021208,1.5105436424,4.07072051953,4.90234107221,-4.11663478152,-1.37406575212,0.0283573799405,-4.18235466652,0.744321542952,-2.52089905537,0.242619542048,-14.3092485467
off_to_on,0.20182822726,1.17679924711,-0.850078351478,0.662069092374,1.44038149487,1.81214711169,1.09617056663,1.5728490913,0.0391296663858,-2.21799031639,1.174218723,1.53075086548,2.25543533597,-50.1212603862
off_to_on,-3.81315584475,0.783348784315,-3.74261892493,-1.30449373804,-3.30538679218,-2.21004938673,6.79690764705,2.31522457435,0.00720470530939,0.0100808167946,-0.00189615514261,2.7226755708,0.0602472333093,-9.29850982542
off_to_on,-2.57082881925,-0.234161310565,-2.54642360992,-2.16116784187,-4.83674029881,-4.0515414092,6.2368753932,2.36620817925,-0.0314949752941,2.26080612009,-1.07531960147,2.59779738011,-0.775213104911,51.2747430992
off_to_on,2.54153276713,-0.100627630655,1.48316718428,-0.729330142253,-1.2800691855,-2.94041780757,0.479987688267,2.76712068454,-0.0346428598452,3.83486377413,-0.726742599305,2.39585195567,2.17828080098,41.3082468546
off_to_on,5.0789283215,1.33997216645,4.35003361399,1.28572064698,3.7593571617,0.549727893158,-2.74548931962,2.82945086503,-0.0181239953498,4.08354560625,0.647633049245,1.93405693254,4.78326177124,-27.7696196048
off_to_on,3.10382833998,2.26152371377,3.70259680307,1.47468246323,5.23873114177,4.31759328039,-1.15360773265,1.1037554543,-0.0149835051535,2.57452984646,1.57402142416,0.817488963745,2.6829599869,-66.6855333993
off_to_on,0.0216003553674,1.00490412958,0.258747279661,0.00938325561646,2.05411530903,4.97724083543,-0.729562089985,-2.54297443361,-0.0127751648255,-0.800420580506,0.999294867888,-0.979355155634,-2.51748528317,-39.1990038768
off_to_on,-1.83136845794,-1.64018929251,-3.32148228455,-0.798183960338,-2.33707210664,1.07438313725,-4.20992618253,-5.7372413356,0.0151475589761,-4.56521607015,-0.70981980759,-3.03512508596,-5.45231647713,11.0637695889
off_to_on,-3.1018535792,-3.11616144186,-4.21375016679,0.00493846109529,-4.20340878702,-4.22441334636,-5.07556356658,-5.19198581661,0.0469160736008,-5.46962015424,-1.98726634539,-3.98132213832,-3.55338335264,49.0671556895
off_to_on,-3.74571770407,-2.21918114074,-1.67841585085,0.778214577158,-3.05488127037,-5.91481155638,1.4060913917,-0.444630150913,0.0391680451518,-1.94781168139,-1.49510008635,-2.27799803714,0.572704793111,75.3597046498
off_to_on,-2.26229385166,-0.415873383385,1.69468956882,0.0836146828088,-0.642538127211,-2.74488322705,8.02542480568,4.56118259946,0.00026755055319,2.64106411635,0.405980951114,1.28561302376,2.71738570498,64.7853370582
off_to_on,0.987497146773,0.654854062335,2.46124663677,-1.01112441,1.73415910047,1.85491358085,5.13247870019,5.29748152977,-0.0209533763883,3.28271163733,1.87863500195,3.35063825761,1.63055086055,-21.0341756104
off_to_on,3.40124420776,1.58121552666,0.622462330115,-0.727911016901,3.43157740771,4.4020008731,-3.56011163153,2.05133453534,-0.0132554830771,0.227382679702,1.60076180678,2.08763351685,-0.148782987291,-130.657503331
off_to_on,3.68024272379,3.31989107305,-0.426926297332,0.529319667114,3.25677226224,4.50636106445,-5.15553682339,-0.591381131974,-0.0124600705126,-0.927190740997,0.179478815283,0.115779344292,0.333371135904,-133.312576928
off_to_on,2.75696005886,4.01727205472,0.925122092438,0.852491803411,0.490259095757,2.85668740211,2.53316925844,-0.255660739425,-0.0295553468263,2.3271641102,-0.862594132997,0.758539183678,2.46831875306,4.87311594558
off_to_on,0.98837432525,0.754247828047,1.88515090629,-0.114052473825,-2.9007596324,-0.824749102444,6.47671307107,-0.00168942604341,-0.0280257040336,4.75865426411,-1.04054356916,2.49872121573,2.39709641996,139.563235089
off_to_on,-2.17101835965,-5.04296467284,-0.242362849284,-0.711826965188,-3.45751118891,-5.53622756087,-1.73384288584,-2.92085280236,0.00879166173824,0.759100095281,-0.994718372528,0.799512621102,-1.74255484942,126.434099279
off_to_on,-5.11172464742,-7.25197691698,-3.26823551404,-0.0222951433958,-0.612002536926,-7.15781225999,-11.5842242191,-6.09494432346,0.0407294951222,-6.46828954662,-0.888953114196,-4.41310298601,-6.05422405648,11.4745350982
off_to_on,-4.45792458682,-2.44294122824,-3.01095884934,0.741194370326,2.01123434491,-2.64825940675,-8.10598954728,-3.97605087323,0.0317220728794,-8.18017068721,-0.00699217186481,-7.15574615615,-4.86193267124,-57.8273935089
off_to_on,-0.0998789965538,4.666806414,0.349358436126,0.355484116892,1.18621770335,4.55913712226,5.8299469541,3.03488884635,0.00471247523505,-1.8152272844,1.62557065321,-3.15620702623,1.60877711979,-52.0376039574
off_to_on,3.51417057538,6.41948429855,2.54318323942,-0.442739896424,-1.4709702207,7.2818712974,13.2234031888,7.97603327952,-0.00164420866777,5.70009974947,2.41035774824,4.01192585064,6.56920672182,-56.2224017199
off_to_on,3.22393197216,1.79889569176,1.61289406688,-0.356685666904,-1.72150918716,3.4594811043,6.87306841912,6.22100958038,0.00385058253774,7.21926909515,1.03820535135,7.35512469786,4.91872387431,-76.0663233364
off_to_on,1.24644073246,-2.84433331918,0.153115446984,0.230738179271,1.34041006104,-1.34371662195,-2.61899015885,0.780601284933,-0.0102808168004,3.26081284048,-1.43624461854,4.78668014357,-0.65360815403,-15.206232631
off_to_on,0.872065945102,-2.63323981853,0.333918140668,0.0304674741387,3.93467543165,-2.01190356856,-4.79834230589,-3.19894256774,-0.0347744903979,-1.25729615084,-2.58138369294,-0.0147079085118,-3.92683664713,120.4839611
off_to_on,1.09280325737,0.235137937141,0.551037306313,-0.732155730796,2.54696671321,-0.729646699292,-3.29412619461,-4.97837285856,-0.0315347669229,-3.74150003191,-1.49446979891,-3.33079431435,-2.96659406587,162.508903588
off_to_on,-0.850787935629,1.14922431671,-0.92953590158,-0.504528661568,-1.73306074117,-2.2862700493,-5.24219612923,-5.85225287141,0.000930595672009,-4.18074809198,0.366281388531,-4.36700899086,-0.627320042472,20.8837459035
off_to_on,-3.78767445029,-0.330784440002,-2.31430893219,0.898813670285,-4.77998531988,-5.3480865629,-6.84148112172,-4.15244333272,0.0232312091365,-2.29293610737,1.28950463916,-3.35736659929,0.805319461486,-145.391687964
off_to_on,-3.89742659634,-1.41030579984,-1.26505295156,1.56286071137,-3.98974622693,-3.78907781246,-0.369322818443,1.82669096041,0.0178360039178,1.29655667008,1.11861059601,-0.668051438085,1.4732797195,-134.725736218
off_to_on,-0.761016248492,-0.997511746017,0.894576483686,0.215797835346,-0.238565713846,3.45053815204,9.91285148021,7.85694001101,0.0104553904788,3.2708753535,0.621059819556,1.8786775042,1.27192756434,10.5905052695
off_to_on,2.19044196948,-0.132543787917,1.38995757539,-1.64975799397,3.59747824339,9.20184436571,11.4349505069,7.21282244659,0.0181166119497,1.48734968605,0.169289474815,2.24788631499,-0.322784224199,83.6147294195
off_to_on,3.09306759178,1.01141336839,0.651570562371,-1.64073039561,4.82926004231,6.97511578907,2.15208129712,0.447812438038,0.0181614643712,-0.841678629276,-0.213399363617,1.41889472792,-1.5172940196,26.6808599963
off_to_on,3.16353443578,2.69691683457,0.908064077315,0.291856316432,2.50785899933,-0.826844482063,-6.08230606956,-4.38894130614,-0.00909799267084,0.446431687491,-0.327644413466,2.00482927102,0.264434961986,-16.9863367015
off_to_on,2.46316200912,2.90676544763,1.33471055287,1.82323160019,-1.64255948837,-6.63906755777,-5.35363795024,-3.07602029801,-0.0394976462698,2.96458386749,-0.218107113321,2.98047087903,3.07139787008,31.6793292436
off_to_on,-0.876926216273,-0.599387382263,-0.744931571389,1.29521490387,-4.09664047335,-6.84661136755,-1.89339627883,-0.684339925319,-0.0356598683145,0.582666725877,-0.497415865108,0.161181758432,1.53768648013,61.8645057893
off_to_on,-5.44768597294,-5.10462201914,-3.87142696088,-0.433025692628,-2.778069774,-3.58977470468,-3.14975640544,-2.27833582736,7.38461207316e-05,-5.82485883189,-1.26902493402,-6.00216559258,-4.28845089296,-17.1409326716
off_to_on,-5.63597696407,-4.51402485739,-2.93216678514,-1.42395524369,0.470752026367,0.384501198386,-4.71861434172,-4.106136963,0.029578418294,-7.24885505053,-1.29393476765,-7.9853446033,-6.39891389377,-103.915124285
off_to_on,0.43514167409,1.83462105295,2.58663523242,-0.978606091604,1.92307062451,4.04163645681,0.772758859822,-0.17162807721,0.0266152415359,0.602480491148,0.452549611921,-1.05916620991,0.21806437544,-65.8134043817
off_to_on,6.06863385658,6.31766319545,5.83413202228,0.0506669021592,0.588348374606,5.76132494427,8.79718112191,6.50269757871,0.000627182532226,9.28272287044,2.65261391757,8.0100781979,8.28510020562,43.0874874267
off_to_on,4.16244306396,2.75818326699,1.76081238422,0.65381696076,-0.7240034311,3.58641489484,8.48058306549,7.1659099169,-0.0216074730605,8.07479319245,2.69525524659,8.42458853501,6.78929214204,71.7789665995
off_to_on,-2.3102384499,-4.27728545942,-4.76513235694,0.642478526225,0.425757750668,-0.953338099512,0.104265273824,0.730594002633,-0.0224740269346,-1.36298528364,0.189002593685,0.0936674149396,-3.06250300914,10.4487261962
off_to_on,-4.03299750558,-5.15769501586,-5.08276639709,0.381547597466,2.49545041321,-3.23683639755,-4.91048053535,-4.35472335323,-0.0031413738817,-7.61107685911,-2.16836668519,-6.11386359602,-8.53455274269,-18.3387106735
off_to_on,1.07515069439,1.27613679293,1.06657550196,0.140966308754,2.06079908957,-1.75542433729,-2.1103824073,-3.01555441882,0.0238370083855,-5.10563416351,-2.09608580226,-3.67929867156,-3.08819680448,21.6454096397
off_to_on,4.64631764146,5.92720330243,5.24536799814,-0.0758656010007,-1.33821768865,-0.430790148962,-0.261016792287,-0.455962186045,0.0475133679787,0.190091069933,-0.643051593306,1.28168581685,4.67029925149,32.1167352242
off_to_on,0.292917090882,2.26995156782,2.26499343066,-0.299842927232,-4.33271976115,-2.17459665822,-5.23901456372,-2.27996717807,0.0568910227674,1.50075055931,-0.158689035042,0.669903887786,4.02873150281,-31.5805882067
off_to_on,-6.55988758056,-4.67023549589,-3.18121941999,-0.443674187649,-3.76675419958,-3.6153996585,-8.56982393751,-4.61009942164,0.0245229753725,0.416078767343,-0.540495539499,-3.05305095001,-2.52540858293,-74.8694944365
off_to_on,-5.95095586273,-5.6498389835,-3.92101191549,-0.420195454762,-0.0793748775827,-0.258719426068,-0.609655117412,-0.647657758023,-0.0761898489386,1.71096307375,0.287872305379,-1.6435208698,-4.15183251797,-25.4890375716
off_to_on,2.68493622591,0.311491525365,0.136637531682,-0.286266784908,3.73314251399,5.57036122027,12.2213333499,7.16120222097,-0.19771215705,4.40106881793,2.43625148178,5.01164324615,1.81558579818,43.8294985196
off_to_on,9.3884011559,5.55355135657,3.35313224199,-0.117288030699,5.12984952989,7.05064529068,14.4102394505,9.34146119602,-0.192679532372,3.54599138968,3.11697360378,7.79303814512,6.5644204161,39.2232192729
off_to_on,6.26810802733,4.343929007,2.50979143058,0.206014958216,3.30697064456,2.34413355645,2.81756519255,2.6900081775,0.043238253926,-1.44231860849,0.627388619464,1.61733587063,3.15327214582,-4.69827604785
off_to_on,-3.19438356159,-0.909619933522,-0.356045155254,0.791018112846,-1.01679924709,-3.3713626245,-9.52200143563,-5.70081872429,0.370505769467,-5.62638383321,-2.71879641437,-7.01944232768,-4.22349008762,-1.12007919598
off_to_on,-8.9446878216,-4.33784922243,-2.15279779939,1.22904745273,-5.47387270864,-5.61611451766,-11.5120281744,-8.41048837441,0.449462933063,-5.2967516655,-3.38492999856,-8.69925492166,-7.09373010975,33.6458554337
off_to_on,-5.7804385795,-3.54299102775,-2.12471699468,0.747018788899,-6.51934833842,-5.06371450463,-5.97974293993,-5.47532645178,0.097204965407,-1.72734038102,-1.17779843843,-2.60576790494,-3.50339587919,17.3735012368
off_to_on,2.010322778,-0.323132613434,-0.932948134916,-0.710810471285,-2.29420673024,-3.01551520128,-0.610482688741,-0.580353891463,-0.430783711835,2.06028226804,0.965315773115,4.3208247443,1.87834368022,-43.9777096553
off_to_on,6.30387700084,2.61483336138,0.74641317921,-1.90147481486,4.38159293367,1.63788397798,3.62683476822,4.39693013782,-0.639422718088,4.56287884943,1.22637327363,6.60074916945,4.86060376809,-59.7792126055
off_to_on,3.73611479814,3.46414000688,1.92655591804,-1.49717768511,7.59000148197,7.48598330821,8.47096579162,7.67817673806,-0.309358506826,4.92932965584,0.739227313043,4.40191773576,4.66726289718,-6.49552836919
off_to_on,-1.52179668137,1.61802174391,1.62570845094,0.173076007208,4.2741278324,8.11911765642,9.83731202135,5.76643165989,0.266204113317,2.26069539976,0.920330537352,0.284151167445,1.87371888442,36.5105378217
off_to_on,-3.05697825523,-1.54659623659,0.277034893222,1.37147362209,-2.16684618644,0.433685713956,2.68117241252,-1.48249377006,0.596156293926,-2.26890603551,1.15330059272,-3.6502461736,-2.18580419486,20.8943178438
off_to_on,0.259270011368,-3.02872843475,-0.616660359779,1.10956676431,-5.55965713898,-8.09441791291,-8.20059706931,-7.34227189613,0.467980801323,-4.92935207438,0.318661964285,-5.23258780053,-4.50916680919,-3.24251810119
off_to_on,3.09947712827,-1.29789387223,-0.666648784361,0.237029689994,-3.73236154647,-7.46900205009,-11.4564738804,-5.46324241383,0.0649456129984,-3.34940470137,-0.978408239699,-2.84122436471,-2.76366935593,9.40901160158
off_to_on,0.692885439259,1.41341224482,-0.886976583713,-0.040727993929,-0.0651717965875,0.890617391416,-4.1041578354,1.1039739392,-0.297362392948,0.322342968624,-1.38630842917,1.82766232179,1.0551975674,21.66664858
off_to_on,-4.49962748143,1.65839795493,-1.40769552201,0.13318077779,1.5546649043,5.71325473849,4.43551331548,3.80051061414,-0.435879481446,2.05869966272,-1.03593892073,4.15448739753,2.3540639765,-4.2970349225
off_to_on,-5.52793632011,-0.64489944579,-0.838584505405,-0.126989093402,1.1852933438,1.86141533923,5.59599336567,0.685954677879,-0.33885940844,0.900608108753,-0.938545106994,1.77062109278,0.0317009858429,-27.1458204881
off_to_on,-0.0987047263271,-2.06317209781,1.10833456159,-0.778297963413,1.17496863074,-3.07988510145,2.11139471488,-1.60518257,-0.0881466012632,-0.506224564511,-0.710815176927,-2.10432705782,-1.93921460078,-3.06574581543
off_to_on,6.03585431068,-0.337771948443,2.27398899566,-0.923827916165,1.88101906362,-1.25139690204,1.01625164143,1.0607810797,0.187494702482,0.163666573064,0.901144530764,-2.43980952891,-0.202413065074,20.2379756314
off_to_on,6.1987780311,2.5770863386,0.999565734622,-0.338928039027,1.36698392599,3.7106192532,2.10273837254,3.8660509086,0.348512109406,2.15026920676,3.0870896819,1.21927386143,3.21537794663,-21.2084294296
off_to_on,0.871944032432,3.10326660706,-1.03090183371,0.247400741896,-0.988266703623,3.29039891325,0.0810020567641,1.18961034744,0.3179128421,2.85435206229,2.9675101041,4.08745874978,3.7644281126,-76.2760011781
off_to_on,-3.74529815461,0.445799477799,-1.02167823302,0.468703963761,-2.90624910561,-2.41977809284,-4.78506170309,-4.03459535455,0.131052529641,0.750825809432,-0.304645696325,2.04580248384,0.362618488228,-31.3426075941
off_to_on,-3.80043761937,-2.77145258915,0.696630299673,0.73897063761,-2.1254525136,-5.33124655336,-5.91746242921,-4.60567708364,-0.10072547456,-3.00785793164,-3.44506127454,-3.25776837278,-3.63293324104,102.80161959
off_to_on,-1.36918288567,-3.66805789522,1.08028832797,1.02910240679,0.521716857615,-1.69153861268,-0.744924045849,0.0867779858853,-0.265512459464,-5.24779582404,-3.00017349547,-6.13179982841,-4.69831332276,162.221229882
off_to_on,-0.0956595135571,-1.82213222114,-0.992733113196,0.486745235397,2.12846691644,3.29646038855,4.72870720799,3.49180057068,-0.294241372508,-3.43886763876,-0.064278729362,-3.19474026946,-2.47925954759,37.8304820111
off_to_on,-0.290706853489,0.967231723714,-2.86174849108,-0.944552902399,1.14982865837,3.75331010155,4.31509582395,1.74088874351,-0.17768239492,1.43173765336,1.43122305343,2.87507055497,0.926167516516,-157.886845772
off_to_on,0.185880785826,2.68795446538,-1.72172730627,-1.67020062225,-1.08744400848,0.311278045594,-0.0550981649874,-1.4154778161,0.0211687343355,5.15848556735,0.484602639783,6.25653950192,3.34201874321,-205.744760094
off_to_on,1.99641075159,2.64814872981,1.60516262973,-0.491429951929,-1.95131412104,-2.60899247177,-2.03917377034,-0.980153932768,0.191381799202,4.56510785571,0.0378790082832,4.17943907215,3.79524039332,-41.097546925
off_to_on,3.27649729558,1.47322358803,3.76736672694,1.23019686017,-0.0877128928728,-2.42530767373,0.0560112747731,2.15035540779,0.248308395818,0.935395507668,1.69766244519,-0.610588518836,2.48267062887,163.416824017
off_to_on,2.16224501392,-0.00712859561419,2.74085938654,1.08691778381,3.01537420589,0.381307307092,1.97414254788,3.06245345833,0.187405009834,-2.0287211314,2.64361082398,-3.6239415817,0.149931460882,192.553241051
off_to_on,-0.898941590896,-1.53370432762,-0.455223277138,-0.851383173456,3.79137822113,3.2577842054,0.190598561783,-0.38098472777,0.0594526940596,-2.85109479687,0.00114467679294,-3.5372065783,-2.44273590334,29.143617123
off_to_on,-3.49716211745,-2.8370802944,-3.14099461978,-1.79531088044,0.12294364602,2.69816958536,-3.58169061283,-5.00942120334,-0.0823836536139,-2.78845363654,-3.92714601572,-2.15098898002,-4.29554615756,-135.732965541
off_to_on,-3.46360122727,-2.83024347198,-3.18261492934,-0.0782200472795,-5.17561079882,-2.04949034987,-4.84509554516,-5.80094419685,-0.190744055314,-2.19448299826,-4.09025101359,-0.599229954826,-3.8242485091,-129.860811738
off_to_on,-0.896858066067,-0.609975413614,-0.570916670132,2.31949858436,-6.10453689878,-5.70645698919,-1.2978926142,-0.822623120127,-0.213716679976,0.356487376598,0.231730263762,1.76833396577,-0.215649225471,5.62118691173
off_to_on,1.76178755159,2.51462983608,2.25142068714,2.30829708423,-0.542930404812,-2.18512703414,4.72194258059,6.31547069325,-0.127958759943,4.16608123901,4.06274861388,4.33225079446,4.25964172815,88.4742503472
off_to_on,2.1201444212,3.50920176579,2.35205332282,-0.228531073495,5.86079235567,5.47698463718,7.67242289233,8.71434763769,0.0187626827637,4.92321597028,3.21785011673,4.0049803379,5.15725499729,37.1491877319
off_to_on,0.540323785766,1.27574460015,-0.337334554444,-2.42000320048,5.79349545714,6.62232673273,3.66904305816,2.89476252844,0.1370268551,0.184256357814,-0.556687113658,-0.56720396728,1.0290227451,-39.9220012014
off_to_on,-0.308624778696,-1.36316337136,-2.3528013634,-2.14870327046,-0.252837837884,-1.85767783227,-4.45900763852,-6.12112376694,0.174836954881,-5.5359314916,-2.57262773103,-5.36403235899,-3.5886404395,-22.3588361286
off_to_on,0.915658304665,-1.1336492803,-0.767000178608,-0.277695308462,-4.3493626846,-8.52315043889,-8.44060917905,-9.04920913587,0.142460086898,-5.14782083184,-1.32102727526,-4.82903723435,-3.14063408165,44.5239435535
off_to_on,2.12457246826,0.948027438537,2.65901916587,1.09291444659,-1.83707033848,-2.68459309893,-3.62516820127,-3.09366893019,0.0660822199201,1.5472143634,0.67866592439,0.782469193702,1.3923915127,36.7042016153
off_to_on,0.581927995381,0.776701904362,3.30363515736,1.20669402031,2.4653626933,8.43744294885,4.38159504742,4.38442221839,-0.0387682758701,6.61102222183,1.07392053692,5.01140764359,3.29912801841,-42.0312264965
off_to_on,-2.9147977179,-2.59452914279,-0.255022639583,0.718096108639,1.66644345279,8.286722277,5.95929896905,5.29194743808,-0.138357429452,3.77664616746,0.184213926143,3.19873582831,-0.609765710142,-66.3566355494
off_to_on,-4.48011032731,-4.67069088051,-4.0886394346,0.193698125651,-2.98426263592,-4.64073228609,0.0282618963674,0.870192866474,-0.173508106661,-3.49045813229,-0.63775858867,-1.7337535368,-5.08987293398,4.30443230364
off_to_on,-1.99315486805,-1.35148034058,-3.80766929794,-0.289121613583,-4.18876189317,-12.9795586441,-4.57749431499,-1.6000417924,-0.115494744464,-6.48130805058,-0.884921254893,-3.48708723055,-3.44069830469,59.7104753949
off_to_on,2.15945758961,4.79439355572,0.0643771003781,-0.469955170129,0.353410598314,-4.75548808164,-1.71007074879,0.166011779722,-0.00576355189763,-2.13201487476,-0.486019441544,-0.563630496463,3.11353211745,20.5822905713
off_to_on,4.05424015426,6.9193481518,3.18950140685,-0.0436448117199,4.62881762514,9.41757624462,3.63162925153,1.42950922753,0.0869954815124,3.85337779259,0.68282807907,2.47488831175,6.82593955011,-36.2925319329
off_to_on,2.70028001541,2.30560888654,2.87686763871,0.449873932286,3.31274543027,11.56143644,3.48220448066,-0.726927888164,0.129949251318,4.72238522958,1.86816207456,1.51682924541,3.47002144278,-15.0098423031
off_to_on,0.316196756255,-4.19449043724,0.554790127331,-0.0420643461012,-0.86889991264,1.05042394411,-1.07891446475,-2.76745994492,0.124725722333,0.560180985634,1.45192408069,-1.91820994301,-2.80202232324,38.2666169135
off_to_on,-1.03484039014,-5.98791169939,-0.979626377594,-1.38771913637,-2.03070570181,-7.01042054988,-2.64710772065,-1.28456975506,0.0729754065886,-2.95907931348,-0.814209655951,-3.00799108436,-5.36327568659,22.0416536322
off_to_on,-1.4697246282,-2.17055814533,-0.900681966748,-1.80590737796,0.0894795641492,-4.67290094771,0.0842182423567,1.11882951295,-0.0156299256582,-1.98802674666,-2.64697529762,0.176700256925,-2.77971570029,-41.874182568
off_to_on,-1.92217366021,2.30795154611,-0.33271171753,-0.00851239607066,0.752230040592,0.0900884205656,0.702654571127,0.651435238916,-0.0965695747542,1.37598746595,-1.81748125676,4.13038290214,1.06334341138,-46.4258958156
off_to_on,-2.18944263144,2.90466850518,-0.30236993767,2.63364206209,-1.78844868368,-0.876981692626,-3.19340032303,-0.924381228667,-0.118582637264,2.34769237343,0.74777923949,3.76205786892,2.37624456954,16.4896426861
off_to_on,-1.19502882658,0.21932216893,-0.733427025583,3.19903551771,-3.63480900691,-3.09886408071,-4.78661380017,0.353494725332,-0.0814834627453,-0.540080294523,2.07451154435,-1.49665097449,0.969541213844,44.9583811817
off_to_on,1.24091025497,-1.62127107674,-0.943443557646,0.687731868941,-1.31759153974,0.965285953437,1.06498367848,3.02186110379,-0.0302138154183,-3.66879977,1.07014703506,-6.13268300326,-0.686176905083,2.20179684371
off_to_on,3.55366773207,-0.160462765536,-0.362426246399,-2.52208385661,3.10876687929,7.62785230304,8.17636306697,2.07912148143,0.0103212766023,-2.6825665961,-0.397511101555,-4.30212533465,-0.33694936294,-28.0114745123
off_to_on,3.57196639312,2.62113622295,0.986301789483,-3.27694181735,4.90846269012,6.78644735669,7.12287565731,-2.12066519987,0.0545955033353,2.02744453997,-0.527360819816,2.75776951287,1.73472230304,6.11698121581
off_to_on,0.681683970707,2.78476345094,2.18980513951,-1.15591898866,2.4764330931,-2.0958893648,-0.848550223683,-3.40328274834,0.102417398433,5.29633187869,0.115282982347,7.10654371023,2.63656331861,36.6280911515
off_to_on,-3.01528631172,-0.704370171681,1.9328078848,1.35397024695,-1.52441828021,-8.24385784812,-5.96043156956,0.293711536707,0.111317728464,3.14947219545,0.135063541924,3.44599763459,0.0527487859458,1.29920191735
off_to_on,-4.19468722784,-4.35129916183,-0.0877424301118,1.9145077786,-3.61723469617,-4.67148835511,-4.52742467135,2.7995618707,0.0517503179748,-2.26619944588,-0.404305544262,-3.8267103681,-4.06126926909,-44.9077618601
off_to_on,-1.67956943964,-4.00805741992,-2.35179406947,0.699257768358,-2.61895597035,2.60992771352,-2.61204250686,-0.70582581007,-0.0408819887436,-5.12430283769,-0.562736353457,-5.90946437749,-4.79023299408,-26.479855294
off_to_on,1.9199198784,0.126043546918,-2.75758492461,-0.437138937906,-0.0614215049138,3.91310638954,-3.62842894738,-5.11654984596,-0.1022317464,-2.81497701725,-0.3426442451,-0.957580626006,-0.498198187929,22.8785728111
off_to_on,2.90379526429,3.67753884176,-0.838836412636,-0.354358006825,1.41018995657,-0.912546582978,-1.62962214572,-2.36422759157,-0.107471534066,1.48029679068,-0.343665864674,3.9503854433,4.27954525325,23.2890958244
off_to_on,0.806906641178,3.36891916106,1.630740978,0.388564499094,0.623926603682,-3.64553845338,7.23407635507,5.72904869862,-0.0743784100864,3.32117212918,-0.208455478011,2.87079170568,4.3698770919,-12.9354356394
off_to_on,-1.23211470824,0.53289021675,2.40735056544,0.591608868884,-0.657671078085,0.207820764554,13.8627975082,8.59358419663,-0.0190716300315,1.96948284437,0.82655824108,-1.46034573661,0.625780268247,-10.7967793614
off_to_on,-0.792065399957,-1.41382172746,0.951603810606,-0.155352757952,0.0913897666773,5.63118165938,6.53683849986,1.43430570786,0.0506910428076,-0.280982037956,1.9674999737,-2.82430789968,-1.96495241806,29.1779856159
off_to_on,0.760629904364,-1.33381842583,-1.17435032831,-1.13923417969,2.25740409445,5.24658713972,-10.2349216974,-7.62207079598,0.106353801596,-1.6638889235,1.35714328221,-0.461705347183,-1.53188370145,31.2383652624
off_to_on,0.773702223126,-0.553692363223,-1.84577186074,-1.30522767684,2.37128611551,-1.05425355878,-17.6168863523,-7.97707996366,0.107294345567,-1.7517866225,-0.973155507694,1.56953556561,-0.672675816271,-19.622426967
off_to_on,-0.591703049725,0.00479068299233,-0.370257562307,-0.322997775289,-0.650740433059,-6.14088734424,-6.0216085051,0.0177313406532,0.0496422636372,-0.246451290644,-2.45153346942,1.59150328548,-0.844577457201,-47.0569884269
off_to_on,-1.01821050782,0.446033817117,1.72509743924,0.991837509295,-3.11042379527,-4.67703893758,11.2735718759,6.35594177671,-0.023317325691,2.18216509695,-1.37446624399,1.40283152406,-0.228056496369,-11.1597011544
off_to_on,-0.10241661039,0.210737575539,1.99878637618,1.42021462069,-1.77397574107,0.364533446873,14.092866439,4.25250756847,-0.0697876575965,2.61551286416,0.547325843193,0.914453320768,1.46835013995,27.3362304628
off_to_on,0.140704516998,-1.34017702456,-0.280357117828,0.655676059486,0.848537831407,2.07588408862,0.369218181364,-2.50300220217,-0.0834499489768,-1.01584427963,0.712539835388,-2.13443845807,1.05430850918,12.6680946794
off_to_on,-0.737100240196,-2.36954512425,-2.83327413109,-0.331109397946,0.330701595694,-0.596567580752,-12.1528958521,-5.3235306324,-0.071767232323,-5.2392089553,-0.400554201441,-5.79551614242,-2.14291035196,-17.0493770787
off_to_on,-0.334770492631,0.107793194692,-2.53782024208,-0.507798844578,-2.03950833078,-1.24712078962,-8.49614848764,-0.940943392782,-0.0327597726467,-3.57767171327,-0.0785442206499,-3.66969898638,-2.88269644827,-4.84779512484
off_to_on,2.10292498068,4.83531170595,0.729207182813,-0.0775591408742,-0.765475790969,3.93359419137,6.03297116582,5.5970854224,0.0262354684458,4.12033552833,2.04376798762,4.99867410134,2.29390899296,26.0219700534
off_to_on,2.95288857513,5.63847199366,3.38932224209,-0.0452031498471,4.27994915242,8.4684189139,13.6999140712,6.77411669051,0.0719160110222,8.84942234606,2.85239213421,10.417065247,7.32471964251,19.2367409298
off_to_on,-0.597432625404,-0.608162290591,2.2894286596,-0.642212622893,5.80829662129,3.46119598677,5.66202117867,0.50162986355,0.0748750432086,3.21703269575,0.24026206972,3.95008467293,3.5650128426,-14.0483300141
off_to_on,-4.69232997024,-7.75902273677,-1.19616189453,-0.932564778073,-0.186833210365,-8.17664128938,-8.89632167999,-7.48759783941,0.0438212990781,-7.37873179712,-3.37037759631,-8.26266662887,-6.49427268179,-19.8237720208
off_to_on,-3.03023328063,-6.85795813569,-2.75985287431,-0.202701960914,-6.89666722247,-12.7519219962,-14.2814668147,-9.11786190707,0.00823708826198,-10.1154543278,-3.91640537087,-11.3269607109,-10.3455437966,0.956894168779
off_to_on,3.24273716702,1.70404150379,-0.744683971838,0.93832875906,-5.42149828444,-3.64419640688,-5.47619486836,-2.30631264944,-0.0204994020235,-1.32207625487,-0.962980085313,-1.3228113081,-2.3888209024,0.53300342155
off_to_on,5.50141231611,7.69292688822,1.78381073499,1.33896975148,2.16152190991,8.56307369513,7.71954508738,6.56640926591,-0.0468725207764,8.32621745822,2.07622960849,8.99812341798,7.59840911946,-20.3669633255
off_to_on,-0.195896872668,4.26220757433,1.37517231267,0.725202869822,5.43051787909,9.55452368728,12.2007778877,9.2500752264,-0.0618574822258,7.73173514688,2.59786954561,7.38641150653,7.70380623631,-9.98537785603
off_to_on,-6.19589954522,-3.15554023368,-1.14936150165,-0.218885503847,0.671386273807,0.184247535516,4.98749636821,4.07457558979,-0.0469858451307,-0.712280730573,1.43799140727,-2.03418752631,-0.183351413604,32.9843591271
off_to_on,-3.43905877427,-4.79017942833,-2.15141776205,-0.850173706666,-4.14884908239,-6.02070106353,-5.30001554911,-3.28116886314,-0.00728665157648,-5.90386980904,0.486399330864,-6.1053840498,-4.61167891375,40.1272567513
off_to_on,4.96924679052,0.24480439823,-0.310455148997,-0.999277998989,-1.69044517603,-2.28980807344,-8.65056917152,-6.59440639115,0.0277594000692,-3.26408945857,-0.111665280445,-1.19470475459,-1.3363755288,-13.0474839891
off_to_on,7.30388321195,3.99521770933,1.92299699558,-0.622082554948,4.13930468413,3.70498499981,-3.37205639744,-4.62529977238,0.0411855001527,1.26716830808,-1.0600393936,3.716671,2.49249001786,-51.6329013522
off_to_on,-0.22528992238,1.56792423557,2.00144247395,0.204647183842,4.73885580166,3.22217247414,4.09837367446,-0.148015683055,0.0425557852268,1.73640763377,-1.81446047158,1.56769076347,0.750661151009,-12.6256686009
off_to_on,-7.8469043001,-2.91842598643,0.303301310509,0.896360798709,-0.549459767492,-1.4062827641,6.68542260197,3.65874764296,0.0394199505529,-0.151536878127,-1.26862894915,-3.37186913748,-3.19083132052,50.7378320791
off_to_on,-5.79805411895,-3.50277534042,-1.2140057277,0.720388378133,-4.63375663472,-3.14591344487,2.71724574649,4.62957654063,0.0210715038694,-0.176720960184,0.147304403606,-3.42110476598,-3.3332730759,45.3671035366
off_to_on,2.66406417187,-0.438945956607,-1.61177596673,-0.180502335211,-3.50399672706,-1.84209072093,-3.82077424238,1.90837204595,-0.0158597043894,1.0921073655,0.874340569666,1.28897581058,-0.0390209813312,-23.4669588202
off_to_on,6.8486502544,1.9810449505,-1.07209420059,-0.725258903215,-0.418187101446,-1.8734435561,-7.05279752693,-2.70788271386,-0.0482888359437,0.554467885004,0.583868393963,4.38450559976,2.41963304492,-67.411056988
off_to_on,3.1751516443,2.12089253045,0.172776110744,-0.230931714425,0.914805322748,-2.39052122665,-3.95301542967,-4.91793764183,-0.0523688752599,-1.15442199516,0.450992486496,2.72855096322,2.92697031792,-44.2618758858
off_to_on,-2.16896403911,1.51979694014,1.5101011124,0.665677583423,1.36636242192,1.25389315568,2.75558645285,-2.04078058363,-0.0330874125354,-0.798124933238,0.906505373382,-0.802300137918,2.93535379467,7.39332231687
off_to_on,-3.45146261159,0.70376593737,1.56432091433,0.842929479218,2.54877365934,7.30556775334,6.6814939104,3.15156244372,-0.0100326034848,1.30292318227,0.830672375501,-2.80529290811,1.67852405699,50.3853287002
off_to_on,-1.68089225671,-1.16239707655,-0.127787100817,0.0640318156291,2.7933139583,7.63609877776,4.33762264299,4.97364673074,0.0122320321756,1.30464361306,-0.351480890814,-2.92395262989,-2.29185663418,79.4246307905
off_to_on,-0.00764064370976,-2.90429691432,-1.68011176614,-0.92228676737,0.354805762774,-0.0496076155889,-0.814251536615,1.55949331745,0.0379668392731,-1.5629986672,-1.3484859472,-1.72223625001,-5.98755339263,67.2098647565
off_to_on,1.17707635291,-1.83260774435,-0.967794935338,-1.29977318072,-2.58228598112,-7.46098311992,-2.76080735478,-2.93172781064,0.0553737872314,-3.02981446339,-0.93663954514,0.880886466442,-4.27653692943,-21.7477364044
off_to_on,2.03169459636,1.53271083519,1.09655276684,-0.740162839981,-2.80255447056,-6.95135330642,-0.732520293322,-3.63575395107,0.0444496341188,-0.270055397406,0.0148912408051,3.60604468626,2.07109138976,-132.830646447
off_to_on,0.923911202913,2.89410598655,1.49016190215,0.570827990043,-0.976835530389,-1.53550270519,0.339109659329,-0.7275210667,0.00825227118192,3.34769158492,-0.0287476490297,3.47451991244,5.8466986356,-134.96857502
off_to_on,-2.08240627302,0.183882682499,-0.476044536458,1.81809079631,-0.103123912961,1.22908667895,-2.50794038418,1.61157133963,-0.0267040768041,2.95147808142,-0.645075410601,-0.208619284509,2.88068151669,4.53644385033
off_to_on,-2.94509776866,-2.83128138992,-1.90872835648,1.77329324626,-0.383051799897,0.577683384719,-5.57425904224,0.876822983081,-0.0432456904899,-0.814616764094,-0.104000311199,-3.59923137693,-2.24591122811,140.521224478
off_to_on,0.836708043247,-1.63881981831,-0.566413332954,0.0141955836534,0.539954155591,1.42456723888,-3.49173261323,-1.00704840335,-0.0460291463354,-2.96236799906,1.58766387609,-2.67425184035,-2.87397481816,127.870608998
off_to_on,4.84921433594,2.38724779505,1.71552530664,-2.0490400728,2.71280667902,4.67134045649,3.44982501302,-0.763405215648,-0.038885010399,-1.29683725592,2.25159477653,1.18854172549,0.701770826347,11.899604669
off_to_on,2.8827605409,3.77184331531,1.69359050639,-2.27526821331,3.1577569101,5.59154508803,9.41875720023,1.77977539866,-0.0138936924432,1.15654994542,0.65746339233,2.71423862839,2.67078346915,-58.9354616806
off_to_on,-3.59971366912,0.560056972805,-0.562390010355,-0.286320448069,0.654619203913,1.70610761658,9.15728339017,3.37025257954,0.0263876699129,1.12867894182,-1.5729146845,-0.179665690986,0.278138919981,-52.9957804281
off_to_on,-6.42263173178,-3.26591794783,-1.94383409961,1.85169578247,-2.17764994965,-3.61662180942,2.16155958085,1.39396267079,0.0565029824429,-0.566433407925,-2.16294374978,-3.3884461878,-3.11705196738,-55.1868043809
off_to_on,-1.80023242027,-3.45138957306,-0.827970002455,1.95708381452,-2.85261132442,-6.39337632543,-7.48823595022,-2.62366827677,0.054341012951,-1.06724547124,-1.05912436886,-1.99387408143,-3.31444568929,-74.1468499181
off_to_on,4.48272981684,-0.582580227229,1.00185771435,0.19846465898,-2.1151225216,-6.03069210163,-13.1644278775,-4.52238541314,0.0269807770114,0.255335452447,0.101812392794,3.04149014802,-0.246364995522,-15.4693539047
off_to_on,5.19619160061,1.84621063464,1.30199445351,-1.37140584016,-1.39203103513,-3.02419716679,-9.5357200644,-2.4373053965,-0.00374562548652,1.4769209661,0.522711889865,5.68373360697,3.02245389349,117.584114194
off_to_on,0.872227666853,2.17459467831,0.248005694705,-1.31934783467,0.0566331265579,2.4283382632,1.94767920273,1.1203043158,-0.0287297564378,1.15748427018,0.775284410144,2.22792827729,3.88795124048,160.440950617
off_to_on,-2.52050977635,1.32120036241,-0.55388137406,-0.115895377721,2.90505564426,7.56263400965,12.0411506101,2.82758186334,-0.0481085482311,-0.086760689386,1.15930570012,-3.98315502829,1.88204613016,22.4102613541
off_to_on,-2.23750680719,0.21844681725,-0.495195937894,0.888037505848,4.7814326528,7.5187770866,11.8848463617,2.56877743681,-0.052227463057,-0.983167155922,1.03703306359,-6.38292981213,-1.51243244413,-142.204327905
off_to_on,-0.801447654589,-1.04763381505,-0.196283701536,0.943552054262,2.75272372139,1.73640992617,2.58039017679,2.03739994075,-0.0291267953836,-1.22580783504,0.0549975766128,-2.79406413972,-3.73550293321,-133.732001951
off_to_on,-0.522794731958,-1.87076752026,-0.118911696172,0.234758641076,-2.01308045698,-3.94627874664,-6.37280472171,0.848987990171,0.0114924537552,-1.19933282952,-1.06962756826,2.48324898205,-2.98764383211,9.01125238539
off_to_on,-0.361014778885,-1.14514729412,-0.0832377635437,-0.588651310519,-5.0280974901,-4.83744110234,-8.15558594833,-2.43538980773,0.0422692024487,-0.823818568321,-1.42144082213,4.28626696885,-0.0262642174378,82.4209309219
off_to_on,1.00464967855,0.805862181206,0.130347442884,-0.869503928395,-3.89042110238,-3.25132391537,-4.43707626517,-5.56905157177,0.0483008628144,0.470888215048,-0.841012548249,2.38139549199,2.51328293017,27.1739668668
off_to_on,2.30155959328,1.91974577655,0.441883963422,-0.363212888847,-0.483439951377,-2.93209204832,0.0781321246719,-3.53120270302,0.0371351347929,2.43650649641,0.239753517573,0.287063339794,2.83656411258,-16.8189696255
off_to_on,1.6186520102,0.875465493921,0.573422215096,0.455477469127,2.26703650829,-1.83961701,3.6481131448,3.59889399876,0.0180479537707,3.26409782522,1.1901232278,-0.208786783218,1.29011234984,30.2088744841
off_to_on,-0.610652437523,-1.12493163332,0.184738475554,0.759830235447,3.32712836884,3.34679964489,5.58078847036,7.91000202214,-0.00918420766608,1.17456312726,1.2170145042,-0.691098177738,-0.835158201079,60.7722127029
off_to_on,-2.21032812798,-1.86461411209,-0.662676019717,0.286990865791,2.80132155283,8.41974934757,3.4647173531,3.18889629715,-0.0388675996904,-2.84040084317,-0.0445646652173,-2.26604556421,-2.40176765761,-15.7657607346
off_to_on,-1.9046026622,-0.685964851743,-1.04621245576,-0.349107128745,0.817457888527,5.51523868665,-2.75475945861,-5.51113758709,-0.0519014321513,-4.92636497745,-1.52157162605,-3.01312771944,-2.3088379125,-101.546807761
off_to_on,-0.252488910274,1.15236015291,-0.0846978564214,-0.455560691247,-1.62555595511,-4.07705725051,-7.13946837553,-7.49611240735,-0.0367319597322,-2.41668636029,-1.30801310007,-1.01574952433,-0.143836288083,-65.3686594768
off_to_on,1.34021589617,2.05568042366,1.34623160146,-0.0852783536592,-2.68109012114,-9.20866979182,-4.01725309026,-0.803436071255,-0.00592988293659,2.40136582438,0.845843617711,2.05246991141,2.38042742109,41.6424490065
off_to_on,1.70558808799,1.31694727344,1.1015998018,0.198636826398,-1.88921888742,-3.8121915286,3.45792239497,5.36318637798,0.0198962417351,4.38734033405,2.51161213702,2.88869282654,2.4655487597,70.9502314366
off_to_on,0.648281408148,-0.614012866308,-1.08930371919,0.120542890878,-0.808933847798,4.60001986388,6.70100900638,3.8525530714,0.0344975306904,1.77557301045,1.33329321616,1.2156539607,-0.134121121368,10.9702625669
off_to_on,-0.720960249202,-2.24045243079,-2.36958820934,-0.0869148238515,-0.293616858796,5.95396501671,3.27555552896,-1.16519555379,0.0406302331635,-1.64586759627,-1.65820398415,-0.171208430033,-2.1672404936,-18.3324282634
off_to_on,-0.972596684353,-1.9553066882,-0.393750992346,-0.108623888814,0.900325783168,1.02480608569,-0.924399988912,-1.92966243685,0.0337042562973,-1.72128901791,-3.00775086127,0.10498659765,-1.12734881147,20.3359504929
off_to_on,-0.144165208493,0.132695708353,2.78148825461,0.111842546795,3.14623182231,-2.41353504607,-1.73779381581,1.2013061653,0.00830318476628,0.611453978264,-1.19720926381,0.222931684987,1.10904703384,31.3962595183
off_to_on,0.281815361442,1.78314216824,2.88327555815,0.358384516307,3.76539320311,-2.07539852624,-2.16805796489,1.80380548194,-0.0240834494844,1.23372261542,1.49415697812,-1.2959673121,1.05833507795,-30.2852682341
off_to_on,-0.311141771293,1.21909357408,-0.637829386491,0.261456019949,0.582065708624,-1.79535314986,-4.79046635988,-1.71083082145,-0.0416034835843,-0.956563507657,2.12076846977,-2.76445949067,-1.07423881764,-73.1026599037
off_to_on,-0.572929838841,-0.319349228525,-3.51520326399,-0.3556168243,-3.76674252095,-2.16917075728,-5.31200504246,-4.1237797958,-0.0366737558405,-2.71424635552,0.691032016777,-1.82523167561,-1.73006288394,-25.3602574733
off_to_on,0.552951178385,-0.282095873889,-2.34641745908,-0.991683776668,-4.49567463914,0.408406050615,0.47435752056,-2.14003956201,-0.020220070108,-1.45808297469,-0.533506801335,0.854999797419,0.460621804153,42.8077352679
off_to_on,1.62645101404,1.09523692188,1.04576901226,-0.690452855423,-1.24129550545,4.9527429601,7.73427901751,1.195837841,-0.00180554995362,1.23649057914,-0.422278737459,2.46965217476,2.47108243741,38.8839345136
off_to_on,0.5484600153,0.787085117508,2.55791415998,0.712236299926,1.5941663431,4.89854314728,7.90457791072,2.41065390357,0.0186507446817,2.4145435463,-0.0122297376406,1.86453113094,1.36226599225,-4.34421315156
off_to_on,-1.89281326087,-2.0298414651,1.22005797976,1.84390530857,1.47365177051,-1.15849471872,1.1967750789,2.55930874993,0.0368006701298,1.77576848167,-0.309897862616,0.516970012741,-1.4040345036,-1.50200243346
off_to_on,-2.42693729822,-3.57013447856,-0.540430914757,1.14210613944,0.872053961372,-5.39442787066,-3.65139308146,3.38159324821,0.0387411035938,0.973951729092,-0.701300940895,-0.0126962516011,-2.13760136267,32.5759292928
off_to_on,0.263248285507,-0.495809357893,-0.889951609622,-0.981898978392,2.14675650462,-2.2172985927,-2.43175386475,2.84194196525,0.019075366813,0.36753990087,-0.225813632652,0.0872360323717,-0.0885300092663,17.2504973823
off_to_on,3.27445404785,4.2987670761,-0.364300167941,-2.24152008504,2.95280414665,2.67837820777,-0.807456695688,-1.39931197125,-0.00792732029847,-1.07649118346,0.665393859808,-0.241619364086,1.78073673701,-42.8009907493
off_to_on,2.85051433465,4.5403297101,0.0216628542343,-1.20364683792,0.0940227387248,1.23165822137,-3.83043714813,-6.6320060117,-0.0248892257031,-3.03825245449,0.688655877441,-1.41023941546,0.973486282349,-58.948179512
off_to_on,-0.938098182651,-0.797264150465,0.137270159919,0.860661711483,-4.40113932423,-3.91992333204,-6.82706761963,-7.45273075399,-0.0295801935145,-3.3691542597,-0.328452659389,-2.70091471515,-1.42810960233,-6.92383044666
off_to_on,-4.16076713627,-5.39894432766,-0.0267336361515,1.62697950664,-5.21081145313,-3.53777305495,-2.43449465007,-2.56241226715,-0.0275804632335,-0.988306595817,-1.05501922191,-2.58974520106,-2.39004114892,36.0513440259
off_to_on,-3.41282394551,-3.71999017543,-0.554115101187,0.654449880156,-1.14569741455,3.34969521018,7.09559200756,3.99881504923,-0.0173081576422,2.3122445518,-0.34858430124,0.00693996147948,-0.62297053271,21.4573812608
off_to_on,0.663765364603,1.83274522289,-0.678641118202,-0.394072824328,3.20323466477,7.57788838978,11.4181371577,7.71077143908,0.00404588139489,3.84656734372,1.23138926203,3.81045651923,2.10926637698,-2.70842267136
off_to_on,4.21382833677,4.56154086366,0.490439254669,-0.289419000166,3.78207044407,3.54584171904,5.54159215244,6.91280993675,0.0262529225836,2.89271039457,1.92165469649,5.29293861332,3.08433965385,8.60151194906
off_to_on,3.9672553271,2.27546300737,1.89040102414,0.254942115763,1.67669108202,-3.28887512755,-3.87477786492,2.28821786181,0.0330869524342,0.814423690646,0.655494580798,2.43006197032,1.49361945324,20.3442412788
off_to_on,0.272368720501,-1.11727071532,1.24118632414,0.0304902687735,0.0843905080498,-5.45392318702,-7.37179071229,-3.64724751589,0.0223756110442,-0.95800247128,-1.64440776356,-2.16265341748,-0.976561471744,-4.37447320444
off_to_on,-3.28536401819,-2.04668035855,-1.29332300341,-0.757549383786,-0.369203761866,-3.20218500945,-3.89111950536,-6.8974394756,0.00646227628163,-2.15896805065,-2.75734262714,-4.00815993482,-2.28870285994,-26.0531367297
off_to_on,-3.44187392261,-1.3510831823,-2.45857005946,-0.930881678091,-1.04804563844,-0.918420235833,-0.195396304151,-5.21667135848,-0.00645182091667,-3.07319275581,-1.38142229769,-2.50249001411,-2.20792111356,-2.43217060566
off_to_on,-0.642069789381,-1.06810482005,-0.497213526774,-0.145321973931,-2.02424612507,0.650118219233,-1.00413212713,-1.20579289762,-0.0182292321967,-3.37244344155,1.28678750521,-1.15430335371,-1.74775943944,19.8892651609
off_to_on,1.59475655464,-0.732854573842,1.79918241094,0.73762515555,-2.02344863603,2.89601132508,-3.17822513138,0.853602289651,-0.0273261453712,-1.96190416351,2.5961236333,-1.64215238678,-0.987636571361,-21.4196039997
off_to_on,1.01639831088,0.834765737962,1.07035280333,0.957012976229,-0.80271629462,3.90418763268,-0.719514719754,1.12698674395,-0.0243169848863,1.6862078718,1.35310528952,-1.02780277291,1.07637114288,-75.760491303
off_to_on,-0.574483811077,2.43597944523,-1.29721628171,0.628963400124,0.670257081337,1.02491534228,6.23393450605,3.24254504026,-0.00692436402174,5.850733929,-0.764368514023,3.03666388158,4.05790248814,-31.0141554906
off_to_on,0.00692574212391,2.03842376416,-1.18993824817,0.11663307272,1.95317326676,-2.85829677471,10.1079243083,6.74949645186,0.012203665425,6.91716322289,-1.28397844366,7.19864700896,5.13283195864,102.203429407
off_to_on,2.5228268168,0.180941442627,1.58596116059,-0.512270831559,2.97562752829,-2.15958076691,4.90760226084,5.8038576582,0.0205478601213,2.69622251685,-0.0384889501106,5.95277918681,2.02769165909,161.35723599
off_to_on,3.13713839118,-0.933549157122,2.61231249879,-1.03379338601,2.53947133438,2.31190185229,-5.28081454971,-1.84756042597,0.0195449397148,-4.39897494202,0.804727598312,-0.90373052703,-3.52614275243,37.651365759
off_to_on,-0.384946152982,-1.08383136344,-0.338734471145,-0.840602829387,-0.521064786061,3.31558772471,-10.1864993999,-9.2652830674,0.0158603899968,-8.69591290265,-0.145736606592,-7.60414523266,-6.89877690045,-157.386234157
off_to_on,-5.00438604991,-1.85156209748,-3.50586331146,0.177662603652,-4.31060191281,-2.03723841058,-5.84676121036,-8.40317656606,0.00828363673635,-6.60759463801,-1.56020209515,-8.87266811189,-5.24544834043,-205.103264894
off_to_on,-5.53418118208,-2.84994385852,-2.44568602749,1.03648914193,-4.61542698658,-6.97025137329,1.01236045885,-0.822497702411,-0.00609466109617,-0.0973560744396,-1.30190242864,-4.40666062366,-0.0985082634568,-40.7346241997
off_to_on,-0.83705119963,-1.38804660763,1.53773252771,0.742784012781,-0.190234785297,-4.03964679072,3.04865579743,4.93994274312,-0.0198237215944,5.6204402288,0.564696359788,2.56868754435,4.62236176764,163.042685675
off_to_on,4.69926435395,2.90582233398,3.39659821746,-0.266550216957,4.55569488734,4.28808528312,1.88653170559,4.88311476152,-0.0220289418194,7.02025777813,1.89351626583,8.05332032821,6.07027228602,191.395588763
off_to_on,6.04742642462,5.9353848283,1.35577895354,-0.638585775191,4.29528296151,8.48667459819,2.82755456753,2.55401724274,-0.0138076066097,4.3483586442,1.36440075288,8.56121980401,3.96769863143,28.5861931644
off_to_on,2.64823953569,3.83969890097,-1.40649293476,-0.0315011921252,-0.626130651021,3.93514018889,4.25298702591,1.18039018444,-0.00425561075748,-0.0101645326238,0.00107344866623,3.24828819681,0.0554818511855,-134.066286367
off_to_on,-1.8898733688,-1.82243801226,-1.828991082,0.440896899637,-4.4811975615,-3.91403547527,0.548882007549,-0.500656315846,0.00560074737821,-3.69314231265,-0.583596982605,-4.01235698752,-3.28361401776,-127.191099178
off_to_on,-4.09511848226,-5.84315109277,-0.564025103245,0.00198620675156,-3.0248921936,-6.55514344183,-5.68643734084,-2.98499315397,0.0190820515997,-5.21584126376,-0.37879473191,-7.45834471509,-4.58235437362,5.51517821204
off_to_on,-3.4662219531,-5.25511770949,0.260809476041,-0.542953183967,1.81136942772,-1.95213039898,-4.65873277695,-2.99969240999,0.0253909014883,-4.20339512045,-0.509492188884,-5.5511358324,-3.95126105745,84.4752354258
off_to_on,-1.4463470127,-1.35508816301,0.289751631648,-0.141328980766,4.68638754417,3.977184173,4.41749985352,0.56636260695,0.00823010910449,-1.34817901059,-1.15896769495,-1.73350951392,-1.98093758093,33.6436418636
off_to_on,0.813877270759,3.05167563843,0.426925954877,0.677421064344,2.84971974131,4.31973586085,8.41216128258,2.86177523517,-0.01867063946,2.20369776679,-1.15002592286,1.44954120836,1.34647112703,-38.3350420745
off_to_on,2.76358526247,5.68983081619,0.737578529731,0.512605224635,-1.63320808001,-1.19589851313,-1.07570543242,0.069319379952,-0.0138604018101,5.20161972066,0.224317200389,4.84707865107,5.33477379923,-17.5449205053
off_to_on,3.40909749032,4.65429413035,0.53751165924,-0.616724179687,-4.68395045032,-5.8538191058,-12.5968169705,-3.69567816915,0.0269362546604,5.82015187557,1.86949577666,7.53374033315,6.86076577913,46.587639638
off_to_on,1.674580921,-0.329040801241,-0.224638650124,-1.07398859316,-3.96697304435,-3.72169613838,-9.48690498925,-2.24188713879,0.0363173434581,2.29025296398,2.03746584851,4.61091694481,2.8157939133,34.394002409
off_to_on,-1.63471295261,-5.62299586479,-0.936303425863,-0.0477697339757,-0.251872229008,2.98005469653,5.36811422573,2.66742852283,-0.0381222053698,-4.21610517173,0.45123539979,-4.78080274113,-4.75364967902,-44.3030278212
off_to_on,-3.51099062319,-5.8334750897,-1.15298020251,1.08933115317,3.60020895912,6.41768950913,12.9851288818,3.87756800902,-0.119863361159,-8.3296605021,-1.33973277537,-11.4779591423,-8.72444266487,-65.6308369223
off_to_on,-1.85825760179,-0.264570676822,-0.632946165839,0.763995626818,4.70285580607,3.14728793518,5.82956282869,0.330691760323,-0.063259326443,-5.16455230802,-1.71128825823,-6.02928843872,-4.62126132847,5.19836661939
off_to_on,1.45735392929,5.07581666069,0.711415804701,-0.416904630392,2.24712936317,-1.73357108394,-2.84008437074,-1.49606481517,0.126300466949,3.10972035899,-0.613910413029,6.79315626924,3.37099821549,57.8161609942
off_to_on,2.40037362899,4.38979083392,2.03313856675,-0.614155158837,-1.65273872541,-2.28206286324,-1.48568264961,1.2672265346,0.222123628197,8.23939383978,0.638928410841,11.6879099839,7.00585891442,18.4804860151
off_to_on,-0.0144323379821,-0.683116861995,1.67775160052,0.35480190252,-3.61996107231,-0.0634187014653,2.27990786316,2.84172301581,0.0457190692477,5.15093703423,0.864332386482,2.81168575429,3.70185687128,-34.6684068169
off_to_on,-2.14649936286,-3.64721049772,-0.647449886661,0.693141173303,-2.25579096053,-0.750099906341,-3.14040944486,-1.43191677923,-0.235706627225,-2.0426455178,0.0651131884064,-8.04740668361,-1.49635878289,-11.2968474576
off_to_on,-0.701252798841,-1.82954792999,-2.63011790434,-0.521064200623,0.384805846011,-4.4725747196,-11.9275944341,-6.64351347872,-0.25616328657,-5.55602751947,-0.768809812837,-7.75480825492,-3.39035668736,39.1289549912
off_to_on,2.34057270813,1.10903300732,-1.88325841396,-1.68166757056,1.18326475701,-5.08127838484,-9.24927680539,-5.35953706413,0.0567915375671,-3.36572429444,-0.64751365713,0.865625359598,-2.24667620747,19.5715855037
off_to_on,2.25669837049,1.39568461861,0.714389758723,-0.870239033483,-0.254316275952,0.517455239448,4.40325493302,1.16192315939,0.319604233104,0.123134835632,0.487587849668,5.27919013593,-0.850677394413,-43.4205973458
off_to_on,-1.4707066689,0.0350440390106,1.99339344955,1.26558912695,-1.13419411329,7.3199788044,13.0673572409,5.40942522329,0.174736230533,1.4456509404,1.56694622287,1.82930715152,0.260470069639,-45.3498422212
do_nothing,-3.83282713217,-0.174964204051,0.787428991655,2.23331667893,0.733334409476,8.65771341405,9.11812267154,4.81431116916,-0.200243318668,1.67609823713,1.28616165075,-1.50070874432,1.81485991493,17.0371768145
do_nothing,-1.05304296038,0.621564783341,-0.663122508084,0.971836726591,3.5951801786,3.91763108548,2.05881070119,3.35191073815,-0.306825977885,2.25079966558,-0.439375752632,0.378400668619,2.63350453114,43.1402865076
do_nothing,3.87166982365,0.4099733818,-0.187521532262,-0.947891008699,3.49021032576,-2.66617894325,0.115342898791,2.61978225296,-0.0115996092069,1.73395596637,-2.02273216997,2.47577519841,1.05951084306,0.967518376648
do_nothing,4.73323705018,-0.749181203889,1.19509954107,-1.57040070937,-0.714674271121,-7.56143810769,-2.19362769924,-0.899440071811,0.27009199718,-0.869464386734,-1.75254744624,-0.208602738077,-1.53627448079,-26.1327722073
do_nothing,-0.0242520774191,-1.01626511898,0.909740986038,-0.815086633391,-5.31766792389,-9.00457659125,-10.0180246325,-7.51863811505,0.169846107424,-2.97176684098,0.11659434911,-3.91330695697,-2.14479781636,8.64611507724
do_nothing,-5.49213882193,-0.255702296752,-1.43709395015,0.065156154747,-5.59065906792,-5.43510569556,-14.335596163,-10.2401910678,-0.126503607431,-1.92142718211,1.48063253332,-2.88152934327,-0.729360619779,36.3813800118
do_nothing,-6.10867857468,-0.108011309821,-3.34403947483,0.34595117691,-0.967049008039,2.50957407509,-4.85608315937,-3.77923779284,-0.191200725586,0.500548811029,0.97629185494,1.01983706107,-0.0967886675614,-0.601884065268
do_nothing,-1.23202853517,-0.572565692046,-2.25304447907,0.286793080079,4.3906149013,9.4704014051,10.8760240903,6.61733341086,0.0148575857891,0.749219712188,-0.264904447591,2.05425519298,-0.903960525443,-45.1686684632
do_nothing,5.09216291383,0.329424514265,1.60336985178,0.249342592947,5.91239351742,9.37863395077,15.5186375368,10.7706904646,0.141060580556,-0.672870537784,-0.301626638822,0.289830633237,-0.415407569809,-25.3386762184
do_nothing,7.91813856887,2.56650082199,5.02802427151,0.277541818998,2.78321869472,2.58022887873,6.10932122833,5.87222277723,0.018526252258,-0.160091862221,0.728937937151,0.419806866791,2.41605689027,22.553225542
do_nothing,4.74652611845,2.82690486582,4.44115104965,0.385913072083,-1.95902285716,-4.31285899767,-3.49673387527,-1.6250008495,-0.113128974065,2.57260301111,0.832596708927,2.66747697998,4.12341669176,21.4569391437
do_nothing,-2.58291536411,-0.668767102487,-0.503441385416,0.496609493378,-4.5160584852,-6.21527583789,-4.28815798696,-5.17075784038,-0.0341395889839,3.41666541271,-0.641984481718,2.21440488391,1.61845575364,-13.2913182778
do_nothing,-8.32915473473,-4.40797282716,-5.58446498378,0.173819132203,-3.34736699825,-4.15708648775,-2.40886036821,-4.31859713863,0.106114084442,0.298599912318,-1.72319705963,-1.94565537877,-2.69819213379,-8.90179318194
do_nothing,-7.26283963081,-3.65085075919,-5.63169329152,-0.803961940537,0.0147062101424,-1.58971580589,-4.45873328929,-1.90034345196,0.0654096761223,-3.33547101553,-0.747322288679,-4.48724170262,-4.11814899211,30.5369645586
do_nothing,-0.314323495985,0.876615297128,-0.403243412724,-1.60629864819,2.54047184332,0.268015789728,-5.75101831399,0.20658638298,-0.0856823182137,-3.61818833026,0.879772065188,-2.21084215648,-2.2546166275,30.4360668152
do_nothing,5.64835310137,3.69536724421,4.50002252868,-1.00409828885,2.4045541688,1.75378241035,-0.770079431947,1.11856418042,-0.0968800281999,-1.47365497818,0.706730788621,0.973459737317,-0.57644799606,-20.6066514634
do_nothing,5.38750618941,2.02018340131,4.0641722807,0.821193995553,0.504613027686,2.56469632912,5.12974221242,0.435529787649,0.0435551627009,0.117795162632,-0.764800291121,0.903257967765,-0.0893482126069,-46.439459007
do_nothing,1.19763621263,-0.864961215226,-0.0701962578687,2.00076750851,-0.845626046723,2.54872620444,4.41780187453,-0.440639020287,0.106665138541,1.14279077079,-0.604918297784,-0.142861968902,1.81468965289,-10.4248285297
do_nothing,-0.932423597815,-0.940755605018,-2.19397928895,1.17421668843,-0.68183023205,2.4184049606,0.44653876418,0.803339080197,0.00901785214167,3.02902649326,1.73352807458,1.71375071859,5.25378924692,26.3372011114
do_nothing,0.371231844581,0.863046363586,-0.340086409749,-0.674130864193,-0.196079450926,1.70118034107,1.00968256629,3.52211154321,-0.0740245081708,4.1529554535,2.83101313362,4.35495529558,5.44102601351,11.1811898006
do_nothing,0.847711413784,0.904372553663,1.63487753573,-1.42593846423,-0.569326447433,-1.40729013266,3.94815916539,3.76841059301,-0.0265048534604,1.59194973762,0.183719351916,2.74515602401,-0.392718527957,-16.7569901114
do_nothing,-2.15790698539,-1.21960702913,0.254410007946,-0.500010296146,-1.00572086773,-5.75153904158,1.05861076431,-0.224045295532,0.0298072978797,-3.15591650025,-3.45935872526,-2.4549438192,-7.09100867338,-3.31447495404
do_nothing,-5.31866395369,-2.38706860463,-2.57365633779,0.6567423344,0.0121981783103,-5.99054281495,-6.20361008387,-4.72302190952,-0.0146686993052,-4.9593125611,-3.4064515224,-5.39819532528,-7.19091543972,26.4990599727
do_nothing,-4.09682052586,-1.10992996571,-2.80552111479,0.668900183299,1.98410165282,0.294698105312,-7.56179371688,-5.13646131478,-0.0501962255871,-2.29086690061,0.300896998315,-3.70925570082,-0.973465548235,18.4506733839
do_nothing,0.883700758539,0.535021110496,-0.163612927995,-0.187976072449,2.39208174105,6.82241322049,-0.846240866955,-1.84939622121,0.039011377342,0.747722022591,2.8053646517,-0.850905381779,3.98157055021,-14.2534288864
do_nothing,4.98354599534,0.879544275513,2.11744493653,-0.776166800904,-0.0547244090796,5.49058192042,4.31373723793,1.38565815209,0.126850739414,1.12882455915,1.37430534434,0.725203360558,3.34344535397,-19.0433892536
do_nothing,5.46583207408,1.25844392436,2.2856839797,-0.584516445606,-3.20150855364,-1.95127204208,2.56839589278,2.95049870099,0.0321203734212,1.09822029058,-0.915294948669,2.82103672582,1.03634534717,1.08087635733
do_nothing,3.34654317578,2.66433354672,1.6397043677,0.0951596498651,-3.52066754259,-5.47834665917,0.495915788011,3.69609685216,-0.149934214599,2.90094593915,-0.237192761387,5.74433814713,1.7441675874,-0.519932562668
do_nothing,0.213655140891,2.63123761096,1.16379499237,0.81188074454,-0.22545676715,-0.909204240633,2.84200809306,3.1441987171,-0.15170127542,3.64305265348,2.00674043489,5.11759802524,3.18947067308,-20.914849157
do_nothing,-3.40376423415,-1.17614122493,-0.213425631177,1.12028534024,3.54680934571,4.28083953279,3.02820697231,-0.157981446219,0.054632156175,0.0165076186004,1.484671175,-1.25257218606,0.320368868663,-9.17598747522
do_nothing,-6.06802673485,-5.72855035534,-2.77867579319,0.582560342797,4.02547647278,2.47160885776,-3.78126271364,-4.35088932091,0.194420387581,-4.79407579786,-2.08973486184,-7.53600622229,-5.4920556994,33.4722821224
do_nothing,-5.12241926667,-5.15708973378,-4.02619959461,-0.641377380903,0.885990521801,-2.95267497138,-8.48882987339,-4.80175492978,0.0895982679399,-4.65585527157,-4.09432384468,-6.48511494377,-7.1265397995,39.0201986462
do_nothing,-0.297720052899,1.0391176255,-1.74638630126,-1.47497110324,-2.50806708393,-3.6574493121,-1.29144157817,-0.499113280933,-0.0985296833547,0.153109816971,-1.61461159613,0.302160424409,-1.75919618457,-13.9482213462
do_nothing,4.40945709525,6.14287489449,2.2089814556,-0.973873647908,-2.98835464243,0.711590511201,9.91257201028,3.72282403707,-0.133543887337,3.08163250124,2.40721216189,4.46483767813,4.77445717675,-50.0334391473
do_nothing,4.87655522309,4.52788653526,3.71391443083,0.377105236886,-1.04910292772,2.97577935338,8.87071193696,3.46969345851,-0.030959668645,1.25760708136,3.40687394043,2.52799971681,5.74011653353,-9.88693162013
do_nothing,1.92547855556,-1.11961223483,1.66794488269,1.13419039081,0.315077763396,0.237445229998,-4.20643481133,0.200758193342,0.0345123415637,-0.731232964129,1.16701964127,-0.420322497506,1.85149416582,50.7779841013
do_nothing,-0.119397024147,-3.79806852995,-0.739074497665,0.681090466304,-0.102913299629,-2.36074234845,-12.2584057853,-2.06490466584,0.0209378881576,0.845346551978,-0.910143966536,0.340601920384,-1.26171756855,41.8460781309
do_nothing,0.384393951764,-1.47030392895,-0.607684542919,-0.173972121629,-0.164498117866,-0.747410301504,-6.51786527923,-2.38635576384,0.0288738023191,2.57806080074,-1.01805549491,2.32459394676,-1.26410566662,-26.640139887
do_nothing,0.396740989708,1.36282907522,0.804957716856,-0.488506223367,1.97771944638,1.98621900519,2.91931200549,-1.93173040364,0.0777316751682,0.185747583173,-0.52527026956,1.03150871456,-0.695413398914,-66.391823541
do_nothing,-2.60811961419,0.878992496209,0.301237496523,-0.272382487258,4.15257709972,1.64243312429,5.71425506735,-0.115809626287,0.0652982294926,-3.50468305178,-0.6953977707,-2.41210589094,-1.37063430125,-40.2286373321
do_nothing,-5.85144890526,-1.22289229667,-2.31136502741,0.0232294556313,2.43124385713,-0.310127928154,5.64280866407,3.65522954051,-0.0388908986161,-2.73892910932,-0.71741022474,-3.34513611016,-1.63478486926,9.80933712997
do_nothing,-4.31097398279,-1.37491176749,-3.63827812039,0.294527427063,-2.94769891351,-0.31398448917,8.01887550287,5.84990360684,-0.120355335915,1.53552531537,0.209792739984,-1.00375936243,-0.136224524929,48.8356851385
do_nothing,2.01924467282,0.471370118621,-1.34203390732,0.485226581264,-6.56934942137,0.7177486878,6.15405033949,1.95376059811,-0.0890462845425,2.81282136458,1.07185180809,0.861366499746,1.28320352316,76.2117355156
do_nothing,6.87501743582,1.55999998355,2.45142204948,0.18131650124,-4.21400182766,-0.558459926953,-6.33744224993,-5.72677670534,-0.000674692746853,-0.609514746704,0.685971798164,0.24742264354,0.63404922732,65.9169202812
do_nothing,5.10182769222,0.768780658228,3.78302070629,-0.685982969432,1.6868021691,-3.33886378772,-18.6024872894,-8.67117064787,0.0506947203128,-2.96080297422,-0.315946446173,-0.489568698514,-0.682632208741,-20.3624832837
do_nothing,-0.662090266601,-0.283129490501,1.96229361661,-1.19195939473,5.16186302921,-3.19593620192,-13.9134979985,-2.799776681,0.0610862330231,-0.270760316393,-0.557815939936,0.936515972434,-0.00406909835935,-130.853568292
do_nothing,-3.25238008022,-0.13780839423,0.0364323594471,-0.430209962316,4.03141578797,1.07860617017,5.08351902708,5.65581664984,0.0672858908598,3.54108225713,0.0328223331412,3.08907469017,2.22080349629,-134.389003265
do_nothing,-0.441819620225,0.585916028513,0.0037485756145,1.00108451066,1.3108005172,5.26105498522,17.6781216947,7.94387223317,0.0528079117885,3.08109103179,0.539561618034,3.13895984408,2.8206537088,3.64024206075
do_nothing,2.0808693981,0.435664223886,-0.127478858277,1.50267137401,-0.299219484965,4.96561458618,12.4410045802,3.11589358272,-0.00978012243064,-0.636353003798,0.573569151394,0.560243795883,0.320067755034,139.324081369
do_nothing,-1.15196560491,-0.978197103103,-2.71495265258,0.547244754107,-1.74668435321,0.33184392983,-0.394822093407,-2.87561164762,-0.0769107125134,-2.92688284414,0.210930202845,-2.96592349209,-3.20093421537,127.455414643
do_nothing,-6.84487643091,-2.51209209791,-5.50619623633,-0.666983110253,-4.09341715164,-4.83733049905,-6.8460565022,-5.41734943267,-0.0818631198736,-2.62743937621,-0.717712275266,-5.44897705736,-4.70936522592,12.5860331771
do_nothing,-6.32150953743,-2.24876364673,-3.55957420915,-0.903045960443,-4.88519242716,-6.2908623594,-6.22326472311,-4.19117966166,-0.0342540238827,-1.73125483792,-1.81089410431,-5.00636701408,-2.97416324001,-57.7879688846
do_nothing,2.61353208575,0.74017404986,3.37121461789,-0.358558743057,-1.28535264573,-2.11224674436,-4.2728277592,-0.149858975493,0.00423653234171,-0.264996266517,-1.45946965652,-0.522287954443,1.12551171097,-52.6625700637
do_nothing,11.1825826147,4.43378573962,8.57753534489,0.0236679377797,4.55555271422,4.77618798633,-1.32646830882,4.89658862774,0.0186635137938,2.89975425555,1.02231413462,5.85489899317,5.09725154014,-56.2987296032
do_nothing,9.55162664316,4.69796133705,5.9652074815,-0.0377006938501,6.84860457356,7.3762280177,3.3325512217,6.36418812305,0.0394976652999,5.19298759264,3.23089468945,8.52658094417,5.66946252312,-75.5670486939
do_nothing,-1.01848828643,0.0115981181581,-1.93893225918,-0.127085808957,3.23465385347,1.72876729072,4.3441146476,0.758011122399,0.0622627362224,2.40790395305,2.10496625574,3.927445011,1.56081649983,-15.3201065369
do_nothing,-9.50398072352,-5.31606718187,-6.76590170518,0.0141491885015,-2.30513654162,-6.55550671432,-1.42059321255,-7.27198983601,0.050874405063,-3.69983271936,-1.44804092243,-4.11971460089,-3.90078311751,119.401854216
do_nothing,-8.19939566788,-5.35411490391,-4.5988107095,0.311832269547,-4.61703674908,-7.44051008045,-5.67550605267,-7.80716356927,0.0130652132457,-5.82761325893,-3.10281539832,-7.67567543885,-5.36019137593,161.745800367
do_nothing,-0.80604224637,-0.12859367046,0.0629120675382,0.684993365844,-3.10852908186,0.578338826149,0.279779982613,1.20629746229,-0.0124146648085,-1.39441754544,-1.06570414268,-3.99202435288,-1.87370013538,21.5270628464
do_nothing,3.84321936967,4.08636952452,1.52477886471,0.881034177269,-0.757709449079,7.66660368221,9.49040186068,9.1248237417,-0.0402379862288,3.14552380944,1.3989584484,1.42602204059,1.6804498745,-144.08645876
do_nothing,2.85474996578,3.10041966482,0.40023902724,0.341215567581,0.590901483332,5.58187153134,7.46369907921,5.98903504564,-0.108546082869,1.98455586673,1.04879981746,2.5975903675,1.41844831891,-134.222896504
do_nothing,0.751574057284,-0.0188385009645,0.936420905818,-0.975421156555,1.45354912359,-1.65475229257,-4.92516402941,-3.54513524971,-0.152737978056,-1.17612034685,-0.562449432342,0.794497125828,-0.147219566606,10.1348622983
do_nothing,1.30928361761,-0.560841819342,3.28223016607,-1.90154449831,2.12977222896,-4.75331391817,-10.9798789233,-6.70054094242,-0.0407321934182,0.23488183891,-0.224756658473,1.11719140625,1.18271565794,83.1914509255
do_nothing,2.32664137841,0.427305065344,3.02197566313,-1.17489246274,1.68583362568,-2.44054036145,-3.27993459321,-0.783908666958,0.198061644251,3.94803791922,1.26794719846,3.44553739445,3.5807870098,26.6618658508
do_nothing,0.169120799472,-1.10554622648,-1.37505052919,0.742096006882,0.0123924004632,-0.760747377159,5.15263937139,3.85679833463,0.30764747368,1.91683493263,0.616535894661,2.24135887693,1.51754229021,-17.2150527191
do_nothing,-3.60123521084,-3.96668161449,-5.00173281594,1.92915888406,-1.20009768146,-1.46085629763,2.03541554499,0.317550138134,0.105475881719,-5.55522034265,-1.78316644939,-3.70677798973,-4.4221240292,31.0428738692
do_nothing,-3.79692317432,-2.39845012872,-2.94664787299,1.33614192521,-0.720927892761,0.217591468886,-4.68573120506,-4.46043427291,-0.227667957244,-7.79748113366,-1.81849295758,-6.99895090772,-6.25339165515,61.6063443344
do_nothing,0.647297780545,4.03654516203,2.40669764802,-0.0589128243638,0.269059872058,5.12514622526,-0.770789116991,-1.31454337888,-0.326406705858,0.643562744028,1.42410617688,-1.51140456199,0.0677453830836,-16.5100154269
do_nothing,4.17281722621,7.33522925336,4.13291827601,-0.800332986107,-0.167703957821,6.22981196599,9.62673389432,5.94646516353,-0.0975116875779,9.97862320748,3.29109141667,6.99222173411,7.21074626866,-103.059898808
do_nothing,1.75802507343,1.68837427521,0.0965927531127,-0.737650241854,-1.7820843251,-0.458643004495,9.15355407571,5.85726349405,0.17211251699,7.51744504271,0.485668047456,6.8603243175,5.56296657296,-65.6016231632
do_nothing,-3.75965673604,-7.03913651346,-4.13928881633,-0.586365782538,-2.24427297864,-7.65803856477,-5.00590967079,-2.83417218576,0.203281391861,-4.38736344874,-3.43150685538,-3.03789172069,-3.24209674551,42.7780080143
do_nothing,-4.83830926607,-8.03289265751,-2.83612315417,-0.501696068357,-0.205593651825,-6.10507519152,-14.733251753,-8.42842574747,0.0522556996492,-11.0093038118,-3.09842580912,-10.10057549,-8.17843202769,71.5929261363
do_nothing,0.687716252608,0.0824505588664,2.38020268398,-0.0800910483009,2.81613456676,2.01803893055,-6.67528307966,-3.1575734681,-0.0502257889808,-4.87924224232,0.726327956601,-4.48574211988,-3.60684094438,10.4162795028
do_nothing,6.31576821674,7.50589205731,4.99476419199,0.605010877479,4.03036873792,6.3055739569,8.70074631919,5.73843818987,-0.0421793250304,5.47833322524,2.75550887182,7.16457781673,4.16816736942,-18.6578241505
do_nothing,5.24941747281,6.28386720076,2.18347820897,0.94770787469,2.27684431402,2.85709148181,12.2879286928,6.84288506632,-0.0404821425594,8.42571711332,1.34805715741,10.5589160092,6.61528100616,21.1304779117
do_nothing,-0.908102907665,-0.479124272681,-2.17625814303,0.699005621721,-1.05074170649,-1.92250730703,1.82256112812,0.274039929174,-0.0811540183999,3.46241427311,0.0617412150668,2.65100477812,3.31561268896,32.0305720335
do_nothing,-4.94238070495,-4.67010257201,-3.31011228602,0.138756084967,-3.55974340946,-2.44480887096,-8.27348016168,-4.53519948178,-0.055735306162,-2.00422212552,0.796164152906,-6.04377228817,-0.828586477102,-31.0785630877
do_nothing,-3.73026557538,-3.70858992958,-1.4592668141,-0.526059819484,-3.82418705523,-1.05779713702,-7.94134907011,-3.32396474251,0.0698889119153,-4.32494488725,0.605825239412,-7.06548247349,-3.6224828416,-74.3492543672
do_nothing,-0.942866611392,-1.0670576157,-0.154361885711,-1.13836770952,-2.00227206308,-1.3227348552,-1.3820432722,-0.946813909608,0.151854213488,-5.05624453173,-2.41360185463,-3.30488068261,-5.41865313815,-25.3739144205
do_nothing,-0.119963094335,0.630025339993,-0.478945976794,-1.10191020561,0.759353565886,-1.11226331389,3.49824536175,-1.04996789359,0.0726533512994,-3.87948333414,-4.51124081934,-0.510224047852,-4.31890453508,43.7631489862
do_nothing,0.242922626954,1.92483894708,-0.0730810805938,0.0522530843708,3.05730379689,2.39641075097,5.29424977581,-0.219704024528,-0.0747229102018,1.50044722215,-1.52533325774,1.91389245464,1.54758943734,39.2407454988
do_nothing,2.49858973662,2.79990489015,2.21258631997,1.4793672162,3.67810469103,5.62885554259,5.64663621937,4.22542757209,-0.119886864459,7.94602874319,3.97345152496,5.83565109426,7.72085011543,-4.79860752908
do_nothing,4.60105211949,1.57760888587,3.70510333041,1.52545272245,2.13622617471,2.99572629934,3.40713367144,7.28949450174,-0.0506420674144,7.43228160131,5.44617804553,6.87973283126,6.51725597989,-1.53129409714
do_nothing,2.94065248523,-1.39041743941,1.65291871192,-0.0800986256696,-0.717086316706,-3.81962440037,-2.34180736389,3.04516808543,0.00931199294256,-1.41821376673,1.3694618794,0.607177468419,-1.82021820454,33.2559007314
do_nothing,-1.59982287554,-2.76560182184,-2.31136748986,-1.52888913948,-2.91106644122,-7.22038586231,-7.79275707394,-5.36587550912,0.0100803093318,-8.68091442636,-3.03184284709,-7.3215333776,-7.40191580768,17.4274408513
do_nothing,-4.53364761551,-0.889806482839,-3.92614591836,-1.18288330913,-2.84986465646,-3.93127527851,-8.08496853391,-8.91247467729,0.0227473337899,-5.53085978014,-3.34951007064,-6.82888424288,-3.64899295756,-43.619121977
do_nothing,-3.91339560592,1.42099608,-1.8810613183,0.307521482123,-0.830872255664,1.6689696497,-3.33263450188,-4.60550592206,0.0773552971383,3.17626867329,-1.06203758621,1.25366944288,3.41513032815,-59.5652043495
do_nothing,-1.69834690148,1.00927382359,0.854772638177,1.08139216061,1.20527626799,4.77275262748,2.63817515009,1.67203112672,0.0909513045362,5.63711854304,0.391252438497,5.28955738821,4.01554786592,-6.48561428941
do_nothing,0.619695139148,-0.960228909286,1.4838655235,0.591783446608,1.59478709021,5.13660696875,7.22204356703,4.30882875856,0.00828848076941,-0.106382018004,0.733317547175,0.27248450292,-1.38528800262,36.6098158684
do_nothing,3.35038961267,-1.1840405607,0.690685336671,-0.136361913205,0.4336099014,3.51758506792,9.03674433274,4.06703560012,-0.0906594809137,-4.33930445502,1.33181018868,-4.59456235733,-3.91139802455,21.1013712918
do_nothing,5.05448487742,0.555078976159,0.452126039418,-0.37346871922,-0.835242196626,-0.994955477279,5.81290073804,3.50292918657,-0.100498447509,-0.940035934141,1.48439823221,-0.774812197227,-0.175378209283,-3.26741542583
do_nothing,2.6073123483,1.52744092527,0.760143210732,-0.417430054275,-0.893237651358,-6.71769124106,-2.36822467883,1.96131196212,-0.0371542360786,4.13509545514,-0.134022690193,5.99360902022,3.60130916088,9.04085351657
do_nothing,-3.03275230164,0.680623053043,0.440800640558,-0.438399121988,0.47996155639,-7.50123297027,-9.2111682776,-1.38375775075,0.0086995835549,3.27457365509,-1.89345366693,5.17217961741,2.32189012176,21.3027959836
do_nothing,-5.68790857484,-0.240140682786,-0.298193596122,-0.0102303551333,2.26578642298,-0.423364274207,-7.87045338736,-3.86323779504,0.0162935325148,-1.28243874784,-0.993459989526,-1.91696685309,-0.780329832389,-4.34032393025
do_nothing,-2.07621747408,-0.320205747173,-0.464679806286,0.742702628018,2.64000493853,7.65837757134,-0.813366473779,-3.18259502053,0.0384960476287,-2.68853370952,1.57727357892,-5.23230907454,-1.14579715429,-26.96376942
do_nothing,2.79188916917,-0.802219761569,-0.48731763125,0.786742723464,0.296771947438,7.24954996797,2.45364831118,-1.83091400931,0.0811929900292,-0.96178281273,1.77540191919,-2.39500081567,-0.525507020774,-2.90574159288
do_nothing,2.75655670989,-1.75979349017,-1.2788244381,-0.234144470983,-3.67830164998,-1.07071185097,-0.666484957325,-2.62836976007,0.0778344681856,-1.10878394222,-1.15186829946,-0.508363247881,-2.07332814268,20.3265640073
do_nothing,-0.355529214662,-0.865223447888,-1.64823872196,-1.05822169193,-5.68415170843,-6.96350810793,-1.40863018476,-2.41204967416,0.00108628760012,-2.58361726103,-2.8807437065,-1.94725338781,-2.87166677548,-21.1174461467
do_nothing,-0.581487037956,2.30436385955,0.310665008147,-0.481444279785,-2.85357701344,-3.97249793787,6.08923436188,3.38558037386,-0.0808550212124,0.0684484839797,-0.446369009086,-0.307085248803,1.24639822227,-76.1782838191
do_nothing,1.6595413201,3.72970653387,3.10675334882,0.758247334912,3.1392208895,2.73907938456,12.8314306933,10.7395465711,-0.0958574285265,5.84752498906,2.88283381803,6.16382029157,6.25663214458,-31.2798500135
do_nothing,0.552976981129,0.242215913394,2.68003259026,0.962801090788,6.84801273539,4.60658659295,6.16199109967,9.38880901505,-0.055204815421,6.13393748376,2.28349607862,8.35258167161,3.97484673725,102.762462835
do_nothing,-3.83992173111,-4.54033959351,-1.32377386086,-0.0879423729989,4.70629726667,0.87014712692,-10.1000064115,-2.49205487316,-0.00735707666173,-1.70468255829,-1.36199405002,0.380274748381,-4.46200715645,161.953416516
do_nothing,-4.01583672199,-4.05546161688,-3.71850186829,-0.955209348136,-0.898338580437,-2.40323243138,-17.5208260084,-13.008401501,0.0406338332356,-8.05807253711,-2.85298704225,-9.01445554187,-7.97340268765,37.4077713463
do_nothing,2.37929905711,1.70520399384,-0.949003929745,-0.684930647993,-4.43956763261,-1.59324647844,-7.05262399117,-10.8509362435,0.0936139578616,-4.47706834895,-0.440980587792,-8.27346428918,-1.31177523058,-157.926966962
do_nothing,6.7427185684,5.36004023937,3.04181746519,0.13840462564,-3.5508809197,0.819742498722,8.45000185714,0.234095206239,0.0993822273724,3.46913697227,2.04812151957,0.126673562146,6.56131386797,-205.022524599
do_nothing,2.19854929753,2.32704803296,2.26790738987,0.644271106364,-0.863457300387,1.18226993581,11.4135056014,7.45948860766,-0.000584254987867,4.81965319815,1.45619082412,4.83822089545,5.37780354065,-40.4190172713
do_nothing,-4.77122044561,-2.69390107464,-2.04947612239,0.748132047978,0.33243038503,-0.636813983049,1.97314340893,5.89335773963,-0.142483323465,-0.126125648005,-0.396549832732,3.3213120451,-1.69125353495,162.652156166
do_nothing,-3.82339742482,-2.84540609792,-3.10802790907,0.54345378681,0.114960679206,-2.17776774389,-5.12688959311,1.80625627873,-0.152207790399,-1.80098430434,-0.618842603921,2.62085133856,-4.02078656732,190.68383347
do_nothing,2.68245034029,0.790067160428,0.831738977706,-0.199561746155,0.529815332258,-1.56282672092,-1.97623431424,0.589641917182,0.0447137842041,1.97631555977,-0.0452781508081,4.12540208925,-0.0608217701754,28.8350448722
do_nothing,3.19279580556,1.43654926714,3.46819808899,-1.18971297085,1.86361738409,1.04881969018,4.11214990085,-0.0312944463798,0.26651587355,2.71995130049,-0.914442748886,0.733878207785,1.77112491936,-132.877824199
do_nothing,-4.08654145742,-2.3829966031,0.306882733879,-1.28109758352,2.35961083529,3.62687056049,3.83215813367,-2.77152233342,0.226508552407,-3.3301829726,-2.05865308214,-8.11469458102,-2.05349529219,-126.608654259
do_nothing,-7.30806403713,-4.19180048277,-3.98230049953,0.00527517135612,1.13283472878,3.55900075233,-1.68206594507,-4.47869221146,-0.123653819386,-7.42499312557,-0.502345426421,-11.1163318782,-4.46757087013,4.71842955859
do_nothing,0.672725865892,0.513279529662,-2.51107010991,1.36223203365,-0.62314251056,0.215483602222,-5.33441735351,-1.75164376702,-0.464172241702,-1.86307193002,2.8979113592,-1.59282886616,0.0402725527928,83.4391780258
do_nothing,10.3545460564,6.8139219219,3.21942778802,1.2431892541,-1.60455370595,-3.60839434635,-4.35800441735,2.38386416949,-0.400625992626,7.09975806009,3.67369870761,10.4007766972,6.05570105343,33.6340892341
do_nothing,8.93327565166,6.66712736823,5.40512861047,0.0187245144104,-1.91942750613,-4.31023084024,-1.08907170049,2.90034953307,0.0994577460403,8.14649205315,0.351928329643,11.3134732979,5.6587818556,-37.6828946202
do_nothing,-1.69615318836,-0.312139829046,1.20910636808,-0.670303912907,-1.96454163449,-1.68889925105,2.23970178102,0.502978063072,0.610985479858,1.16431892953,-2.97216298293,2.4574295174,0.149084176995,-17.3080802278
do_nothing,-8.95134955248,-6.76063421503,-3.88528144905,-0.385098554,-1.19923378806,1.08423246319,4.3350906281,-0.528731889567,0.636393952801,-4.50739065981,-2.52483401588,-4.60372859315,-3.43907494827,46.3717280375
do_nothing,-7.21297134191,-7.07006350872,-4.45881067827,-0.217371767256,0.76926878296,1.84431185954,3.34938892197,0.15545092323,0.0976160548239,-4.79282396683,-0.0943742928164,-5.75323869242,-3.45663282883,34.4435932594
do_nothing,-2.09734771494,-2.70638051944,-1.60405694183,-0.601580872923,2.72078202537,1.67240073666,-0.484568542524,-0.511521975079,-0.56015218195,-3.91976069437,0.434230784649,-6.02983696866,-3.63614074976,-43.9836589646
do_nothing,1.1376905615,1.96873679472,0.870653604137,-0.483473480488,2.82242326949,2.01087773832,-2.80850433206,-2.23558885501,-0.76536264378,-3.59713920963,-0.68399597734,-6.27846677372,-4.05584814326,-65.7264283421
do_nothing,3.67587771871,4.88384078735,2.10349160454,0.649950640986,0.946126922004,1.89351623256,-0.561792687621,-1.30299648561,-0.346492531223,0.311885015134,-0.0969878269096,-0.949588908027,-0.476895549735,4.63817736079
do_nothing,6.32130678292,5.69320283624,2.94951628667,1.43138833129,-1.06203103722,-0.058153542457,2.45994112421,2.40191987948,0.310740867112,7.73525868566,2.46563390871,9.04995589529,6.55982442477,57.5597482009
do_nothing,5.47799797934,3.64670491487,2.54484849339,0.560761974525,-1.56153020667,-2.51842566299,0.848846627992,4.16855944299,0.634693131441,10.4063507545,3.2935375056,13.0716218144,9.61747429374,18.859729044
do_nothing,-0.068322924373,-0.95288693692,-0.0163480406315,-0.962346991055,-0.844662413739,-2.8647871583,-3.31502838496,1.66428432328,0.413552528102,3.29936492215,0.537051777691,5.4284002621,4.36431869794,-34.2481243998
do_nothing,-4.99198765109,-5.018981754,-2.61261133047,-1.12332841751,-0.452208325731,-1.10765691134,-3.35374606212,-1.86928247988,-0.0392528541627,-6.75389748928,-2.76902537213,-5.62636100974,-4.05574472954,-11.3262709449
do_nothing,-4.84780206595,-5.39576762485,-2.53261307647,0.123377467211,-1.16028531232,0.105264768968,0.604335697454,-3.45334892228,-0.273236872966,-9.93517606969,-3.17835729544,-9.67295495587,-8.18464531964,38.961402977
do_nothing,-2.50576191212,-2.61627744415,-0.788563019694,0.848824524481,-1.87541836493,-0.367034054919,1.39193621107,-4.055618167,-0.191701781495,-5.78041630435,-1.37261782678,-7.22988034632,-6.95794059549,19.6532756694
do_nothing,-2.11787264285,0.333126301063,-0.334349080079,0.109866371241,-0.661992285927,-0.391053459156,-2.28150946204,-3.84660657873,-0.0659996464322,-0.483214254638,0.0305515059819,-4.17945844385,-3.39357997793,-43.3441940864
do_nothing,-1.42040563542,2.2113696336,-0.861049256866,-0.778668430205,2.7183018353,1.93065770875,-1.9315687077,0.289531833856,-0.0985538118038,3.38440208253,0.788032094974,-0.363505733546,1.56388999293,-45.6309955371
do_nothing,3.40217959393,3.83535639866,0.505696750466,-0.460179052606,5.38882147538,4.73988311371,6.31204443607,7.8341490838,-0.152088316057,6.84091352635,2.13126955908,6.75884122795,7.30752901998,16.6796414602
do_nothing,8.56230048712,4.65293580412,3.40933279789,0.466757580565,3.71196116096,4.23528440511,11.8594130071,10.5968442581,-0.00983316235975,7.58025715417,3.09932284839,12.0120191514,9.30564261845,43.2008413219
do_nothing,6.40025701541,2.44459222174,3.72687409382,0.670668438806,-2.08513393268,-0.529049201245,3.5127592082,2.63910215774,0.245238922959,2.20345712413,1.40980371905,7.44535459356,3.68949953409,1.34529942764
do_nothing,-2.40839422203,-2.48277768951,0.0956278429176,0.195519801417,-6.82351228074,-6.05186856008,-11.9289364881,-8.92671767531,0.315307699452,-5.36284860913,-2.15368927519,-3.82871327828,-5.02988030181,-25.9283438717
do_nothing,-8.21330229192,-5.80306798268,-3.28883638556,0.0283705242646,-5.6240008433,-7.59893588606,-16.2664201586,-11.1472845424,0.112199928896,-6.71189549748,-3.67994316156,-9.62077204556,-7.78107882069,8.58872421391
do_nothing,-5.49046377154,-4.12586385657,-2.79280614657,0.203670889605,0.285262668885,-3.39320941243,-4.27933353625,-2.46694851399,-0.121630146085,-1.52022785625,-1.4505103501,-5.71976739343,-3.05120981192,36.3748522799
do_nothing,0.327831428131,0.379536343046,-0.5583645142,-0.17061118898,4.94431292785,3.81136586729,9.49611385197,5.41430418177,-0.166407534491,1.33762819562,1.47034912571,-0.78398843472,1.30183665302,-0.514989768015
do_nothing,2.06439333579,2.77319827608,-0.284000449859,-1.07721745411,4.66222872677,8.3901600931,10.8042554008,4.14592652199,-0.0990533307392,-1.98508767884,1.57493281581,-1.25761815037,0.0819000089402,-45.2873564423
do_nothing,0.613416028873,1.674182795,-0.923926763275,-1.20539708677,1.35369446243,5.99742928387,2.62484815827,-0.978547772348,-0.0932146531049,-3.75176644175,-0.359804928699,-1.70532673146,-1.99613684157,-25.6852866292
do_nothing,0.927894184119,0.176187807997,0.887695760511,0.121837155185,-1.36448203904,-1.89827975718,-2.9591789832,-1.04195699546,-0.114616829298,2.35477754706,-0.993959177355,3.81575883161,1.08904092324,22.3711425679
do_nothing,3.03853405136,0.775441672874,3.97514527304,1.66825582599,-2.46281981113,-7.74576229381,-1.68803014221,3.3301916186,-0.0128573954994,9.57518793986,0.605767608485,9.70612266775,6.43494884647,21.634742471
do_nothing,3.03510841358,2.11796772643,3.52882090233,1.69020367516,-2.43179800304,-4.88157787708,1.32440482596,4.89812308326,0.173260905241,7.54471695678,2.12866842081,7.08175223552,6.4603260765,-13.0395877751
do_nothing,0.329570326182,1.55267814449,-1.067354757,0.0972531196799,-0.889510595474,4.0103032623,1.56753356949,1.20727930603,0.230914829692,-1.91059220018,1.57626862794,-1.76716281841,0.181899527901,-8.83617489165
do_nothing,-2.01010521866,-1.13042324791,-4.42145991458,-1.46969074647,1.84226686144,8.1742792304,-1.04739637226,-3.67707340484,0.0936708068085,-7.84605851206,-0.522126276014,-7.03023018409,-5.92983978628,30.5537586111
do_nothing,-2.94305263304,-3.72375103898,-2.77729741066,-1.51087339373,2.85529855078,1.376023895,-5.17557946573,-6.24527866149,-0.0607442000408,-6.23632225938,-2.42458204158,-6.1537852781,-7.07762113542,30.5656030345
do_nothing,-3.80348035738,-4.101005594,0.830722384218,-0.155064895462,0.128216894602,-8.88208695455,-7.85158497269,-5.95892573739,-0.0872948626332,-2.99290813677,-2.89114107177,-4.73278008237,-4.3781098091,-20.5462489526
do_nothing,-3.43177766983,-1.72472052351,1.7010827103,1.12088410768,-3.13921857847,-9.43287858845,-4.02130847418,-2.20941466349,-0.0626772312617,-1.57132401689,-1.43872281533,-4.02208360361,-0.280266049911,-46.6516631388
do_nothing,0.965951853709,2.20269214685,0.223065021454,0.994044753349,-1.97436299588,1.45064223804,6.41142334301,4.55079207863,-0.0981044660374,1.7784981929,1.38231658952,1.17186000119,4.39947078968,-10.726846608
do_nothing,7.05969789911,5.08486611416,-0.0682174100718,-0.356519267165,2.53922497459,10.8714389668,13.479635506,9.15667676127,-0.126220169932,7.77264767709,3.53149692632,10.1305222725,7.65379308093,26.2581889929
do_nothing,7.56317757573,4.50023776833,1.21398535118,-1.31467107312,3.74002024619,7.96178199715,7.81337888979,6.0429000148,-0.0292125524608,9.11574989102,2.90160195868,12.6016173737,5.92210981282,11.3024340057
do_nothing,0.169066472012,0.687251896968,1.22250091297,-0.55918403926,-0.70555718823,-1.94521544806,-4.70526439928,-1.92993504588,0.127866969083,1.62910739424,-0.0525629269967,3.17511453563,-0.627607055205,-16.6684135146
do_nothing,-7.52670618339,-3.19914446968,-0.762550933553,1.20057688225,-4.40565695773,-5.80475073698,-9.02105939538,-5.59449554507,0.170782991504,-7.17371452919,-2.40770176849,-8.91229540739,-6.3302603685,-3.27064398967
do_nothing,-7.1684904669,-4.32874783341,-2.00808306625,1.82072736049,-1.46069346408,-1.61386521542,-2.41798425809,-2.25764618678,0.0760626632695,-7.91823624944,-2.25855304723,-11.4737115866,-6.54307216996,26.6510435122
do_nothing,-0.27704817777,-2.91855951135,-0.835302820452,0.376265170297,4.09021720891,0.500375153579,1.7504754547,0.561119604631,-0.0144788731636,-2.42024531433,-0.810275040617,-4.94298177038,-2.93324960888,18.6387272309
do_nothing,4.79372401482,-0.763077629548,0.934045689848,-1.50871128293,3.78861960707,-4.00718616665,-3.97434537123,-2.41715503088,-0.0283796592485,0.929762847112,-0.049341148411,1.36810313139,0.469449003136,-14.2797936719
do_nothing,4.05614628455,1.5527764143,1.16479862742,-1.69794352292,-2.40803762357,-6.0055607608,-8.13171080348,-5.24837500783,-0.0416041859843,0.740691648814,0.192706333422,3.72747724946,3.09042729447,-19.2846707926
do_nothing,0.893539084709,3.96591224787,0.326779097799,-0.290172984384,-5.70937754393,1.99312129159,0.965416554223,-0.546142340498,-0.0962438457282,2.33854218599,1.16707336313,5.43907431069,5.78393655499,0.906583387722
do_nothing,-0.928387576367,4.56900710017,-0.206000257403,0.76551023031,-1.46632177634,11.2385000388,13.8232285152,7.38422786808,-0.105367462834,5.74604403322,2.24887367047,6.4592158546,6.00368216008,-0.50107608801
do_nothing,-1.63499658328,1.16874250341,-0.507393207481,0.501277999259,4.21793896227,7.96288121863,11.8824943888,7.94253470714,-0.0146489156489,4.27369111006,1.4069285422,2.22126652513,0.665823332075,-20.8803215864
do_nothing,-2.1493944919,-4.31465174216,-1.01052938965,-0.00371273786995,3.97212631054,-4.98583822221,-3.66619534048,0.291326716674,0.0785617721115,-3.16091204461,-1.30595418845,-5.93665583219,-6.94006488493,-9.24037912038
do_nothing,-1.43565540931,-6.21507573928,-0.871703328908,0.356422610365,-0.376534140362,-10.3723585419,-12.0224928829,-5.3494578328,0.0723160303475,-7.70703502834,-2.95475081791,-8.86652812262,-8.87450060728,33.4579777236
do_nothing,0.749123220503,-1.86908850825,0.578450106944,0.979405076275,-1.99980241231,-1.52947179907,-3.30169283401,-3.00842367756,0.0213418040558,-3.15913828221,-1.44671086025,-2.33327304609,-2.56057097875,39.1722250942
do_nothing,2.13087295306,4.18682737555,1.97728980365,0.659710823817,0.0015595774729,7.48124051622,7.24047431134,1.33046358609,0.0309391702724,4.35605942622,1.45446564432,5.73185846383,5.38073376595,-13.7656614435
do_nothing,1.34780964566,5.32892181074,1.52381156664,-0.519504615514,0.453030922345,2.94254719857,2.95192584608,0.469197244619,0.0688900996268,5.22442238943,2.28918692911,6.0017629988,7.3420973296,-49.9687435473
