label,COUNTER,INTERPOLATED,AF3,F7,F3,FC5,T7,P7,O1,O2,P8,T8,FC6,F4,F8,AF4,RAW_CQ,GYROX,GYROY,MARKER,SYNC,TIME_STAMP_s,TIME_STAMP_ms,CQ_AF3,CQ_F7,CQ_F3,CQ_FC5,CQ_T7,CQ_P7,CQ_O1,CQ_O2,CQ_P8,CQ_T8,CQ_FC6,CQ_F4,CQ_F8,CQ_AF4,CQ_CMS,CQ_DRL
off_to_on,10.504275494,9.9883762781,14.2584725169,10.4159718742,2.26861736179,9.55126135092,9.39757573429,-4.50041627546,10.4831410307,6.83635143028,4.26076111392,5.06632017302,5.40068665183,5.87911845878
off_to_on,7.05824507611,6.65692141025,9.71479066969,8.87003777671,-0.72555567268,6.90252273646,5.70367259259,-4.43419267113,9.16470040869,2.68046757465,1.68212712841,1.34579658562,2.00533234338,17.8552436781
off_to_on,3.60829802705,3.32572226174,4.64115186802,6.89340319418,-3.42492114607,4.16247918844,2.11887743099,-3.57603206974,7.42655149515,-1.05595473203,-0.709121403967,-1.76896736951,-0.855942015943,26.104211657
off_to_on,0.596245814736,0.437092414239,-0.407121288371,4.63439226288,-5.56116473302,1.70228072059,-0.869455574099,-1.77553492706,5.39843054181,-3.87579816615,-2.6540777551,-3.79264808796,-2.776948007,29.4516046126
off_to_on,-1.6495034601,-1.68297428153,-4.92737172989,2.25615929444,-6.95453242479,-0.19835358378,-2.90872764354,0.951715880748,3.22191740299,-5.45220135664,-3.97744811075,-4.43813278383,-3.52654533689,27.3538839767
off_to_on,-2.95177208618,-2.86373285773,-8.52746785154,-0.0808595208438,-7.53381349502,-1.38417857395,-3.82276023372,4.42108784161,1.03533162501,-5.66778831843,-4.60715839117,-3.65339237232,-3.0773585138,19.9358672392
off_to_on,-3.29836418562,-3.1033956588,-10.9648575902,-2.23535151503,-7.34011921646,-1.83662782008,-3.62555800194,8.30234348482,-1.03985831713,-4.62203683029,-4.57804187143,-1.62260788979,-1.60320672628,7.95594909782
off_to_on,-2.83087581087,-2.55669503905,-12.1626086761,-4.09822150017,-6.5143392248,-1.66441561132,-2.5063677859,12.1656712532,-2.90933457875,-2.6066810825,-4.01958119626,1.26779837267,0.553698704205,-7.2932724478
off_to_on,-1.81138156147,-1.4992972576,-12.2017098877,-5.60072343223,-5.2705789599,-1.07505955628,-0.789504706813,15.5430407029,-4.51169275041,-0.0537240580201,-3.13004832825,4.49243762331,2.94027200932,-24.13556048
off_to_on,-0.57295515797,-0.275416043566,-11.2923355834,-6.7167318188,-3.85991799644,-0.332639195917,1.12396222711,17.9954459167,-5.81913060255,2.53546844672,-2.14135558765,7.46956096183,5.06570402237,-40.6954165354
off_to_on,0.537873105695,0.762731261268,-9.72964879258,-7.45912840714,-2.5301797541,0.291008368375,2.82313042818,19.1758941441,-6.83330069788,4.66896888598,-1.28021254583,9.65039425887,6.47901531029,-55.0968490324
off_to_on,1.21775599816,1.31406011175,-7.84163734452,-7.87114203146,-1.48787476855,0.563737159005,3.95232847794,18.8788352909,-7.57728896039,5.93910444688,-0.731597542501,10.601886108,6.83934228768,-65.6569514211
off_to_on,1.25380653306,1.1773335814,-5.93719941249,-8.01420171165,-0.868014420575,0.331792586718,4.2645504726,17.0689545333,-8.0852449559,6.08233752967,-0.610052969617,10.0708264449,5.96859659342,-71.0562364744
off_to_on,0.554807519065,0.282339685593,-4.26216320724,-7.9543384206,-0.716174282651,-0.455977591528,3.65563521112,13.8854996602,-8.39150857381,5.01579228538,-0.942992640983,8.02032272068,3.8789675586,-70.4705892716
off_to_on,-0.837656153262,-1.30066541956,-2.96927361251,-7.74933076552,-0.985228614901,-1.74165349656,2.17480878523,9.62207230751,-8.52110561612,2.84573137475,-1.6682824271,4.63391870447,0.77163590023,-63.6536562917
off_to_on,-2.75895543209,-3.37397803277,-2.10570279824,-7.43861375647,-1.54688687,-3.36985165297,0.0110164968556,4.6854952037,-8.48321980241,-0.152388816983,-2.64612487351,0.287539809254,-2.99257043983,-50.9631199798
off_to_on,-4.94968306299,-5.64519110721,-1.61875185819,-7.03748837327,-2.21589274677,-5.11487609496,-2.54176203787,-0.459585270657,-8.26873393185,-3.57839521464,-3.68308865637,-4.5057972544,-6.94568373806,-33.3292672198
off_to_on,-7.09733869298,-7.77398032488,-1.3775632235,-6.53645920703,-2.78284200465,-6.71849531086,-5.13387542292,-5.35174444919,-7.85224942994,-6.96896121489,-4.56430655548,-9.1696728673,-10.5800299243,-12.1692172829
off_to_on,-8.88452260409,-9.42527369081,-1.20629226813,-5.90569846597,-3.0503222397,-7.93190133062,-7.41565178069,-9.59026688658,-7.19824776464,-9.86647796418,-5.08869117279,-13.1450339711,-13.4203156129,10.7451795506
off_to_on,-10.0360390971,-10.3204116172,-0.922635444537,-5.10381456362,-2.86665831179,-8.55495389065,-9.0902872883,-12.8807127326,-6.27036494178,-11.8846721279,-5.10165371799,-15.9660093274,-15.0896489342,33.4537227745
off_to_on,-10.3578204612,-10.278490149,-0.375086987786,-4.08941745411,-2.15201349712,-8.46647778188,-9.9557126026,-15.0623145237,-5.04221871361,-12.7612536258,-4.5202993661,-17.3198449765,-15.359949131,53.9933237349
off_to_on,-9.76216805009,-9.24185812044,0.527163647443,-2.83352467397,-0.912864766904,-7.64103162929,-9.92926229785,-16.1139890512,-3.50793972199,-12.3901804176,-3.34732369359,-17.0827602521,-14.1797844732,70.5853585299
off_to_on,-8.27618181858,-7.28239975413,1.79630294341,-1.33070869035,0.757265100119,-6.14991351249,-9.05198571641,-16.1392087978,-1.69055776081,-10.8294993819,-1.67164388853,-15.3274135013,-11.6762497712,81.8071131774
off_to_on,-6.03301272482,-4.58833775427,3.36239432187,0.392932063895,2.69077066419,-4.14681882466,-7.47287562689,-15.3333128242,0.353316164298,-8.2846164225,0.34412131541,-12.3020967023,-8.13148851373,86.7304604862
off_to_on,-3.24827395222,-1.4343398346,5.08431704324,2.27641831819,4.67044623727,-1.84108245351,-5.41659077211,-13.9395235421,2.53353527731,-5.07064969732,2.48718225717,-8.38605770479,-3.93826158353,85.0134503072
off_to_on,-0.186160535965,1.85977418746,6.77279303349,4.22589118583,6.46154914015,0.536587126116,-3.14087777051,-12.2015574617,4.73151129006,-1.56063877853,4.52531721768,-4.02882318893,0.458012356467,76.9345597265
off_to_on,2.87878356518,4.97483031107,8.22126127259,6.12189438877,7.84637723434,2.76985458815,-0.891440087595,-10.321030997,6.80991673291,1.87165137966,6.23997203688,0.316452872416,4.62151761284,63.3646894159
off_to_on,5.69794157792,7.6352584109,9.23922342108,7.8310561183,8.65596816495,4.68786611434,1.13777951974,-8.42683225265,8.62584761433,4.90506186951,7.45659689215,4.25506426016,8.18304590878,45.6781850591
off_to_on,8.07730842483,9.64260517635,9.68246113394,9.22061343938,8.7940460172,6.18653864856,2.83206141755,-6.56143511816,10.0457537124,7.31219367243,8.06762161805,7.49884405119,10.8833474926,25.610630886
off_to_on,9.89452461749,10.8947793093,9.47522308651,10.1737783646,8.24961449081,7.23665247114,4.1665444433,-4.6861358283,10.9601435884,8.98233346051,8.04470448352,9.89346326461,12.59687023,5.07721857652
off_to_on,11.1023906807,11.388721056,8.62095843688,10.6037987006,7.09641865415,7.87773079184,5.19849324492,-2.70388362849,11.2960619286,9.92328410371,7.43863013362,11.4217381068,13.3332364108,-14.0295854575
off_to_on,11.7194170373,11.2070119293,7.2001715755,10.4647390755,5.47958045092,8.19921215468,6.04294193765,-0.495294584879,11.025620476,10.2428112658,6.36720248078,12.1837787789,13.2174483105,-30.0412391369
off_to_on,11.8102101415,10.4916072806,5.3561513654,9.75747077155,3.5917285272,8.31268079475,6.83644945823,2.03891658394,10.1693992019,10.1138101211,4.99336678782,12.358614296,12.453206554,-41.6905698725
off_to_on,11.460188655,9.40995006553,3.27132586752,8.53004219981,1.64257532867,8.32053551075,7.69589692484,4.93708998952,8.7942425482,9.72995729597,3.49730662078,12.1548932868,11.276335937,-48.2446672384
off_to_on,10.7499859854,8.11987562644,1.13848672343,6.87240173357,-0.17311009981,8.28717228679,8.68028168497,8.14527378713,7.00575205356,9.26011855969,2.04716156725,11.7599235286,9.90673744563,-49.5768260175
off_to_on,9.73479154,6.73976512471,-0.868119936159,4.90624124696,-1.70397993107,8.21840276045,9.76313044117,11.5018746027,4.93650713598,8.80989608453,0.773163568215,11.2964176419,8.50731062241,-46.1677615798
off_to_on,8.43283939065,5.32935123189,-2.61693809286,2.77140381054,-2.86249662211,8.05347407286,10.8214983241,14.7422684285,2.7316232288,8.39740776284,-0.250625769089,10.7948537029,7.15692856783,-39.0344756334
off_to_on,6.82545390226,3.88460567477,-4.03450477408,0.610753765048,-3.6340288503,7.67190585501,11.644791645,17.5240744228,0.533597133599,7.94790772559,-1.01407630788,10.1865819542,5.84203027568,-29.5939084978
off_to_on,4.8688181461,2.34757614611,-5.10971291491,-1.4444228279,-4.07329409509,6.9147609823,11.9632774858,19.4703175531,-1.53155468347,7.3085855011,-1.56709129899,9.31916692986,4.46813567194,-19.4767920784
off_to_on,2.51532892891,0.629318143643,-5.88650250553,-3.28655565933,-4.28884983492,5.61734207212,11.4926639063,20.2245662548,-3.3650934635,6.28135197729,-2.00481931884,7.99154087228,2.88911817669,-10.3138237063
off_to_on,-0.259559557589,-1.35835900839,-6.44657181209,-4.83995104216,-4.41829004327,3.64809220292,9.98811898567,19.5098363642,-4.90200655859,4.6682077052,-2.44455063508,6.00299656883,0.94895107773,-3.52046291291
off_to_on,-3.43037803959,-3.66833392912,-6.88544214449,-6.06409250986,-4.59834153305,0.947055708095,7.29905198526,17.1819869443,-6.1124863779,2.32142024968,-2.9982689806,3.20744713595,-1.47161517606,-0.107639560603
off_to_on,-6.90030153718,-6.28752358792,-7.28637901516,-6.95194350843,-4.93493052865,-2.44311588629,3.41526947794,13.2686967997,-6.99856017625,-0.810390937558,-3.74559432329,-0.436839182166,-4.41201580522,-0.543171989504
off_to_on,-10.4905084203,-9.11644306905,-7.69707378773,-7.52386116736,-5.47836082001,-6.35984830201,-1.50409564854,7.98688403297,-7.58669722601,-4.64884793602,-4.71185970918,-4.8314417639,-7.80066531835,-4.68289994013
off_to_on,-13.9437484768,-11.9637634302,-8.11355351123,-7.81836428852,-6.20799296176,-10.5214084513,-7.12527476429,1.73437837483,-7.91778672332,-8.97193556729,-5.85530832072,-9.72339617518,-11.4420286561,-11.7820644526
off_to_on,-16.9433660592,-14.5582776201,-8.47458042478,-7.88142600472,-7.02934930672,-14.5474791296,-12.9612282839,-4.94464410207,-8.03622428027,-13.423591148,-7.06598753989,-14.7164494611,-15.0255703575,-20.5873313884
off_to_on,-19.1464246629,-16.57780784,-8.66802093813,-7.7561205085,-7.78461397217,-17.9981978472,-18.4187538107,-11.4170463011,-7.97991843589,-17.5470586024,-8.17706949613,-19.30818042,-18.1566713795,-29.4993406649
off_to_on,-20.2270604167,-17.6916692429,-8.54859642034,-7.47432417932,-8.27534997501,-20.4272846871,-22.86636781,-17.0339881376,-7.77282396716,-20.8384799948,-8.98732658314,-22.9490046916,-20.4059746252,-36.7861564514
off_to_on,-19.9241691682,-17.6108161548,-7.96441348405,-7.05177910598,-8.2942499827,-21.4423809009,-25.7145175802,-21.2104986397,-7.42116063619,-22.8137921706,-9.29164640328,-25.1153667986,-21.370445826,-40.8207964032
off_to_on,-18.0863520294,-16.1381512834,-6.78804291761,-6.487236339,-7.66118623708,-20.7641511765,-26.4973223001,-23.500522368,-6.91385558465,-23.07954883,-8.91507300077,-25.386776733,-20.737224526,-40.3121644728
off_to_on,-14.7069296507,-13.2109645389,-4.94694839075,-5.76570195489,-6.25797643353,-18.275345763,-24.9441950509,-23.6568696599,-6.22705152999,-21.3972013075,-7.74513382383,-23.515213763,-18.3404563881,-34.4988154146
off_to_on,-9.94284617829,-8.9282035348,-2.44792968458,-4.86512090359,-4.05627803019,-14.0519745526,-21.0305405597,-21.6673128654,-5.33185852451,-17.7308454435,-5.7572780089,-19.4760068248,-14.2019086876,-23.2791341027
off_to_on,-4.1133051138,-3.55718745424,0.609019790328,-3.76525936721,-1.1338786504,-8.37091803272,-14.999186403,-17.7611912616,-4.2039959518,-12.2704436432,-3.02911484031,-13.4915617915,-8.54821433851,-7.25926538638
off_to_on,2.3232639629,2.48279932221,4.03053418721,-2.45717514683,2.32375060668,-1.6914076989,-7.34797639995,-12.384884029,-2.83365432619,-5.42579501151,0.259316115771,-6.02293874106,-1.80078495863,12.289474283
off_to_on,8.81221252257,8.65926368262,7.54441232462,-0.951554432201,6.03765858369,5.38857882224,1.21647879911,-6.14881766806,-1.2338509675,2.20940764475,3.84001169152,2.27122722825,5.46167974317,33.5602706541
off_to_on,14.7609809582,14.3834904518,10.8276175914,0.715641498588,9.66407568527,12.1963614124,9.85417829483,0.247326354857,0.554232637073,9.91981438646,7.38481324117,10.6042710281,12.5641513604,54.4126739472
off_to_on,19.6056259317,19.0787796631,13.5443187279,2.48136121698,12.8340563289,18.0613310046,17.6873208916,6.10142556873,2.45999430314,16.9494609773,10.5431544701,18.151105484,18.8122338824,72.6220675564
off_to_on,22.8770228858,22.2510274739,15.3888447464,4.25802198847,15.1989120294,22.3946813891,23.9041329717,10.7962044082,4.38668131889,22.5912511381,12.9847994655,24.1463901921,23.5751349012,86.1455823327
off_to_on,24.2579230852,23.5520594378,16.1274619214,5.94029472664,16.4752585994,24.7615887616,27.8574944422,13.8752866643,6.21894350567,26.2730566298,14.4417679759,27.9782459201,26.3635266056,93.3707490505
off_to_on,23.6230242093,22.8268140193,15.6328197919,7.41529387928,16.4833961607,24.936051545,29.1452942367,15.097783377,7.83376730216,27.6288158825,14.7436206437,29.26481524,26.8916283619,93.315058332
off_to_on,21.0563333486,20.137465239,13.9057840943,8.57479903793,15.1735433708,22.9307165035,27.6616330011,14.4641073735,9.11336203034,26.5448635683,13.841094943,27.9030944014,25.1148291174,85.7506919546
off_to_on,16.8430752822,15.7606006864,11.0810622826,9.32779015211,12.6360499419,18.9972475088,23.6117116801,12.2096562145,9.95825293576,23.1749766625,11.8146323114,24.0831087181,21.2374163135,71.238221898
off_to_on,11.4368117518,10.1572129262,7.41529018654,9.61149418744,9.09388854548,13.5967019484,17.4879998032,8.76742779062,10.2987767725,17.9218243192,8.86639955659,18.2651654344,15.6890298185,51.0647901949
off_to_on,5.40580461349,3.9190012973,3.25875437035,9.39933145196,4.87816778966,7.34342484843,10.0104145825,4.70490106419,10.1033830345,11.3870669454,5.29668812484,11.1229359911,9.07273680723,27.094625445
off_to_on,-0.634505199603,-2.30221970979,-0.985698554408,8.70458601197,0.389761785287,0.929584457413,2.03805112009,0.64402497829,9.38258586708,4.29661839927,1.46774537576,3.45978175533,2.09151434097,1.55107017205
off_to_on,-6.09412930799,-7.87282762555,-4.91112346512,7.57924034129,-3.94791964367,-4.95985688332,-5.53618289692,-2.82458238504,8.18802170283,-2.58904117759,-2.24015999448,-3.89061877811,-4.53712609502,-23.2419293592
off_to_on,-10.4768117738,-12.2531205646,-8.15574788554,6.10811588354,-7.73876989288,-9.73059869677,-11.8943881285,-5.22142793416,6.60675449547,-8.56761297373,-5.47456240847,-10.1661740469,-10.1670535684,-45.1258561969
off_to_on,-13.4351199674,-15.0604886735,-10.4463166803,4.39914183848,-10.6598348981,-12.9499261596,-16.3918679214,-6.24109315142,4.75163193751,-13.0785495787,-7.95239187993,-14.7673688042,-14.2986546301,-62.3474842009
off_to_on,-14.8053591327,-16.1117577969,-11.6295753845,2.57113085849,-12.4971511541,-14.3958269016,-18.6320754696,-5.78996491339,2.74903466856,-15.7665559328,-9.4918284015,-17.3254779231,-16.6334533116,-73.7426497756
off_to_on,-14.6181326578,-15.4392941371,-11.6876207575,0.740788279164,-13.1669676313,-14.0779849517,-18.508852871,-3.99398041741,0.725697785755,-16.5169724361,-10.0302985891,-17.7393590974,-17.1013968332,-78.841715481
off_to_on,-13.0837352702,-13.2790632906,-10.7351304737,-0.989231168443,-12.7197970233,-12.2281588515,-16.2109171454,-1.17584827719,-1.20362767914,-15.4589196141,-9.62645016317,-16.1765599116,-15.8578275217,-77.8850686337
off_to_on,-10.5550057651,-10.0326738845,-8.99905212078,-2.53959077326,-11.3271289338,-9.26160496655,-12.1886065871,2.19454567804,-2.94607621384,-12.9365345231,-8.44618102131,-13.039393912,-13.2513608935,-71.7489778787
off_to_on,-7.47329001165,-6.20896046892,-6.78380782048,-3.85966400554,-9.25301908074,-5.7151134136,-7.08790268518,5.56917610016,-4.43693570901,-9.45297073322,-6.73500456936,-8.9013992263,-9.7678498753,-61.7939052549
off_to_on,-4.30534833542,-2.35337531372,-4.42709217985,-4.92845797141,-6.81480568946,-2.17034044022,-1.66100375745,8.40041727571,-5.64165288418,-5.59545691078,-4.78088726441,-4.42352388986,-5.95877622773,-49.6573604909
off_to_on,-1.48008402139,1.02501324611,-2.25261392909,-5.75116417572,-4.33861142952,0.826981346915,3.33432778432,10.2180113735,-6.55359463031,-1.95211420636,-2.87293709555,-0.26194265947,-2.36433548658,-37.020268178
off_to_on,0.666259842846,3.51898121404,-0.526473903917,-6.35209971542,-2.11587507214,2.84094992595,7.23317635394,10.6938391404,-7.18821222891,0.96789920207,-1.2617830907,3.0197380309,0.558081106495,-25.3787151762
off_to_on,1.92923505897,4.87238938211,0.576758621219,-6.76534457533,-0.366850938549,3.60260946244,9.54677034031,9.68579684654,-7.574770969,2.80011202228,-0.127110804064,5.0220767694,2.49038842188,-15.8515266082
off_to_on,2.25488840503,5.00697589747,0.993710892304,-7.02471582055,0.784124769351,3.04281457273,10.0201171192,7.25519623531,-7.74713405044,3.3677844411,0.443326347468,5.55596107927,3.28809192524,-9.04864603364
off_to_on,1.73631105232,4.02375075428,0.77519494609,-7.15479627691,1.3185951297,1.29682734378,8.65712546253,3.65593350499,-7.73518017871,2.69712464259,0.460637982983,4.65790992532,2.98852860221,-5.01657623308
off_to_on,0.589532803588,2.17966477481,0.0725611804903,-7.16454258956,1.31834345025,-1.3194217046,5.71089979022,-0.702341198129,-7.55827856186,1.00356287294,0.0271583275421,2.57355404164,1.79306076647,-3.26640425998
off_to_on,-0.886840579958,-0.156331098066,-0.89013002435,-7.04456557028,0.945567764228,-4.3575847697,1.64162000758,-5.31125206422,-7.22187029016,-1.34794948439,-0.684175109252,-0.287188481823,0.0269260604334,-2.87866991057
off_to_on,-2.36167094521,-2.56094664206,-1.8536594321,-6.76857145908,0.41226345598,-7.30253986161,-2.95131104168,-9.63246673333,-6.71767156823,-3.9021013064,-1.46001757137,-3.41587465081,-1.9164965584,-2.66906393816
off_to_on,-3.52328487584,-4.61932406222,-2.56515175384,-6.29876961167,-0.0563512108124,-9.64605626841,-7.4129387704,-13.1683660639,-6.02740589549,-6.18280923621,-2.08169278575,-6.28218439236,-3.63826637693,-1.39101757826
off_to_on,-4.12571582458,-5.98386990781,-2.81732438199,-5.59439587792,-0.258827989705,-10.9582058802,-11.1205541795,-15.5248284343,-5.12938369885,-7.76303729409,-2.35987751532,-8.41023220882,-4.79392598071,2.05332331119
off_to_on,-4.0226386261,-6.42096729194,-2.47976761242,-4.6219733371,-0.0494778837509,-10.9467807523,-13.5638010738,-16.457787199,-4.0067700264,-8.32498374978,-2.16382828028,-9.44379469734,-5.14238339757,8.42292586211
off_to_on,-3.18453522657,-5.83941291316,-1.51786855117,-3.36561542194,0.639165795992,-9.49685375942,-14.4067728271,-15.8978082293,-2.65608711387,-7.70249829708,-1.44102137608,-9.19170560689,-4.57699658934,17.9944807465
off_to_on,-1.69732015328,-4.29727733943,0.00306166455097,-1.83562107973,1.78640172488,-6.68554377815,-13.5246323186,-13.9502591534,-1.09443378623,-5.90042854203,-0.224595376258,-7.64785999265,-3.13512944894,30.4852104423
off_to_on,0.256477811295,-1.98713158137,1.92863374846,-0.0738280235774,3.28700071744,-2.7705857735,-11.0110561712,-10.8721989634,0.635922574615,-3.08909481363,1.37215209015,-4.98414826588,-0.985803496149,45.0523189734
off_to_on,2.43027304036,0.797268613869,4.03914183707,1.84535255321,4.96747844869,1.84505197806,-7.15692655058,-7.0303814306,2.46654015098,0.424272426708,3.17303630812,-1.5186210814,1.60163941059,60.3693972538
off_to_on,4.55405571718,3.70715859192,6.08231541671,3.81866586101,6.61222625162,6.66703103008,-2.4045803354,-2.84727069811,4.30580303952,4.24206149512,4.96514709097,2.3353200161,4.30221335352,74.7701670686
off_to_on,6.37640853266,6.39045369046,7.80990831739,5.72224451427,7.99536751902,11.1741390169,2.71495973134,1.2566303447,6.04573856755,7.93332529536,6.52978879628,6.13040229593,6.78587177429,86.4414956567
off_to_on,7.70125529654,8.5410868038,9.01255503914,7.42339528051,8.91349986085,14.8843638161,7.652411217,4.9157091141,7.57187456098,11.0926949889,7.6734975105,9.44814275822,8.76597950308,93.6416788297
off_to_on,8.41376332692,9.93880541667,9.54776421258,8.79444487997,9.21451234764,17.4135863612,11.9084209161,7.86012062798,8.77488246661,13.3926282596,8.25455941367,11.9534716705,10.0383182178,94.9172380489
off_to_on,8.49174013218,10.4739717082,9.35712716945,9.72681098655,8.81840696313,18.5192799168,15.0905041694,9.93946552251,9.56245788535,14.621827663,8.20125964043,13.4337372185,10.5050463179,89.292126652
off_to_on,8.00131073915,10.1544085788,8.47059282221,10.1433933285,7.72737245625,18.1239715438,16.9518302194,11.1269653935,9.8698227982,14.7050392783,7.51944002681,13.8172216168,10.1806186368,76.407062656
off_to_on,7.07824105535,9.09419980128,6.99771173568,10.0075864424,6.02404258247,16.3162401082,17.4079230419,11.5049075353,9.66740364065,13.7024326892,6.2886217378,13.1696401086,9.17964202066,56.5930749299
off_to_on,5.89857617705,7.48713702696,5.10775844103,9.32767067799,3.85865575348,13.3302417288,16.5307159207,11.2349642834,8.96462090234,11.7898996495,4.64769440104,11.6705362075,7.68952681599,30.871351217
off_to_on,4.64393057114,5.5697853226,3.00229110725,8.15597486971,1.4274478107,9.50770038046,14.5226530953,10.5191586844,7.80926207561,9.22441219412,2.77272122774,9.57449997841,5.93314192513,0.880045325696
off_to_on,3.46754356362,3.58057388091,0.884752486187,6.58292900309,-1.05418436251,5.24856442389,11.6762026547,9.5584362832,6.28252077373,6.30063756962,0.850528783077,7.16427126143,4.128134462,-31.2632281998
off_to_on,2.46698528821,1.72170769989,-1.06799427397,4.72683152216,-3.3795831852,0.957807465884,8.32586735522,8.51585789454,4.49038029305,3.30602883188,-0.947721063947,4.70374286577,2.44992218053,-63.1478354782
off_to_on,1.66821105326,0.130002640096,-2.72779540385,2.72073995857,-5.37565755067,-3.00400406452,4.8003466532,7.49037326393,2.55251242573,0.481474164199,-2.48890986428,2.39853571636,1.00457238639,-92.2855741412
off_to_on,1.02371268248,-1.13889821403,-4.02778471194,0.698270140547,-6.92115806266,-6.35972137515,1.3818880547,6.50516387595,0.590180645762,-2.00664640506,-3.69298160329,0.370267581761,-0.184010582006,-116.333113639
off_to_on,0.425119764816,-2.11078769379,-4.96386099792,-1.21979562275,-7.95608887174,-8.93943967034,-1.72177808087,5.51198576697,-1.28526377262,-4.07925491289,-4.53854650736,-1.35184637734,-1.17065635448,-133.299794196
off_to_on,-0.271852685131,-2.8781134338,-5.58539224809,-2.93635210465,-8.48142428266,-10.686881662,-4.38989655667,4.4102153263,-2.98183518946,-5.7411017199,-5.05856431628,-2.82142546445,-2.07010517152,-141.721749289
off_to_on,-1.21433650236,-3.57312234481,-5.97725367663,-4.38493817493,-8.54985043633,-11.6487974451,-6.58521083377,3.07683712045,-4.4331977203,-7.0626195903,-5.32720165721,-4.14978621215,-3.02625940129,-140.787610921
off_to_on,-2.51679642764,-4.33387798655,-6.23670234035,-5.53209634638,-8.24963198043,-11.950358026,-8.33681288357,1.4017990883,-5.60115387766,-8.15107375189,-5.44035780226,-5.47021676987,-4.17502221924,-130.406405931
off_to_on,-4.22928018023,-5.26925049582,-6.44938131874,-6.37508689013,-7.6846986882,-11.7614672486,-9.71366017494,-0.677723580783,-6.47428246656,-9.11663921661,-5.49333609438,-6.89836833736,-5.60737247945,-111.213977159
off_to_on,-6.31517518884,-6.42912938101,-6.66880956667,-6.93560267005,-6.9545107852,-11.2600211222,-10.7943664616,-3.15043826096,-7.06323307523,-10.0397404021,-5.55955501249,-8.4960712968,-7.33937237737,-84.5197484733
off_to_on,-8.64280779891,-7.78524078575,-6.90304637416,-7.25070388113,-6.13713466292,-10.598268515,-11.639157928,-5.91650056067,-7.39365482662,-10.9456382326,-5.67398263064,-10.2452784967,-9.29475258724,-52.2004121567
off_to_on,-10.9930874592,-9.22620557908,-7.1109372191,-7.36256912115,-5.2782778795,-9.87759009943,-12.2691835404,-8.7885901316,-7.49804623612,-11.790919927,-5.82417825599,-12.0371318958,-11.3037315954,-16.5508379781
off_to_on,-13.0828667409,-10.56813297,-7.20866541377,-7.308786155,-4.38791672341,-9.13537715808,-12.6568281742,-11.5090195237,-7.40791754074,-12.4644639794,-5.95056383727,-13.6786207903,-13.1191133999,19.8949500637
off_to_on,-14.6011511632,-11.5794793535,-7.08553064544,-7.11476604747,-3.44479089587,-8.34554002217,-12.728578014,-13.7807651265,-7.14754482508,-12.8029610125,-5.95602495094,-14.9163573392,-14.4478814371,54.5584933572
off_to_on,-15.2531481041,-12.0165212858,-6.62625007777,-6.7894822117,-2.40766369584,-7.43186079166,-12.3796900225,-15.307988189,-6.73028781368,-12.6185749123,-5.72339647494,-15.4741087392,-14.9939127569,85.0127219508
off_to_on,-14.8057317722,-11.6639731758,-5.73590012819,-6.3251721086,-1.23107773754,-6.29129548413,-11.497803601,-15.839971103,-6.15799091609,-11.7342295583,-5.1380641508,-15.0983554862,-14.5054873042,109.164792259
off_to_on,-13.1274514198,-10.3743146886,-4.36308493183,-5.70098181237,0.117435230505,-4.82275411049,-9.99104688912,-15.2116890144,-5.42346201638,-10.020640216,-4.11201849668,-13.6046699368,-12.8202767224,125.413044417
off_to_on,-10.2168065052,-8.09943700619,-2.51712378841,-4.88988416242,1.64198328912,-2.95607926306,-7.81538389787,-13.3745833456,-4.51550783746,-7.42879284728,-2.60537406765,-10.9173663857,-9.90063224799,132.766943016
off_to_on,-6.21407906967,-4.90927044068,-0.275967369336,-3.86765977459,3.30776835765,-0.676014477035,-4.99604246677,-10.4124534882,-3.4255783348,-4.0121754986,-0.641668930264,-7.09572347131,-5.85324538715,130.921119489
off_to_on,-1.39432443617,-0.993960369789,2.21696251693,-2.62237993705,5.03753930113,1.96312784702,-1.63882976534,-6.53953276323,-2.15480078536,0.0654109688429,1.68585580066,-2.34199610682,-0.929448413225,120.277367182
off_to_on,3.85816508156,3.35137704366,4.76699997414,-1.16272510323,6.71603455438,4.83478665656,2.07118649274,-2.0804388119,-0.720107984781,4.53842985686,4.21846050733,3.0108747277,4.49477151973,101.911653675
off_to_on,9.09089826024,7.75764251946,7.15166879254,0.476371421923,8.20204370514,7.75013078299,5.88405715945,2.56561183442,0.841705187528,9.06399866035,6.7464746108,8.53089290556,9.95697299465,77.4868879869
off_to_on,13.8344006822,11.8243901044,9.1498803842,2.2318714997,9.34640196136,10.4792636841,9.51064321809,6.97157056006,2.47284778321,13.2590386373,9.03251237449,13.7340718055,14.9598694014,49.1162218459
off_to_on,17.6567454166,15.1682021475,10.5724029515,4.01511739044,10.0131772281,12.7803737728,12.6559757959,10.7338800947,4.0967219683,16.7451030554,10.8402633292,18.1406412913,19.0294855887,19.1858771955
off_to_on,20.2139937845,17.4699616826,11.2887722136,5.71853723129,10.1006910231,14.4322485577,15.0553306054,13.5212078574,5.62331987441,19.1945451882,11.9648680657,21.3326500244,21.7719420637,-9.84944155915
off_to_on,21.2896818439,18.5142817538,11.2462594075,7.22580085349,9.55893663811,15.2650198127,16.5075507265,15.1137789688,6.95721028125,20.3713958812,12.260560045,23.0049146023,22.9210484674,-35.6819977633
off_to_on,20.8180347391,18.2154714411,10.4776826947,8.42411189149,8.40043939514,15.1842871876,16.9005194882,15.427843409,8.00708564778,20.1610428043,11.6615637678,23.0021678891,22.3701407476,-56.3583489108
off_to_on,18.8879147778,16.6263889689,9.0965680857,9.21696964433,6.70257344248,14.1848268479,16.2248727619,14.5219624522,8.69558174027,18.5844284072,10.1931471181,21.3372263651,20.1838158083,-70.4586722457
off_to_on,15.7272634914,13.9290528689,7.28016802065,9.53562728273,4.60065736172,12.3517538966,14.5738552159,12.5844327437,8.96801620793,15.7947600485,7.97109893478,18.1877316991,16.5880727501,-77.2292535377
off_to_on,11.6705711942,10.4085672354,5.24281166483,9.34762874418,2.27259155214,9.84900162359,12.1293755008,9.90388720176,8.79882847337,12.057302047,5.18953968727,13.8721097436,11.9404343268,-76.652483694
off_to_on,7.11428504938,6.41435560049,3.20367209711,8.66120251909,-0.0828546119555,6.89698499539,9.13645517178,6.82751373222,8.19482009443,7.71529805444,2.09863161493,8.80836295461,6.68443799059,-69.4439828507
off_to_on,2.46669412371,2.31451683269,1.35402371391,7.52486795359,-2.27096412397,3.74300844315,5.87005195865,3.71305889644,7.19474393056,3.14707199632,-1.02481044103,3.46172156398,1.29503362371,-56.973499831
off_to_on,-1.90053249855,-1.54996151851,-0.170745461842,6.0222829511,-4.1255064936,0.629088574899,2.59938365521,0.881581195659,5.86530394709,-1.27942868943,-3.9098068252,-1.7113352194,-3.77741198574,-41.1143803989
off_to_on,-5.69241952819,-4.90451014303,-1.3097570708,4.26303107456,-5.52900904682,-2.23778516739,-0.444798471976,-1.42232404841,4.29412805782,-5.248135129,-6.32238132365,-6.31483058989,-8.15679173188,-24.0347786541
off_to_on,-8.71707992133,-7.56830890068,-2.08270882643,2.37061186973,-6.42578822884,-4.70838866998,-3.09508866185,-3.05734315389,2.58068939919,-8.52664136242,-8.09121580908,-10.0537907399,-11.5780326916,-7.95136965685
off_to_on,-10.8953559675,-9.46610479032,-2.58216178157,0.469277269296,-6.82575383941,-6.70363236775,-5.26089387724,-3.99585631724,0.826416126531,-10.9841305862,-9.12442662062,-12.7583441029,-13.9064722108,5.12794366263
off_to_on,-12.2532767681,-10.6234631824,-2.95304756341,-1.32850610706,-6.79841530122,-8.21493018383,-6.92882553752,-4.31701333221,-0.874691481422,-12.5935381575,-9.41540664735,-14.3888799607,-15.1380553501,13.642870123
off_to_on,-12.8995603921,-11.1470145619,-3.36251759461,-2.93231299349,-6.45804247983,-9.29293223917,-8.15051042268,-4.18416002265,-2.44373430297,-13.4185383726,-9.03726807592,-15.0226648675,-15.3814961979,16.6721007461
off_to_on,-12.992649569,-11.1935959334,-3.96493788628,-4.28044297543,-5.94232582459,-10.0269154256,-9.02038072267,-3.81062121544,-3.82196690804,-13.5882963974,-8.12705647328,-14.8251202795,-14.8262235709,14.0522876163
off_to_on,-12.7032825275,-10.9338754645,-4.86779151025,-5.34229015193,-5.3879209084,-10.5186757293,-9.64763824391,-3.41951730211,-4.97273735509,-13.2647718144,-6.86234473611,-14.0112021277,-13.7019547133,6.40721762114
off_to_on,-12.1791329639,-10.5168240888,-6.10431178945,-6.1163084843,-4.90678248214,-10.855680705,-10.1275235624,-3.20406838917,-5.88030375206,-12.6084063268,-5.43384445187,-12.8036503214,-12.236803215,-4.92002669486
off_to_on,-11.5175265068,-10.0411358658,-7.61779539042,-6.62413616058,-4.56710403336,-11.0883657817,-10.5171005181,-3.29461440157,-6.54598663374,-11.7481131841,-4.01814452291,-11.3950964437,-10.6207758418,-18.0273677973
off_to_on,-10.7507435379,-9.53844137132,-9.26084535946,-6.90200096494,-4.38198597429,-11.2157666879,-10.8199712544,-3.73739729287,-6.98250226321,-10.7606013917,-2.7545396648,-9.9201104741,-8.98036931349,-30.6900728553
off_to_on,-9.84619174411,-8.97110556327,-10.8105125021,-6.99090885045,-4.30775906708,-11.182276792,-10.9827909708,-4.48820517432,-7.20756662882,-9.66236069088,-1.72917569759,-8.44139069947,-7.36793630941,-40.6462861653
off_to_on,-8.72113493848,-8.24488223606,-11.99778089,-6.92726368425,-4.2523698834,-10.886423767,-10.9044026754,-5.42157631507,-7.23792768257,-8.41538319646,-0.96853407563,-6.95176742087,-5.7668857294,-45.897398769
off_to_on,-7.26911731732,-7.23411778394,-12.5474691691,-6.73545712551,-4.0926255651,-10.2004784735,-10.4561939344,-6.35378039923,-7.08486638993,-6.94527280005,-0.442794319047,-5.39091749644,-4.11103992666,-44.9854687815
off_to_on,-5.39313973338,-5.81497797886,-12.222771691,-6.4236220534,-3.69764703722,-8.9977790577,-9.51025598137,-7.075621881,-6.75192618624,-5.16819277911,-0.0780798927455,-3.67312836639,-2.31403765647,-37.2112319339
off_to_on,-3.03937195377,-3.90068071071,-10.8676495572,-5.9832148495,-2.95482298572,-7.1831950573,-7.97044055307,-7.38958271387,-6.23523140043,-3.0214911869,0.224754220149,-1.72052800383,-0.302943514799,-22.7623947013
off_to_on,-0.224941803723,-1.47221122152,-8.44028836854,-5.39246260877,-1.79406389999,-4.72141966547,-5.80071992704,-7.14517442037,-5.52630199121,-0.492096121266,0.568091116862,0.504769438431,1.9505118625,-2.7322992747
off_to_on,2.94581397554,1.40142385402,-5.03190109444,-4.62307760275,-0.206313894301,-1.65790187532,-3.04549455528,-6.26669979507,-4.61683639656,2.36297463024,1.03600206403,2.97599790182,4.4072546297,20.9774990149
off_to_on,6.28043772965,4.55775256024,-0.867143137066,-3.64910020307,1.74692435152,1.87178279151,0.162354620687,-4.76887705512,-3.50458513779,5.40841719598,1.67673311935,5.58968910906,6.95150019734,45.8623572385
off_to_on,9.51406773566,7.75217914031,3.7149524441,-2.45636606486,3.93497103886,5.64660921932,3.60797012947,-2.75775434823,-2.19923004113,8.43716660475,2.49205831799,8.16920423033,9.39715634694,69.104678478
off_to_on,12.3402598129,10.6853008716,8.29770202369,-1.05096015799,6.1705193512,9.37912572178,7.01551868961,-0.416727315911,-0.7271504127,11.1915566781,3.43516425303,10.4840846438,11.5097003896,87.9145178011
off_to_on,14.452722793,13.0426349906,12.4366015001,0.534859350804,8.23187750715,12.7467983452,10.0811834447,2.02011075773,0.865896005434,13.3964595642,4.41731374316,12.2826149031,13.0404534645,99.8784314972
off_to_on,15.591696211,14.5409149491,15.7155499891,2.24042717296,9.89187292157,15.4315609307,12.5135093479,4.30299157729,2.51484509499,14.7995294027,5.3220929481,13.3325059392,13.7678338145,103.271971877
off_to_on,15.5875614168,14.973704444,17.8015457027,3.97874536906,10.949265153,17.1619384017,14.0750022014,6.20418930218,4.13840352628,15.2121802847,6.02480580715,13.4629055986,13.5386690681,97.2946810782
off_to_on,14.394301392,14.2487902156,18.4898724264,5.64283957303,11.2580027349,17.7514275013,14.6183551209,7.55227794887,5.64491984208,14.5444308704,6.41373870671,12.6003344499,12.3022590114,82.1954277203
off_to_on,12.1066497947,12.4107383908,17.7329318098,7.11571783144,10.7498509194,17.1271058373,14.1112046398,8.25728653591,6.94039859134,12.8273646664,6.4097104092,10.7917652577,10.1307056682,59.2694162805
off_to_on,8.95704710356,9.64403267101,15.6480755027,8.28269075999,9.44679823219,15.3436842776,12.6448581424,8.3225400566,7.93765819621,10.218628493,5.98059700645,8.20985651144,7.22097398583,30.7244939078
off_to_on,5.29153100454,6.25507547915,12.5027525433,9.04442450835,7.46109918342,12.5802567608,10.4247776592,7.84110458312,8.56542982166,6.98889322595,5.14833643885,5.13806398374,3.87693774101,-0.568633592776
off_to_on,1.52698293504,2.63460442199,8.6785883402,9.32894464185,4.98261898379,9.11954373293,7.74340986182,6.97725424961,8.77616789183,3.49016156547,3.98714360644,1.93658231238,0.472880472946,-31.4122517737
off_to_on,-1.9047741993,-0.794743878702,4.61916608538,9.10091387597,2.25504536786,5.31209181999,4.93879033007,5.93585303142,8.55149799096,0.109772389245,2.61311083103,-1.00669315566,-2.59694273405,-58.661796358
off_to_on,-4.6181718098,-3.63840610667,0.768812126299,8.36685591546,-0.455764501737,1.53027334011,2.34477269097,4.92459942234,7.90454209801,-2.78355202631,1.16679890805,-3.33326972846,-4.97552812645,-79.602164631
off_to_on,-6.33128071769,-5.58852458231,-2.4888029729,7.17554167256,-2.89679025859,-1.88135311933,0.240339518647,4.11538103989,6.87878781513,-4.89365689873,-0.208389406058,-4.77056298879,-6.39844843112,-92.2719173299
off_to_on,-6.91038564773,-6.47211493678,-4.88320056328,5.61341441287,-4.86110894023,-4.65199267596,-1.19404580526,3.61130531975,5.54364395648,-6.04250905828,-1.38851337398,-5.17869395438,-6.73837910397,-95.6934159103
off_to_on,-6.39424907862,-6.28080141086,-6.29282966796,3.79561139088,-6.21448297626,-6.61987908864,-1.9058149413,3.42523766199,3.98727886473,-6.19982049365,-2.28835309442,-4.57945202567,-6.03110821392,-89.9789061648
off_to_on,-4.99328975171,-5.17659581403,-6.75838999575,1.85374280882,-6.91126773257,-7.75127684971,-1.98006433449,3.47397916422,2.30770294438,-5.4912884392,-2.87432306177,-3.16162766374,-4.47777611491,-76.2986455826
off_to_on,-3.06248804507,-3.47160596661,-6.47135623688,-0.0779724975617,-6.99717278238,-8.13996357054,-1.62720764531,3.58979487548,0.603279650829,-4.18303063992,-3.16871188983,-1.26029107328,-2.42150765188,-56.7152541905
off_to_on,-1.0507697785,-1.58345440894,-5.73898789093,-1.87640409078,-6.59835476552,-7.98683418749,-1.14934998362,3.54822139391,-1.03610224078,-2.64335005479,-3.24429587886,0.68846888477,-0.300481419198,-33.9061218606
off_to_on,0.566670389821,0.0280050272479,-4.93068725407,-3.44127476768,-5.89837915585,-7.56232024844,-0.889606399985,3.10836616339,-2.53609324659,-1.28651911873,-3.20994383825,2.21191236574,1.4167516481,-10.8105349396
off_to_on,1.36373499707,0.933948627156,-4.41351851872,-4.70352261371,-5.10645473099,-7.15706176488,-1.17148371429,2.05968792359,-3.84237173365,-0.506285167241,-3.18934732657,2.875395872,2.30481932559,9.75184002976
off_to_on,1.03546995625,0.809134966523,-4.48656617015,-5.62928849986,-4.42173253177,-7.02827706297,-2.23738824458,0.267882168167,-4.92214509353,-0.60878250756,-3.29623040146,2.35663965776,2.05319976581,25.440741175
off_to_on,-0.54428571782,-0.507382915145,-5.32428290114,-6.21918693278,-3.99915170062,-7.35021684627,-4.19597201136,-2.28777035961,-5.76270466148,-1.75514640244,-3.61011293372,0.508065348952,0.524936744872,34.6860293955
off_to_on,-3.28914285339,-2.97330867561,-6.93794625834,-6.50318667613,-3.92218949233,-8.1767820398,-6.98722834493,-5.49231879512,-6.36750994115,-3.9232071794,-4.15679153416,-2.60313068069,-2.2073468203,36.8714280786
off_to_on,-6.89673080481,-6.33309206952,-9.16191869382,-6.53203798446,-4.18693375262,-9.42283283178,-10.3720488787,-9.09304720263,-6.75062860386,-6.89526945903,-4.89712714021,-6.6847688247,-5.8550164393,32.38791029
off_to_on,-10.8778692854,-10.1400853431,-11.667905712,-6.36664806737,-4.7002670088,-10.8681078199,-13.9496240867,-12.7192739327,-6.93057399176,-10.275443298,-5.72655592338,-11.2429248368,-9.93941432934,22.5510306134
off_to_on,-14.6159381183,-13.8094850831,-14.0063163184,-6.06706003173,-5.29286140793,-12.184360983,-17.2020551274,-15.9227018404,-6.92463052655,-13.5357667358,-6.48613276884,-15.6374337887,-13.8484442512,9.39488714786
off_to_on,-17.44949356,-16.6960550083,-15.6697336403,-5.68269896521,-5.74543582678,-12.9827807599,-19.5614120717,-18.2337741748,-6.74463432675,-16.0860390624,-6.98410874157,-19.1636401119,-16.9173046184,-4.62801440867
off_to_on,-18.7674379604,-18.1866670687,-16.1700025428,-5.24531406809,-5.82465298924,-12.875500667,-20.4908293324,-19.226815424,-6.3949026528,-17.3585037017,-7.02530853012,-21.1501727746,-18.5230205174,-16.9992085883
off_to_on,-18.1036866476,-17.7950101758,-15.1180655444,-4.76560531098,-5.32344868366,-11.5425403621,-19.568632488,-18.5850044565,-5.87262567803,-16.8958561186,-6.44418139406,-21.0596030382,-18.1798502292,-25.4905072484
off_to_on,-15.2176876697,-15.2448402519,-12.2948087448,-4.23394409948,-4.09973468322,-8.79422670189,-16.5633697207,-16.1557304353,-5.17060774624,-14.4299410413,-5.1365767657,-18.5776827765,-15.6218242817,-28.4754457171
off_to_on,-10.1484901067,-10.5290920288,-7.70198762794,-3.6249664566,-2.1074457019,-4.61927285277,-11.4882056031,-11.9877398456,-4.2818397064,-9.93917016245,-3.08519157069,-13.6777082207,-10.8598063205,-25.153952222
off_to_on,-3.23320748432,-3.93498208015,-1.58472202684,-2.90522749763,0.585173961665,0.789722890542,-4.6254164774,-6.34362165621,-3.20506257164,-3.67511270448,-0.3742953081,-6.64937021461,-4.20346081566,-15.6605510029
off_to_on,4.91469573595,3.97042574787,5.57922026408,-2.04264359467,3.79344053519,7.03873179753,3.48454838675,0.315664387668,-1.95029585837,3.84739039234,2.80930725964,1.91408429282,3.75698348649,-1.04266941143
off_to_on,13.4664504402,12.394407159,13.1235870878,-1.01618014475,7.23139454661,13.564294782,12.0902774633,7.37374982168,-0.543280871548,11.8973610203,6.19024149723,11.1710131837,12.2088586365,16.8864362959
off_to_on,21.4720000084,20.4071616877,20.2667546551,0.175794285345,10.5429002156,19.6924721068,20.3086721383,14.1249922367,0.972066037822,19.607639456,9.43248419378,20.123619762,20.2091425062,35.7984912461
off_to_on,27.9757776096,27.0543919798,26.2050354861,1.50986922549,13.3449489885,24.7181386345,27.2273861532,19.8560654998,2.53380441069,26.0784331625,12.1781719945,27.7366351943,26.7995641566,53.1691521654
off_to_on,32.1395536753,31.4796782964,30.2142655029,2.93564978417,15.2775305408,27.9947715386,32.0178627372,23.9328322675,4.06494638844,30.4915219979,14.0924816043,33.0676672974,31.1301090138,66.6206315758
off_to_on,33.356084548,33.0404776919,31.7461614353,4.37794697888,16.0532839067,29.0228795556,34.0443175358,25.8811866714,5.47904629537,32.2201248804,14.9086377236,35.3921848284,32.574516603,74.2409149424
off_to_on,31.3378967236,31.4017717703,30.5061821044,5.7429306983,15.4999291141,27.5248078276,32.9538643311,25.4509323084,6.68778023984,30.9193727971,14.4667810105,34.3061154545,30.8217869586,74.8364158551
off_to_on,26.1683149975,26.5937938631,26.5017192354,6.92749423044,13.5892592039,23.4949400074,28.7348598255,22.6536481044,7.60957017707,26.5843500063,12.7409868133,29.7913874848,25.9303617019,68.084748995
off_to_on,18.3064748502,19.0246269556,20.0531413137,7.83060827509,10.4481570057,17.2171944034,21.7342712038,17.7686771497,8.17812099576,19.5665521129,9.85011902103,22.2341956042,18.3362284957,54.5685906271
off_to_on,8.54397206766,9.44423998845,11.7650441957,8.36514805568,6.34947350029,9.24583206857,12.6300016892,11.3154521377,8.349719001,10.5448931792,6.05026442377,12.391776177,8.81214171184,35.6882821476
off_to_on,-2.08277434755,-1.13702757749,2.46038303813,8.4686000105,1.68334612565,0.350434643315,2.35999181271,3.99481307021,8.1082895086,0.453392878942,1.70895342633,1.31026334408,-1.61831980263,13.4675462419
off_to_on,-12.4142987771,-11.566279214,-6.9147526521,8.11120315041,-3.0877316802,-8.56917724638,-7.9842309692,-3.39381765053,7.46750841991,-9.62641237471,-2.73610045149,-9.79714308595,-11.8019065656,-9.71890916213
off_to_on,-21.3089774209,-20.6877366034,-15.4038135122,7.30043047257,-7.48443867063,-16.5880065078,-17.2868556153,-10.0491405868,6.46966367931,-18.5952777421,-6.82877061842,-19.6968493872,-20.5970463685,-31.4570019091
off_to_on,-27.7850108334,-27.4864620938,-22.1553967879,6.08121518272,-11.0694920271,-22.8677601004,-24.5437625304,-15.2662024919,5.18140798471,-25.4718243444,-10.1501981616,-27.2877560441,-27.0171981073,-49.6007047374
off_to_on,-31.1448446334,-31.2172560331,-26.5265867471,4.53190179253,-13.5019575121,-26.7609937209,-28.9875772706,-18.5232912936,3.68696809404,-29.5161610594,-12.3710190196,-31.7403786613,-30.3572400786,-62.5335405749
off_to_on,-31.0652396025,-31.5013332018,-28.1602168712,2.7564707966,-14.579561744,-27.8935214456,-30.1851306177,-19.5458987835,2.07971609735,-30.3249398986,-13.2930069815,-32.6035293335,-30.2857025538,-69.3498258943
off_to_on,-27.6403908798,-28.3772650107,-27.0255476126,0.87406757152,-14.2630673548,-26.2135827361,-28.0938572091,-18.3389910814,0.453214532713,-27.8846266438,-12.8742371222,-29.8637674062,-26.8898296901,-69.933398683
off_to_on,-21.3714997667,-22.2985000935,-23.4166642918,-0.992804529644,-12.6791404547,-22.0004105961,-23.0687904148,-15.1829277322,-1.10710907824,-22.5750580158,-11.233973461,-23.9488226991,-20.6665198658,-64.9264434435
off_to_on,-13.1032524385,-14.0768023219,-17.9085818865,-2.72993276242,-10.1010647396,-15.8301385307,-15.8182197521,-10.5932008906,-2.53062652473,-15.1218712209,-8.63618449063,-15.6735407565,-12.4593661915,-55.5965598264
off_to_on,-3.91482405443,-4.77824188268,-11.2768276763,-4.24146577889,-6.90974170948,-8.50272589892,-7.31293369026,-5.24908433933,-3.76575120812,-6.50327286167,-5.45353363599,-6.13462986217,-3.34934430031,-43.6242037777
off_to_on,5.0206718579,4.41505331126,-4.39135672668,-5.45725397324,-3.54023204589,-0.938989501094,1.3396495498,0.0993855053492,-4.78137334728,2.17707372227,-2.11647372712,3.43244670165,5.48683280097,-30.8431198855
off_to_on,12.589816985,12.3592570519,1.90068556271,-6.33672206955,-0.42123425381,5.93885982887,9.04014815013,4.73354188016,-5.56552584795,9.83440712164,0.945703205943,11.815681939,12.9319705827,-18.971982168
off_to_on,17.8850035552,18.0986400062,6.88714926073,-6.86903674671,2.08395996633,11.3272015539,14.8414521538,8.0633140526,-6.12172443354,15.5451493514,3.36368323371,17.9861278405,18.0763052658,-9.37549963581
off_to_on,20.3230830541,20.9903729365,10.0823704915,-7.06984303229,3.72654212644,14.6451156415,18.072955492,9.70598503034,-6.46375352495,18.6677037445,4.87843128801,21.2331397229,20.3377353855,-2.88786433032
off_to_on,19.7200222908,20.7869949328,11.2851092153,-6.9752918183,4.40407538459,15.6080884774,18.4275626129,9.53528968475,-6.60987082747,18.9249715128,5.37558181131,21.2564839701,19.5374960703,0.278464446582
off_to_on,16.3108360822,17.6647752673,10.5947461805,-6.63440546668,4.1703311315,14.2607489949,15.9990526173,7.69367630004,-6.57744987527,16.4368049248,4.89862162263,18.2021820402,15.9203007934,0.528502283855
off_to_on,10.7114955425,12.193547247,8.38348557626,-6.10098751469,3.22135064615,10.9636433243,11.2640502289,4.56569651377,-6.37896607221,11.6974064013,3.63851690296,12.6365807511,10.1155603422,-1.21121785684
off_to_on,3.82758463833,5.25173894481,5.22869138794,-5.42625999487,1.85951056419,6.33550028588,5.01050631758,0.716065292867,-6.019977724,5.50034751261,1.90085242474,5.46171057001,3.04453894521,-3.66357726095
off_to_on,-3.2779185874,-2.10185735218,1.81540510631,-4.65321902407,0.440739130223,1.15886138281,-1.77781462137,-3.19883921698,-5.49940017786,-1.17863718115,0.0549594614247,-2.21665876327,-4.21392366078,-5.41987852887
off_to_on,-9.53931249082,-8.78166610083,-1.17632337654,-3.81337188911,-0.687234159367,-3.73757867008,-8.06488360116,-6.53315323708,-4.81197440575,-7.32469831356,-1.52759048135,-9.24991936138,-10.5803262368,-5.17400005686
off_to_on,-14.0432858882,-13.8323802849,-3.18212353316,-2.92611118453,-1.24604268972,-7.60287981429,-12.9136709406,-8.75214290622,-3.95245342247,-12.0323337569,-2.53581092469,-14.6136400929,-15.1316197879,-1.9376112468
off_to_on,-16.1619372621,-16.5666812425,-3.84479647378,-2.0005578103,-1.07740438399,-9.87566072705,-15.6232289189,-9.51583543466,-2.9207298137,-14.637628647,-2.77349651167,-17.5565138081,-17.2355821587,4.79392344455
off_to_on,-15.6438649186,-16.6631798996,-3.07193910113,-1.03932893866,-0.17472734709,-10.2668061153,-15.8312431919,-8.73235656136,-1.72695210969,-14.8145401324,-2.1956870852,-17.7091710646,-16.6423273074,14.9474345469
off_to_on,-12.6491592298,-14.2095403017,-1.04987901121,-0.0434138948489,1.31049607903,-8.80002249559,-13.5662623831,-6.57186812286,-0.395654184662,-12.620342946,-0.920587919104,-15.136177192,-13.5186616188,27.861328125
off_to_on,-7.7220461836,-9.68352830374,1.78936928387,0.98279274825,3.08993060948,-5.80323039141,-9.24084417073,-3.43776930262,1.03194576299,-8.48255158071,0.786377015959,-10.3225159768,-8.41912666007,42.3581173967
off_to_on,-1.70404044948,-3.87383605319,4.84411184734,2.02723120099,4.78541509302,-1.85111929346,-3.58542878726,0.101621562654,2.49805182187,-3.12822163125,2.55545863943,-4.09538834198,-2.19688387284,56.8882466255
off_to_on,4.40051399812,2.24831969121,7.45092157102,3.06745504441,5.99560691174,2.3332157665,2.4683251521,3.41129519414,3.93101446168,2.53470164855,3.977093666,2.50811396544,4.13321826156,69.7239660688
off_to_on,9.58703221845,7.68798935837,9.00786146187,4.06993552709,6.3724612184,6.00292445182,7.93803205313,5.90282565859,5.25048116387,7.56666571754,4.67878634026,8.40838122876,9.55936076543,79.1760138151
off_to_on,13.0169132475,11.5915271855,9.09299241179,4.99153451123,5.69535687175,8.51893720078,11.9523850552,7.14457900873,6.37440177435,11.1537490021,4.40232796751,12.6606282685,13.2402254952,83.8039334965
off_to_on,14.1613584201,13.3918528299,7.5577889159,5.78293475918,3.92999852223,9.4669914244,13.8991009487,6.95012824914,7.22701609559,12.7480363325,3.06818671823,14.6146507315,14.6487646532,82.5930764709
off_to_on,12.8990465354,12.9099227288,4.57788603703,6.3935074704,1.26050235227,8.73999346546,13.5348623821,5.42843340771,7.74677685168,12.1678598727,0.814736344788,14.0310118036,13.6683397397,75.0771639549
off_to_on,9.54994860059,10.3941732203,0.649337596939,6.77688020777,-1.91371301702,6.57003968775,11.0378829984,2.98438870266,7.89314003867,9.63983100856,-1.99714985943,11.1332634593,10.6236093159,61.3936780201
off_to_on,4.83659835714,6.48857574325,-3.47340788142,6.89637423518,-5.01977450557,3.50164414312,6.99171105112,0.265564847424,7.65129063935,5.77285044609,-4.81898242478,6.58477919379,6.23788924737,42.2689477935
off_to_on,-0.22499903761,2.1307539719,-6.89238607004,6.72951926998,-7.38961601889,0.30675233382,2.29907952779,-1.9405633113,7.03414489737,1.4645344475,-6.98799195451,1.38997061542,1.51985352361,18.9391357901
off_to_on,-4.49145933982,-1.60717103735,-8.71933883314,6.27101492865,-8.36621660036,-2.14831485692,-1.96440190036,-2.8461225506,6.08134037477,-2.24870168507,-7.83156501698,-3.26847729445,-2.40618707431,-6.97892645673
off_to_on,-6.89191867385,-3.71239454039,-8.24522644761,5.53376195134,-7.42392864205,-3.06518982091,-4.73674772259,-1.8190868996,4.85533700908,-4.37691296888,-6.78955427066,-6.23393122019,-4.5023009747,-33.6479643551
off_to_on,-6.63161980968,-3.43019884495,-5.09925832766,4.54788911229,-4.28511214874,-1.87992736914,-5.16856341747,1.46844269443,3.43514540311,-4.1691132378,-3.53676266945,-6.59125039887,-4.02029741036,-59.1804685331
off_to_on,-3.36627586683,-0.43501218394,0.630273358732,3.35800353304,0.986306538352,1.59437823373,-2.80273353391,6.92589760178,1.90851480962,-1.28157186809,1.9143492465,-3.85901799791,-0.672966476301,-81.7989871098
off_to_on,2.68365039705,5.05702869684,8.33778099274,2.01914449469,7.93255042804,7.07549354488,2.29632320739,13.9871287218,0.363606717936,4.10813541224,9.15013165359,1.87464860129,5.2578078758,-99.9704789888
off_to_on,10.7026979016,12.2580055103,16.9218226971,0.592084683447,15.7050994977,13.7914817295,9.48955047321,21.6272216027,-1.11877671436,11.265257933,17.3472099425,9.89964444875,12.8996444605,-112.504405228
off_to_on,19.347036525,19.8736029012,24.8925004913,-0.861325621541,23.1306237271,20.5432384093,17.6022090347,28.4600818855,-2.4714515724,18.9538160478,25.3283641154,18.930863818,20.8669253153,-118.610661665
off_to_on,26.9068888867,26.2630084822,30.5583696509,-2.28214140337,28.8385955167,25.8495610848,25.0577594844,32.9116915569,-3.64488827178,25.5847440697,31.6836551481,27.2565809109,27.4342729897,-117.919475784
off_to_on,31.5487540837,29.677466458,32.2733763487,-3.61717078594,31.4400164115,28.1610009281,30.0949949623,33.4515128433,-4.60865973296,29.4421854337,34.9478854994,32.9746433993,30.7885689623,-110.470030791
off_to_on,31.6077039443,28.547852823,28.7129354307,-4.82046512597,29.7377205111,26.1164215398,31.0427485892,28.8534320896,-5.35032604631,28.9603652125,33.8158810747,34.2881649462,29.3279907035,-96.6771840515
off_to_on,25.889573303,21.7811695193,19.1403315757,-5.85349623263,22.9415442755,18.8066681898,26.6151857785,18.4496804775,-5.87215483651,23.0129289365,27.3690458179,29.8207165697,21.966249578,-77.2859763166
off_to_on,13.9375064358,9.02050759334,3.62166946256,-6.68431485416,10.8575125992,6.00471851731,16.1839557944,2.33783518466,-6.18638043819,11.170908659,15.2815085398,18.904334766,8.3952790027,-53.3218839483
off_to_on,-3.78175487388,-9.17598541887,-16.8494892811,-7.28617171898,-5.97999142083,-11.6776993031,-0.0173140224822,-18.4967541911,-6.30989316776,-6.11419656847,-2.02698302749,1.79335481997,-10.7387837495,-26.0415375244
off_to_on,-25.8088790457,-31.2739057701,-40.347757764,-7.63617451762,-26.2598761201,-32.7403515714,-20.7949442104,-42.1727282381,-6.25929568079,-27.4389028157,-23.3208593396,-20.2363186957,-33.7830553952,3.11522831145
off_to_on,-49.7636170616,-54.8421058402,-64.1476079902,-7.71453434695,-47.9480971874,-54.8726235774,-44.0303221543,-66.0350410462,-6.04716189607,-50.5115764787,-46.5826626865,-44.9297968882,-58.1709493103,32.5746622158
off_to_on,-72.5622299209,-76.7774073827,-84.9890042413,-7.50482532297,-68.449746519,-75.1638936676,-66.8579975084,-86.907177443,-5.6801030446,-72.3578491413,-69.160616642,-69.2467407748,-80.6638007858,60.6847260923
off_to_on,-90.7651272274,-93.6582111302,-99.4554933708,-6.99546208415,-84.87141053,-90.4315878565,-85.9766022691,-101.453844116,-5.15892250819,-89.6537534365,-88.0246859685,-89.693858617,-97.7227498624,85.7825934253
off_to_on,-101.018942385,-102.190368542,-104.424984931,-6.18232811318,-94.360969475,-97.6336558755,-98.0621958545,-106.616762105,-4.48077748923,-99.1528006085,-100.110396774,-102.763215167,-105.971936239,106.278000194
off_to_on,-100.540352533,-99.691764715,-97.5389741965,-5.0722094378,-94.4887613384,-94.3164850016,-100.235952258,-100.071664087,-3.64291831109,-98.1563339159,-102.715224433,-105.424962232,-102.69713955,120.753014131
off_to_on,-87.57800486,-84.5512451155,-77.6276481991,-3.68645208213,-83.6242763277,-79.0390236765,-90.5257153874,-80.6458797562,-2.64729951447,-84.9652966161,-93.9011247312,-95.6105990134,-86.3134764043,128.074087883
off_to_on,-61.7859489679,-56.5948291812,-45.0278749964,-2.06411105333,-61.2579612219,-51.711060577,-68.2560302528,-48.6347426542,-1.50519395408,-59.2481011054,-72.8506456341,-72.6183124412,-56.7336435994,127.507188354
off_to_on,-24.4480395086,-17.2986235799,-1.73925996476,-0.263824623481,-28.2194262178,-13.789237736,-34.3050975688,-5.9623299413,-0.240917197334,-22.264690754,-40.1243531136,-37.3765766861,-15.5754458598,118.82241388
off_to_on,21.4922770736,30.1966981033,48.6201230009,1.63625657504,13.2482642853,31.711601102,8.82015397485,43.8524912255,1.10611141055,23.0988989052,2.22537994769,7.48394576191,33.8362999914,102.371855154
off_to_on,71.6199290391,81.2919856519,101.073601107,3.54093770513,59.5839665202,80.4129661448,57.1191171091,95.9414906427,2.4815007001,72.5094293545,50.7151524399,57.7782970893,86.6944850685,79.1243295435
off_to_on,120.449648512,130.350461369,149.749426453,5.3429830636,106.179869978,126.968469528,105.44478378,144.534175773,3.81841071413,120.575897807,100.677336052,108.135574607,137.153298804,50.6434362653
off_to_on,162.007546245,171.298078475,188.508023376,6.93042586134,147.813269471,165.628500057,148.036842172,183.569098018,5.04229622525,161.417968299,146.681513223,152.558759977,178.952899071,19.0010630117
off_to_on,190.532720241,198.341115088,211.667982207,8.195589727,179.20096695,190.916049091,179.187015317,207.406787663,6.07735069532,189.355157211,183.095681612,185.119083088,206.160040048,-13.3735727347
off_to_on,201.218006152,206.717962227,214.747287441,9.04491742255,195.619414164,198.336076323,193.961040105,211.562774944,6.85385379434,199.637600499,204.731255809,200.705597026,213.938799631,-43.9000910938
off_to_on,190.897425511,193.390799128,195.127201035,9.40849805696,193.520182928,185.029755425,188.888151831,193.369354392,7.31546370114,189.127281724,207.500144081,195.737244704,199.254660708,-70.0900337536
off_to_on,158.587736994,157.583257296,152.548518072,9.24812123678,171.064676259,150.28480972,162.526300953,152.476124905,7.42547343588,156.837871262,189.004258081,168.742676166,161.416296636,-89.8011386841
off_to_on,105.803519677,101.082989676,89.3640843923,8.5627815302,128.505525519,95.8247336089,115.820665449,91.112544788,7.17117229517,104.252677506,148.979375036,120.723428475,102.373148803,-101.472584491
off_to_on,36.5886036352,28.252395101,10.4964848391,7.39080352289,68.3551089695,25.8222650168,52.1938636299,14.0599011133,6.56570134102,35.3629269328,89.526844552,55.2382024574,26.7122688442,-104.310409515
off_to_on,-42.7609658551,-54.2758828199,-76.9168520716,5.80812883422,-4.69688457117,-53.3862265125,-22.6634273587,-71.6871877949,5.64712926232,-43.5996093064,15.0874787519,-21.8223544339,-58.6676783025,-98.3961064579
off_to_on,-124.269599972,-138.203492564,-164.171013257,3.92275551956,-84.1270657357,-133.87230399,-101.296415192,-157.552024053,4.47485196602,-124.72436862,-67.8599083403,-102.763338477,-145.187853491,-84.6993648678
off_to_on,-199.099344404,-214.416728467,-241.875498844,1.86578888808,-162.162216024,-206.922677101,-175.241743211,-234.244217694,3.12378046793,-199.228709376,-151.360509072,-178.86978739,-223.469008069,-64.9872350936
off_to_on,-258.526436734,-273.994060894,-300.979863618,-0.220011632475,-230.551823599,-263.998709791,-235.95706071,-292.776258572,1.67707423238,-258.426060003,-226.758542115,-241.366162571,-284.367673406,-41.6352108622
off_to_on,-294.967069791,-309.257116978,-333.828872783,-2.19298025679,-281.451345208,-297.740473118,-275.820390931,-325.515137489,0.218358843041,-294.746593561,-285.608726047,-282.44311524,-320.051804265,-17.3590867581
off_to_on,-302.929803486,-314.739383448,-335.122465825,-3.92519919518,-308.319837535,-302.895518028,-289.080333085,-327.144491008,-1.1755875936,-302.68860419,-320.6262182,-296.229147267,-324.987299665,5.10197358865
off_to_on,-279.774580845,-287.950202301,-302.660334419,-5.31366468546,-306.727884412,-277.055006315,-272.637804252,-295.416328905,-2.44079046613,-279.580640451,-326.566330953,-279.585247277,-296.710861719,23.3126853672
off_to_on,-226.176110859,-229.830558945,-237.770623018,-6.28873758694,-274.976305787,-221.097277249,-226.554854782,-231.590316725,-3.5300086986,-226.051611411,-300.927318175,-232.616547221,-236.284576005,35.4375761278
off_to_on,-146.220905685,-144.830029563,-145.355412528,-6.8189732454,-214.443073242,-139.269843519,-154.214873355,-140.49121804,-4.41428116608,-146.137044879,-244.384629446,-158.825145658,-148.361599304,40.4663927653
off_to_on,-47.1090785135,-40.5774852679,-33.5287017706,-6.91185981859,-129.603718328,-38.8818814798,-62.0981565853,-30.1579930244,-5.08208529531,-46.9911029489,-160.892064144,-64.8692250518,-40.8367137032,38.3376831452
off_to_on,61.5207768262,72.8333204845,87.1294111438,-6.61048496521,-27.7063969078,70.3742792117,40.8172703499,88.8937381019,-5.53644652205,61.7789908669,-57.4214607539,40.0593485084,75.8949509431,29.9417862476
off_to_on,168.57847994,183.874279001,204.631532288,-5.98663402584,81.8773875283,177.408035412,143.973151437,204.726468456,-5.790618632,169.092548074,56.6461168574,145.179384899,189.999083605,17.0000408007
off_to_on,262.715307457,280.819435279,306.843633494,-5.13123626804,188.56632761,270.917185884,236.369123443,305.242270282,-5.86313399774,263.584662489,170.423155029,239.28547223,289.469749981,1.8335697429
off_to_on,333.588772903,353.048403031,382.80822135,-4.14336702877,281.653582201,340.643363325,307.793237381,379.511231874,-5.77307457139,334.871424425,272.621160865,312.002147747,363.460866954,-12.9497685301
off_to_on,373.051654618,392.264915951,423.978466513,-3.11914716365,351.444697068,378.550203767,350.001083379,419.014039766,-5.53633408259,374.743702585,352.740390277,354.980430477,403.526784487,-24.8099252758
off_to_on,376.122556893,393.48440775,425.217618263,-2.14184309893,390.321745616,379.782891371,357.70157575,418.651048911,-5.16344428042,378.146203611,402.211461676,362.892767796,404.623537562,-31.6238531887
off_to_on,341.617823032,355.668353542,385.441788168,-1.27427001608,393.610803327,343.289970685,329.22700255,377.393574923,-4.65925594034,343.82046233,415.357940939,334.103147382,365.747143419,-31.9822680552
off_to_on,272.362549964,281.922615688,307.823385665,-0.554267716843,360.149229316,272.025873183,266.800198434,298.49238835,-4.02444387009,274.527918417,390.066136971,270.925614886,290.125948174,-25.3931515862
off_to_on,174.94739247,179.227646215,199.52266502,0.0063992325004,292.481472928,172.701144115,176.35860181,189.209041605,-3.25849483525,176.817972689,328.079552347,179.432487457,184.935765495,-12.3631671318
off_to_on,59.0518927096,57.7240095701,70.9700398356,0.419811138358,196.653662038,55.1010496246,66.9478548761,60.0916984116,-2.36358635462,60.3600233141,234.877248114,68.8273574941,60.5631681911,5.65564091164
off_to_on,-63.5924491376,-70.3695612642,-65.2246873298,0.716840805668,81.6232228146,-68.9545309961,-50.2500488535,-76.1282851943,-1.3486111351,-63.0887224679,119.142952953,-49.5491248405,-70.5031919925,26.4482756609
off_to_on,-180.481841708,-192.083237927,-195.614895337,0.940116923169,-41.6552815777,-186.892844236,-163.143879323,-205.896478179,-0.232569473384,-180.963030476,-8.1206088037,-163.467392639,-195.027799955,47.3250281776
off_to_on,-279.714634923,-295.115245064,-307.359164925,1.13604609275,-161.368520091,-286.764092692,-260.073144186,-316.297526739,0.953355665501,-281.269263702,-134.735791086,-261.165823058,-300.473812922,65.4774597239
off_to_on,-351.299953806,-369.177759283,-389.597444892,1.34699541316,-266.080351364,-358.551107087,-331.103525937,-396.450973059,2.16552418324,-353.903785963,-248.625165317,-332.65680325,-376.370742085,78.3543804807
off_to_on,-388.247015204,-407.112153118,-434.603028326,1.60464939183,-345.926501983,-395.259466689,-369.124711546,-438.679032608,3.34956866184,-391.755464829,-339.074308227,-370.827767126,-415.444664443,84.0069018497
off_to_on,-387.307589123,-405.643478588,-438.578216752,1.92533854929,-393.633313967,-393.660444497,-370.620841912,-439.311050927,4.44401857198,-391.463059693,-397.839750735,-372.20735148,-414.379530416,81.3554805878
off_to_on,-349.285853015,-365.687478356,-402.003893898,2.30782788182,-405.246227439,-354.60076059,-336.023292533,-399.032446301,5.38541012596,-353.73977798,-419.97757427,-337.307364912,-374.122535098,70.3422687732
off_to_on,-278.882307868,-292.17753129,-329.506526217,2.73369785494,-380.487707423,-282.845442681,-269.606280231,-322.740428281,6.11423484348,-283.22968205,-404.301066036,-270.502934692,-299.701649497,51.9476390184
off_to_on,-184.094914818,-193.437012737,-229.26375794,3.17009940577,-322.707982676,-186.476580299,-178.94149991,-218.927912485,6.58093876144,-187.917373032,-353.41974081,-179.469501012,-199.582367588,28.0683317908
off_to_on,-75.2540548595,-80.1772723424,-112.024596562,3.5743649813,-238.439901489,-75.9243097233,-73.9815888469,-98.6734442327,6.75116134695,-78.1663184462,-273.361525878,-74.249147337,-84.6461041589,1.27368805342
off_to_on,36.1884319925,35.7540915235,10.1346468445,3.89974773268,-136.615528109,37.249777913,34.1131016401,25.6384723818,6.60950151604,34.4944826587,-172.828886921,33.9367281921,33.0824920661,-25.5267788681
off_to_on,138.967501812,142.721337681,125.167603358,4.10146390142,-27.5410979068,141.667980834,134.259836209,141.711303432,6.16130210631,138.686675276,-62.1820982754,133.981808515,141.803385254,-49.4590199798
off_to_on,223.252267686,230.582479921,222.366259668,4.14223534062,78.2461662417,227.391920027,216.69457739,238.677879303,5.43222207495,224.442441455,47.7264902584,216.138768402,231.239279516,-68.0519671497
off_to_on,281.684614357,291.753542311,293.467730624,3.99665904368,171.104349788,286.969496189,274.020464316,308.231826678,4.46567496079,284.258705032,146.728188225,273.064094566,293.710885855,-79.5468874514
off_to_on,310.089964695,321.933711714,333.434605925,3.65394284099,243.266359963,316.153400321,301.94191819,345.420456298,3.31850575596,313.824579469,226.386792943,300.542759029,324.866937116,-83.1068120331
off_to_on,307.78439746,320.414694318,340.827161336,3.1188051868,289.563726272,314.214474232,299.604204672,349.015002666,2.05551217629,312.344141293,280.802483643,297.814128289,323.992181851,-78.8983831526
off_to_on,277.454441325,289.951224464,317.738179136,2.41060183549,307.819720074,283.825442389,269.509388221,321.42837732,0.743555946876,282.428870446,307.085825387,267.472189525,293.871051433,-68.0364044546
off_to_on,224.63998921,236.225165674,269.316122334,1.56097451903,298.879317187,230.544884037,217.033508726,268.207577016,-0.553964452067,229.588616547,305.45980318,214.967339094,240.240867433,-52.4006146187
off_to_on,156.899862329,166.985787811,202.952859925,0.610485093702,266.289031482,161.980729251,149.619472785,197.180216185,-1.78159794283,161.399644563,278.994886055,147.786551794,170.919055265,-34.3520074502
off_to_on,82.7773117108,90.9871822321,127.251627544,-0.395216808003,215.682322462,86.7507061104,75.7591797134,117.375642941,-2.89478970234,86.4668077575,233.02732582,74.4273504688,94.7273844811,-16.3898716689
off_to_on,10.7044466114,16.8655943138,50.9145255781,-1.40914973716,153.960726116,13.3792528586,3.90186525596,37.8656220821,-3.86106031641,13.3193596843,174.348470641,3.30376193911,20.3579582291,-0.798666713052
off_to_on,-52.0123255408,-47.8978362529,-18.3061492282,-2.38622387796,88.382820858,-50.726168722,-58.56927028,-33.3252731492,-4.65946560019,-50.6163031286,110.278138883,-58.2733317533,-44.6719954797,10.6652210696
off_to_on,-99.9993235557,-97.7998121614,-74.462333183,-3.28562407174,25.680056831,-100.091764426,-106.163716708,-90.1039316195,-5.27865401232,-99.8387219649,47.7450535533,-104.913569503,-94.846437607,17.0029873543
off_to_on,-130.320340039,-129.826879989,-113.970514493,-4.07222567914,-28.6902017864,-131.691217106,-135.815350781,-128.883885309,-5.71404521152,-131.29154078,-7.50895952096,-133.665333737,-127.161446834,18.0877215267
off_to_on,-142.627813211,-143.605189876,-135.820832091,-4.71709876539,-71.0668324263,-145.104254099,-147.063341151,-148.792305757,-5.96476812465,-144.528454718,-51.5056379304,-144.180941419,-141.269692185,14.6488519884
off_to_on,-138.958171251,-141.186783439,-141.426863519,-5.19730914862,-99.828211817,-142.31689144,-141.875130209,-151.500934865,-6.03100286923,-141.518955662,-82.3256179232,-138.52393371,-139.258281413,8.13082457237
off_to_on,-123.217038558,-126.52014989,-134.156580197,-5.49532495649,-115.341990983,-127.208563714,-124.152684424,-140.72383604,-5.91226837159,-126.139325644,-100.100557134,-120.661893056,-125.109239186,0.448157889165
off_to_on,-100.44037881,-104.693868909,-118.626542686,-5.59837063527,-119.646902407,-104.812149571,-99.0046289538,-121.46834228,-5.60700419595,-103.434368831,-106.72204007,-95.7292952409,-103.933165741,-6.32624469052
off_to_on,-75.9451641963,-81.0699461087,-99.8705635455,-5.49803474118,-115.927397749,-80.4608394526,-71.8959310654,-99.1560614336,-5.11354305635,-78.7636072459,-105.325023169,-69.1733414073,-81.0943714135,-10.2933159684
off_to_on,-54.4943330679,-60.4344477815,-82.5071054133,-5.19034284532,-107.867732335,-58.9473312044,-47.7997703424,-78.7444098978,-4.43230119733,-56.9575234,-99.6322099623,-45.9079036433,-61.3564912272,-10.0317515882
off_to_on,-39.5944534553,-46.286118243,-70.0251962976,-4.67637172223,-98.9851891308,-43.8147508059,-30.4716924944,-63.9743880426,-3.56877160162,-41.6036443995,-93.2615765662,-29.5953338601,-48.170164881,-4.82924812203
off_to_on,-33.0218968473,-40.3601589061,-64.2876476733,-3.96333114463,-92.0409941246,-36.8761908339,-21.945077607,-56.848231112,-2.53672995049,-34.5600015493,-89.1004345576,-22.1540411834,-43.2002383455,5.19254094469
off_to_on,-34.6379153053,-42.4478685785,-65.3161208748,-3.06590247573,-88.6126157625,-38.0242922681,-22.3126138316,-57.4045821112,-1.36098505673,-35.7581917188,-88.8361084352,-23.5547992355,-46.1528009664,19.0773514886
off_to_on,-42.5099869231,-50.5287283601,-71.3801409885,-2.00752362916,-88.8849394058,-45.349055921,-29.8158872362,-63.8142176913,-0.0790385184261,-43.3150836306,-92.7076935214,-31.9258180944,-54.9176510048,35.1579052826
off_to_on,-53.3123028471,-61.1860714686,-79.3675927649,-0.821266040396,-91.6841630776,-55.5372428889,-41.2204734682,-72.772504932,1.25884056547,-53.9273334461,-99.509283456,-43.9418463269,-65.9958790532,51.2857535237
off_to_on,-62.9385711225,-70.2371000311,-85.3738307269,0.450030233001,-94.7420356724,-64.4866171372,-52.4133448654,-80.1222781811,2.59139118775,-63.4826159675,-106.837457467,-55.4322539068,-75.1416296112,65.1341185117
off_to_on,-67.2308990532,-73.4782809741,-85.4158950984,1.75461435204,-95.1443928699,-68.0384500018,-59.1286088225,-81.6085938951,3.84996973091,-67.7914132051,-111.540046517,-62.1127643123,-78.1173648447,74.5301211084
off_to_on,-62.7133547612,-67.432079624,-76.1615948953,3.03379378344,-89.8915386557,-62.7161780733,-57.6907389231,-73.6492202132,4.963684596,-63.3273928797,-110.294262744,-60.3293426776,-71.4471192955,77.7687560544
off_to_on,-47.2198115313,-49.9824657259,-55.5625379677,4.22497084392,-76.4824832291,-46.3588503626,-45.6637030592,-54.0040071169,5.86549180018,-47.8648587674,-100.224152968,-47.7027557351,-53.0541587964,73.8638197239
off_to_on,-20.3224586426,-20.8041930987,-23.2954108644,5.26553698404,-53.4324157196,-18.5546716213,-22.3095940619,-22.2423202334,6.49850770103,-20.9181529037,-79.4624244246,-23.5782473787,-22.6876180755,62.7002400991
off_to_on,16.5026818415,18.4782062336,19.0554382472,6.09727160717,-20.6432559804,19.1900369195,11.2108541389,20.061989563,6.82172154911,16.0823136159,-47.5704997339,10.7858656263,17.9257117803,45.0665213125
off_to_on,59.9981851124,64.4260255099,68.1030322992,6.67079406905,20.4309582287,63.5722104154,51.9253922721,69.4385398603,6.81433677874,59.9039339054,-5.75176160178,52.3184248974,65.2279004681,22.5631981693
off_to_on,105.518695064,112.198091135,119.037529014,6.94958061789,66.8519778388,109.887288913,95.4126725785,120.917701653,6.47813133574,105.900048082,43.1767943182,96.5102688582,114.254839259,-2.59919863947
off_to_on,147.639499629,156.180327716,166.228219437,6.9130889327,114.492716794,152.642420055,136.387928334,168.661881325,5.83748181033,148.617201483,95.0542598784,138.009967365,159.279707545,-27.8836723303
off_to_on,180.893571257,190.743833851,203.963432714,6.5586277581,158.521326559,186.300544075,169.428016104,206.741926721,4.9370071942,182.53506949,144.851859941,171.355295506,194.583816356,-50.7516107094
off_to_on,200.532325322,211.023992359,227.224390053,5.90175439558,194.00793489,206.049779655,189.732289972,229.94911956,3.83711024635,202.833878689,187.29073601,191.736252462,215.245720457,-68.9834720437
off_to_on,203.202265087,213.610408204,232.384279342,4.97515746823,216.570228646,208.489152135,193.811037575,234.528226969,2.60798013572,206.080525411,217.516571063,195.681359747,217.83712997,-80.9510656335
off_to_on,187.4419008,197.050361463,217.734434623,3.82616120193,222.968195864,192.133784536,180.003872322,218.728327622,1.32282670422,190.736412647,231.737958015,181.570276599,200.927583077,-85.8047213422
off_to_on,153.928963659,162.09499473,183.763853041,2.51314495248,211.565129484,157.668341651,148.754870745,183.093861057,0.0512133723157,157.415461139,227.740350314,149.900678607,165.327001517,-83.5512938491
off_to_on,105.443218305,111.653732699,133.152798979,1.10128595286,182.590377653,107.913012105,102.605770222,130.454802353,-1.14667230255,108.856061391,205.20469182,103.272185638,114.03216176,-75.0148190754
off_to_on,46.5500245292,50.4632322247,70.4809710226,-0.341910754889,138.166626504,47.5065210125,45.9082089998,65.6167959913,-2.22412020392,49.610827811,165.786864457,46.0898628666,51.8844667735,-61.688396787
off_to_on,-16.9514617068,-15.4833177662,1.69000556689,-1.75083948077,82.0968175819,-17.6501322926,-15.7048631077,-5.20646562385,-3.14992874468,-14.502815888,112.947028126,-15.971210849,-15.0136790254,-45.5010863081
off_to_on,-78.7393734168,-79.6680363289,-66.6265478078,-3.06539110993,19.4385677564,-81.1128301499,-76.0153691031,-75.141184501,-3.90823234385,-77.1154603595,51.5520855646,-76.6660958516,-80.0437073258,-28.5351046469
off_to_on,-132.742253818,-135.841476851,-128.009824932,-4.23364977152,-44.0774042488,-136.678354437,-128.988182825,-137.480304358,-4.49631736655,-132.08442428,-12.6949033544,-129.94872207,-136.87544438,-12.7348144598
off_to_on,-173.869638016,-178.770045543,-176.89364985,-5.21356297557,-102.7077798,-179.127525972,-169.506605707,-186.478263206,-4.92091082777,-174.232975483,-73.9217362083,-170.70485167,-180.223011268,0.350913621936
off_to_on,-198.602889064,-204.838590901,-209.234264719,-5.97360902432,-151.34928613,-204.82885469,-193.976687569,-218.008622431,-5.19364164491,-199.951631175,-126.761965193,-195.351421332,-206.451989565,9.75727987169
off_to_on,-205.369901536,-212.430605718,-222.931326741,-6.49261745095,-186.099032341,-212.124844683,-200.721469504,-230.000014872,-5.32648068995,-207.58369254,-166.949586696,-202.224467375,-213.959881804,15.1983136586
off_to_on,-194.658422077,-202.040493869,-217.989748691,-6.75899304508,-204.651966883,-201.454354622,-190.116584584,-222.597737755,-5.32794745868,-197.548281141,-191.758016056,-191.70841988,-203.284485576,17.0573053432
off_to_on,-168.859640644,-176.110138428,-196.408426874,-6.76963899932,-206.488215621,-175.201606958,-164.45528785,-198.036953992,-5.20073079009,-172.191235863,-200.230593972,-166.096178306,-176.933118987,16.2778530685
off_to_on,-131.871077949,-138.620143564,-161.819568686,-6.52886559807,-192.832425239,-137.300230695,-127.56862683,-160.253312156,-4.94113012921,-135.391969637,-193.179437632,-129.206777642,-138.964189678,14.1748270957
off_to_on,-88.5203478916,-94.499221771,-118.935884676,-6.04751229725,-166.398440071,-92.6537719447,-84.2597693461,-114.292219368,-4.54041900004,-91.9874328326,-172.961565399,-85.820320983,-94.3859483117,12.1957582788
off_to_on,-43.8945894143,-48.9386728425,-72.8877000439,-5.34241555492,-130.961291284,-46.45783144,-39.6358360774,-65.60408577,-3.9879101171,-47.0980927954,-143.0713367,-41.0136209988,-48.4607954111,11.6696357211
off_to_on,-2.67112207183,-6.70960771903,-28.5447416253,-4.4362406108,-90.8206198694,-3.52020666485,1.56734931751,-19.3260933226,-3.27521122962,-5.45211863395,-107.612168426,0.508540164678,-6.01407473383,13.5810088948
off_to_on,31.4581084687,28.4227639864,10.0835835909,-3.35758342921,-50.2323211311,32.3272196485,35.5738685968,20.350199409,-2.4009471083,29.1986100272,-70.7249772378,34.9938463398,29.1573571346,18.40262409
off_to_on,56.191772841,54.1100871242,40.2897669008,-2.14115922864,-12.886813728,58.6469422051,59.9908958177,50.6413557078,-1.37511948663,54.4928392852,-36.054012668,60.0572164544,54.6985431819,26.0103964758
off_to_on,70.8041188283,69.6066320274,60.8970762385,-0.827842326392,18.4970789763,74.593260598,74.0134943434,70.4074045175,-0.222300310389,69.6532837807,-6.32248479956,74.8785166847,69.8813261304,35.6918232341
off_to_on,76.0927325779,75.7132645175,72.2533864034,0.53568232424,42.4125079509,80.8704669302,78.3908302785,80.137058733,1.0169976252,75.4408316379,16.9279116032,80.1645035935,75.5445005533,46.2449244511
off_to_on,74.1068578915,74.4983464023,76.0021715527,1.89785139081,58.6145170828,79.4685400937,75.1685072306,81.6965383346,2.28717542315,73.886464547,33.404974755,77.8908382411,73.8087019499,56.1515521275
off_to_on,67.7053066925,68.8460747655,74.6747621242,3.20384915296,67.98295682,73.2247493304,67.2536864474,77.8895163513,3.52070997036,67.849472992,43.941752571,70.8714176609,67.6175320699,63.7983664409
off_to_on,60.0164197092,61.9064551852,71.1726515624,4.39792428675,72.2286965217,65.2834309865,57.8741210724,71.9017645828,4.64336279459,60.4744861916,50.2083824907,62.2260535043,60.1801842786,67.7124285029
off_to_on,53.8848727151,56.5334304413,68.2226916178,5.4262730175,73.495132136,58.5389734451,50.0158063307,66.7187904346,5.58086335405,54.6326718354,54.31146495,54.8303909167,54.4030752784,66.7770288515
off_to_on,51.3897890833,54.7970811878,67.8896138508,6.24025443759,73.9205129235,55.1470926589,45.9248631299,64.6062134109,6.26625785972,52.4325370525,58.3474394001,50.832245755,52.3971616267,60.3971228226
off_to_on,53.5058958043,57.6426083475,71.2194698888,6.79962427411,75.230197136,56.1770438,46.7476278925,66.7308711597,6.64698997155,54.873300516,63.9813100326,51.3064416091,55.1340938981,48.5918816045
off_to_on,59.9564243523,64.7451533541,78.0661101955,7.07543793877,78.421287652,61.4545420336,52.3606351156,72.9776308691,6.69078598376,61.6908444864,72.1163013197,56.0977444924,62.3003483875,32.0030587558
off_to_on,69.2766544764,74.5790520603,87.1240521051,7.05228908747,83.5863806702,69.615391066,61.4126870727,81.9861791756,6.38955480191,71.4163285357,82.7046616133,63.8720991965,72.3676755269,11.8203627496
off_to_on,79.074904835,84.6874267596,96.15936366,6.72961483425,89.9008640224,78.3576252208,71.5689399864,91.3983046763,5.76076334918,81.6351484741,94.727305813,72.3644984989,82.8652450089,-10.3630837041
off_to_on,86.4481342259,92.1079308775,102.400215744,6.12190398079,95.7727208176,84.8501262653,79.9166693885,98.2743803139,4.84607585446,89.4038439536,106.34372984,78.7821916644,90.8086222242,-32.742583851
off_to_on,88.4864497271,93.8873551116,103.024911571,5.25777449313,99.1289302154,86.2325323169,83.4685206812,99.6125491163,3.7074043403,91.7591795256,115.187565149,80.2988913802,93.2175814144,-53.5125672949
off_to_on,82.7879926561,87.6049827233,95.6709123171,4.17802142596,97.7919597001,80.1281219366,79.6850181092,92.8891360698,2.42085664791,86.2402909097,118.761107578,74.5624737465,87.6420456834,-71.0663414243
off_to_on,67.904646926,71.8237972285,78.8856198584,2.93285623133,89.8864814553,65.090029322,66.9358287496,76.5361262076,1.06933957371,71.3433327289,114.867342719,60.1371964369,72.6148701328,-84.1582177515
off_to_on,43.6497951936,46.3998659668,52.4487186265,1.57864503494,74.2121858088,40.9116699001,44.8289459286,50.2814112253,-0.265259862974,46.8385577933,102.012489115,36.8117592509,47.9616782655,-92.0083294251
off_to_on,11.2202161106,12.6016596989,17.515255914,0.174494490429,50.5239147773,8.75293602288,14.3570075748,15.2983199631,-1.50935494385,13.9005246403,79.7165890572,5.72494534044,14.9196834203,-94.3400895007
off_to_on,-26.8880045711,-26.9805398903,-23.4446035913,-1.22097598866,19.67439215,-28.9386009119,-22.1626611659,-25.8604677067,-2.60353681065,-24.9699891524,48.6834180519,-30.7120072658,-23.9539381716,-91.3509234204
off_to_on,-67.1591349658,-68.7238862416,-66.9030787442,-2.55239456769,-16.4045854238,-68.7017201585,-61.3470900103,-69.5374500783,-3.50639692811,-66.2229571061,10.8018396971,-69.0868532383,-65.0722938044,-83.6269373928
off_to_on,-105.493818726,-108.420375089,-108.694394526,-3.76974401575,-54.8826069514,-106.492192372,-99.1692881776,-111.415283069,-4.19594045656,-105.696306414,-31.0244307509,-105.413450178,-104.266539653,-72.0200044425
off_to_on,-137.739392576,-141.818820324,-144.537642267,-4.82974571786,-92.3489664327,-138.208436236,-131.482206351,-147.069161054,-4.66857644359,-139.151315907,-73.1965520032,-135.653465393,-137.327054772,-57.5102035734
off_to_on,-160.238808958,-165.184156228,-170.588975997,-5.69656858177,-125.224781472,-160.236813739,-154.570030065,-172.547874045,-4.9360032023,-162.829999028,-111.845907549,-156.257805431,-160.560469528,-41.0770453223
off_to_on,-170.31997353,-175.794522088,-183.945066033,-6.34201018729,-150.211133083,-169.938521618,-165.648083657,-184.9007261,-5.02058480027,-173.955277017,-143.305975825,-164.650126074,-171.28298156,-23.5995206829
off_to_on,-166.656186905,-172.30585168,-183.026897196,-6.745362439,-164.710226005,-166.008764101,-163.240381442,-182.57548544,-4.94999843873,-171.103273828,-164.565046913,-159.583351634,-168.17998247,-5.79841084397
off_to_on,-149.447227813,-154.933054134,-167.790354609,-6.89319393901,-167.160515796,-148.65761984,-147.381840376,-165.63131869,-4.75199807158,-154.395741611,-173.637084965,-141.318682273,-151.481684629,11.7743089185
off_to_on,-120.396581865,-125.423408323,-139.734960194,-6.779253544,-157.239196307,-119.587905509,-119.617637557,-135.737399081,-4.45007994424,-125.486630556,-169.800010551,-111.602291659,-122.931198844,28.7032409928
off_to_on,-82.4895524246,-86.8275633964,-101.71091343,-6.40462955199,-135.904489611,-81.7745390216,-82.8013679087,-95.9586015388,-4.06066228339,-87.3462924964,-153.669814383,-73.4439933552,-85.5513888612,44.646820325
off_to_on,-39.6052040179,-43.1021833173,-57.5530379685,-5.77819948634,-105.27299338,-39.0781282114,-40.7222501273,-50.3599007078,-3.59213208289,-43.8754382132,-127.102353802,-30.7303153598,-43.2454307242,59.2619642695
off_to_on,3.98179839181,1.39834869089,-11.5942305936,-4.91729464409,-68.350569689,4.25133702496,2.38450199479,-3.48639368018,-3.04580690171,0.595385127441,-92.9389774612,12.2724158331,-0.289188196119,72.136251026
off_to_on,44.1386666163,42.4689600947,31.8728598873,-3.84840197918,-28.6555394917,44.1100311412,42.37428314,40.2073333473,-2.41855498142,41.8497278196,-54.633745844,51.4545226318,39.2120211554,82.7462233565
off_to_on,77.3761813596,76.5632720744,69.111151771,-2.60765303762,10.2126122433,77.0400487513,75.7013723459,76.898812751,-1.70655815588,76.2966575606,-15.8158774202,83.3639954682,71.8259345863,90.455376617
off_to_on,101.246070637,101.195843708,97.3614433874,-1.24082082949,44.9992153862,100.624867667,99.8290772466,103.836185798,-0.90952681228,101.379880463,20.1510525551,105.603494668,95.1861287763,94.5577029646
off_to_on,114.581887073,115.184570526,115.116438904,0.197430928515,73.1573439656,113.728332519,113.487419099,119.615650508,-0.0346094309247,115.830856076,50.5527138334,117.07090876,108.22327813,94.3636343445
off_to_on,117.554776399,118.70461416,122.213591225,1.6452259836,93.1002637629,116.548550685,116.74707775,124.264179321,0.900710642209,119.735721942,73.5997226354,118.014501679,111.207480504,89.3164076142
off_to_on,111.542796178,113.152995692,119.740537599,3.03614181684,104.312862537,110.485380244,110.905453403,119.122477368,1.86728066827,114.413266821,88.5615822392,109.900907795,105.602161799,79.119810181
off_to_on,98.8393577048,100.850303548,109.773911697,4.3027788395,107.312449154,97.8471412621,98.2079032346,106.55198755,2.82481510932,102.128455008,95.7463545823,95.1211972204,93.7573689601,63.854236519
off_to_on,82.248996244,84.6288626672,94.9957228586,5.38099652638,103.471139184,81.4448580845,81.4504980169,89.5145509819,3.72432584859,85.6891301296,96.3362186844,76.5829992935,78.4929486199,44.0578017131
off_to_on,64.6337824954,67.3719083063,78.2479487159,6.21444850391,94.7315873616,64.1374871434,63.526672021,71.090542034,4.51217967108,67.9892042851,92.1097068535,57.2519760619,62.6369306782,20.7531079272
off_to_on,48.4791815809,51.5737079787,62.093211454,6.75895752308,83.2622715457,48.397101547,46.9866793432,54.0085219582,5.1352683188,51.5676990675,85.0970285918,39.7116590512,48.5893412434,-4.59232680357
off_to_on,35.5434005769,38.9855530108,48.4465095691,6.98623793399,71.1058627124,35.9582372495,33.675020172,40.2558003447,5.54660511257,38.2487258538,77.2232941301,25.8061197231,37.9760969987,-30.1740603884
off_to_on,26.6401177021,30.3980152166,38.3305655332,6.88650660625,59.8734933087,27.6014275401,24.4976871783,30.8254779485,5.71059232539,28.9136827487,69.9945328076,16.4159757544,31.4425757721,-54.0183313029
off_to_on,21.5832034694,25.5881401048,31.7874238996,6.469622428,50.5292243361,23.0996107053,19.3503304864,25.6337713867,5.60724431904,23.4358057332,64.2733094957,11.3970577602,28.6142953338,-74.1903161737
do_nothing,19.2968961615,23.4346611386,27.9545686877,5.76454893929,43.2941154223,21.3308647755,17.2134428591,23.6150348623,5.2347955095,20.7819919901,60.1758243644,9.68592332443,28.2262613163,-89.0163306011
do_nothing,18.0696768395,22.1787288814,25.288706143,4.81712512426,37.6803469027,20.5356083674,16.3952009412,22.9748752036,4.61034692772,19.2613201994,57.1029764259,9.55109634485,28.3968657776,-97.2892557167
do_nothing,15.9085573694,19.7858606231,21.898219151,3.68633075315,32.6457165215,18.6747745218,14.8804576191,21.5581219092,3.76847633113,16.8777190429,53.8969482528,8.94719271783,27.0005506504,-98.4270035785
do_nothing,10.9358072724,14.350021977,15.9293874695,2.4394173809,26.8405521741,13.830687103,10.7288157325,17.2716270426,2.75801403482,11.7290016237,49.0955787575,5.9141493153,22.078971661,-92.5590162626
do_nothing,1.76440407333,4.47506484423,5.94406084948,1.14641820732,18.9053433357,4.58656203899,2.45795844326,8.49433544118,1.63742923002,2.38816888979,41.2419965343,-1.04226221053,12.2251785939,-80.5250191766
do_nothing,-12.2075551271,-10.4270992236,-8.77144378623,-0.125371079991,7.77018091154,-9.67552345854,-10.6486347934,-5.5902126493,0.469444796315,-11.7936824321,29.1988439177,-12.648795058,-3.11996228143,-63.7822658952
do_nothing,-30.6302981713,-29.9689507039,-28.0153087686,-1.31634469283,-7.09260595442,-28.6053971649,-28.3583493606,-24.7913358082,-0.684421270703,-30.5109612801,12.4160691924,-28.6894253706,-23.5060504255,-44.2305971461
do_nothing,-52.1905906488,-52.7775130172,-50.6277074721,-2.37844984988,-25.5035615853,-50.8715408627,-49.4598810376,-47.8708018503,-1.76871212204,-52.4821137536,-8.8913354521,-47.9841249589,-47.4722979071,-23.9768502642
do_nothing,-74.7578093438,-76.6450661229,-74.6046045721,-3.27757923255,-46.5261150607,-74.3071587485,-71.8932346392,-72.6718570829,-2.73772920271,-75.5876838602,-33.6853110055,-68.5257017092,-72.7091241256,-5.06963060875
do_nothing,-95.6668309164,-98.8188025028,-97.3517762997,-3.99430173775,-68.540854781,-96.1946412333,-93.0206917025,-96.3992071949,-3.55770844199,-97.1481481833,-60.1777170441,-87.7545298846,-96.3591147981,10.7593142719
do_nothing,-112.095843836,-116.386703406,-116.04166613,-4.52295428045,-89.434353996,-113.646510081,-109.998736061,-116.008608878,-4.20735332288,-114.300518946,-86.0256340449,-102.930007891,-115.413182039,22.3108038772
do_nothing,-121.482722468,-126.702310258,-128.020118393,-4.86932558082,-106.875335592,-124.026311592,-120.195594702,-128.648188762,-4.67684966335,-124.417704755,-108.621690069,-111.542888238,-127.143379549,29.0599479325
do_nothing,-121.91762174,-127.78508503,-131.202448558,-5.04733704311,-118.637640913,-125.346802356,-121.592051585,-132.085781134,-4.96570359668,-125.508042409,-125.437666973,-111.706365426,-129.508228228,31.2027461731
do_nothing,-112.452791662,-118.636519069,-124.399773448,-5.07524235907,-122.922270667,-116.585994147,-113.105504475,-125.058560107,-5.07989835511,-116.535181243,-134.371459844,-102.466853002,-121.470359339,29.5997030173
do_nothing,-93.2827163619,-99.4244804843,-107.5267463,-4.97191081808,-118.63071673,-97.8736464783,-94.7884515056,-107.492665068,-5.02893511961,-97.6101362711,-134.046723805,-83.9872139738,-103.179129921,25.6233411015
do_nothing,-65.7667013488,-71.5075969885,-81.6592367458,-4.75372424541,-105.548851715,-70.5197755484,-67.8709930858,-80.5596178409,-4.82329993235,-70.0260433448,-124.021301177,-57.5740139641,-75.9906436075,20.9305789527
do_nothing,-32.2891067404,-37.2948511223,-48.932436759,-4.43250978636,-84.4136865745,-36.8798331266,-34.6397472954,-46.5602258414,-4.47278855223,-36.1291338388,-104.873724589,-25.5433118985,-42.3213479824,17.1922715864
do_nothing,4.02388142961,0.0404600690218,-12.2930876537,-4.01476629955,-56.8523669311,-0.0749643512713,1.8305929308,-8.65179681254,-3.98594363208,0.956721187472,-78.1547400272,9.05683170424,-5.3555483757,15.8190762604
do_nothing,39.6912321355,36.9522123987,24.859416626,-3.50224461264,-25.201303629,36.3933218454,38.0555001977,29.5428513436,-3.37064338174,37.7133793948,-46.21025242,42.8280613472,31.3517815435,17.7240995772
do_nothing,71.3131948637,69.9631698351,59.0924627315,-2.89373939897,7.76942004484,69.0796929109,70.5753705913,64.3892255161,-2.63566312691,70.6657735594,-11.9004884053,72.4535281838,64.3206637298,23.1582037176
do_nothing,95.9951270386,96.0948366787,87.3612684231,-2.18777138526,39.1877775616,95.0213603895,96.3856717499,92.6938052259,-1.79284604809,96.8118467756,21.7451933005,95.1186191684,90.5774909158,31.6439510786
do_nothing,111.699745085,113.225572708,107.37294248,-1.38570775639,66.4213717,112.094873308,113.302457192,112.092195655,-0.859396610333,113.985212461,51.8896416455,108.861374013,108.012004494,42.0202886128
do_nothing,117.479287789,120.327987578,117.843760352,-0.494803616947,87.3816575062,119.254522806,120.213029514,121.319394942,0.140230515943,121.100867921,76.215513328,112.803893511,115.611125989,52.594160878
do_nothing,113.556792019,117.554507388,118.615790411,0.469343677448,100.74958159,116.62109494,117.17852033,120.326341721,1.17332517389,118.251569021,93.1748036931,107.233577586,113.539196774,61.3795684611
do_nothing,101.247674463,106.162174896,110.619631092,1.48135497188,106.093262625,105.411576208,105.376756986,110.229448306,2.19914961091,106.644234404,102.127881325,93.5249220583,103.056667992,66.3914320663
do_nothing,82.7358253902,88.2909112587,95.6922643512,2.50593243352,103.864281201,87.7233489817,86.8967942914,93.1039883595,3.17055798165,88.3887593854,103.356015918,73.9156008933,86.2926098056,65.9529280925
do_nothing,60.7390736747,66.630230137,76.279619848,3.49913460315,95.2767808139,66.2070428138,64.417524294,71.6544388855,4.0369430069,66.1725063316,97.9498509666,51.1712892494,65.9071497417,58.9720571783
do_nothing,38.1141835146,44.0247482969,55.0693881723,4.41098048998,82.0902948286,43.6775438678,40.8187897916,48.8119468983,4.74822537221,42.8694780683,87.594042596,28.1891362011,44.6951006579,45.1466025631
do_nothing,17.4593201989,23.076607575,34.6086547944,5.18912076428,66.3305671631,22.7205361572,18.7821449425,27.3185729759,5.25941886942,21.1415460836,74.2827655429,7.59777817757,25.1894574541,25.0659374674
do_nothing,0.771134691389,5.80208163678,16.9618316715,5.78317221875,49.9907179621,5.35130884526,0.438657165913,9.3585768755,5.53518794327,3.08898045316,60.0099006862,-8.58877829171,9.3221518986,0.192101625756
do_nothing,-10.7955040749,-6.60956144507,3.45713667353,6.14922520327,34.7568156329,-7.22636573262,-12.886983384,-3.71120379802,5.55378306019,-10.0009398783,46.4802113188,-19.2149878977,-1.81022369717,-27.2807459507
do_nothing,-17.0331005776,-13.9029545089,-5.44429412881,6.25401268546,21.7971074119,-14.7292596825,-20.8019680547,-11.4955314966,5.30979914558,-17.7738989984,34.8834299349,-24.0927373861,-8.04452942477,-54.6723224219
do_nothing,-18.6408515021,-16.7177931204,-10.1414809518,6.07827457652,11.643652747,-17.7598028107,-23.8263163664,-14.5439148604,4.81534542165,-20.7837982616,25.7626774446,-23.9632336707,-10.1026482802,-79.136461517
do_nothing,-17.0478921841,-16.4145896488,-11.7544601628,5.61895349112,4.18054970063,-17.637040378,-23.2367190342,-14.189820976,4.09942089173,-20.3316085146,18.9936806812,-20.321398093,-9.40811246936,-98.0135610457
do_nothing,-14.1306031197,-14.7952452591,-11.8780822802,4.89000212447,-1.26342792247,-16.1229405023,-20.8008614058,-12.2742853374,3.20552850728,-18.1961225594,13.8741366084,-15.1324000525,-7.79925792404,-109.168129602
do_nothing,-11.8692661874,-13.763737533,-12.2693587055,3.92174691604,-5.73569122466,-15.0885782995,-18.4455000641,-10.798917838,2.18779776556,-16.3003483259,9.30587487659,-10.4853188817,-7.1852422996,-111.265780399
do_nothing,-11.9975749845,-14.9803098016,-14.5181068998,2.75891486933,-10.4248507329,-16.1728690062,-17.9105640756,-11.5630077155,1.10608542105,-16.3659678631,4.03867656194,-8.23739817084,-9.19898745424,-103.951840193
do_nothing,-15.6986621374,-19.562560546,-19.7522104706,1.45756914926,-16.4084545552,-20.4866863241,-20.4426334032,-15.840841128,0.0206579145537,-19.6090429658,-3.06426908589,-9.70280418314,-14.9006566071,-87.9068597085
do_nothing,-23.3934992633,-27.8788856632,-28.4226919896,0.0812977781465,-24.4239908399,-28.4074782981,-26.5742709697,-24.1483763635,-1.01289238338,-26.5229886133,-12.7819920115,-15.4322713791,-24.5768353762,-64.7709084489
do_nothing,-34.6530185715,-39.4651181282,-40.2010203149,-1.30295150725,-34.6995156472,-39.4951422562,-36.02199041,-36.1342298097,-1.94788867663,-36.780944084,-25.3513896048,-25.1157409451,-37.6655226818,-36.946294591
do_nothing,-48.2463380214,-53.0762028734,-54.003641086,-2.62900053935,-46.8706497044,-52.5411692386,-47.7172607655,-50.6107206434,-2.74948944422,-49.2712106169,-40.3722125319,-37.6212787106,-52.817683004,-7.30478666331
do_nothing,-62.3169128446,-66.8642243933,-68.1392910048,-3.83519447846,-59.9971457871,-65.7427660236,-59.9646785743,-65.7194256805,-3.39600143389,-62.259200287,-56.8167661947,-51.1630424471,-68.0854010649,21.1617674004
do_nothing,-74.6593502085,-78.6551401981,-80.5561529312,-4.86752535898,-72.6768421989,-76.9748502911,-70.7023143336,-79.2054992709,-3.8785324072,-73.6503795896,-73.1435893354,-63.5719109994,-81.2077099718,45.7011072174
do_nothing,-83.0548167862,-86.2819614364,-89.1510694586,-5.68197485008,-83.2399147516,-84.1182708474,-77.8240892075,-88.7589006021,-4.19916393548,-81.3137878294,-87.498515096,-72.6274004565,-89.9507299844,64.1231865051
do_nothing,-85.6145761471,-87.9239756152,-92.0940133155,-6.24603171852,-89.9941456643,-85.3944387865,-79.515056166,-92.3709795952,-4.36802656878,-83.4170173372,-97.9732926476,-76.4008306346,-92.4509418828,75.0439384832
do_nothing,-81.0803716298,-82.4010503225,-88.1190737646,-6.53943169541,-91.4842363914,-79.6559009579,-74.5488993566,-88.652955655,-4.3998006576,-78.722260481,-102.883296357,-73.5585576891,-87.5103000184,78.0195647157
do_nothing,-69.0371424345,-69.3790749043,-76.7385492123,-6.55423382122,-86.7261019431,-66.5892481298,-62.5029605678,-77.0688623291,-4.31022611441,-66.7992420514,-101.023015085,-63.5805169527,-74.7993826972,73.5560222843
do_nothing,-50.0068244287,-49.4560497322,-58.348444744,-6.29438134092,-75.3808471208,-46.8000151909,-43.8586639588,-58.0485248454,-4.11317581899,-48.1235373171,-91.8613551424,-46.8622646322,-54.938670583,62.9955811984
do_nothing,-25.4096962255,-24.1161420561,-34.2099321533,-5.77489645506,-57.8421151387,-21.7668523519,-19.9723914339,-32.9640688454,-3.81873583501,-24.0459547958,-75.6477409742,-24.6861607627,-29.4461936014,48.2990005573
do_nothing,2.60078937416,4.44150153788,-6.30966315211,-5.02083209433,-35.2233203475,6.32844181799,7.07894508,-3.97360639471,-3.43255906469,3.36226953827,-53.4131640732,0.933344683532,-0.559448456903,31.7557004531
do_nothing,31.4053966824,33.5741666172,22.8805133684,-4.06606022731,-9.24598039006,34.8703138161,34.7550497282,26.2449009192,-2.9565448932,31.5656118458,-26.865709768,27.5070542887,29.042267538,15.6633897679
do_nothing,58.2498941363,60.5278765567,50.7094973598,-2.9519273272,17.9552547602,61.1392988047,60.374740079,54.8308911112,-2.39067856182,57.8843931398,1.80462282367,52.3931170265,56.574811883,2.0217475577
do_nothing,80.5917756565,82.7829285524,74.6745888209,-1.72576589228,44.0833458353,82.6549861241,81.4573369674,79.1010508356,-1.73567363304,79.8327844932,30.1840615966,73.1371790357,79.4971226966,-7.71839241764
do_nothing,96.4139006747,98.3637787701,92.7244660038,-0.439226504181,66.950097406,97.4834894836,96.0343470773,96.8807155819,-0.995927560491,95.4266945335,55.9197211393,87.7820749612,95.8209857921,-12.8177802597
do_nothing,104.461675746,106.0703619,103.495544291,0.853606056683,84.7301188658,104.466664753,102.887858848,106.760758434,-0.182243825888,103.418749542,76.9911023677,95.1038642311,104.339919803,-13.3040772846
do_nothing,104.372278071,105.600081047,106.450276113,2.09832563176,96.1628299996,103.342351837,101.68339956,108.245550806,0.686197561031,103.42895476,91.9313689042,94.7425666377,104.747008392,-9.91607818772
do_nothing,96.6806745925,97.5461367182,101.900865039,3.24251574905,100.675923411,94.7412468926,92.9808589951,101.774046965,1.58103088705,95.9553867424,99.969322727,87.2119091992,97.6282412604,-3.9489046403
do_nothing,82.7053388307,83.2760714515,90.9188889365,4.23817306115,98.415527146,80.0641509135,78.1250520939,88.6148114428,2.46529454113,82.2669954869,101.075082548,73.7903174028,84.3362835342,2.97409922712
do_nothing,64.3338917178,64.7116596449,75.1478857729,5.04410216453,90.1820601289,61.2605745216,59.0348746782,70.6540518205,3.29544794524,64.1976257944,95.9067797117,56.3125760773,66.7668222043,9.16740220502
do_nothing,43.742842421,44.0450291542,56.5495939028,5.62809800508,77.2843665115,40.543468875,37.9242392212,50.110742589,4.02462818562,43.8741858708,85.6699610345,36.8955128457,47.0732000477,13.1475508683
do_nothing,23.0941781661,23.4341855017,37.1232798858,5.96871228147,61.3361362609,20.0832154818,16.9970100024,29.2225596208,4.60676937808,23.4205080137,71.9136855662,17.6397176197,27.3629953965,13.8574275356
do_nothing,4.25358327037,4.72279585815,18.6402245962,6.05641054761,44.0262105667,1.72580156203,-1.83925337013,9.949263028,5.00107224483,4.68068559214,56.2957295934,0.351525197416,9.42146732307,10.8191794863
do_nothing,-11.4296098893,-10.7759406058,2.4317048913,5.89396909691,26.8970762786,-13.2248095195,-17.2000477845,-6.26392944707,5.1762495305,-10.9986672218,40.3526894642,-13.6749392655,-5.49869155146,4.19573323028
do_nothing,-23.2511812721,-22.4023673734,-10.7405998705,5.49603153433,11.1633694695,-24.1308675578,-28.3605463042,-18.6307877828,5.11399338653,-22.8979109346,25.3086928569,-23.7861159618,-16.7931077101,-5.24536360726
do_nothing,-31.1746476125,-30.1663583057,-20.7163887165,4.88783527517,-2.4049837938,-31.0372258153,-35.2858583836,-27.059066456,4.81121012501,-30.9505750739,11.9493225404,-29.992666239,-24.5140180925,-16.2576722801
do_nothing,-35.749475805,-34.6588700213,-27.8708553156,4.10321514263,-13.5210777943,-34.5822674492,-38.5551888965,-32.0759387529,4.28073066028,-35.667362986,0.576401232091,-32.8896711657,-29.2749390687,-27.3102695755
do_nothing,-37.9425044854,-36.8775855303,-32.9664120175,3.18207991095,-22.3394215515,-35.8216561839,-39.1962046274,-34.6605007193,3.55040724847,-37.9746631697,-8.95377618741,-33.4903592665,-32.0713648227,-36.8205197605
do_nothing,-38.9130147978,-37.9978517179,-36.9497040956,2.16762368144,-29.3454778917,-35.9960162588,-38.4591195754,-36.0137845101,2.66071911124,-38.9969106922,-17.119312446,-33.0031200039,-34.0495817929,-43.3901423194
do_nothing,-39.7697505478,-39.1277227504,-40.7294390422,1.10356592418,-35.1978226853,-36.2814433069,-37.5684224133,-37.305546172,1.66120055907,-39.8199847924,-24.5704246962,-32.5894738951,-36.2629083814,-46.0099747871
do_nothing,-41.3499773751,-41.0873944681,-44.9727027621,0.0317053572117,-40.5512416477,-37.5634277089,-37.4926026723,-39.439680363,0.606148298319,-41.2747594101,-31.9453218445,-33.1426143523,-39.4556657747,-44.2043175404
do_nothing,-44.0562218291,-44.2485295207,-49.9536454025,-1.00997671753,-45.8913594505,-40.2701808086,-38.7684218028,-42.8761761066,-0.44985973892,-43.7757524134,-39.6963876029,-35.1219213436,-43.9099057879,-38.0953177205
do_nothing,-47.7764272765,-48.4587613504,-55.4793662785,-1.98851219935,-51.4088290641,-44.2912905987,-41.4069062627,-47.53777295,-1.4561026016,-47.2402900522,-47.9565399853,-38.4692239095,-49.3792723714,-28.3799941286
do_nothing,-51.8995074156,-53.0626743072,-60.9049810556,-2.87639650321,-56.9341646769,-48.993715205,-44.8948306947,-52.815492166,-2.36905523458,-51.1002662066,-56.4686753303,-42.6191217,-55.1200699092,-16.2253794
do_nothing,-55.422839326,-57.0149895074,-65.2352520017,-3.65136221857,-61.9441121251,-53.331532445,-48.2901211154,-57.6712139421,-3.15460785377,-54.4035427742,-64.5905875938,-46.6004937991,-60.0139061029,-3.09895961034
do_nothing,-57.1335161978,-59.0669580138,-67.2960894814,-4.295647253,-65.6386359449,-56.0310120832,-50.3947174177,-60.8199410684,-3.78902063021,-55.9876520051,-71.3753502929,-49.2117887261,-62.7616109325,9.43954991894
do_nothing,-55.8334380114,-57.9953356545,-65.9478730158,-4.79500335844,-67.0760157661,-55.8207341476,-49.9762701611,-60.9617236347,-4.25865545346,-54.6969405276,-75.714803247,-49.2410366934,-62.1167615951,19.9542482537
do_nothing,-50.5713400138,-52.8365511211,-60.3056409151,-5.13772549455,-65.3439897215,-51.6694292599,-46.0024455418,-57.0253451614,-4.55869705535,-49.6073914901,-76.5234194866,-45.694521072,-57.1207953951,27.3258904607
do_nothing,-40.8436818801,-43.0877843518,-49.9298077941,-5.31397020534,-59.7388356585,-42.9930045617,-37.8496962437,-48.3839636468,-4.69120487564,-40.2221032094,-72.9330427812,-37.996726967,-47.3013122706,30.8948334587
do_nothing,-26.7310869193,-28.8417434235,-34.9553847269,-5.31557269545,-49.9226697571,-29.7969824063,-25.4523686758,-35.0072126666,-4.66290668516,-26.604942416,-64.4668270052,-26.128706383,-32.8007784264,30.5354412126
do_nothing,-8.9469629878,-10.832150799,-16.1370155291,-5.13647562027,-36.0323068753,-12.7305485294,-9.36729755139,-17.5240957517,-4.48314663918,-9.42949007046,-51.1635035022,-10.6816215824,-14.4135477328,26.6537674735
do_nothing,11.2114977144,9.61927133558,5.1999448785,-4.77376215928,-18.7202880094,6.95797409135,9.2578707304,2.81518888715,-4.16233624251,10.0664494085,-33.6304188782,7.18456366102,6.47674996117,20.1115927439
do_nothing,32.0046495862,30.7483190009,27.2975894909,-4.2291604567,0.880984539129,27.559239435,28.8095091962,24.2747146523,-3.71113890282,30.2158395496,-13.0144989681,25.8725325941,28.0520265535,12.0902669444
do_nothing,51.4644600903,50.5660252519,48.174285693,-3.51077624068,21.2692448974,47.1151942613,47.4085003225,44.8467316577,-3.14046759921,49.1280497545,9.1072361522,43.5504858706,48.2850691788,3.91581439002
do_nothing,67.650383637,67.1170578463,65.8745177546,-2.63473401237,40.7422469003,63.6747673563,63.1571960388,62.5129586295,-2.46221573866,64.9352465706,30.9036626441,58.3965914472,65.2027289905,-3.12868361336
do_nothing,78.9094747031,78.7408406447,78.7234760868,-1.62637869183,57.6038897509,75.5553472821,74.3964176317,75.5147399606,-1.69049938122,76.0431667644,50.5078180961,68.8486201484,77.1482944854,-7.97682131708
do_nothing,84.1022251515,84.296763937,85.5489828762,-0.520716151513,70.3770797681,81.5713993409,79.9343569203,82.5919348001,-0.843087365754,81.3489613529,66.2465244003,73.8213798606,83.0042337942,-9.9153899504
do_nothing,82.7604900669,83.3200126201,85.8378586027,0.638148481947,77.9923935493,81.1963413521,79.2133002953,83.1548848438,0.057349506883,80.3935305596,76.8483880629,72.8592606459,82.3422222672,-8.66684542939
do_nothing,75.1538225887,76.084753494,79.8033263263,1.79869104068,79.9248425878,74.6336593799,72.3892889699,77.3636865571,0.982521201153,73.4254395359,81.6000785816,66.2008632487,75.4781006326,-4.4094445221
do_nothing,62.2540577844,63.5651295369,68.3530899844,2.90473082629,76.2584590423,62.7866942866,60.3127441034,66.1027648469,1.89860597429,61.3666363524,80.4281843194,54.7458233521,63.4235023429,2.26396575615
do_nothing,45.6030238951,47.2996350651,52.9623455329,3.89908064717,67.6689164097,47.1315313891,44.4127636495,50.854318894,2.76728981396,45.6847918365,73.8947549816,39.9285619732,47.7412117086,10.4389815384
do_nothing,27.1025516121,29.1787118572,35.4699909381,4.72774837552,55.3263935727,29.5117200729,26.5020248258,33.4892332537,3.54775134007,28.1909365925,63.1072413306,23.5175726995,30.3255553715,19.0083964225
do_nothing,8.75735608424,11.1866734102,17.8275914192,5.34425176247,40.7325875686,11.8849985544,8.53086982619,16.0062574689,4.19942859884,10.7920971515,49.5560502713,7.36990535832,13.1401497848,26.8168282074
do_nothing,-7.59181625489,-4.86434540263,1.83754193686,5.71356162139,25.5154274727,-3.94089856377,-7.67351750254,0.257827525424,4.68526819378,-4.76481981903,34.9034784799,-6.82293270229,-2.04851768464,32.8008362802
do_nothing,-20.5061547625,-17.5697697815,-11.0816726557,5.81520648326,11.2111968331,-16.5449234509,-20.644991173,-12.2972889907,4.97506375977,-17.1205463312,20.7547997105,-17.7603327959,-13.902811369,36.1066841908
do_nothing,-29.1237617053,-26.1034664948,-20.0693938088,5.6451542485,-0.934481508004,-25.0678365452,-29.4592221951,-20.7785453707,5.04845470899,-25.4695152121,8.44472154183,-24.6963704091,-21.6775287292,36.172885642
do_nothing,-33.247096007,-30.3001159729,-24.9113244633,5.21622361446,-10.1182617944,-29.3011225185,-33.8319677107,-24.9789479243,4.8971834533,-29.6409844401,-1.13005572358,-27.5185874092,-25.2922771614,32.77112546
do_nothing,-33.3314888666,-30.6384003565,-26.030904997,4.55695235787,-16.0618951915,-29.6780624624,-34.1218752474,-25.3582125747,4.52629623718,-30.0845787974,-7.60846825734,-26.7311967509,-25.3033477159,26.0059131566
do_nothing,-30.3780899694,-28.1291673467,-24.3862229616,3.70903735391,-19.0151434155,-27.169961339,-31.2391420658,-22.9361217321,3.95410653148,-27.7639538523,-11.1796995578,-23.3465076447,-22.7808560871,16.279268944
do_nothing,-25.7487497911,-24.1268379063,-21.2891496154,2.72363656422,-19.6795752205,-23.1046031005,-26.4752991069,-19.1033527687,3.21090080877,-23.9759898624,-12.5139758231,-18.7020886465,-19.111029904,4.23093411122
do_nothing,-20.9317764567,-20.093604205,-18.1748410684,1.65696152013,-19.0657699541,-18.9354196038,-21.2809335497,-15.3792824905,2.33653061964,-20.1239266011,-12.6212120925,-14.2321965188,-15.754562359,-9.33352830571
do_nothing,-17.294536672,-17.352745661,-16.3569382624,0.565670429405,-18.3062798725,-15.9969303167,-17.0256002493,-13.1540258866,1.37717804711,-17.4795192017,-12.6598407242,-11.2286618702,-13.9982897863,-23.5149463578
do_nothing,-15.860480018,-16.8686916183,-16.8056962523,-0.497414783886,-18.4531686584,-15.2837154515,-14.7764254227,-13.4541051982,0.381682995463,-16.9706545111,-13.7254446454,-10.6277622775,-14.7381633068,-37.3839607785
do_nothing,-17.1441515281,-19.0871209446,-19.9826126771,-1.48680144626,-20.2910988908,-17.2863116521,-15.1286846923,-16.7673760129,-0.602134000714,-19.0267439028,-16.6516668444,-12.855458,-18.3264983901,-50.0306659191
do_nothing,-21.0687573027,-23.8590971228,-25.7564802812,-2.3666826212,-24.1944816912,-21.9085867773,-18.1134713766,-22.9537540549,-1.53073646757,-23.5052520375,-21.8538725331,-17.7543679482,-24.5065811084,-60.6000824105
do_nothing,-26.9782401183,-30.4604130613,-33.413470278,-3.11197538899,-30.0505095866,-28.4787135854,-23.1957233291,-31.255273343,-2.36738225466,-29.7103023655,-29.2395202756,-24.6033998236,-32.4443974973,-68.3171621948
do_nothing,-33.7415134765,-37.7029015119,-41.759712987,-3.70804541604,-37.2599773806,-35.8517028758,-29.3621501332,-40.4040258374,-3.08365852025,-36.5003006917,-38.1991418432,-32.2269052362,-40.8525448504,-72.5077252707
do_nothing,-39.9326403486,-44.1206178689,-49.3009907773,-4.14930310159,-44.8161375952,-42.5876983421,-35.2850641232,-48.8118290418,-3.65996862632,-42.468044955,-47.679745185,-39.1767205112,-48.1874893442,-72.6224489098
do_nothing,-44.0593919853,-48.2025854577,-54.4726518658,-4.43700583088,-51.4501699213,-47.1789247783,-39.5367889815,-54.8132311066,-4.08505028699,-46.1658583107,-56.3301401997,-43.9594968167,-52.8903261253,-68.2695878803
do_nothing,-44.8054580174,-48.636865262,-55.885387157,-4.57669704866,-55.8218939148,-48.2909840533,-40.8218709578,-56.9255017974,-4.35473752123,-46.3415169424,-62.69696568,-45.2749450824,-53.6347045434,-59.2587552249
do_nothing,-41.2496406569,-44.529077393,-52.5501709325,-4.57574230531,-56.7275837656,-44.9821493194,-38.191827933,-54.0867335136,-4.47027345055,-42.1491343347,-65.4426435445,-42.2290131017,-49.5445464675,-45.653499708
do_nothing,-33.028905731,-35.5623695574,-44.0487673909,-4.44138130443,-53.2941384204,-36.8676819925,-31.2099684886,-45.8364344061,-4.43652327923,-33.3029238019,-63.5532003125,-34.4897867058,-40.3487323715,-27.8255336952
do_nothing,-20.4206163334,-22.0745866074,-30.6242574024,-4.17960997245,-45.1307842631,-24.2044452682,-20.041433025,-32.4115189369,-4.26042171305,-20.1503012315,-56.5053353104,-22.3624713662,-26.4493473399,-6.49937389412
do_nothing,-4.33134887116,-5.04071012773,-13.1778220188,-3.7950539062,-32.4156355104,-7.88294996807,-5.4548730357,-14.7430948624,-3.94992041808,-3.65281065983,-44.3680394363,-6.77186147423,-8.89293498072,17.2261361473
do_nothing,13.8064345216,14.0373453092,6.8282332734,-3.29181765332,-15.9038838376,10.6723441601,11.2646178484,5.64596541091,-3.51359100365,14.7229540599,-27.8235773819,10.8455729227,10.7514333348,41.8927078529
do_nothing,32.2149825711,33.3178635787,27.5475584827,-2.67512030316,3.1442709336,29.680177854,28.4785587551,26.8281685883,-2.96090587992,33.1889452067,-8.10431933001,28.7245094697,30.5897483436,65.7440761626
do_nothing,49.0029345623,50.8564465577,46.9817071919,-1.9533836839,23.1062752726,47.2315350996,44.4102156052,46.7164661494,-2.30308505113,49.8673305234,13.1459815311,45.0020520211,48.6477428748,86.8384640049
do_nothing,62.414533864,64.8590055188,63.2339136049,-1.14034763546,42.190695404,61.5376095351,57.3804042066,63.3321729064,-1.55428330081,63.0368018199,34.0670970859,57.9640017239,63.1273439279,103.208711388
do_nothing,71.060467965,73.9144056001,74.7487484717,-0.256762198921,58.6545821039,71.1612204991,66.0297682246,75.0575975727,-0.732817719465,71.358077724,52.8061763981,66.2706360659,72.6380920267,113.05816103
do_nothing,74.0973796445,77.1737812347,80.504066538,0.668746041008,71.0145858176,75.1989275199,69.49563686,80.8377826529,0.137887745852,74.0463859803,67.7394456269,69.1297365123,76.3706754888,114.972376059
do_nothing,71.3308692596,74.4515868623,80.12889345,1.59992280786,78.2228447243,73.388583576,67.518552525,80.3034715647,1.02893208499,70.9666640988,77.6613396753,66.3925571747,74.188485463,108.120753244
do_nothing,63.2282090119,66.2350662957,73.9318914149,2.49437614643,79.783991621,66.1281686409,60.4641407475,73.799133746,1.90635029066,62.6386770742,81.9157088712,58.5598867742,66.6253188375,92.4193388241
do_nothing,50.8402922455,53.6022616892,62.8381313056,3.30624404242,75.7982839799,54.4047758443,49.2585598944,62.3138149712,2.73239843454,50.1524901634,80.4523857502,46.6985948744,54.7911947725,68.6274885241
do_nothing,35.645555453,38.0619340978,48.245134067,3.98978856405,66.9265519314,39.6456374257,35.2484272589,47.3266612461,3.4676602483,35.0077768535,73.8033083166,32.2820933943,40.2016376183,38.3566887928
do_nothing,19.3397825832,21.3398767137,31.8205770254,4.50350821204,54.2837965452,23.5141571738,20.0069890018,30.5911128534,4.07378818589,18.9013577557,62.9839483776,16.9790563184,24.5567322367,3.97945193634
do_nothing,3.60319962462,5.14345338749,15.272031728,4.81425752565,39.2782262759,7.68145171112,5.1157916005,13.8902122657,4.51657961188,3.4945595812,49.3362868735,2.42192980579,9.50317677839,-31.5613606733
do_nothing,-10.1209750445,-9.06125044264,0.122482625865,4.90083156298,23.419859457,-6.39316786484,-8.0458477919,-1.20098376393,4.76901844548,-9.80557277637,34.3374936756,-10.0107938128,-3.58554103993,-65.0287521556
do_nothing,-20.8046932033,-20.2278347078,-12.4762627206,4.75651905344,8.12651664097,-17.6413856416,-18.4730782421,-13.5117106898,4.81389572812,-20.019795216,19.4026913047,-19.3671804158,-13.7790614063,-93.2263104905
do_nothing,-27.9451363963,-27.8389409899,-21.8665044286,4.39024691206,-5.44539922535,-25.4999923221,-25.6452776258,-22.4031754535,4.64566245443,-26.7007328285,5.71015721424,-25.2252056304,-20.6864104894,-113.354067287
do_nothing,-31.5924513355,-31.9326983685,-27.9281917909,3.82611479856,-16.5223479479,-29.9453496843,-29.5589766972,-27.8110307286,4.27125923213,-29.9540409985,-5.92686892393,-27.7134318873,-24.4663104459,-123.3421615
do_nothing,-32.2934907709,-33.0450285869,-31.0395306058,3.10132731964,-24.7720105786,-31.4457967309,-30.6813879059,-30.1991173681,3.70979669639,-30.3757837804,-15.1252596551,-27.4481476357,-25.7524003354,-122.118571689
do_nothing,-30.9625010836,-32.0791838468,-31.9636002925,2.26274400153,-30.2929959822,-30.8418826236,-29.8339859501,-30.4343099049,2.99110907743,-28.9176976859,-21.9273597867,-25.3986199279,-25.5070720978,-109.772789896
do_nothing,-28.7004866613,-30.1245887332,-31.6808513572,1.36245305756,-33.5406697755,-29.1749140634,-28.0259855632,-29.6039773512,2.15334898999,-26.7026455493,-26.730699419,-22.7027165078,-24.828247454,-87.5885343998
do_nothing,-26.5923567403,-28.2542783114,-31.1951096575,0.452907455465,-35.2032695511,-27.4916580227,-26.2648156997,-28.8058447577,1.23991292926,-24.8197282746,-30.1659331034,-20.4622871675,-24.7402497676,-57.9342039134
do_nothing,-25.5138593859,-27.3329329438,-31.3441841202,-0.417778578113,-36.0495329627,-26.6560946267,-25.373747594,-28.9437176513,0.296066397873,-24.1311789694,-32.9443759684,-19.5503288212,-26.0019716659,-24.0178290913
do_nothing,-25.9783461762,-27.8653585409,-32.6448979996,-1.20979687906,-36.7727917551,-27.1974746524,-25.8452872411,-30.5611182553,-0.634336242387,-25.1209631242,-35.7006145856,-20.4597485401,-28.9625410915,10.4686069935
do_nothing,-28.0469365457,-29.9086306075,-35.1965940427,-1.8944027299,-37.8563782485,-29.2179122403,-27.7530755763,-33.7386505992,-1.51167238436,-27.8083266607,-38.8558276062,-23.2168641888,-33.4871391882,41.7749437014
do_nothing,-31.3156799955,-33.0610583823,-38.6578232196,-2.45515623953,-39.4813329793,-32.3732966899,-30.7357813836,-38.0708481604,-2.30262879642,-31.7394118898,-42.5236997062,-27.3726861738,-38.9646935527,66.5372509376
do_nothing,-34.9813770376,-36.5291796573,-42.2994602271,-2.88755174216,-41.4904331409,-35.9298968557,-34.0552504853,-42.7259102141,-2.98137213899,-36.0580438468,-46.4737782447,-32.0730493641,-44.3965264938,82.1849395276
do_nothing,-37.9756242141,-39.2619803169,-45.1256435364,-3.19716220338,-43.4135760728,-38.8873915046,-36.7196973888,-46.5789734337,-3.52978688929,-39.6446887037,-50.1579148946,-36.1966200719,-48.5525897326,87.2575159962
do_nothing,-39.1462097517,-40.1312494111,-46.0434974598,-3.39662994282,-44.5499305117,-40.1489355988,-37.6527209762,-48.3983073782,-3.93689163881,-41.3022107157,-52.7954749022,-38.5394910122,-50.1715302393,81.5880303183
do_nothing,-37.4577552212,-38.1299571322,-44.0551135016,-3.50199165199,-44.0934664288,-38.7117647115,-35.8818855889,-47.0557371077,-4.19765813999,-39.9599404121,-53.5037993384,-38.0180244356,-48.1740507976,66.3264820118
do_nothing,-32.1805334271,-32.5578035702,-38.4418444812,-3.5289123611,-41.281805318,-33.8487787419,-30.7175672291,-41.7288651364,-4.31153078243,-34.8647519376,-51.453351796,-33.8588377125,-41.8568485838,43.7967640561
do_nothing,-23.0381069338,-23.165005161,-28.9120768831,-3.4894072392,-35.5447735833,-25.252947406,-21.8941489109,-32.0638108912,-4.28096672555,-25.7297213097,-46.0231128557,-25.7467268305,-31.0371382447,17.2024876712
do_nothing,-10.290538191,-10.2316395794,-15.6890922193,-3.38955114909,-26.6290914955,-13.121989827,-9.65122249708,-18.2730017043,-4.11028608915,-12.8171902757,-36.9316554097,-13.9075745041,-16.124963765,-9.78268524198
do_nothing,5.26051648236,5.4305079341,0.475439633606,-3.22852482302,-14.6792426801,1.83027809101,5.25864233658,-1.15213707771,-3.80504320289,3.05726362749,-24.3229269523,0.887069257705,1.88891461075,-33.4885782503
do_nothing,22.3469432872,22.5551213816,18.365730673,-2.99914477548,-0.261166453005,18.4386237442,21.6381147707,17.9876407302,-3.37201721372,20.6018056572,-8.79250916887,17.3954692901,21.5293902941,-50.7248591598
do_nothing,39.3797944739,39.5673636941,36.4357743452,-2.68980030299,15.6760185734,35.21855775,37.9806169566,37.4638795343,-2.81979201259,38.1962449768,8.65101652281,34.0511995561,41.0051260451,-59.1977633631
do_nothing,54.6452691549,54.7783695435,52.9944562744,-2.2875070279,31.89581356,50.5475187163,52.6545183784,55.4236003822,-2.15977259869,54.0904657,26.685337816,49.1583457223,58.4254187836,-57.8116840028
do_nothing,66.5235268716,66.6007568163,66.4159319245,-1.78161300511,47.0146873802,62.8695047185,64.1102321564,70.0728395463,-1.40738794249,66.6256539101,43.8210931058,61.1088885811,72.0357178323,-46.8146788549
do_nothing,73.6994714992,73.7546455074,75.3456466977,-1.16758535837,59.6674406142,70.8942528621,71.081074143,79.9029253626,-0.583175406998,74.4473204293,58.5757769487,68.5915814547,80.4390052079,-27.7672327789
do_nothing,75.3358181604,75.4351045585,78.8730467096,-0.450278490385,68.6744132213,73.762993723,72.7496459537,83.8820035875,0.286561477515,76.6803677253,69.6507215689,70.7629636675,82.7723135998,-3.33697475009
do_nothing,71.1842309956,71.417602244,76.6469127328,0.353856555438,73.1871488005,71.1577894576,68.8564927897,81.5854044227,1.16978006843,73.0419849859,76.0866104612,67.3567281068,78.8141435608,23.0546569237
do_nothing,61.6192523856,62.0870391087,68.9175842721,1.21602572041,72.7923297358,63.3397185012,59.7360950313,73.2472730473,2.02957225741,63.8771244969,77.376165853,58.7166208607,69.008457679,47.6877534317
do_nothing,47.5907943956,48.3869369649,56.5008650121,2.09601729189,67.5599007261,51.1114415435,46.275630568,59.7271323931,2.82591795909,50.1123696528,73.5189073804,45.7490459741,54.4027963673,67.0411890554
do_nothing,30.5024970195,31.6967107688,40.6695484474,2.94478020443,58.0293671703,35.710441349,29.8028572212,42.3970463618,3.51821066598,33.1355176587,65.0112454268,29.802949108,36.5101304269,78.2656505855
do_nothing,12.0335923611,13.6550000155,22.9886366511,3.7084082463,45.1370770791,18.6488952321,11.919319444,22.9660534583,4.06831561019,14.6184927395,52.7743914539,12.4946948328,17.1145862381,79.5691474576
do_nothing,-6.07043426489,-4.04566358691,5.1179818421,4.33308576066,30.0955657843,1.523323721,-5.69753244427,3.26696871855,4.44381951962,-3.69119305904,38.0312746558,-4.49692209595,-1.95135152858,70.4631319537
do_nothing,-22.2091948833,-19.864044759,-11.3898177336,4.77041115977,14.2425597092,-14.1791377933,-21.4958380837,-14.9646673681,4.62107604207,-20.1813589963,22.1505821676,-19.636715,-19.0271701918,51.8358678435
do_nothing,-35.1119234531,-32.5871302739,-25.268426602,4.98245255318,-1.11892363076,-27.2512449402,-34.2270813251,-30.2893852181,4.58765229004,-33.5597617471,6.48020587926,-31.7119169956,-32.812321475,25.8427975067
do_nothing,-43.970817062,-41.4554005663,-35.6698539727,4.94591345927,-14.8672881118,-36.8904049941,-43.0767682069,-41.714200185,4.34384089117,-42.9881713893,-7.80677466812,-39.9600873531,-42.497379781,-4.37175911488
do_nothing,-48.5067131632,-46.2210555153,-42.2331420336,4.65489254072,-26.1763555118,-42.7623931734,-47.7319588901,-48.7761341347,3.90301100093,-48.1495373618,-19.8329727077,-44.1303357577,-47.8226344579,-35.0845354481
do_nothing,-48.9606822914,-47.1338361118,-45.0827684187,4.12189493201,-34.5824509725,-44.9979648336,-48.3789672875,-51.5503992203,3.29071590676,-49.2418507752,-29.0892965048,-44.4720714876,-49.059191504,-62.4801198036
do_nothing,-46.0158483783,-44.8596390548,-44.7602048383,3.37697023823,-39.997638314,-44.1261546722,-45.6346328364,-50.5857877159,2.54263366578,-46.9029426328,-35.451650318,-41.6560450059,-46.9188896121,-83.1495603374
do_nothing,-40.6635749399,-40.3466388189,-42.1016334751,2.46508415152,-42.670228734,-40.9570539395,-40.4238822222,-46.7801009003,1.70156782571,-42.0801724091,-39.1425292612,-36.6420275338,-42.4093365264,-94.5342253893
do_nothing,-34.0356611255,-34.6607364913,-38.0822181822,1.44204572563,-43.1013430556,-36.4337024885,-33.8234973832,-41.2165547114,0.81385586614,-35.8663620102,-40.6463521772,-30.5146882035,-36.6577085071,-95.2559167592
do_nothing,-27.2283338709,-28.8158569783,-33.6515173223,0.369482254242,-41.9324316899,-31.4764711536,-26.896093844,-34.9868923456,-0.0743939555433,-29.3273921553,-40.5938683874,-24.3130754172,-30.7306153825,-85.2897619685
do_nothing,-21.1440758274,-23.6244509246,-29.5850640987,-0.690543403204,-39.8223738102,-26.843472316,-20.5387756067,-29.0278017567,-0.920801746342,-23.3470929639,-39.6349787009,-18.8791058968,-25.4768682059,-65.957780201
do_nothing,-16.3737530291,-19.5896433476,-26.3738512522,-1.68065462284,-37.3335922918,-23.0271967698,-15.3678015782,-23.9941615002,-1.68956075928,-18.5114991602,-38.3202903478,-14.7467094873,-21.4155682267,-39.7452819276
do_nothing,-13.1347253921,-16.8534804055,-24.1670165692,-2.55246051906,-34.8444834182,-20.201327451,-11.6544357179,-20.1861879661,-2.35333610873,-15.047830864,-37.0096067627,-12.0864225054,-18.6843195125,-9.96609005209
do_nothing,-11.2717212937,-15.2067748716,-22.7744674996,-3.26959954692,-32.5007640474,-18.2235391412,-9.31895496965,-17.5387837052,-2.89406310403,-12.8247829899,-35.8207307799,-10.7113657678,-17.0527665277,19.6772996927
do_nothing,-10.3176084702,-14.1565235903,-21.7268352527,-3.80927304046,-30.2118541145,-16.6913302658,-7.98082814801,-15.6716619659,-3.30264672775,-11.411220515,-34.6252271582,-10.1410568362,-15.9965543868,45.578803009
do_nothing,-9.60225052451,-13.0382060564,-20.3814292223,-4.1622197683,-27.6911626083,-15.0398825901,-7.05470830857,-13.9896253458,-3.57771516071,-10.1816163277,-33.0902125706,-9.71082355181,-14.8177277026,64.6938218115
do_nothing,-8.39071614743,-11.1537514093,-18.0560662122,-4.33128496339,-24.5322484726,-12.6648014417,-5.87533088189,-11.8150689696,-3.72370504969,-8.4498231181,-30.757989503,-8.70798873905,-12.7908619465,74.922551803
do_nothing,-6.02818998283,-7.91251202819,-14.1687557303,-4.3289093028,-20.3073262926,-9.04923136585,-3.83060653152,-8.53040599095,-3.7486364146,-5.60899861237,-27.1495133829,-6.51242375774,-9.3108143471,75.3616290469
do_nothing,-2.06853218683,-2.95265499795,-8.3607572465,-4.17398247841,-14.6712904786,-3.87470703125,-0.481633202076,-3.70725432513,-3.66195947427,-1.25519406911,-21.8741407672,-2.71898619565,-4.01832674769,66.3927329769
do_nothing,3.63347692487,3.77611119593,-0.583487327281,-3.88855782935,-7.45380148041,2.90187318426,4.34897976626,2.79808503995,-3.47282144652,4.72477180885,-14.7273483039,2.77730539161,3.11632565674,49.5992980054
