label,COUNTER,INTERPOLATED,AF3,F7,F3,FC5,T7,P7,O1,O2,P8,T8,FC6,F4,F8,AF4,RAW_CQ,GYROX,GYROY,MARKER,SYNC,TIME_STAMP_s,TIME_STAMP_ms,CQ_AF3,CQ_F7,CQ_F3,CQ_FC5,CQ_T7,CQ_P7,CQ_O1,CQ_O2,CQ_P8,CQ_T8,CQ_FC6,CQ_F4,CQ_F8,CQ_AF4,CQ_CMS,CQ_DRL
off_to_on,4134.00553648,4132.87421245,4118.45920641,4132.0303814,4137.49312752,4139.15072303,4136.8041213,4141.8955975,4136.46954589,4135.25218225,4130.07406095,4131.55305837,4157.05692361,619.230740438
off_to_on,4134.74521924,4133.75025739,4118.61979346,4131.94796766,4138.09115259,4140.05350397,4138.23378231,4143.83148961,4136.46953705,4136.75427246,4130.42277291,4132.99985087,4158.02403925,610.653233641
off_to_on,4135.60191831,4134.68766679,4118.8707298,4131.8615815,4138.66858262,4140.98400447,4139.6873823,4145.80706648,4136.46952927,4138.34184765,4130.77831729,4134.56717441,4159.02561017,603.366348838
off_to_on,4136.56309967,4135.66915155,4119.21469307,4131.77398594,4139.21803413,4141.92494188,4141.13249523,4147.77772626,4136.46952283,4139.98219412,4131.1352597,4136.2241786,4160.04213844,597.255808069
off_to_on,4137.61213737,4136.67517086,4119.65094112,4131.68818172,4139.73318294,4142.85884179,4142.53664502,4149.69764256,4136.46951796,4141.63988168,4131.4878389,4137.93698051,4161.05273312,592.103875275
off_to_on,4138.72877653,4137.68446159,4120.17533708,4131.60730864,4140.20891774,4143.76852765,4143.86825814,4151.52118819,4136.46951482,4143.27784128,4131.83011936,4139.66967932,4162.03574015,587.59746916
off_to_on,4139.88974889,4138.6746555,4120.78051669,4131.53453674,4140.64145285,4144.63760681,4145.09760937,4153.20439156,4136.4695135,4144.85852879,4132.15615789,4141.38545318,4162.9694193,583.340607319
off_to_on,4141.06951969,4139.62296504,4121.45619035,4131.47295158,4141.02839802,4145.45093737,4146.19772661,4154.70637078,4136.469514,4146.3451333,4132.46017871,4143.04769723,4163.8326443,578.870710284
off_to_on,4142.24113973,4140.50691513,4122.18956686,4131.42543819,4141.36878447,4146.19506114,4147.14522194,4155.99069087,4136.46951628,4147.70278592,4132.73675132,4144.62116074,4164.60560139,573.678133368
off_to_on,4143.37717161,4141.30509606,4122.96588071,4131.39456833,4141.66304775,4146.85858848,4147.92101791,4157.02659132,4136.46952019,4148.89972502,4132.98096497,4146.07304113,4165.27046142,567.228158075
off_to_on,4144.45065618,4141.9979108,4123.76900085,4131.38249599,4141.91296966,4147.43252238,4148.51094177,4157.79003565,4136.46952556,4149.90837464,4133.18859345,4147.37399491,4165.81200124,558.984569022
off_to_on,4145.43608239,4142.56828881,4124.58209522,4131.39086508,4142.12158243,4147.91051054,4148.90616467,4158.26454125,4136.46953214,4150.70629565,4133.35624389,4148.49902839,4166.21815122,548.4338712
off_to_on,4146.31032326,4143.00233866,4125.38832328,4131.42073366,4142.29303945,4148.28901642,4149.10346788,4158.44175583,4136.46953965,4151.27697339,4133.48148334,4149.42823564,4166.4804481,535.10916903
off_to_on,4147.05350145,4143.28991305,4126.17152794,4131.47251774,4142.43245766,4148.56740255,4149.10532425,4158.32175669,4136.46954776,4151.61041125,4133.56293795,4150.14735768,4166.59437533,518.612734444
off_to_on,4147.64975046,4143.42506247,4126.91689833,4131.54595761,4142.54573719,4148.74792219,4148.91978947,4157.91305979,4136.46955614,4151.70350697,4133.60036,4150.64814376,4166.55957699,498.636336023
off_to_on,4148.08784206,4143.40635781,4127.61157706,4131.64010835,4142.63936448,4148.83561892,4148.56020549,4157.23233708,4136.46956445,4151.5601968,4133.59466016,4150.9285042,4166.37993658,474.978483383
off_to_on,4148.36165579,4143.23706759,4128.24518782,4131.7533555,4142.72020558,4148.83813761,4148.04472591,4156.30385227,4136.46957238,4151.19136185,4133.54790341,4150.99245326,4166.06351728,447.557857173
off_to_on,4148.47047308,4142.92518106,4128.81026326,4131.88345568,4142.7952972,4148.76545386,4147.39568085,4155.15863673,4136.4695796,4150.61450092,4133.4632693,4150.84984888,4165.6223661,416.4223407
off_to_on,4148.41908544,4142.4832751,4129.30255765,4132.02760093,4142.871643,4148.62953303,4146.63880598,4153.8334375,4136.46958586,4149.85318309,4133.34497839,4150.51594496,4165.07218966,381.753238517
off_to_on,4148.21771303,4141.92822841,4129.72123321,4132.18250471,4142.95602334,4148.44393265,4145.80236586,4152.36947844,4136.46959092,4148.93630199,4133.19818804,4150.0107784,4164.43191415,343.864453475
off_to_on,4147.88173704,4141.28079226,4130.06891454,4132.34450633,4143.05482527,4148.22336448,4144.91620635,4150.81108266,4136.4695946,4147.89716116,4133.02886189,4149.35841932,4163.72314587,303.196589507
off_to_on,4147.43125535,4140.56503191,4130.3516103,4132.50969022,4143.17389919,4147.98323313,4144.01077293,4149.20420948,4136.4695968,4146.77242559,4132.843618,4148.58611709,4162.96955205,260.30614481
off_to_on,4146.89047723,4139.80765718,4130.57850665,4132.67401524,4143.31844636,4147.73916871,4143.11613244,4147.59496153,4136.46959745,4145.60097896,4132.64956101,4147.72337741,4162.19618356,215.85015146
off_to_on,4146.28697817,4139.03726413,4130.7616416,4132.83344925,4143.49293963,4147.5065699,4142.26103447,4146.02811826,4136.46959657,4144.42272887,4132.45410416,4146.80100737,4161.42876269,170.566795252
off_to_on,4145.65084064,4138.28351239,4130.9154737,4132.98410372,4143.70107736,4147.30017218,4141.47204603,4144.54574955,4136.46959422,4143.27740282,4132.26478685,4145.85016491,4160.69295922,125.252706614
off_to_on,4145.01370992,4137.57626424,4131.05636242,4133.12236328,4143.94576865,4147.13365402,4140.77278906,4143.1859589,4136.46959052,4142.20337698,4132.08909294,4144.90144699,4160.01367728,80.7377438707
off_to_on,4144.40779682,4136.94471194,4131.20197981,4133.24500541,4144.22914666,4147.0192915,4140.18330524,4141.98179869,4136.46958566,4141.23657674,4131.93427447,4143.98404743,4159.41437391,37.8581886608
off_to_on,4143.8648597,4136.41651937,4131.37067534,4133.34930561,4144.55260646,4146.96766954,4139.71956645,4140.96039148,4136.46957984,4140.4094835,4131.80718483,4143.12501002,4158.91642764,-2.57066362374
off_to_on,4143.41519836,4136.01700235,4131.58081642,4133.43312432,4144.91686341,4146.98745603,4139.39314226,4140.14228105,4136.46957332,4139.75027641,4131.71412418,4142.34859634,4158.53857263,-39.7815104246
off_to_on,4143.08669151,4135.76837068,4131.85012756,4133.49497235,4145.3220284,4147.08524267,4139.2110293,4139.54102697,4136.46956637,4139.28213135,4131.66069945,4141.67578171,4158.2964107,-73.0806512999
off_to_on,4142.90390822,4135.68905308,4132.19505094,4133.53405268,4145.76769548,4147.26545427,4139.17564087,4139.1630466,4136.46955928,4139.02269299,4131.65170076,4141.12388641,4158.20201154,-101.871257336
off_to_on,4142.88732226,4135.79312473,4132.63015092,4133.5502771,4146.25303695,4147.53032603,4139.28495011,4139.00770041,4136.46955232,4138.98372994,4131.6909957,4140.70634466,4158.26360919,-125.673445534
off_to_on,4143.05265606,4136.0898556,4133.16758348,4133.54425761,4146.77690043,4147.87994604,4139.53277516,4139.0676088,4136.46954578,4139.17097748,4131.7814435,4140.43260944,4158.48540127,-144.140420923
off_to_on,4143.41037805,4136.58339562,4133.81665017,4133.51727294,4147.3379018,4148.31235848,4139.9091908,4139.32918171,4136.4695399,4139.58416677,4131.92483063,4140.30818725,4158.86745601,-157.07008961
off_to_on,4143.96537266,4137.27260974,4134.58345306,4133.47121194,4147.93450819,4148.82372049,4140.40104704,4139.77333584,4136.46953491,4140.21723438,4132.12182978,4140.33479333,4159.40572981,-164.411700551
off_to_on,4144.71679696,4138.15107195,4135.47066358,4133.40849624,4148.56510515,4149.40850412,4140.99257172,4140.37636811,4136.46953097,4141.0587002,4132.37198345,4140.51061452,4160.09219599,-166.267237813
off_to_on,4145.65813119,4139.2072224,4136.47741387,4133.33198541,4149.22804289,4150.0597329,4141.66603179,4141.11094905,4136.46952822,4142.09219676,4132.67371325,4140.83066347,4160.91508223,-162.887458617
off_to_on,4146.77742316,4140.42468593,4137.59931416,4133.24486864,4149.92165702,4150.76924141,4142.40242623,4141.94719613,4136.46952676,4143.29712833,4133.02435487,4141.28720626,4161.85921106,-154.662657154
off_to_on,4148.05771908,4141.78274469,4138.82859502,4133.15054724,4150.64426035,4151.52794582,4143.18218346,4142.85378514,4136.4695266,4144.64943425,4133.42021855,4141.87024293,4162.90643467,-142.108426664
off_to_on,4149.47766586,4143.25695155,4140.15436812,4133.05251275,4151.39410356,4152.32611335,4143.985837,4143.79905746,4136.46952772,4146.12242797,4133.85667375,4142.56802016,4164.0361519,-125.846882233
off_to_on,4151.01226303,4144.81986551,4141.56299482,4132.95422509,4152.16930452,4153.15361997,4144.79465536,4144.75208285,4136.46953006,4147.68768136,4134.32825636,4143.36755453,4165.22589264,-106.583980977
off_to_on,4152.63373625,4146.44188583,4143.03854781,4132.85899556,4152.96774801,4154.00018674,4145.59120484,4145.68364058,4136.4695335,4149.31592336,4134.82879604,4144.25514573,4166.4519521,-85.0837272653
off_to_on,4154.31249892,4148.09215705,4144.56334776,4132.76987863,4153.7869601,4154.85558758,4146.35982765,4146.56708648,4136.46953787,4150.97792204,4135.35156074,4145.21686012,4167.6900559,-62.1401770211
off_to_on,4156.01816479,4149.7395147,4146.11855433,4132.6895765,4154.62396386,4155.70982363,4147.08702185,4147.3790788,4136.46954299,4152.6453211,4135.889415,4146.23896721,4168.91603524,-38.548255316
off_to_on,4157.72057239,4151.35343918,4147.68478925,4132.62035942,4155.47512546,4156.55326179,4147.76171395,4148.10014256,4136.46954863,4154.29140386,4136.43498813,4147.30831372,4170.10649111,-15.074467993
off_to_on,4159.3907814,4152.90498481,4149.24276766,4132.56400461,4156.33600116,4157.37673739,4148.37541942,4148.71505842,4136.46955456,4155.89176184,4136.98084806,4148.41262324,4171.23942646,7.57138803416
off_to_on,4161.00200244,4154.36765155,4150.77391386,4132.52175534,4157.20119731,4158.17162355,4148.92229088,4149.21306954,4136.46956054,4157.42484862,4137.51967647,4149.54071241,4172.29482625,28.7624331146
off_to_on,4162.53042482,4155.71816838,4152.26093773,4132.49430141,4158.06425522,4158.92987077,4149.39905766,4149.58790714,4136.46956633,4158.87240505,4138.04444025,4150.68261878,4173.25516646,47.9778147125
off_to_on,4163.95591088,4156.93716082,4153.68834993,4132.48178091,4158.91757299,4159.64402249,4149.80486445,4149.83764247,4136.46957171,4160.2197471,4138.5485548,4151.82963959,4174.1058358,64.8218082672
off_to_on,4165.2625317,4158.00967856,4155.04289671,4132.48380279,4159.75237489,4160.30721265,4150.14102073,4149.96437943,4136.46957647,4161.45591314,4139.02603428,4152.97428486,4174.83545664,79.0381437625
off_to_on,4166.4389254,4158.92556495,4156.31389842,4132.49948858,4160.55873733,4160.91315199,4150.41067535,4149.97380782,4136.46958044,4162.57367266,4139.47162433,4154.1101523,4175.43609519,90.5189706948
off_to_on,4167.47846675,4159.67965503,4157.49347983,4132.52753122,4161.32567814,4161.45610939,4150.61843373,4149.87464135,4136.46958347,4163.56940341,4139.88091316,4155.2317348,4175.90335463,99.3080762627
off_to_on,4168.3792444,4160.27179502,4158.57668446,4132.56626825,4162.04131256,4161.93089404,4150.76993625,4149.67796787,4136.46958547,4164.44284785,4140.2504171,4156.33417433,4176.236349,105.598190344
off_to_on,4169.14384964,4160.70668223,4159.56146976,4132.61376615,4162.69307681,4162.33284271,4150.87141706,4149.39654147,4136.46958638,4165.19676382,4140.5776378,4157.41297824,4176.4375595,109.722439372
off_to_on,4169.77898811,4160.99353102,4160.44858422,4132.66791227,4163.26801634,4162.65781617,4150.92926229,4149.0440473,4136.46958618,4165.83648718,4140.86108863,4158.46371603,4176.51257949,112.14024007
off_to_on,4170.29493317,4161.1455767,4161.24133273,4132.72651056,4163.7531333,4162.90220735,4150.94958626,4148.6343701,4136.46958492,4166.36942707,4141.10028949,4159.48171596,4176.46975856,113.418142137
off_to_on,4170.70484576,4161.17943586,4161.94524066,4132.78737722,4164.13578493,4163.06296397,4150.93784308,4148.18089627,4136.46958265,4166.80451647,4141.29573013,4160.46178138,4176.31976077,114.206327899
off_to_on,4171.02399136,4161.11434722,4162.56763172,4132.84843252,4164.40412145,4163.13762707,4150.89848994,4147.6958779,4136.46957949,4167.15164173,4141.44880367,4161.39794635,4176.07505519,115.211650423
off_to_on,4171.26888825,4160.97132197,4163.11713823,4132.90778519,4164.54754972,4163.12438601,4150.83471626,4147.18988355,4136.4695756,4167.42107517,4141.56171301,4162.28328848,4175.74936,117.168232243
off_to_on,4171.45642407,4160.77223626,4163.60316567,4132.96380602,4164.55720613,4163.02214902,4150.74825024,4146.67135719,4136.46957112,4167.62293384,4141.63735393,4163.10981465,4175.35706269,120.806747014
off_to_on,4171.60297873,4160.53890101,4164.03533558,4133.01518792,4164.42642017,4162.83062684,4150.63925134,4146.14630178,4136.46956626,4167.76668579,4141.67917929,4163.86843153,4174.91263974,126.823562362
off_to_on,4171.72359093,4160.29214544,4164.42293235,4133.06099018,4164.15114864,4162.55042546,4150.50629359,4145.61809889,4136.46956122,4167.86072255,4141.69104965,4164.54900879,4174.43009845,135.850933407
off_to_on,4171.83120392,4160.05095069,4164.77437957,4133.1006652,4163.73035937,4162.18314227,4150.34644038,4145.0874699,4136.46955619,4167.91201308,4141.67707585,4165.14053821,4173.92246235,148.429401949
off_to_on,4171.93602222,4159.83166739,4165.09677057,4133.13406702,4163.16634347,4161.73145896,4150.15540762,4144.55257838,4136.46955139,4167.92585048,4141.64145938,4165.63138626,4173.4013192,164.983475681
off_to_on,4172.04500649,4159.6473483,4165.39547532,4133.16144141,4162.46493633,4161.19922302,4149.92780777,4144.00926685,4136.46954698,4167.90569856,4141.58833638,4166.009633,4172.87644743,185.801538328
off_to_on,4172.16152724,4159.5072216,4165.67384237,4133.18339831,4161.6356294,4160.59150959,4149.65746389,4143.45141531,4136.46954315,4167.8531404,4141.52163065,4166.2634846,4172.35553344,211.020782196
off_to_on,4172.28519177,4159.4163252,4165.93301022,4133.20086806,4160.69155823,4159.91465521,4149.33777955,4142.87140338,4136.46954002,4167.76792695,4141.44492075,4166.3817427,4171.84398794,240.61776494
off_to_on,4172.41185096,4159.3753158,4166.17183745,4133.21504359,4159.64935678,4159.17625552,4148.96214798,4142.26065399,4136.46953772,4167.64811943,4141.36132578,4166.35431041,4171.34486573,274.404978252
off_to_on,4172.53378526,4159.38045983,4166.38695569,4133.22731151,4158.5288734,4158.38512069,4148.52438199,4141.6102332,4136.4695363,4167.49031579,4141.27341344,4166.17271265,4170.85888919,312.03358618
off_to_on,4172.64006132,4159.42380646,4166.57294405,4133.23917515,4157.35275039,4157.5511843,4148.01914542,4140.91147909,4136.46953581,4167.28994892,4141.18313378,4165.83060727,4170.38457193,353.002255955
off_to_on,4172.71704398,4159.49353625,4166.72261835,4133.25217324,4156.14587554,4156.68536383,4147.44236673,4140.15663191,4136.46953625,4167.04164192,4141.09178077,4165.32426397,4169.91843605,396.671773196
off_to_on,4172.74904165,4159.57447258,4166.82742323,4133.2677977,4154.93472023,4155.79937394,4146.79161625,4139.33943818,4136.46953759,4166.73960455,4140.99998331,4164.65298865,4169.45531278,442.284913407
off_to_on,4172.71905769,4159.648737,4166.87791122,4133.28741436,4153.74658446,4154.90549602,4146.06642982,4138.45570241,4136.46953974,4166.37805343,4140.907726,4163.81947311,4168.9887141,488.99084163
off_to_on,4172.6096164,4159.69652451,4166.86428814,4133.31219011,4152.60877383,4154.01630975,4145.26856355,4137.50376219,4136.4695426,4165.95163828,4140.81439889,4162.83005205,4168.51126009,535.873141441
off_to_on,4172.40362888,4159.69696984,4166.77700161,4133.34302962,4151.54773693,4153.14439458,4144.40216689,4136.48486516,4136.46954606,4165.45585615,4140.71887428,4161.69485285,4168.01514509,581.980439437
off_to_on,4172.08526284,4159.62907248,4166.60734665,4133.38052423,4150.5881944,4152.30201031,4143.47386385,4135.40342941,4136.46954995,4164.88743599,4140.61960771,4160.42782629,4167.49262411,626.358495038
off_to_on,4171.64077967,4159.47264528,4166.34806102,4133.42491525,4149.75229231,4151.50076764,4142.49273596,4134.26717327,4136.46955412,4164.24467689,4140.51475871,4159.04665073,4166.93649996,668.082571819
off_to_on,4171.05930378,4159.20925027,4165.99388313,4133.47607276,4149.05881304,4150.75130023,4141.47020378,4133.08710473,4136.4695584,4163.52772503,4140.40232681,4157.57250594,4166.34059155,706.288899291
off_to_on,4170.33349142,4158.82308547,4165.54204627,4133.5334907,4148.52247586,4150.06295099,4140.41980864,4131.87736689,4136.4695626,4162.73877706,4140.2802968,4156.02971802,4165.70016427,740.204072761
off_to_on,4169.46007054,4158.30178776,4164.99268564,4133.59629832,4148.15335727,4149.44348515,4139.35690016,4130.65494175,4136.46956658,4161.88220075,4140.14678763,4154.44528172,4165.01230521,769.171320014
off_to_on,4168.44022818,4157.63711994,4164.34913777,4133.66328712,4147.9564573,4148.89884241,4138.29823997,4129.43922122,4136.46957016,4160.96456778,4140.00019868,4152.84827218,4164.27622779,792.672683984
off_to_on,4167.27982808,4156.82551396,4163.61811633,4133.7329522,4147.93143286,4148.43293946,4137.26153574,4128.25146034,4136.46957323,4159.99459752,4139.83934757,4151.26916324,4163.49349348,810.346327286
off_to_on,4165.98944786,4155.86844741,4162.80975345,4133.80354617,4148.07251313,4148.04753288,4136.26492329,4127.11413331,4136.46957568,4158.98301478,4139.66359383,4149.73907415,4162.66814117,821.99835088
off_to_on,4164.5842319,4154.77263639,4161.9375008,4133.87314331,4148.36860511,4147.74215035,4135.3264171,4126.05021766,4136.4695774,4157.94232834,4139.47294353,4148.28897064,4161.80671823,827.608725919
off_to_on,4163.08356346,4153.55003466,4161.01789041,4133.93971138,4148.80358993,4147.51409569,4134.46335125,4125.08243536,4136.46957837,4156.88654042,4139.26813045,4146.94884863,4160.91821111,827.331157424
off_to_on,4161.51056616,4152.2176361,4160.07016096,4134.00118814,4149.35680338,4147.35853062,4133.69183339,4124.23248192,4136.46957854,4155.83079962,4139.05067025,4145.7469301,4160.0138765,821.486924056
off_to_on,4159.89145185,4150.79708505,4159.11576056,4134.05555965,4150.00368666,4147.268633,4133.0262334,4123.52027456,4136.46957794,4154.79101143,4138.82288495,4144.70890022,4159.10697778,810.552960964
off_to_on,4158.25473777,4149.31410604,4158.17774234,4134.10093718,4150.71658648,4147.23582816,4132.47872657,4122.96324934,4136.4695766,4153.78342064,4138.58789585,4143.85721253,4158.21243433,795.14466226
off_to_on,4156.63036084,4147.79777122,4157.28007363,4134.13563013,4151.46567776,4147.25008683,4132.05890755,4122.57573425,4136.46957459,4152.82417966,4138.34958403,4143.21048535,4157.34639398,775.994068491
off_to_on,4155.04872177,4146.27962997,4156.44688351,4134.15821203,4152.21997679,4147.30027996,4131.77348851,4122.3684216,4136.46957201,4151.92891598,4138.11251856,4142.78300877,4156.52574168,753.924267565
off_to_on,4153.53969394,4144.79273028,4155.70167646,4134.1675777,4152.94840895,4147.37457825,4131.62609117,4122.34795896,4136.46956896,4151.11231116,4137.88185372,4142.58437629,4155.7675596,729.820968604
off_to_on,4152.13163485,4143.37056611,4155.06654185,4134.16298927,4153.6208923,4147.46088182,4131.61713868,4122.51667335,4136.46956559,4150.38770318,4137.6631975,4142.61925104,4155.08855629,704.602300784
off_to_on,4150.8504371,4142.04598751,4154.56138954,4134.14410985,4154.20939711,4147.54726337,4131.74384974,4122.87243811,4136.46956203,4149.76672278,4137.46245502,4142.88727109,4154.50448384,679.187940624
off_to_on,4149.71865526,4140.85011181,4154.20324118,4134.11102385,4154.68894157,4147.62240716,4132.0003329,4123.40868628,4136.46955842,4149.25897334,4137.28565129,4143.38309362,4154.02956291,654.468681826
off_to_on,4148.75474155,4139.81127429,4154.00560459,4134.06424332,4155.038486,4147.67602554,4132.37777577,4124.114569,4136.46955491,4148.8717623,4137.13873866,4144.09657299,4153.67593586,631.277531447
off_to_on,4147.97241923,4138.95405579,4153.97795592,4134.00470022,4155.24169076,4147.69923569,4132.86472025,4124.97525171,4136.46955164,4148.60989093,4137.02739531,4145.01306367,4153.45316777,610.36334469
off_to_on,4147.38021758,4138.29842203,4154.12534996,4133.93372493,4155.28750862,4147.68488051,4133.44741286,4125.97233656,4136.46954873,4148.47550758,4136.95682137,4146.11383542,4153.36781388,592.36790186
off_to_on,4146.98118592,4137.85900558,4154.44817421,4133.85301159,4155.17058768,4147.62778066,4134.11021681,4127.08439457,4136.46954629,4148.46802777,4136.9315398,4147.37658485,4153.42307013,577.807192301
off_to_on,4146.77279697,4137.64455611,4154.94205687,4133.76457135,4154.8914686,4147.52490723,4134.8360711,4128.28758787,4136.4695444,4148.58412222,4136.95520921,4148.77602468,4153.6185202,567.057507684
off_to_on,4146.74704262,4137.65757799,4155.59793255,4133.67067482,4154.45656716,4147.375468,4135.60698067,4129.55635914,4136.46954313,4148.81777213,4137.03045527,4150.2845297,4153.94998908,560.346764358
off_to_on,4146.89071755,4137.89416754,4156.40226387,4133.57378531,4153.87794112,4147.18090358,4136.40452096,4130.86416332,4136.46954252,4149.16038851,4137.15872704,4151.8728171,4154.40950922,557.751275945
off_to_on,4147.18587865,4138.34405488,4157.33741082,4133.4764849,4153.17284859,4146.94479305,4137.21034019,4132.18421569,4136.46954257,4149.60099075,4137.34018355,4153.51063846,4154.98540104,559.197989755
off_to_on,4147.61046208,4138.99084833,4158.38213452,4133.3813954,4152.36311247,4146.67267248,4138.00664311,4133.49022966,4136.46954327,4150.12643824,4137.5736152,4155.1674609,4155.66246617,564.471992432
off_to_on,4148.13903345,4139.81247262,4159.51221713,4133.29109654,4151.47431331,4146.37177286,4138.77664082,4134.75711891,4136.46954458,4150.72170763,4137.85640357,4156.81311706,4156.42228775,573.228891057
off_to_on,4148.7436426,4140.78178613,4160.70117564,4133.20804392,4150.53483919,4146.05068742,4139.5049524,4135.96163979,4136.46954643,4151.37020762,4138.18452209,4158.41840549,4157.24362921,585.011497226
off_to_on,4149.39475088,4141.86735678,4161.92104446,4133.13448934,4149.57482692,4145.71898077,4140.17794631,4137.08295319,4136.46954874,4152.05412303,4138.55257903,4159.95562673,4158.10292007,599.270094422
off_to_on,4150.06219701,4143.03437172,4163.14319958,4133.07240618,4148.62503381,4145.38675528,4140.78401197,4138.10308869,4136.4695514,4152.75477969,4138.95390291,4161.39904393,4158.9748148,615.385457419
off_to_on,4150.71616686,4144.24565161,4164.33919615,4133.02342258,4147.71568195,4145.06419216,4141.31375534,4139.00729869,4136.46955431,4153.45302225,4139.38066955,4162.72526099,4159.83280914,632.693714047
off_to_on,4151.32813341,4145.46273797,4165.4815914,4132.98876515,4146.87531913,4144.76108629,4141.76011569,4139.7842946,4136.46955735,4154.12959716,4139.82406835,4163.9135154,4160.64989659,650.512091623
off_to_on,4151.87173456,4146.6470192,4166.54472575,4132.96921557,4146.12974049,4144.48639524,4142.11840396,4140.42636258,4136.46956038,4154.76553412,4140.2745048,4164.94588683,4161.39924698,668.164575955
off_to_on,4152.32355982,4147.7608608,4167.50543654,4132.96508215,4145.50101328,4144.24782256,4142.3862666,4140.92936058,4136.4695633,4155.34251927,4140.72183439,4165.80742555,4162.05488843,685.006534886
off_to_on,4152.66382054,4148.76870472,4168.34368187,4132.97618804,4145.0066442,4144.05145497,4142.56358129,4141.29260324,4136.46956598,4155.84325431,4141.15562249,4166.48620816,4162.59237407,700.447420291
off_to_on,4152.87688362,4149.63810481,4169.04305516,4133.00187683,4144.65892297,4143.90147079,4142.65229378,4141.51864542,4136.46956833,4156.25179635,4141.56542332,4166.97332967,4162.98941572,713.970756761
off_to_on,4152.95165409,4150.34066744,4169.5911755,4133.04103581,4144.46446983,4143.79993431,4142.65620669,4141.61297925,4136.46957026,4156.55387403,4141.94107056,4167.26284355,4163.22646774,725.150745145
off_to_on,4152.88179804,4150.8528698,4169.97994319,4133.09213607,4144.42400581,4143.74668696,4142.58073279,4141.58366274,4136.4695717,4156.73717629,4142.27297137,4167.35166206,4163.2872463,733.664948032
off_to_on,4152.66580354,4151.15673277,4170.20565515,4133.15328785,4144.53235601,4143.73934166,4142.43262596,4141.44090023,4136.46957261,4156.79161094,4142.55239537,4167.2394297,4163.15917136,739.302673476
off_to_on,4152.30688316,4151.24032983,4170.2689795,4133.22230896,4144.77868623,4143.77338208,4142.21970356,4141.19659628,4136.46957296,4156.70953021,4142.77174977,4166.92838203,4162.8337208,741.968825883
off_to_on,4151.81272664,4151.09811843,4170.17479369,4133.29680343,4145.14696335,4143.84236304,4141.95057287,4140.86390373,4136.46957275,4156.48592071,4142.92483201,4166.42320041,4162.30668843,741.683147255
off_to_on,4151.19511723,4150.7310856,4169.93189478,4133.37424736,4145.61662055,4143.93820379,4141.63437314,4140.45678554,4136.469572,4156.11855477,4143.00705145,4165.73087101,4161.57833951,738.574929446
off_to_on,4150.46942842,4150.14670435,4169.55259458,4133.45207861,4146.16339955,4144.05156106,4141.28054197,4139.98960671,4136.46957075,4155.60809959,4143.01561195,4164.86055355,4160.65345964,732.873438046
off_to_on,4149.65402087,4149.35870276,4169.05221555,4133.527787,4146.7603348,4144.17226488,4140.8986125,4139.47676921,4136.46956906,4154.95817999,4142.94964815,4163.82346212,4159.54129478,724.894445942
off_to_on,4148.76956149,4148.3866524,4168.44850638,4133.59900171,4147.3788381,4144.28979701,4140.49804429,4138.93239865,4136.46956701,4154.17538995,4142.81030924,4162.6327575,4158.25538245,715.023422545
off_to_on,4147.83828827,4147.25538815,4167.76099791,4133.66357255,4147.98983841,4144.39378933,4140.0880883,4138.37008762,4136.46956468,4153.26924823,4142.60078518,4161.3034474,4156.81327638,703.696055777
off_to_on,4146.88324572,4145.9942759,4167.01032223,4133.71964201,4148.56492907,4144.4745186,4139.67768364,4137.802697,4136.46956218,4152.25209347,4142.32627215,4159.85228909,4155.23616914,691.376891931
off_to_on,4145.9275157,4144.63634944,4166.21751781,4133.7657057,4149.07747528,4144.52337395,4139.27538198,4137.2422133,4136.46955961,4151.13891527,4141.9938753,4158.29768681,4153.54841971,678.536957796
off_to_on,4144.99346826,4143.21734112,4165.40334425,4133.8006588,4149.50363697,4144.53327461,4138.88929355,4136.69965673,4136.46955707,4149.94711868,4141.61244918,4156.65957502,4151.77699464,665.63127593
off_to_on,4144.10205542,4141.77463408,4164.58762837,4133.82382731,4149.82326714,4144.49901801,4138.52704756,4136.18503152,4136.46955465,4148.69622056,4141.19237771,4154.95927735,4149.95083337,653.077194748
off_to_on,4143.27216849,4140.3461657,4163.78866212,4133.83498295,4150.02065209,4144.41754142,4138.19575937,4135.70730751,4136.46955246,4147.40747799,4140.74529784,4153.21933086,4148.10014966,641.23442905
off_to_on,4142.52007682,4138.96931313,4163.02267005,4133.83434133,4150.08506738,4144.28808481,4137.90199698,4135.27442079,4136.46955058,4146.10345103,4140.28377328,4151.46326612,4146.25568339,630.387644071
off_to_on,4141.85896329,4137.6797935,4162.30336184,4133.82254371,4150.01113166,4144.11224752,4137.65174166,4134.89328214,4136.46954907,4144.80750578,4139.82092727,4149.71533639,4144.44791932,620.732319171
off_to_on,4141.29856885,4136.51061126,4161.64158234,4133.80062277,4149.79894832,4143.89393625,4137.45033985,4134.56978422,4136.46954798,4143.54326742,4139.37004542,4148.00019317,4142.70629224,612.36449942
off_to_on,4140.8449557,4135.49108542,4161.04506884,4133.76995375,4149.45403335,4143.63920723,4137.30244631,4134.3088022,4136.46954736,4142.33403733,4138.94416203,4146.34250936,4141.05840029,605.274889456
off_to_on,4140.50039529,4134.64598741,4160.51832182,4133.73219267,4148.98703579,4143.35601005,4137.21196062,4134.11418516,4136.4695472,4141.20219123,4138.55564422,4144.76655591,4139.52924939,599.347570291
off_to_on,4140.26338346,4133.99481801,4160.06259162,4133.68920399,4148.41326463,4143.05384489,4137.18196053,4133.98873824,4136.46954752,4140.16857758,4138.21578907,4143.29574078,4138.14055234,594.363433072
off_to_on,4140.12878167,4133.55124754,4159.67598008,4133.6429802,4147.75204313,4142.74334845,4137.214636,4133.93419742,4136.46954828,4139.25193674,4137.93444886,4141.95212242,4136.91010543,590.008231861
off_to_on,4140.08807906,4133.32273945,4159.35365219,4133.59555664,4147.02591731,4142.43582637,4137.31122839,4133.95119965,4136.46954946,4138.4683614,4137.71969893,4140.75591227,4135.85126453,585.88496804
off_to_on,4140.12976679,4133.31037183,4159.08814959,4133.54892462,4146.25975036,4142.14275222,4137.4719788,4134.03925263,4136.46955098,4137.83081869,4137.57756141,4139.72498261,4134.97254064,581.530139909
off_to_on,4140.23981223,4133.508865,4158.86979424,4133.50494618,4145.47973852,4141.87525398,4137.69608951,4134.19670863,4136.46955279,4137.34875254,4137.51179643,4138.87439752,4134.27733213,576.433229616
off_to_on,4140.40221715,4133.90681677,4158.68716753,4133.46527393,4144.71238647,4141.64360953,4137.98170218,4134.42074713,4136.46955481,4137.02778282,4137.52376966,4138.21598453,4133.7638069,570.058662695
off_to_on,4140.59964109,4134.48713928,4158.52764687,4133.43127895,4143.98348105,4141.45677206,4138.32589545,4134.70737122,4136.46955695,4136.86951426,4137.61240237,4137.75796441,4133.4249432,561.869368632
off_to_on,4140.81406799,4135.22768397,4158.3779799,4133.40398982,4143.31710215,4141.321945,4138.72470452,4135.05142239,4136.46955912,4136.87146485,4137.77420684,4137.50465505,4133.24873239,551.350998702
off_to_on,4141.02749284,4136.10203413,4158.22487437,4133.38404519,4142.73470726,4141.24422434,4139.17316508,4135.44661851,4136.46956125,4137.02711935,4138.00340673,4137.4562641,4133.21854185,538.035822772
off_to_on,4141.2226035,4137.08043795,4158.05558122,4133.37166216,4142.25432392,4141.22632338,4139.66538345,4135.88561968,4136.46956324,4137.32610954,4138.29213887,4137.60878223,4133.31363042,521.525331418
off_to_on,4141.38343313,4138.13084952,4157.85844873,4133.36662193,4141.88987954,4141.26839211,4140.19463448,4136.36012606,4136.46956502,4137.75451829,4138.63072961,4137.95398664,4133.50980362,501.510613429
off_to_on,4141.49595938,4139.22004099,4157.62342644,4133.36827366,4141.65069325,4141.3679392,4140.75348702,4136.86101058,4136.46956652,4138.29530023,4139.00803657,4138.47956032,4133.78019058,477.789659968
off_to_on,4141.54862859,4140.31474637,4157.34249955,4133.37555678,4141.54114797,4141.51986065,4141.33395578,4137.378488,4136.46956769,4138.9288073,4139.41184351,4139.16932903,4134.09611974,450.280862044
off_to_on,4141.53278561,4141.38279592,4157.01003743,4133.387041,4141.560554,4141.71657452,4141.92767661,4137.90231932,4136.46956849,4139.63340307,4139.82929432,4140.00361331,4134.42806613,419.032113045
off_to_on,4141.44299401,4142.3942006,4156.62304305,4133.4009827,4141.70320754,4141.94825653,4142.5261006,4138.42204839,4136.4695689,4140.38614617,4140.24735049,4140.95968855,4134.74663931,384.225096987
off_to_on,4141.27723506,4143.32214751,4156.1812944,4133.41539543,4141.95864032,4142.20316752,4143.12070143,4138.92726472,4136.46956891,4141.16351955,4140.65325521,4142.01234159,4135.02357849,346.174529291
off_to_on,4141.03697894,4144.14387084,4155.68737373,4133.42813186,4142.31204885,4142.46806005,4143.7031892,4139.40788476,4136.46956853,4141.94218041,4141.03498718,4143.13450825,4135.23271981,305.322312704
off_to_on,4140.72712651,4144.84136726,4155.14658453,4133.43697395,4142.744885,4142.72864837,4144.26572297,4139.8544418,4136.46956777,4142.69970421,4141.38168703,4144.29797292,4135.35090063,262.226768867
off_to_on,4140.35582448,4145.4019304,4154.56676085,4133.43972777,4143.2355837,4142.97012401,4144.80111405,4140.25837363,4136.46956669,4143.41529605,4141.68404036,4145.4741082,4135.35876726,217.547297956
off_to_on,4139.93416178,4145.81848559,4153.95797729,4133.43431971,4143.7603981,4143.1776974,4145.30301229,4140.61229639,4136.46956532,4144.07044365,4141.93460266,4146.63463137,4135.24145478,172.024997388
off_to_on,4139.47575848,4146.08971358,4153.33217124,4133.41889014,4144.29430914,4143.33714526,4145.76606814,4140.91025264,4136.46956373,4144.64948828,4142.12805373,4147.75235301,4134.98911229,126.459928657
off_to_on,4138.99626245,4146.21995937,4152.70269192,4133.39188126,4144.81197344,4143.43534313,4146.18606452,4141.14792274,4136.46956199,4145.14009221,4142.26137126,4148.80189342,4134.59725172,81.6858527691
off_to_on,4138.51277173,4146.21893008,4152.08379267,4133.35211572,4145.2886727,4143.46076312,4146.56001297,4141.32278887,4136.46956017,4145.53358538,4142.33391694,4149.76034306,4134.06690461,38.5433545171
off_to_on,4138.04320255,4146.10119346,4151.49008496,4133.29886278,4145.70122809,4143.40391787,4146.8862098,4141.43424308,4136.46955834,4145.82517751,4142.34743111,4150.60784468,4133.40457851,-2.14766008139
off_to_on,4137.60562514,4145.88549616,4150.93597337,4133.23188948,4146.02884504,4143.25773438,4147.16424922,4141.48363269,4136.46955657,4146.01402721,4142.3059361,4151.32807751,4132.62201174,-39.615082594
off_to_on,4137.21759025,4145.593928,4150.43509188,4133.1514944,4146.25385726,4143.01784358,4147.39499228,4141.47423873,4136.46955494,4146.10316492,4142.21555158,4151.9086274,4131.73573374,-73.160339328
off_to_on,4136.8954702,4145.25096456,4149.99976194,4133.05852234,4146.36234301,4142.68277531,4147.58049276,4141.41118671,4136.4695535,4146.09927255,4142.08422917,4152.34123106,4130.76644572,-102.181799826
off_to_on,4136.65383785,4144.88242595,4149.64049219,4132.95435884,4146.34459224,4142.25405192,4147.7238831,4141.30129143,4136.46955231,4146.01232826,4141.92141669,4152.62188741,4129.7382439,-126.194996441
off_to_on,4136.50490657,4144.51439272,4149.36553902,4132.84090389,4146.19540888,4141.73617738,4147.82922546,4141.15284125,4136.46955141,4145.85513084,4141.73766538,4152.75083419,4128.67771438,-144.848912215
off_to_on,4136.45805204,4144.17212214,4149.18054486,4132.72052522,4145.91423903,4141.1365228,4147.90133451,4140.97532936,4136.46955083,4145.64272312,4141.54419588,4152.73239338,4127.61293435,-157.9377345
off_to_on,4136.5194348,4143.87900805,4149.08826868,4132.59599226,4145.50512206,4140.46511265,4147.94557999,4140.77914268,4136.46955058,4145.39173847,4141.35244048,4152.57469371,4126.57241851,-165.407626488
off_to_on,4136.69173866,4143.65562557,4149.08842008,4132.47039258,4144.97646828,4139.73431934,4147.96767754,4140.57522045,4136.46955068,4145.1196977,4141.17357982,4152.2892834,4125.58405194,-167.358233101
off_to_on,4136.97403594,4143.51889863,4149.17760406,4132.34703367,4144.34067322,4138.95847658,4147.97347618,4140.37469593,4136.4695511,4144.84428567,4141.0180926,4151.89064937,4124.67405119,-164.0388119
off_to_on,4137.36178577,4143.48142282,4149.3493799,4132.22933337,4143.61358483,4138.15342459,4147.96875058,4140.18853515,4136.46955182,4144.58263706,4140.89533568,4151.39566241,4123.86599416,-155.839065037
off_to_on,4137.84696675,4143.55097028,4149.59443302,4132.12070279,4142.81384564,4137.33600264,4147.9590053,4140.02718657,4136.46955282,4144.35066066,4140.81317096,4150.82296917,4123.1799564,-143.274941688
off_to_on,4138.41834003,4143.7301961,4149.90085495,4132.02442605,4141.96213685,4136.52350638,4147.94929778,4139.90025486,4136.46955403,4144.16242893,4140.77765344,4150.19235375,4122.63178767,-126.969871159
off_to_on,4139.06183429,4144.016558,4150.25452229,4131.94354124,4141.0803549,4135.73312899,4147.94408609,4139.81621096,4136.46955542,4144.02965722,4140.79279243,4149.52409133,4122.23255709,-107.632062072
off_to_on,4139.76103898,4144.4024527,4150.63956245,4131.88072696,4140.19075346,4134.98140582,4147.94710648,4139.78214859,4136.46955692,4143.96129266,4140.86039524,4148.83831619,4121.9881885,-86.0286549081
off_to_on,4140.49778837,4144.87556363,4151.03889045,4131.83819911,4139.31508515,4134.28368207,4147.96128478,4139.80359544,4136.46955847,4143.96322797,4140.97999919,4148.15442471,4121.89930008,-62.9576426219
off_to_on,4141.2528148,4145.41940591,4151.43479834,4131.81762171,4138.47377618,4133.65362209,4147.98868357,4139.88438428,4136.46956,4144.03814982,4141.14889453,4147.49053139,4121.96125351,-39.2185752607
off_to_on,4142.00644722,4146.01404642,4151.80957676,4131.82003569,4137.68516609,4133.10277705,4148.0304856,4140.02658632,4136.46956147,4144.18552539,4141.36223698,4146.86299354,4122.16440952,-15.5831322293
off_to_on,4142.73932889,4146.63696957,4152.14614629,4131.84580866,4136.96484069,4132.64022518,4148.08701105,4140.23050632,4136.4695628,4144.4017246,4141.61324534,4146.28601647,4122.49457778,7.23332907922
off_to_on,4143.43312765,4147.26405337,4152.42867502,4131.89460797,4136.325083,4132.27229611,4148.15776487,4140.49473639,4136.46956396,4144.68026996,4141.89347604,4145.77134831,4122.93364165,28.5981604139
off_to_on,4144.07121246,4147.87061637,4152.64315913,4131.96539875,4135.77446162,4132.00238747,4148.24150907,4140.81626325,4136.46956489,4145.01220067,4142.1931639,4145.32806989,4123.46033117,47.9847223324
off_to_on,4144.63927111,4148.43249316,4152.77794383,4132.05646741,4135.31757101,4131.83087925,4148.33635411,4141.19062264,4136.46956557,4145.38653353,4142.50161538,4144.96248224,4124.05111232,64.9916791101
off_to_on,4145.12584619,4148.92709522,4152.82416409,4132.16547014,4134.95493219,4131.75514822,4148.43986422,4141.61209274,4136.46956598,4145.79079967,4142.80763911,4144.67809058,4124.68115629,79.3575164227
off_to_on,4145.52276906,4149.33441444,4152.77608774,4132.28950491,4134.68305644,4131.76968141,4148.54917128,4142.07391831,4136.4695661,4146.21163368,4143.09999677,4144.47568107,4125.32534983,90.9696872355
off_to_on,4145.82547506,4149.63792864,4152.63134659,4132.42520416,4134.49466808,4131.86628479,4148.66109295,4142.56855575,4136.46956594,4146.63539002,4143.36785668,4144.35348305,4125.95930626,99.8679936858
off_to_on,4146.03318703,4149.82537191,4152.39104583,4132.56884504,4134.37907606,4132.03437945,4148.77225078,4143.08792932,4136.4695655,4147.04876036,4143.60123231,4144.30740705,4126.560337,106.242032023
off_to_on,4146.14895911,4149.88933754,4152.05974633,4132.71647279,4134.32267794,4132.26137492,4148.87918438,4143.62368835,4136.46956482,4147.43936587,4143.79138844,4144.33134645,4127.10834498,110.422757028
off_to_on,4146.17957755,4149.82768758,4151.64531927,4132.86403307,4134.30957412,4132.53310577,4148.97845841,4144.16745564,4136.46956392,4147.7962996,4143.93119871,4144.41752901,4127.58660456,112.868452255
off_to_on,4146.13532063,4149.64375014,4151.15867767,4133.00750839,4134.32226613,4132.8343155,4149.06675929,4144.71105818,4136.46956284,4148.11059618,4144.0154403,4144.5569033,4127.98239708,114.145611836
off_to_on,4146.02958502,4149.34629393,4150.61339388,4133.14305381,4134.34240943,4133.14916975,4149.14097861,4145.24673243,4136.46956164,4148.37560946,4144.04101367,4144.73954476,4128.28747678,114.905439935
off_to_on,4145.87839091,4148.94927813,4150.02521666,4133.26712689,4134.35159008,4133.46177987,4149.19828086,4145.76729784,4136.46956036,4148.58728254,4144.00707843,4144.95506595,4128.49834852,115.856848959
off_to_on,4145.69978284,4148.47138422,4149.41150504,4133.37660731,4134.33209394,4133.75671772,4149.23615321,4146.26629397,4136.46955904,4148.74429934,4143.91509951,4145.19301626,4128.6163464,117.736979837
off_to_on,4145.51314713,4147.93534549,4148.7905994,4133.4689015,4134.26763843,4134.01950328,4149.25243623,4146.73807854,4136.46955776,4148.84811182,4143.76880155,4145.44325767,4128.64750993,121.280369347
off_to_on,4145.3384701,4147.36709758,4148.18115233,4133.54202845,4134.14403863,4134.23704828,4149.24533545,4147.17788575,4136.46955655,4148.90284245,4143.57403265,4145.69630404,4128.60226284,127.187946874
off_to_on,4145.1955634,4146.79478109,4147.60144312,4133.59468344,4133.94978227,4134.39804128,4149.2134153,4147.58184608,4136.46955546,4148.91506635,4143.33854249,4145.94361364,4128.49490782,136.097055444
off_to_on,4145.10328427,4146.24763378,4147.06870084,4133.62627724,4133.67649212,4134.49326251,4149.15557777,4147.9469707,4136.46955454,4148.89348302,4143.07168308,4146.17782607,4128.34295798,148.553658468
off_to_on,4145.0787793,4145.75481504,4146.59846032,4133.6369495,4133.31925848,4134.51582,4149.07102965,4148.27110525,4136.46955381,4148.84849218,4142.78404379,4146.39293715,4128.1663329,164.987813779
off_to_on,4145.13677969,4145.34420936,4146.2039749,4133.62755577,4132.87683034,4134.46130197,4148.95924252,4148.55285887,4136.46955331,4148.79169215,4142.48703496,4146.58440782,4127.98645312,185.693373663
off_to_on,4145.2889751,4145.0412573,4145.89570786,4133.59962891,4132.35165917,4134.32784381,4148.81991038,4148.79151559,4136.46955303,4148.73532342,4142.19243714,4146.74920607,4127.82527114,210.812710305
off_to_on,4145.54349052,4144.86786238,4145.68092217,4133.55531618,4131.74979596,4134.11611131,4148.6529096,4148.98693566,4136.46955301,4148.69168185,4141.91193397,4146.88578344,4127.70427991,240.327076385
off_to_on,4145.9044874,4144.84141975,4145.56338451,4133.4972945,4131.08064803,4133.82920491,4148.45826504,4149.13945421,4136.46955321,4148.67252777,4141.65664797,4146.99399029,4127.64354063,274.052995956
off_to_on,4146.37190553,4144.97400735,4145.54319537,4133.42866693,4130.35660793,4133.47249189,4148.236126,4149.24978402,4136.46955365,4148.6885165,4141.43669788,4147.07493549,4127.66077006,311.644850103
off_to_on,4146.94135689,4145.27177371,4145.61675242,4133.3528443,4129.5925716,4133.05337556,4147.9867537,4149.31892828,4136.46955428,4148.74867485,4141.26079524,4147.13079791,4127.7705246,352.603586047
off_to_on,4147.60417678,4145.73454833,4145.77684902,4133.27341629,4128.80536674,4132.5810117,4147.71052181,4149.34810757,4136.46955509,4148.85994521,4141.13589626,4147.16459783,4127.9835135,396.291246151
off_to_on,4148.34763175,4146.35569154,4146.01290504,4133.19401689,4128.0131153,4132.06598371,4147.40792965,4149.33870398,4136.46955604,4149.02681598,4141.06692219,4147.17993754,4128.30606827,441.950791963
off_to_on,4149.15527792,4147.12219151,4146.31132194,4133.1181894,4127.23455558,4131.51994807,4147.07962753,4149.29222387,4136.46955708,4149.25105318,4141.05655907,4147.18072153,4128.73978859,488.730496885
off_to_on,4150.00745802,4148.01500643,4146.65595007,4133.04925594,4126.48835049,4130.9552624,4146.72645225,4149.21027917,4136.46955817,4149.53154399,4141.10514447,4147.17086732,4129.28137846,535.712008807
off_to_on,4150.88192018,4149.00964059,4147.02865151,4132.99019645,4125.79240835,4130.3846077,4146.34947062,4149.09458572,4136.46955928,4149.86425873,4141.21064535,4147.15401863,4129.92267883,581.941047451
off_to_on,4151.75453714,4150.07693355,4147.40993858,4132.94354173,4125.16324167,4129.82061616,4145.95002766,4148.94697588,4136.46956035,4150.24233249,4141.36872778,4147.13327233,4130.65089514,626.459603353
off_to_on,4152.60010035,4151.1840334,4147.77966489,4132.91128427,4124.61538764,4129.27551481,4145.52979547,4148.76942138,4136.46956134,4150.65626272,4141.57291546,4147.11092981,4131.44901033,668.338450408
off_to_on,4153.39316036,4152.2955175,4148.11774388,4132.89481002,4124.16091117,4128.76079439,4145.09081796,4148.56406117,4136.46956222,4151.09421434,4141.8148302,4147.08828202,4132.29636677,706.708775402
off_to_on,4154.10888322,4153.3746182,4148.40486837,4132.89485349,4123.80900815,4128.28691143,4144.63554606,4148.33322909,4136.46956296,4151.54241943,4142.08450461,4147.06543631,4133.16939368,740.791765702
off_to_on,4154.72389191,4154.38450725,4148.62320491,4132.91147737,4123.56572217,4127.86303031,4144.16685812,4148.07947593,4136.46956352,4151.98565549,4142.37075434,4147.04119173,4134.04245174,769.925076622
off_to_on,4155.2170629,4155.28959038,4148.75703707,4132.94407703,4123.43378369,4127.4968108,4143.68806141,4147.80558152,4136.46956389,4152.40778328,4142.6615953,4147.01296803,4134.88876214,793.585219986
off_to_on,4155.57025016,4156.05676407,4148.79333441,4132.9914095,4123.41257557,4127.19424526,4143.20287219,4147.51455408,4136.46956405,4152.79232411,4142.94469002,4146.97679284,4135.68138501,811.405071963
off_to_on,4155.76891226,4156.65658878,4148.72222679,4133.05164507,4123.49822444,4126.95954845,4142.71537366,4147.20961579,4136.46956402,4153.12305591,4143.20780626,4146.92735022,4136.39421112,823.185884791
off_to_on,4155.80262244,4157.06433687,4148.5373676,4133.12243962,4123.68381207,4126.79510168,4142.22995331,4146.89417552,4136.46956378,4153.3846077,4143.43927134,4146.85809237,4137.0029307,828.903394258
off_to_on,4155.66544611,4157.26087901,4148.23617383,4133.20102427,4123.95969713,4126.70145175,4141.75122262,4146.57179122,4136.46956336,4153.56303255,4143.62840577,4146.76141489,4137.48594493,828.707835093
off_to_on,4155.35617483,4157.23337893,4147.81993588,4133.2843093,4124.31393316,4126.67736359,4141.28392319,4146.246125,4136.46956278,4153.6463405,4143.76592095,4146.62889319,4137.82518745,822.917903034
off_to_on,4154.87841099,4156.97577397,4147.29379425,4133.36899805,4124.73276534,4126.71992414,4140.83282443,4145.92089491,4136.46956206,4153.62497374,4143.84426709,4146.45157528,4138.00682709,812.008926212
off_to_on,4154.24050238,4156.48902657,4146.66658588,4133.45170698,4125.2011859,4126.82469373,4140.40261837,4145.59982721,4136.46956123,4153.49220872,4143.85791947,4146.22032352,4138.02182698,796.595719381
off_to_on,4153.45533105,4155.7811404,4145.95056686,4133.52908739,4125.70352556,4126.98589939,4139.99781724,4145.28661316,4136.46956034,4153.24447194,4143.80359333,4145.9261954,4137.86634083,777.410784751
off_to_on,4152.53996559,4154.86694297,4145.16102324,4133.59794453,4126.22405742,4127.19666351,4139.62265908,4144.98487354,4136.4695594,4152.88155936,4143.68038007,4145.56085146,4137.54193283,755.278687788
off_to_on,4151.51519004,4153.76764452,4144.31578504,4133.6553501,4126.74758937,4127.44925985,4139.28102586,4144.69813358,4136.46955847,4152.4067518,4143.48980036,4145.11697628,4137.05561394,731.087568764
off_to_on,4150.40492561,4152.51018978,4143.43466132,4133.69874413,4127.2600217,4127.73538753,4138.9763767,4144.42980853,4136.46955759,4151.82682173,4143.23577204,4144.5886966,4136.41969276,705.758844868
off_to_on,4149.23556358,4151.12642482,4142.53881617,4133.72602303,4127.7488487,4128.0464534,4138.71169716,4144.18319825,4136.46955677,4151.15192843,4142.92449349,4143.97197802,4135.65144473,680.216210317
off_to_on,4148.03522853,4149.65210577,4141.65010612,4133.73561099,4128.20358601,4128.37385214,4138.48946281,4143.96148577,4136.46955606,4150.39540085,4142.56424525,4143.26498026,4134.77260814,655.355053698
off_to_on,4146.83299207,4148.12578019,4140.79039989,4133.72651263,4128.6161088,4128.70923436,4138.31161394,4143.76773307,4136.46955549,4149.57340936,4142.16511558,4142.46835017,4133.80872042,632.013382303
off_to_on,4145.65805798,4146.5875755,4139.98090097,4133.69834549,4128.98088997,4129.0447531,4138.17953727,4143.60486661,4136.46955506,4148.70453158,4141.73865787,4141.58543323,4132.7883139,610.945272419
off_to_on,4144.53894058,4145.07793261,4139.24149386,4133.65135189,4129.29513114,4129.37328092,4138.09405119,4143.47564612,4136.4695548,4147.80922179,4141.29749112,4140.62238775,4131.74199638,592.797756136
off_to_on,4143.50265923,4143.63632567,4138.59013341,4133.5863903,4129.55878324,4129.68859068,4138.05539201,4143.38261298,4136.46955471,4146.9091987,4140.85485708,4139.58819136,4130.70144731,578.091916678
off_to_on,4142.57397239,4142.30001079,4138.04229626,4133.50490713,4129.77445726,4129.98549526,4138.06320075,4143.32801745,4136.46955479,4146.02677159,4140.4241502,4138.49453478,4129.69836556,567.208801611
off_to_on,4141.77467417,4141.1028465,4137.61051114,4133.40889039,4129.94722982,4130.25994303,4138.11651124,4143.31372671,4136.46955504,4145.18412851,4140.01843813,4137.35560411,4128.76340765,560.380580177
off_to_on,4141.12297527,4140.07422668,4137.30398279,4133.30080715,4130.08435205,4130.50906782,4138.21374148,4143.34111862,4136.46955543,4144.40261323,4139.6499911,4136.18775769,4127.92515632,557.68717176
off_to_on,4140.63298778,4139.23816296,4137.12832083,4133.18352705,4130.19487398,4130.73119367,4138.3526907,4143.41096727,4136.46955596,4143.7020183,4139.32983877,4135.00910834,4127.20915866,559.058363911
off_to_on,4140.31433029,4138.61254821,4137.08538179,4133.06023429,4130.28919973,4130.925796,4138.53054496,4143.52332809,4136.4695566,4143.0999216,4139.06737187,4133.83902543,4126.63707007,564.281229166
off_to_on,4140.17186581,4138.20862597,4137.17322833,4132.93433095,4130.37859137,4131.09342238,4138.74389414,4143.67743078,4136.46955732,4142.61109226,4138.87000428,4132.69757472,4126.22593639,573.01244948
off_to_on,4140.20558111,4138.03068347,4137.38620636,4132.80933435,4130.47464118,4131.23557737,4138.98876328,4143.87158889,4136.46955809,4142.24698944,4138.74290901,4131.60491646,4125.98764108,584.794977285
off_to_on,4140.4106117,4138.07597847,4137.71513659,4132.68877149,4130.58873369,4131.35457722,4139.26066088,4144.10313453,4136.46955888,4142.01537446,4138.68883828,4130.58068419,4125.92853803,599.078313705
off_to_on,4140.77741204,4138.33490166,4138.14761401,4132.57607364,4130.73151887,4131.45338199,4139.55464596,4144.36838631,4136.46955966,4141.92005231,4138.7080351,4129.64336802,4126.04928356,615.241571826
off_to_on,4141.29206672,4138.79136901,4138.66840526,4132.47447401,4130.91241805,4131.53541294,4139.8654147,4144.66265675,4136.4695604,4141.96075396,4138.79823966,4128.80972595,4126.34487326,632.618413312
off_to_on,4141.93673315,4139.42342989,4139.25993103,4132.38691174,4131.13918243,4131.60436406,4140.18740605,4144.98030386,4136.46956106,4142.13316511,4138.95479042,4128.09424579,4126.80488122,650.522897754
off_to_on,4142.6902028,4140.20406923,4139.90281809,4132.3159449,4131.41752216,4131.66401577,4140.5149245,4145.31482884,4136.46956163,4142.42910079,4139.17081582,4127.50867786,4127.41389123,668.275268989
off_to_on,4143.52856303,4141.10217482,4140.57650306,4132.26367512,4131.75082057,4131.71805865,4140.84227623,4145.65901939,4136.46956208,4142.83681957,4139.43750871,4127.06165564,4128.15210152,685.226726226
off_to_on,4144.42593875,4142.08363424,4141.25986848,4132.23168601,4132.13994496,4131.76993391,4141.16391423,4146.0051354,4136.4695624,4143.3414647,4139.74447226,4126.75841739,4128.996078,700.782289431
off_to_on,4145.35528937,4143.11252162,4141.93189022,4132.22099699,4132.58316127,4131.82269628,4141.47458646,4146.34513109,4136.46956257,4143.92561478,4140.08012311,4126.60063766,4129.91962499,714.420962313
off_to_on,4146.28923485,4144.15233044,4142.57227522,4132.23203399,4133.07615572,4131.8789036,4141.7694814,4146.67090556,4136.46956261,4144.56992136,4140.43213525,4126.58637268,4130.89473804,725.712515756
off_to_on,4147.20088324,4145.16720752,4143.1620687,4132.26461773,4133.6121626,4131.94053636,4142.04436402,4146.97457152,4136.46956249,4145.25380757,4140.78790659,4126.71011923,4131.89260039,734.33035318
off_to_on,4148.06463172,4146.123143,4143.6842112,4132.31796997,4134.18219283,4132.00894847,4142.29569573,4147.24873012,4136.46956225,4145.95619875,4141.13502945,4126.96298164,4132.88458316,740.060068379
off_to_on,4148.85691414,4146.98907324,4144.1240276,4132.3907373,4134.7753542,4132.08484916,4142.52073124,4147.48673856,4136.46956188,4146.65625489,4141.46174599,4127.33293761,4133.84320951,742.803458874
off_to_on,4149.55686964,4147.73785677,4144.46963238,4132.48103174,4135.37925011,4132.1683141,4142.71758535,4147.68295642,4136.4695614,4147.33407453,4141.75737064,4127.80518964,4134.74304503,742.577911871
off_to_on,4150.14691006,4148.34708868,4144.71223835,4132.58648657,4135.98044076,4132.25882264,4142.88526343,4147.83295678,4136.46956083,4147.97134124,4142.01266287,4128.36258634,4135.56148018,739.511237336
off_to_on,4150.61316721,4148.79972533,4144.84635921,4132.70432563,4136.5649482,4132.35531723,4143.02365048,4147.9336892,4136.46956021,4148.5518866,4142.22013595,4128.98609632,4136.27937596,733.83218281
off_to_on,4150.94580582,4149.08449877,4144.8698997,4132.8314438,4137.11878524,4132.45628054,4143.13345599,4147.98358345,4136.46955955,4149.06214789,4142.37429025,4129.65531676,4136.8815503,725.857022751
off_to_on,4151.13919282,4149.1961087,4144.78413121,4132.9644961,4137.62848723,4132.55982539,4143.21611417,4147.98258582,4136.46955889,4149.49150363,4142.47176295,4130.34899877,4137.35709004,715.972764029
off_to_on,4151.19191862,4149.13518838,4144.59355453,4133.09999288,4138.081626,4132.66379248,4143.2736423,4147.93212271,4136.46955824,4149.832476,4142.51138937,4131.04557281,4137.69948063,704.617641797
off_to_on,4151.10667194,4148.90804966,4144.3056553,4133.23439808,4138.46728569,4132.76585082,4143.30846237,4147.8349906,4136.46955763,4150.08079535,4142.49417508,4131.72365846,4137.90655402,692.259689512
off_to_on,4150.88997502,4148.52622116,4143.9305619,4133.36422791,4138.77648211,4132.86359641,4143.32319449,4147.69517529,4136.4695571,4150.23532828,4142.42318117,4132.36254489,4137.98026235,679.374248062
off_to_on,4150.55179143,4148.00580169,4143.4806191,4133.48614706,4139.00250952,4132.95464504,4143.32043187,4147.51760817,4136.46955664,4150.29787755,4142.30332923,4132.94263087,4137.92629347,666.421327337
off_to_on,4150.10502403,4147.36665854,4142.96989424,4133.59705985,4139.14120179,4133.03671637,4143.30250945,4147.30787073,4136.4695563,4150.27286744,4142.14113551,4133.44581602,4137.75355073,653.823746316
off_to_on,4149.5649244,4146.63150639,4142.4136353,4133.69419382,4139.19109789,4133.10770657,4143.27127813,4147.0718625,4136.46955606,4150.16693375,4141.944387,4133.85583739,4137.47352548,641.946953501
off_to_on,4148.94843853,4145.82490698,4141.82770178,4133.77517355,4139.1535058,4133.16574764,4143.22789734,4146.81544946,4136.46955595,4149.98844133,4141.72177423,4134.15854845,4137.09959514,631.081368636
off_to_on,4148.27351577,4144.97223241,4141.22799059,4133.83808246,4139.03246234,4133.20925204,4143.17265765,4146.5441121,4136.46955596,4149.74695501,4141.4824973,4134.34213931,4136.64628181,621.427991004
off_to_on,4147.55840898,4144.09863567,4140.62987855,4133.88151119,4138.83459064,4133.23694188,4143.10484486,4146.26261249,4136.46955609,4149.45269132,4141.23586241,4134.39729909,4136.128508,613.08789271
off_to_on,4146.82099363,4143.22807105,4140.04770253,4133.9045907,4138.56886067,4133.24786274,4143.02265552,4145.97469934,4136.46955633,4149.11597877,4140.99088673,4134.31732284,4135.5608845,606.056062058
off_to_on,4146.07813239,4142.38240383,4139.49429589,4133.90700929,4138.24626208,4133.24138285,4142.92317211,4145.6828684,4136.46955667,4148.74675284,4140.75592828,4134.09816636,4134.95706327,600.219888495
off_to_on,4145.345109,4141.58064391,4138.98059751,4133.88901279,4137.87940181,4133.21717902,4142.8024037,4145.38819293,4136.4695571,4148.35410945,4140.53835676,4133.73845254,4134.32918371,595.362393585
off_to_on,4144.63515155,4140.8383316,4138.51534575,4133.85138778,4137.48204187,4133.17521098,4142.6553947,4145.09023535,4136.46955759,4147.94593639,4140.34427844,4133.23943293,4133.68743505,591.170119641
off_to_on,4143.95906119,4140.16709653,4138.10486633,4133.79542845,4137.0685949,4133.11568636,4142.47640097,4144.78704695,4136.46955813,4147.52863781,4140.17832602,4132.60490775,4133.0397514,587.245396965
off_to_on,4143.32495716,4139.57440195,4137.75295878,4133.72288804,4136.65359693,4133.03901856,4142.25912856,4144.47525789,4136.46955869,4147.10696149,4140.04352103,4131.8411071,4132.39164885,583.122529823
off_to_on,4142.73814431,4139.06347904,4137.46088215,4133.63591668,4136.25117765,4132.94578042,4141.99702661,4144.15025478,4136.46955925,4146.68393304,4139.94121275,4130.95653585,4131.74620697,578.287277955
off_to_on,4142.20110386,4138.63344686,4137.22743691,4133.53698764,4135.87454856,4132.8366565,4141.6836224,4143.8064385,4136.46955979,4146.2608959,4139.87109445,4129.96178438,4131.10419025,572.198871176
off_to_on,4141.71360361,4138.27960629,4137.0491364,4133.42881484,4135.53552891,4132.71239694,4141.31288375,4143.43755111,4136.46956028,4145.83765075,4139.83129428,4128.86930808,4130.46429865,564.313685436
off_to_on,4141.27291888,4137.99388965,4136.92045806,4133.31426432,4135.24412751,4132.5737755,4140.87959211,4143.03705697,4136.46956072,4145.41268394,4139.81853468,4127.69317844,4129.82353062,554.109634006
off_to_on,4140.8741515,4137.76544144,4136.83416189,4133.19626305,4135.00819603,4132.42155419,4140.37970845,4142.59856082,4136.46956107,4144.98347014,4139.82835182,4126.44880984,4129.17763717,541.110290523
off_to_on,4140.51063062,4137.58130129,4136.7816614,4133.07770807,4134.83316671,4132.25645587,4139.81071415,4142.11624348,4136.46956134,4144.54683191,4139.8553638,4125.15266615,4128.52164156,524.907762975
off_to_on,4140.1743761,4137.42715667,4136.7534307,4132.9613792,4134.72188372,4132.07914612,4139.17190998,4141.5852946,4136.46956151,4144.09933646,4139.89357469,4123.82195243,4127.85039642,505.183379461
off_to_on,4139.85660324,4137.28813087,4136.73943062,4132.84985815,4134.67453428,4131.89022492,4138.46465721,4141.00232178,4136.46956157,4143.63770812,4139.93670017,4122.4742968,4127.1591485,481.725326054
off_to_on,4139.54824624,4137.149571,4136.72953641,4132.74545671,4134.68868186,4131.69022824,4137.69254752,4140.36571558,4136.46956153,4143.1592348,4139.97849962,4121.12742805,4126.44408098,454.442491254
off_to_on,4139.2404772,4136.99780146,4136.71395051,4132.65015616,4134.75940045,4131.47963961,4136.86149039,4139.67595147,4136.4695614,4142.66214661,4140.01309966,4119.79885431,4125.70280421,423.373915791
off_to_on,4138.925198,4136.82081066,4136.68358463,4132.56555995,4134.87950471,4131.25891117,4135.9797104,4138.93581194,4136.46956116,4142.14594606,4140.03529441,4118.50554745,4124.93476799,388.693415224
off_to_on,4138.5954842,4136.60884226,4136.63039776,4132.49286082,4135.03986768,4131.02849371,4135.05765068,4138.15051537,4136.46956085,4141.61167178,4140.04080922,4117.26363859,4124.14157258,350.709129136
off_to_on,4138.2459624,4136.35486729,4136.54767873,4132.43282333,4135.22981348,4130.78887488,4134.1077833,4137.32774229,4136.46956047,4141.06208103,4140.02651634,4116.08812951,4123.3271606,309.857947354
off_to_on,4137.87310601,4136.05491923,4136.43026453,4132.3857819,4135.43756993,4130.54062448,4133.14433165,4136.47755434,4136.46956004,4140.50174036,4139.99059373,4114.99262578,4122.49787844,266.694962746
off_to_on,4137.47543781,4135.70828026,4136.2746884,4132.35165411,4135.65076302,4130.284445,4132.18291391,4135.61220598,4136.46955958,4139.93701829,4139.93262052,4113.98909713,4121.66240198,221.878293818
off_to_on,4137.05363181,4135.3175136,4136.07925431,4132.3299681,4135.85693378,4130.02122521,4131.24011997,4134.7458531,4136.46955911,4139.37597861,4139.8536059,4113.08767093,4120.8315288,176.149800964
off_to_on,4136.61051108,4134.88834307,4135.84403722,4132.31990263,4136.04405673,4129.752094,4130.33303664,4133.89416765,4136.46955864,4138.82817736,4139.75595077,4112.29646391,4120.0178451,130.312380734
off_to_on,4136.15094274,4134.42938755,4135.5708115,4132.32033784,4136.20103927,4129.47847098,4129.47873825,4133.07387067,4136.46955819,4138.30437092,4139.64334455,4111.62145698,4119.23528197,85.2046564801
off_to_on,4135.6816356,4133.95176403,4135.26291256,4132.32991446,4136.31818212,4129.20211052,4128.69376095,4132.30220004,4136.46955779,4137.8161468,4139.52060209,4111.06641714,4118.4985809,41.6739861958
off_to_on,4135.21085048,4133.46857836,4134.9250396,4132.34709888,4136.38758246,4128.92513598,4127.99357964,4131.59633221,4136.46955744,4137.37549233,4139.39344824,4110.63286939,4117.82269275,0.548775211032
off_to_on,4134.74803679,4132.99432776,4134.56300956,4132.37025154,4136.403464,4128.65006105,4127.39210706,4130.9727797,4136.46955716,4136.99431987,4139.26826002,4110.32012086,4117.22213827,-37.3888897869
off_to_on,4134.30341275,4132.5442428,4134.18347461,4132.39769584,4136.36242116,4128.37979606,4126.90123376,4130.44678803,4136.46955696,4136.68396976,4139.15177789,4110.125338,4116.71035984,-71.4292792057
off_to_on,4133.88750857,4132.13359905,4133.79361647,4132.42778501,4136.26356794,4128.11763723,4126.53042677,4130.03175606,4136.46955684,4136.45471342,4139.0507993,4110.04367632,4116.29909525,-100.958774104
off_to_on,4133.5106939,4131.77702961,4133.4008314,4132.45896435,4136.10858592,4127.86723797,4126.28640257,4129.73870352,4136.46955681,4136.31527965,4138.97186802,4110.06846045,4115.99780323,-125.480462539
off_to_on,4133.18271084,4131.48786874,4133.01241972,4132.48982669,4135.90166973,4127.63256152,4126.17288711,4129.57580777,4136.46955687,4136.2724258,4138.92097306,4110.19140987,4115.8131678,-144.630822617
off_to_on,4132.91223318,4131.27755504,4132.63529242,4132.51915924,4135.64937217,4127.4178151,4126.19047191,4129.54802905,4136.46955701,4136.33057341,4138.90326991,4110.40290405,4115.74870514,-158.191875691
off_to_on,4132.70647103,4131.1551186,4132.27570628,4132.54598058,4135.36035519,4127.22736614,4126.33657136,4129.65684031,4136.46955723,4136.49152497,4138.92283593,4110.6922781,4115.80449106,-166.098347606
off_to_on,4132.57083725,4131.12677237,4131.93903657,4132.56956683,4135.04505644,4127.06564183,4126.60548199,4129.9000733,4136.46955751,4136.75427441,4138.98246966,4111.04813892,4115.97702203,-168.439540586
off_to_on,4132.50868911,4131.19562272,4131.62959465,4132.58946669,4134.71528449,4126.9370141,4126.98854074,4130.2718884,4136.46955785,4137.11491993,4139.08354184,4111.45869054,4116.25921634,-165.455793345
off_to_on,4132.52115517,4131.36150897,4131.35049537,4132.60550511,4134.38375844,4126.84567238,4127.47437569,4130.76287083,4136.46955822,4137.56668403,4139.22590367,4111.91205746,4116.64055631,-157.529593809
off_to_on,4132.60705351,4131.62097599,4131.10357725,4132.61777612,4134.06360988,4126.79548755,4128.04923978,4131.36025128,4136.46955862,4138.10004081,4139.40785573,4112.39659477,4117.10736677,-145.171603936
off_to_on,4132.76290361,4131.96737862,4130.88937621,4132.62662532,4133.76786668,4126.78987129,4128.69741491,4132.0482442,4136.46955902,4138.7029469,4139.62617815,4112.90117477,4117.64321951,-129.002049129
off_to_on,4132.98303034,4132.39111127,4130.70715181,4132.63262303,4133.50893872,4126.83163523,4129.40167192,4132.80849238,4136.46955941,4139.36116749,4139.87622063,4113.41544033,4118.2294483,-109.72810229
off_to_on,4133.25975422,4132.87995059,4130.55496293,4132.63652939,4133.29812555,4126.92285517,4130.14376949,4133.62060205,4136.46955978,4140.05868512,4140.15204822,4113.93001647,4118.84575425,-88.1180471348
off_to_on,4133.58365904,4133.41949464,4130.42978799,4132.63925302,4133.14516504,4127.06474521,4130.9049742,4134.46274897,4136.46956011,4140.77817489,4140.44663658,4114.43667292,4119.4708778,-64.9731354583
off_to_on,4133.94392422,4133.99367842,4130.32768343,4132.64180479,4133.05784032,4127.2575464,4131.66658345,4135.31233334,4136.46956038,4141.50152739,4140.75210846,4114.92843218,4120.08331023,-41.098156963
off_to_on,4134.32870738,4134.58534268,4130.24397293,4132.64524888,4133.04165984,4127.50043406,4132.41043332,4136.14665915,4136.4695606,4142.21039843,4141.06000179,4115.39961984,4120.6620166,-17.2718104713
off_to_on,4134.72556035,4135.1768319,4130.17345879,4132.65065286,4133.09962273,4127.79144778,4133.11937512,4136.94361331,4136.46956075,4142.88676447,4141.36155818,4115.84585653,4121.18714109,5.78200730402
off_to_on,4135.12186105,4135.75059655,4130.11064671,4132.65903893,4133.23207811,4128.12744765,4133.77770629,4137.68232036,4136.46956082,4143.51346233,4141.64802056,4116.26399325,4121.64066695,27.4208981083
off_to_on,4135.50524336,4136.28977539,4130.0499744,4132.6713381,4133.43668381,4128.5041005,4134.37154398,4138.34375009,4136.46956083,4144.07469332,4141.91092785,4116.65199471,4122.00700471,47.1076092518
off_to_on,4135.8640079,4136.77873518,4129.98603433,4132.68834905,4133.70846617,4128.91589943,4134.88913228,4138.91125805,4136.46956076,4144.55647365,4142.14239518,4117.0087778,4122.27348584,64.4297017433
off_to_on,4136.18749811,4137.20354741,4129.91378069,4132.71070319,4134.03997889,4129.35621958,4135.32107673,4139.3710421,4136.46956062,4144.94701585,4142.33536893,4117.33401478,4122.43074305,79.1144536901
off_to_on,4136.46642804,4137.55238531,4129.82871104,4132.73883702,4134.42155499,4129.81741199,4135.66050242,4139.71250157,4136.46956042,4145.23702899,4142.4838472,4117.62791276,4122.47296346,91.0383907522
off_to_on,4136.69315104,4137.81582813,4129.72701362,4132.77297289,4134.84164272,4130.2909362,4135.90313458,4139.92848981,4136.46956016,4145.41992943,4142.58305796,4117.89098288,4122.39800682,100.231037905
off_to_on,4136.86186122,4137.98706452,4129.60567349,4132.81310841,4135.28721281,4130.76753109,4136.04730311,4140.01545497,4136.46955987,4145.4919576,4142.62958961,4118.12381323,4122.20738664,106.872706636
off_to_on,4136.96872249,4138.06199145,4129.46253205,4132.85901493,4135.74422221,4131.23742161,4136.09387486,4139.97346748,4136.46955955,4145.45220021,4142.62147063,4118.32685993,4121.90611838,111.286362137
off_to_on,4137.01192306,4138.03920967,4129.29629776,4132.91024477,4136.198117,4131.69055741,4136.04611921,4139.80613685,4136.46955921,4145.30252086,4142.55819737,4118.50026937,4121.50244396,113.923846479
off_to_on,4136.99165567,4137.91992076,4129.10650777,4132.96614669,4136.63435594,4132.11687724,4135.90951412,4139.52042324,4136.46955887,4145.04740506,4142.44071097,4118.64374305,4121.00744662,115.346955038
off_to_on,4136.91002636,4137.70773418,4128.89344323,4133.02588887,4137.03893493,4132.50659093,4135.69150071,4139.12635238,4136.46955854,4144.69372812,4142.2713261,4118.75645369,4120.43457356,116.204065929
off_to_on,4136.77089655,4137.40839573,4128.65800345,4133.08848832,4137.39889225,4132.85046926,4135.40119482,4138.63664459,4136.46955824,4144.25045657,4142.05361599,4118.83701786,4119.79908683,117.20319963
off_to_on,4136.57966501,4137.02945065,4128.40154642,4133.1528457,4137.70277534,4133.14013061,4135.04906417,4138.06626993,4136.46955798,4143.72829461,4141.79225905,4118.88352703,4119.11746384,119.082530687
off_to_on,4136.34299739,4136.57985584,4128.12570518,4133.21778414,4137.94105176,4133.36831304,4134.64657888,4137.43194259,4136.46955776,4143.13928757,4141.49285328,4118.89363414,4118.40676982,122.579477647
off_to_on,4136.06851246,4136.06955622,4127.83219066,4133.28209058,4138.10644975,4133.52912062,4134.20584349,4136.75156748,4136.46955759,4142.4963941,4141.16170523,4118.86468861,4117.68402375,128.399557213
off_to_on,4135.76443517,4135.50904076,4127.52259246,4133.34455795,4138.19421714,4133.61823396,4133.73921844,4136.04365307,4136.46955748,4141.8130386,4140.80560031,4118.79390936,4116.96557843,137.186203421
off_to_on,4135.43922852,4134.90889435,4127.19818941,4133.40402659,4138.20229042,4133.63307613,4133.25894065,4135.32670622,4136.46955744,4141.10265618,4140.43156257,4118.67858346,4116.26653509,149.492721339
off_to_on,4135.10121793,4134.27936243,4126.85978174,4133.4594231,4138.13136909,4133.57292684,4132.77675407,4134.61862685,4136.46955746,4140.37824356,4140.0466119,4118.51627806,4115.60021222,165.757466739
off_to_on,4134.75822317,4133.62994591,4126.50755592,4133.50979511,4137.98489294,4133.43897949,4132.30356211,4133.93612246,4136.46955753,4139.65193083,4139.6575278,4118.30505401,4114.97768725,186.283221628
off_to_on,4134.41721374,4132.9690433,4126.14099201,4133.55434068,4137.76892332,4133.23433748,4131.84911452,4133.29416361,4136.46955767,4138.93458935,4139.27062841,4118.04367116,4114.40742821,211.221577294
off_to_on,4134.08400332,4132.30365582,4125.75882124,4133.59243132,4137.49193206,4132.96394821,4131.4217404,4132.70550094,4136.46955785,4138.23549097,4138.89157359,4117.73177634,4113.89502953,240.562947305
off_to_on,4133.76299766,4131.63916915,4125.35903928,4133.62362796,4137.16450522,4132.63447577,4131.02813764,4132.18026306,4136.46955808,4137.5620325,4138.52519966,4117.37006677,4113.44306301,274.132618343
off_to_on,4133.45700828,4130.97922208,4124.93897769,4133.64768945,4136.79897161,4132.25411529,4130.67322667,4131.72565209,4136.46955833,4136.91953737,4138.17539265,4116.96042266,4113.05105072,311.593015667
off_to_on,4133.16714153,4130.32566854,4124.49543301,4133.66457356,4136.40896906,4131.83235471,4130.36007365,4131.3457495,4136.46955861,4136.31114338,4137.84500502,4116.50600363,4112.71556183,352.452123263
off_to_on,4132.89276895,4129.67863514,4124.02484986,4133.67443057,4136.00896413,4131.37969179,4130.08988461,4131.04144079,4136.4695589,4135.73778176,4137.5358187,4116.0113044,4112.43043002,396.077765267
off_to_on,4132.63158143,4129.03667141,4123.5235509,4133.67758987,4135.61374251,4130.9073159,4129.86206938,4130.81046219,4136.46955918,4135.19824846,4137.24855539,4115.48216563,4112.18708297,441.717232228
off_to_on,4132.37972609,4128.39698621,4122.98800426,4133.6745402,4135.237889,4130.426766,4129.67437071,4130.64756752,4136.46955945,4134.68936468,4136.98293244,4114.92573712,4111.9749707,488.52153228
off_to_on,4132.13202135,4127.75575935,4122.41511635,4133.66590456,4134.89527558,4129.94957701,4129.52305235,4130.54480873,4136.4695597,4134.20622019,4136.7377612,4114.35039224,4111.78207594,535.573372893
off_to_on,4131.88224241,4127.1085145,4121.80253671,4133.65241053,4134.59857612,4129.48692772,4129.40313799,4130.49191941,4136.46955991,4133.7424896,4136.51108247,4113.76559485,4111.59548655,581.917839945
off_to_on,4131.62346596,4126.45053622,4121.14896004,4133.63485762,4134.35882476,4129.04930309,4129.30869154,4130.47678683,4136.46956008,4133.29080963,4136.30033256,4113.181722,4111.40200783,626.594640752
off_to_on,4131.34845985,4125.77731139,4120.45441013,4133.61408254,4134.18503356,4128.64618317,4129.23312789,4130.48599451,4136.46956021,4132.84320275,4136.10253212,4112.60984784,4111.18879074,668.670720338
off_to_on,4131.05010069,4125.084974,4119.72049017,4133.59092424,4134.08388236,4128.28576954,4129.1695417,4130.5054146,4136.46956028,4132.39153074,4135.91448903,4112.06149556,4110.94395082,707.272049588
off_to_on,4130.72180046,4124.37073095,4118.9505842,4133.56618974,4134.05949173,4127.97475852,4129.11104037,4130.5208266,4136.46956031,4131.92795981,4135.7330059,4111.5483648,4110.65715259,741.613419727
off_to_on,4130.35792193,4123.63324759,4118.14999614,4133.54062226,4134.11328626,4127.71816856,4129.05106732,4130.51853743,4136.46956028,4131.44541801,4135.55508285,4111.08204263,4110.32013463,771.025156229
off_to_on,4129.95416284,4122.87297238,4117.32601469,4133.51487284,4134.24395273,4127.51922731,4128.98370108,4130.48597682,4136.4695602,4130.93802485,4135.37810609,4110.67370595,4109.92715259,794.97578395
off_to_on,4129.50788956,4122.09238322,4116.4878955,4133.48947631,4134.44749416,4127.37932169,4128.90391709,4130.41224249,4136.46956007,4130.40147366,4135.20001373,4110.33382316,4109.47532035,813.089830856
off_to_on,4129.01840294,4121.29614071,4115.6467553,4133.4648326,4134.71737695,4127.2980119,4128.80780011,4130.28857077,4136.4695599,4129.83334827,4135.01943128,4110.07186271,4108.96483322,825.160143756
off_to_on,4128.48712184,4120.49113796,4114.81537692,4133.44119409,4135.04476509,4127.27310793,4128.69269769,4130.10871129,4136.4695597,4129.23335811,4134.83577069,4109.89601571,4108.39906209,831.154296596
off_to_on,4127.91767362,4119.68644098,4114.00792783,4133.41865929,4135.41883184,4127.30080468,4128.55730759,4129.86918799,4136.46955948,4128.60347865,4134.64928831,4109.81293957,4107.784512,831.214892459
off_to_on,4127.31588468,4118.89311811,4113.23959899,4133.39717344,4135.82713639,4127.37586928,4128.40169499,4129.56943308,4136.46955924,4127.94798782,4134.46109892,4109.82752879,4107.13064423,825.65378775
off_to_on,4126.68966865,4118.12396164,4112.52617456,4133.37653574,4136.25605148,4127.49187219,4128.22723841,4129.21178649,4136.469559,4127.27339331,4134.27314466,4109.94271868,4106.44956616,814.940492056
off_to_on,4126.04881418,4117.39310928,4111.88354626,4133.35641351,4136.69122604,4127.64145238,4128.03650647,4128.8013587,4136.46955876,4126.5882501,4134.08811955,4110.15932695,4105.75559843,799.685209435
off_to_on,4125.40467884,4116.71557751,4111.32718926,4133.33636259,4137.11806665,4127.81660551,4127.83307056,4128.3457615,4136.46955854,4125.90287254,4133.90935213,4110.47593769,4105.06473417,780.617178841
off_to_on,4124.76979964,4116.10672335,4110.87161876,4133.31585347,4137.5222213,4128.00898385,4127.62126151,4127.85471702,4136.46955834,4125.22895028,4133.74065092,4110.88883186,4104.39400997,758.559137831
off_to_on,4124.15743506,4115.58165433,4110.52984842,4133.29430226,4137.89004922,4128.21019663,4127.40588117,4127.33956166,4136.46955817,4124.57908191,4133.58611894,4111.39196767,4103.76081248,734.398868178
off_to_on,4123.5810564,4115.15460988,4110.31287257,4133.27110508,4138.20906137,4128.4120997,4127.19188236,4126.81266659,4136.46955804,4123.96624454,4133.44994517,4111.9770139,4103.1821479,709.05887805
off_to_on,4123.05380963,4114.83833927,4110.22919431,4133.24567445,4138.46831746,4128.60706404,4126.98403223,4126.28680139,4136.46955794,4123.40322135,4133.33618204,4112.63343865,4102.67390457,683.465330077
off_to_on,4122.58797044,4114.64350249,4110.28442061,4133.21747601,4138.65876698,4128.78821362,4126.78657563,4125.77447057,4136.46955789,4122.90201167,4133.24851889,4113.34865515,4102.25013967,658.517338278
off_to_on,4122.19441655,4114.57812081,4110.48094362,4133.18606363,4138.77352348,4128.94962414,4126.60291553,4125.28725511,4136.46955789,4122.47325031,4133.19006153,4114.10822567,4101.92242174,635.057729146
off_to_on,4121.88214099,4114.64710241,4110.81772434,4133.15111131,4138.80806371,4129.08647596,4126.43532763,4124.83519166,4136.46955792,4122.12566325,4133.16312837,4114.89612341,4101.69925855,613.846292798
off_to_on,4121.65782887,4114.85186662,4111.29019142,4133.11244024,4138.76034571,4129.19515619,4126.28472554,4124.42622132,4136.469558,4121.86558649,4133.16907282,4115.6950512,4101.58563775,595.536442937
off_to_on,4121.52551782,4115.19008671,4111.89026367,4133.07003968,4138.6308424,4129.27330749,4126.15049129,4124.06573745,4136.46955812,4121.69657324,4133.20814102,4116.48681412,4101.58270315,580.656066631
off_to_on,4121.48635889,4115.65556706,4112.60649993,4133.0240807,4138.42249022,4129.31982322,4126.03038335,4123.75625817,4136.46955827,4121.61911145,4133.27937286,4117.25274161,4101.68758452,569.593182781
off_to_on,4121.53849076,4116.23826561,4113.42437528,4132.97492208,4138.14055566,4129.33479165,4125.9205313,4123.49724353,4136.46955845,4121.63046968,4133.38055259,4117.97415277,4101.89339308,562.586845174
off_to_on,4121.67703543,4116.92446681,4114.32667734,4132.92310813,4137.79242538,4129.31939408,4125.81552193,4123.28507103,4136.46955864,4121.72468383,4133.50821373,4118.63285611,4102.18938781,559.723526421
off_to_on,4121.89421852,4117.69710388,4115.29401168,4132.86935831,4137.38732851,4129.27576396,4125.70857764,4123.11317549,4136.46955884,4121.89269112,4133.65770059,4119.21167311,4102.56131073,560.939009857
off_to_on,4122.17961169,4118.53622328,4116.3054003,4132.81454913,4136.93600245,4129.20681585,4125.59182323,4122.97235137,4136.46955905,4122.12261092,4133.82328651,4119.69497243,4102.99188175,566.025606273
off_to_on,4122.52049009,4119.41957788,4117.33895359,4132.75968896,4136.45031484,4129.11605384,4125.45663283,4122.85120735,4136.46955924,4122.40016505,4133.99834602,4120.06919978,4103.46143658,574.644310759
off_to_on,4122.90229208,4120.32332957,4118.37259231,4132.70588675,4135.942856,4129.00736963,4125.29404435,4122.73675546,4136.46955943,4122.70922356,4134.17557558,4120.32338679,4103.94868461,586.341333742
off_to_on,4123.30916434,4121.22283712,4119.3847936,4132.65431608,4135.42651658,4128.88484028,4125.09522482,4122.61510976,4136.46955959,4123.03245569,4134.34725526,4120.44962124,4104.43155789,600.568290313
off_to_on,4123.72457132,4122.09350044,4120.35533311,4132.60617585,4134.91406556,4128.75253503,4124.85196652,4122.47226313,4136.46955973,4123.35205963,4134.50554104,4120.44346014,4104.88811752,616.705217728
off_to_on,4124.13194441,4122.91162909,4121.26599465,4132.56264929,4134.4177431,4128.61433971,4124.55719139,4122.29490639,4136.46955983,4123.6505407,4134.64277612,4120.30426763,4105.29748015,634.085509781
off_to_on,4124.51534414,4123.65530062,4122.10121901,4132.52486297,4133.94888227,4128.47380606,4124.20543977,4122.07125011,4136.4695599,4123.91150372,4134.75180814,4120.03546035,4105.6407258,652.021806183
off_to_on,4124.86010728,4124.30517398,4122.84866569,4132.49384692,4133.51757211,4128.33403172,4123.79331979,4121.79180933,4136.46955993,4124.12042433,4134.82629843,4119.64464518,4105.90174786,669.831858284
off_to_on,4125.15345084,4124.84522378,4123.49966348,4132.47049749,4133.13237267,4128.19757476,4123.3198942,4121.45011153,4136.46955992,4124.26536368,4134.86100983,4119.14363678,4106.06800786,686.863414372
off_to_on,4125.38500612,4125.26336408,4124.04953047,4132.45554382,4132.80009052,4128.0664047,4122.78698407,4121.04329153,4136.46955988,4124.33759264,4134.8520598,4118.54834574,4106.13116129,702.517228012
off_to_on,4125.54725873,4125.55193412,4124.49774837,4132.44951897,4132.52562071,4127.94188994,4122.19937098,4120.57254095,4136.4695598,4124.33209478,4134.79712683,4117.87853211,4106.08752472,716.267385708
off_to_on,4125.63587401,4125.70802331,4124.84798152,4132.45273683,4132.3118586,4127.82481964,4121.56488352,4120.04338592,4136.46955969,4124.24792178,4134.69559959,4117.1574238,4105.93836095,727.678269265
off_to_on,4125.649892,4125.73361923,4125.10793708,4132.46527556,4132.15968215,4127.71545638,4120.89435797,4119.46577417,4136.46955956,4124.08838072,4134.54866062,4116.41120386,4105.68996577,736.417606559
off_to_on,4125.59178147,4125.63556894,4125.28906863,4132.48696842,4132.06800306,4127.61361499,4120.20146832,4118.85396021,4136.46955941,4123.86103967,4134.35929846,4115.66837626,4105.35354742,742.265213762
off_to_on,4125.4673483,4125.42535162,4125.40613171,4132.51740238,4132.03388284,4127.51876161,4119.50242581,4118.22618689,4136.46955924,4123.57754542,4134.13224544,4114.95902427,4104.94489874,745.117185121
off_to_on,4125.2855,4125.11866769,4125.47660568,4132.55592468,4132.05270782,4127.43012673,4118.81555388,4117.60416993,4136.46955907,4123.2532553,4133.8738413,4114.31398088,4104.48387027,744.985441592
off_to_on,4125.05787431,4124.73485826,4125.52000216,4132.60165726,4132.11841537,4127.34682536,4118.16075043,4117.01240172,4136.4695589,4122.90669339,4133.59182623,4113.76393502,4103.99366127,741.992708405
off_to_on,4124.79834628,4124.2961756,4125.55708494,4132.65351863,4132.22376199,4127.2679778,4117.55885494,4116.47729927,4136.46955873,4122.55885026,4133.29507058,4113.33850132,4103.4999544,736.363153304
off_to_on,4124.52243397,4123.82693299,4125.60903125,4132.71025244,4132.36062266,4127.19282473,4117.03094332,4116.02622885,4136.46955858,4122.23235287,4132.99325152,4113.0652847,4103.02992687,728.409076597
off_to_on,4124.24662804,4123.35256756,4125.69656654,4132.77046173,4132.52031034,4127.12083117,4116.59757765,4115.68644671,4136.46955845,4121.95053877,4132.69648966,4112.96897281,4102.61117788,718.514194375
off_to_on,4123.98767392,4122.898654,4125.83910739,4132.83264788,4132.69390337,4127.0517743,4116.27804062,4115.48399913,4136.46955834,4121.73647342,4132.41496076,4113.07049011,4102.27061603,707.114189712
off_to_on,4123.76183771,4122.48990886,4126.05394624,4132.89525281,4132.87256926,4126.98581118,4116.08958587,4115.44262754,4136.46955827,4121.61195282,4132.15849851,4113.3862459,4102.03335313,694.675317149
off_to_on,4123.58418731,4122.14922553,4126.35551067,4132.95670299,4133.04787319,4126.92352295,4116.04673484,4115.58272475,4136.46955822,4121.5965344,4131.93620525,4113.927506,4101.92165064,681.671927394
off_to_on,4123.46791949,4121.89677844,4126.7547268,4133.01545397,4133.2120608,4126.86593337,4116.16064967,4115.92038598,4136.4695582,4121.7066384,4131.7560864,4114.6999134,4101.95396342,668.563827984
do_nothing,4123.42376167,4121.74923228,4127.25851213,4133.07003385,4133.35830591,4126.81450036,4116.43860845,4116.4665956,4136.46955822,4121.95475909,4131.62472409,4115.70317816,4102.14412147,655.774408421
do_nothing,4123.45947424,4121.71908753,4127.86941865,4133.11908424,4133.48091524,4126.77108058,4116.88360573,4117.22658437,4136.46955826,4122.34882076,4131.54700329,4116.93095043,4102.50068479,643.670434052
do_nothing,4123.57947471,4121.81418834,4128.58544112,4133.16139743,4133.5754837,4126.73786848,4117.49409622,4118.19938619,4136.46955834,4122.89170754,4131.52590217,4118.37088395,4103.02649969,632.544351799
do_nothing,4123.78460103,4122.03741192,4129.399999,4133.19594867,4133.63899607,4126.7173122,4118.26389402,4119.37761502,4136.46955843,4123.58098884,4131.56235536,4120.00489034,4103.71847614,622.599854873
do_nothing,4124.07202481,4122.38655161,4130.30209424,4133.22192254,4133.66987239,4126.71201021,4119.18223395,4120.74747425,4136.46955855,4124.40885416,4131.65519624,4121.80957704,4104.56759681,613.941326303
do_nothing,4124.4353195,4122.85439782,4131.27663983,4133.23873262,4133.66795704,4126.72459317,4120.23399488,4122.2890014,4136.46955868,4125.36226184,4131.80118074,4123.75685525,4105.55915842,606.567627355
do_nothing,4124.86468133,4123.42901293,4132.30494759,4133.24603408,4133.63445329,4126.75759621,4121.40007887,4123.97654123,4136.46955883,4126.42329738,4131.99509199,4125.81469739,4106.67323626,600.370522872
do_nothing,4125.34729389,4124.09418847,4133.36535676,4133.243729,4133.57180749,4126.81332738,4122.65793338,4125.77943152,4136.46955897,4127.56972767,4132.22992164,4127.94801809,4107.88535349,595.13784814
do_nothing,4125.8678214,4124.83006551,4134.43397991,4133.23196453,4133.48354908,4126.89373826,4123.98219898,4127.66287703,4136.46955912,4128.77572982,4132.49712071,4130.11964851,4109.1673283,590.56132878
do_nothing,4126.40900986,4125.61389321,4135.48553756,4133.21112461,4133.37409405,4127.00030308,4125.34545959,4129.58898071,4136.46955925,4130.01276624,4132.78690994,4132.29137057,4110.48826554,586.248774273
do_nothing,4126.9523715,4126.42089565,4136.49425037,4133.18181565,4133.24852135,4127.13391234,4126.71906934,4131.51789502,4136.46955937,4131.25057225,4133.08863769,4134.42497651,4111.81565394,581.740184855
do_nothing,4127.47892461,4127.2252132,4137.43475517,4133.14484731,4133.11233207,4127.29478672,4128.07402673,4133.40905248,4136.46955948,4132.45821831,4133.39117138,4136.48331865,4113.11652631,576.527148211
do_nothing,4127.96995857,4128.00088254,4138.28301123,4133.1012088,4132.97120211,4127.48241608,4129.38186537,4135.22243115,4136.46955956,4133.60520618,4133.68330738,4138.43131502,4114.35863833,570.074763383
do_nothing,4128.40779304,4128.72281795,4139.01716298,4133.05204173,4132.83073878,4127.69552752,4130.61552999,4136.91981014,4136.46955962,4134.66255736,4133.9541837,4140.23687877,4115.51162079,561.845220385
do_nothing,4128.77650002,4129.36775632,4139.61832751,4132.99861002,4132.69625167,4127.9320853,4131.7502072,4138.46597032,4136.46955965,4135.60385229,4134.19367931,4141.87174185,4116.54806164,551.322089723
do_nothing,4129.06255907,4129.9151302,4140.07127776,4132.94226752,4132.57254703,4128.1893243,4132.76408319,4139.829798,4136.46955966,4136.40618124,4134.39278512,4143.31214809,4117.44447735,538.03433954
do_nothing,4129.25541847,4130.34783534,4140.36499612,4132.8844243,4132.46375363,4128.46381682,4133.63900327,4140.98525325,4136.46955964,4137.05097128,4134.54393254,4144.53939582,4118.18213739,521.57910096
do_nothing,4129.34793874,4130.65286359,4140.49307815,4132.8265119,4132.37318637,4128.75157122,4134.36101226,4141.91216988,4136.46955959,4137.52465872,4134.64126776,4145.54021599,4118.74771198,501.642244484
do_nothing,4129.33669998,4130.82177712,4140.45397189,4132.76994867,4132.30325161,4129.04815893,4134.92075862,4142.59686058,4136.46955953,4137.81918243,4134.68086157,4146.30697804,4119.13372003,478.015910214
do_nothing,4129.22215985,4130.85100613,4140.25104429,4132.7161056,4132.25539601,4129.34886459,4135.31374998,4143.03250807,4136.46955944,4137.9322801,4134.66084771,4146.83772211,4119.33876206,450.612249297
do_nothing,4129.00865531,4130.74195907,4139.89247328,4132.66627348,4132.23009896,4129.64885319,4135.54045289,4143.21933121,4136.46955933,4137.86757764,4134.58148471,4147.13602249,4119.36753088,419.472778538
do_nothing,4128.704248,4130.50094206,4139.39097055,4132.62163203,4132.22690703,4129.94334715,4135.60623493,4143.16452364,4136.46955922,4137.63446932,4134.4451396,4147.21069307,4119.23060169,384.772919021
do_nothing,4128.32041962,4130.13889181,4138.76334666,4132.58322149,4132.24450703,4130.22780578,4135.52115281,4142.88197031,4136.4695591,4137.24779485,4134.25619445,4147.07535128,4118.9440109,346.821475965
do_nothing,4127.87163047,4129.67093397,4138.02993609,4132.5519175,4132.28083338,4130.4980995,4135.29959505,4142.39175526,4136.46955897,4136.72732675,4134.0208797,4146.74786105,4118.52864146,306.055013554
do_nothing,4127.37475949,4129.11578505,4137.21390472,4132.5284098,4132.33320392,4130.75067119,4134.9597923,4141.7194801,4136.46955885,4136.09708816,4133.7470407,4146.24967832,4118.00943867,263.027277326
do_nothing,4126.84844882,4128.49502242,4136.34046594,4132.5131852,4132.39847761,4130.98267771,4134.52321241,4140.89541819,4136.46955874,4135.38452627,4133.44384632,4145.60512447,4117.41448682,218.394009909
do_nothing,4126.3123791,4127.83225049,4135.43603429,4132.50651554,4132.47322722,4131.19210489,4134.01386032,4139.95353326,4136.46955864,4134.61957064,4133.12145002,4144.84061293,4116.77398055,172.893685954
do_nothing,4125.78650344,4127.15219477,4134.52734648,4132.50845084,4132.55391986,4131.37785112,4133.4575052,4138.93039426,4136.46955856,4133.83360842,4132.79061532,4143.98385347,4116.11912822,127.324851836
do_nothing,4125.29026871,4126.47975726,4133.64058004,4132.51881789,4132.63709891,4131.53977539,4132.88085851,4137.86401992,4136.46955849,4133.05841006,4132.46231842,4143.06305751,4115.48102579,82.5208888984
do_nothing,4124.84185322,4125.83906792,4132.80049913,4132.53722464,4132.71956098,4131.67870771,4132.31072768,4136.7926882,4136.46955845,4132.32504051,4132.14734176,4142.10616582,4114.88954077,39.323120493
do_nothing,4124.45744897,4125.25256726,4132.02965591,4132.5630704,4132.79852158,4131.79642142,4131.77317081,4135.75374691,4136.46955843,4131.66279175,4131.85587276,4141.14011918,4114.37224576,-1.44675100283
do_nothing,4124.15061553,4124.74015492,4131.34767363,4132.59556186,4132.87176305,4131.89556802,4131.29267827,4134.78246286,4136.46955843,4131.0981728,4131.59712246,4140.19019116,4113.95343988,-39.0138632107
do_nothing,4123.93173066,4124.3184363,4130.77063506,4132.63373474,4132.93775786,4131.9795767,4130.89140645,4133.91094598,4136.46955846,4130.6539921,4131.37897825,4139.27940008,4113.65329376,-72.676065999
do_nothing,4123.80755872,4124.00009611,4130.3105954,4132.67648051,4132.9957606,4132.05252115,4130.58848756,4133.16718286,4136.4695585,4130.34856432,4131.20770391,4138.4280146,4113.4871487,-101.827493824
do_nothing,4123.7809541,4123.79342207,4129.97523501,4132.72257757,4133.04586242,4132.11895726,4130.39943635,4132.57421011,4136.46955856,4130.19506941,4131.08769819,4137.65316359,4113.46499511,-125.9789708
do_nothing,4123.85071165,4123.70199625,4129.76766165,4132.77072584,4133.08900261,4132.18373576,4130.33567122,4132.14945314,4136.46955864,4130.20108585,4131.02132087,4136.96855731,4113.59114791,-144.774497949
do_nothing,4124.01157071,4123.72456531,4129.68636756,4132.81958382,4133.12693375,4132.25179477,4130.40416314,4131.9042501,4136.46955873,4130.36831454,4131.00879285,4136.384323,4113.86412971,-158.003211941
do_nothing,4124.25437385,4123.85509408,4129.72534139,4132.86780696,4133.16213868,4132.32793783,4130.60722133,4131.84357451,4136.46955883,4130.69250239,4131.0481738,4135.90695427,4114.27676486,-165.606359334
do_nothing,4124.56637554,4124.08300042,4129.87433028,4132.91408621,4133.19770008,4132.41660401,4130.94242078,4131.96596349,4136.46955894,4131.16356884,4131.13541835,4135.53937045,4114.81648011,-167.678994908
do_nothing,4124.93169089,4124.39356289,4130.1192428,4132.95718567,4133.23712585,4132.52163757,4131.40267246,4132.26365206,4136.46955904,4131.76593103,4131.2645087,4135.28107885,4115.46580017,-164.46628746
do_nothing,4125.33186931,4124.76848682,4130.44267904,4132.99597823,4133.28413629,4132.64606581,4131.9764334,4132.72290715,4136.46955914,4132.47901741,4131.42765926,4135.12843036,4116.2030196,-156.354502672
do_nothing,4125.74657365,4125.18660855,4130.82457043,4133.02947811,4133.34242154,4132.79189411,4132.64804986,4133.32454903,4136.46955923,4133.27795294,4131.61558605,4135.07495628,4117.00302626,-143.856927176
do_nothing,4126.15434146,4125.62471325,4131.24290821,4133.0568692,4133.41537985,4132.95992771,4133.39822318,4134.04464146,4136.46955931,4134.13439357,4131.81783159,4135.11177279,4117.8382462,-127.595189928
do_nothing,4126.53340181,4126.05843711,4131.67453667,4133.07752829,4133.50584887,4133.14962943,4134.2045836,4134.85532631,4136.46955938,4135.01748229,4132.02313437,4135.22803773,4118.67967578,-108.276613661
do_nothing,4126.86251906,4126.46322202,4132.09598521,4133.09104239,4133.61584296,4133.35902144,4135.04235404,4135.72577372,4136.46955943,4135.89489527,4132.21983012,4135.41144348,4119.497964,-86.6683824994
do_nothing,4127.12183382,4126.81528913,4132.48431189,4133.09721944,4133.74631013,4133.584638,4135.88508246,4136.6232146,4136.46955946,4136.73394295,4132.39627156,4135.64872921,4120.2645067,-63.5694407206
do_nothing,4127.29367105,4127.09259701,4132.81793073,4133.0960923,4133.89692187,4133.82153446,4136.70541992,4137.51402037,4136.46955947,4137.50268925,4132.5412524,4135.92619596,4120.95251436,-39.7811403109
do_nothing,4127.36328676,4127.2757514,4133.07739601,4133.08791564,4134.06590889,4134.06335601,4137.47592053,4138.36479312,4136.46955946,4138.17105153,4132.64442146,4136.23020884,4121.53801692,-16.0777239537
do_nothing,4127.3195269,4127.34883559,4133.24611834,4133.07315602,4134.24995451,4134.30246825,4138.16983971,4139.14343026,4136.46955944,4138.71184458,4132.69667326,4136.54767185,4122.00077171,6.82224366438
do_nothing,4127.15537506,4127.30013349,4133.31098965,4133.05247549,4134.44415595,4134.53014899,4138.76190814,4139.82012912,4136.46955939,4139.10173398,4132.69050167,4136.86646274,4122.32504455,28.2824032266
do_nothing,4126.86836954,4127.1227212,4133.26289746,4133.02670923,4134.64206114,4134.7368386,4139.22905979,4140.36829972,4136.46955934,4139.32206716,4132.62030494,4137.17581659,4122.50023831,47.7720577067
do_nothing,4126.46087449,4126.81490676,4133.09711176,4132.99683823,4134.83578573,4134.91244367,4139.55109393,4140.76535708,4136.46955927,4139.35955407,4132.48263118,4137.46664843,4122.5213481,64.885635095
do_nothing,4125.94019438,4126.38050221,4132.81353187,4132.96395767,4135.01621119,4135.04668562,4139.71125233,4140.99336869,4136.46955919,4139.20677398,4132.27635532,4137.73180643,4122.38922768,79.3573777243
do_nothing,4125.31852586,4125.82891673,4132.4167844,4132.9292421,4135.17326104,4135.12948357,4139.69669548,4141.03953713,4136.4695591,4138.8624902,4132.00278037,4137.96624924,4122.1106574,91.0706568735
do_nothing,4124.61274619,4125.17506447,4131.91616802,4132.89390841,4135.29624822,4135.15135822,4139.49886361,4140.89650369,4136.46955901,4138.33176063,4131.66565814,4138.16714315,4121.69821054,100.061513916
do_nothing,4123.84404209,4124.43908636,4131.32544551,4132.85917758,4135.37428268,4135.10384146,4139.11371262,4140.56246456,4136.46955893,4137.62583873,4131.27112679,4138.33387728,4121.16992115,106.516249025
do_nothing,4123.03738821,4123.6458904,4130.66248801,4132.82623636,4135.39672515,4134.9798756,4138.54181828,4140.04109797,4136.46955884,4136.76186654,4130.82756581,4138.46799753,4120.54876365,110.763108519
do_nothing,4122.22088875,4122.82452082,4129.94878129,4132.79619989,4135.35366939,4134.77418505,4137.78834649,4139.34130714,4136.46955877,4135.76236829,4130.34537119,4138.57306254,4119.86195997,113.258352744
do_nothing,4121.4250002,4122.00737169,4129.20880824,4132.77007645,4135.23643314,4134.4836036,4136.86289163,4138.47679068,4136.46955871,4134.6545602,4129.83665712,4138.6544276,4119.14013654,114.567206855
do_nothing,4120.6816574,4121.22926648,4128.46932594,4132.7487356,4135.03803597,4134.10734121,4135.77918857,4137.46545858,4136.46955865,4133.46949854,4129.31489273,4138.71896508,4118.41635834,115.340398356
do_nothing,4120.02332883,4120.52642969,4127.75855948,4132.73288071,4134.75364171,4133.64717586,4134.55470847,4136.32871745,4136.46955862,4132.24109423,4128.79448541,4138.77473232,4117.72507192,116.287161532
do_nothing,4119.48202986,4119.93538186,4127.10533805,4132.72302713,4134.38094348,4133.10755877,4133.21015167,4135.09065403,4136.4695586,4131.00502724,4128.29032428,4138.8306002,4117.10099289,118.14573233
do_nothing,4119.08832527,4119.49179219,4126.53820088,4132.71948691,4133.92047085,4132.49562411,4131.7688549,4133.7771494,4136.46955859,4129.7975981,4127.81729901,4138.89585714,4116.57797559,121.65246021
do_nothing,4118.87035337,4119.22932606,4126.08450197,4132.72236045,4133.37580096,4131.82109815,4130.2561323,4132.41495884,4136.4695586,4128.6545562,4127.38981048,4138.97980405,4116.18790313,127.510721945
do_nothing,4118.85290398,4119.17852503,4125.76954274,4132.73153547,4132.75365899,4131.09610642,4128.69857211,4131.03079344,4136.46955863,4127.60994569,4127.02129016,4139.09135596,4115.95963524,136.360835901
do_nothing,4119.0565817,4119.36575702,4125.61576065,4132.74669317,4132.06389751,4130.33488254,4127.12331235,4129.65043891,4136.46955867,4126.69500891,4126.72374471,4139.23866551,4115.91804923,148.75214275
do_nothing,4119.49708316,4119.8122722,4125.64200015,4132.7673212,4131.31934923,4129.55338599,4125.55731906,4128.29794517,4136.46955872,4125.93718564,4126.50734202,4139.42878247,4116.08320598,165.118339426
do_nothing,4120.18461378,4120.53339783,4125.86288948,4132.79273314,4130.53555276,4128.76884081,4124.02669012,4126.9949168,4136.46955878,4125.35924257,4126.38005306,4139.66736166,4116.46966879,185.757030672
do_nothing,4121.12346536,4121.53790058,4126.28834331,4132.82209372,4129.73035632,4127.99921031,4122.55600603,4125.75992954,4136.46955885,4124.97856305,4126.34736274,4139.95842994,4117.08599781,210.814303515
do_nothing,4122.31176994,4122.82754048,4126.92320711,4132.85444937,4128.9234093,4127.26262565,4121.16774629,4124.60809197,4136.46955892,4124.8066211,4126.41206003,4140.30422004,4117.93443662,240.274940311
do_nothing,4123.74143999,4124.39683385,4127.76705461,4132.88876283,4128.13555663,4126.57678845,4119.88178722,4123.55076486,4136.469559,4124.84865723,4126.5741156,4140.70507677,4119.01080128,273.958671166
do_nothing,4125.39829781,4126.23303655,4128.81414461,4132.92395098,4127.38815552,4125.95836878,4118.71499332,4122.59544401,4136.46955907,4125.10356651,4126.8306518,4141.15943823,4120.30457551,311.522635497
do_nothing,4127.26239114,4128.31635077,4130.05353845,4132.95892417,4126.7023382,4125.42242037,4117.68091068,4121.74580484,4136.46955914,4125.56400175,4127.17600721,4141.66389159,4121.79920847,352.469985951
do_nothing,4129.3084851,4130.62035187,4131.46937425,4132.99262589,4126.09824769,4124.98183489,4116.78956653,4121.00190073,4136.4695592,4126.21668704,4127.60189456,4142.2133006,4123.47260524,396.164334963
do_nothing,4131.50671517,4133.1126235,4133.04128875,4133.02407104,4125.59427576,4124.64685602,4116.04737538,4120.3605003,4136.46955925,4127.04292934,4128.09764758,4142.80099889,4125.29779347,441.849521949
do_nothing,4133.82337991,4135.75558224,4134.74497281,4133.0523815,4125.20633351,4124.42467233,4115.45714858,4119.81554379,4136.46955929,4128.01930853,4128.65054916,4143.41904119,4127.24374339,488.673976495
do_nothing,4136.22184775,4138.50746599,4136.55284173,4133.07681761,4124.94718456,4124.31910536,4115.01820122,4119.35869388,4136.46955932,4129.11851998,4129.24623015,4144.05850254,4129.27631369,535.718779658
do_nothing,4138.66354811,4141.32345446,4138.43479849,4133.09680442,4124.82586907,4124.33040606,4114.72654801,4118.9799538,4136.46955933,4130.31033821,4129.86912547,4144.70981416,4131.35929082,582.028387725
do_nothing,4141.10901453,4144.15688525,4140.35906441,4133.11195141,4124.84724431,4124.455169,4114.57517794,4118.66832314,4136.46955933,4131.56266596,4130.50297195,4145.36312345,4133.45548659,626.64288393
do_nothing,4143.51894598,4146.96052568,4142.2930503,4133.12206495,4125.011663,4124.68636937,4114.5543959,4118.41246147,4136.46955932,4132.84263002,4131.13133087,4146.00866467,4135.52785683,668.630567629
do_nothing,4145.85525191,4149.68785873,4144.20424016,4133.12715265,4125.31480599,4125.01352371,4114.65221862,4118.20132992,4136.46955929,4134.11768368,4131.73811731,4146.63712642,4137.54060371,707.119681062
do_nothing,4148.08204806,4152.29434127,4146.0610594,4133.12741935,4125.74768009,4125.42297035,4114.85481116,4118.0247829,4136.46955926,4135.35667613,4132.30811773,4147.24000211,4139.46022528,741.328110798
do_nothing,4150.16657228,4154.73859466,4147.83370105,4133.12325489,4126.29678527,4125.89826145,4115.14694961,4117.87408484,4136.46955921,4136.53085099,4132.82747834,4147.80991078,4141.25647849,770.589980805
do_nothing,4152.07999287,4156.98349034,4149.49488517,4133.11521399,4126.94444938,4126.42065392,4115.51249494,4117.74233043,4136.46955915,4137.61473909,4133.28414698,4148.34087641,4142.90322546,794.378173656
do_nothing,4153.79808662,4158.99709751,4151.02052937,4133.10398925,4127.66932121,4126.96968263,4115.93486248,4117.62475121,4136.4695591,4138.58691529,4133.66825338,4148.82855537,4144.3791371,812.321972773
do_nothing,4155.30176771,4160.75346451,4152.39031118,4133.09037826,4128.44700689,4127.52379619,4116.39747191,4117.51889614,4136.46955903,4139.43059373,4133.97241443,4149.27040313,4145.66823267,824.219205178
do_nothing,4156.57745412,4162.23321078,4153.58810679,4133.07524639,4129.25082836,4128.06103322,4116.88416344,4117.42467943,4136.46955897,4140.13404206,4134.19195359,4149.66577262,4146.76023955,830.042471696
do_nothing,4157.61726277,4163.42391241,4154.60229438,4133.05948671,4130.05267816,4128.55971567,4117.37956805,4117.34429483,4136.46955891,4140.69080214,4134.32502661,4150.01593883,4147.65076273,829.939272241
do_nothing,4158.41903013,4164.32027056,4155.4259146,4133.04397884,4130.82394068,4128.99913524,4117.86942219,4117.28200229,4136.46955885,4141.09971181,4134.37264907,4150.32404643,4148.34126001,824.22606099
do_nothing,4158.98616023,4164.92405896,4156.0566854,4133.02954834,4131.53644713,4129.36020935,4118.34082068,4117.24379837,4136.46955881,4141.36473016,4134.3386247,4150.59498015,4148.83882507,813.376490864
do_nothing,4159.32730769,4165.2438539,4156.49687324,4133.01692822,4132.16342997,4129.62608432,4118.78240447,4117.23698771,4136.46955876,4141.49457648,4134.22937709,4150.83516067,4149.15578735,798.004318436
do_nothing,4159.45590866,4165.29455778,4156.75302732,4133.00672424,4132.68044164,4129.78266519,4119.18448359,4117.26967695,4136.46955873,4141.50219978,4134.05369109,4151.05227181,4149.30914416,778.841631527
do_nothing,4159.38957758,4165.09673419,4156.83558849,4132.99938515,4133.06620351,4129.81905458,4119.53909802,4117.35021625,4136.46955871,4141.4041027,4133.82237354,4151.2549281,4149.31984647,756.71322727
do_nothing,4159.1493922,4164.67577955,4156.75838833,4132.99517932,4133.30335269,4129.72788537,4119.84002163,4117.48661573,4136.46955871,4141.21954848,4133.54784615,4151.45229443,4149.21196519,732.508101853
do_nothing,4158.75909266,4164.06096186,4156.53805789,4132.99417848,4133.37905759,4129.50553613,4120.08271539,4117.68596484,4136.46955871,4140.96968403,4133.24368561,4151.65367149,4149.0117685,707.149108009
do_nothing,4158.24422291,4163.28436134,4156.19336814,4132.99624951,4133.28547761,4129.15222127,4120.26423649,4117.95388258,4136.46955872,4140.67661437,4132.92412793,4151.86806248,4148.74674379,681.561889886
do_nothing,4157.63124431,4162.37975082,4155.74452604,4133.00105449,4133.02004848,4128.67195287,4120.38311066,4118.29402453,4136.46955875,4140.36246529,4132.60355462,4152.10373727,4148.44459913,656.644217385
do_nothing,4156.94665171,4161.38145515,4155.21245143,4133.00805919,4132.58558149,4128.07237561,4120.43917488,4118.70767009,4136.46955878,4140.04847052,4132.29597933,4152.36781056,4148.13227923,633.236813256
do_nothing,4156.21612161,4160.32322891,4154.6180595,4133.0165498,4131.99017284,4127.36448126,4120.4333983,4119.19340975,4136.46955882,4139.75411833,4132.01455262,4152.6658502,4147.83502991,612.096695904
do_nothing,4155.46372101,4159.23719054,4153.98157361,4133.02565756,4131.24692698,4126.56221416,4120.36768966,4119.74694813,4136.46955887,4139.49638958,4131.77110218,4153.0015313,4147.57554303,593.873952764
do_nothing,4154.71120281,4158.15284842,4153.32189075,4133.03439054,4130.37350537,4125.68198322,4120.24469943,4120.36103357,4136.46955892,4139.28911532,4131.5757243,4153.37635026,4147.37321064,579.092720664
do_nothing,4153.9774103,4157.09625039,4152.65602019,4133.04167178,4129.39151959,4124.7421002,4120.0676259,4121.02552062,4136.46955898,4139.14247722,4131.43644045,4153.78941149,4147.24351296,568.136986931
do_nothing,4153.27780903,4156.08928341,4151.9986123,4133.04638255,4128.32579323,4123.76216644,4119.84003421,4121.72756595,4136.46955903,4139.06266833,4131.35893068,4154.23729715,4147.19755988,561.241641693
do_nothing,4152.62415914,4155.14914377,4151.36159085,4133.04740924,4127.20352259,4122.76243244,4119.56569736,4122.45195366,4136.46955908,4139.05172531,4131.34635256,4154.71402752,4147.24179995,558.489012127
do_nothing,4152.0243358,4154.28799187,4150.75389824,4133.04369256,4126.05336897,4121.7631547,4119.24846685,4123.18153994,4136.46955912,4139.10753649,4131.39925141,4155.21111637,4147.37790465,559.810900352
do_nothing,4151.48229966,4153.51279845,4150.18135861,4133.03427702,4124.90451788,4120.78397407,4118.8921792,4123.89780242,4136.46955916,4139.22402337,4131.51556439,4155.71772263,4147.60282956,564.995936773
do_nothing,4150.99821342,4152.8253826,4149.64666,4133.01835908,4123.78574089,4119.84333823,4118.50060187,4124.5814748,4136.46955919,4139.39148658,4131.69071776,4156.22089636,4147.90904816,573.701859572
do_nothing,4150.56869574,4152.22263523,4149.14945203,4132.99533178,4122.72449494,4118.95798887,4118.07742022,4125.21324352,4136.46955922,4139.59710167,4131.91781364,4156.70591433,4148.28494864,585.472150462
do_nothing,4150.18719886,4151.69691562,4148.68655252,4132.96482391,4121.7460915,4118.14253093,4117.6262644,4125.77448056,4136.46955923,4139.82554459,4132.18789947,4157.15669741,4148.7153786,599.756307597
do_nothing,4149.84449197,4151.23660294,4148.25225206,4132.92673192,4120.87296428,4117.40909767,4117.15077306,4126.24798486,4136.46955924,4140.059722,4132.49031093,4157.55629939,4149.18231794,615.932923107
do_nothing,4149.52922922,4150.82677959,4147.83870331,4132.88124289,4120.12405959,4116.76712119,4116.65468885,4126.61870395,4136.46955923,4140.28157778,4132.8130761,4157.88745328,4149.66565586,633.334652464
do_nothing,4149.22857796,4150.45001854,4147.4363784,4132.82884755,4119.51436794,4116.22321374,4116.14197891,4126.87440761,4136.46955922,4140.47294334,4133.14336677,4158.1331588,4150.14404367,651.274113182
do_nothing,4148.92888136,4150.08724365,4147.03457637,4132.77034277,4119.05460949,4115.78116073,4115.61697269,4127.00628663,4136.46955919,4140.61639768,4133.46798052,4158.27729165,4150.59579215,669.069734511
do_nothing,4148.61632856,4149.71862955,4146.62196093,4132.70682336,4118.75107979,4115.44202192,4115.08450813,4127.00945204,4136.46955916,4140.69610201,4133.77383638,4158.30521375,4150.99978045,686.070602462
do_nothing,4148.27760601,4149.32450671,4146.18710871,4132.63966355,4118.60565603,4115.2043332,4114.55007716,4126.88331348,4136.46955912,4140.69857489,4134.04846567,4158.20436253,4151.33634215,701.679405572
do_nothing,4147.90050514,4148.8862382,4145.719048,4132.57048867,4118.61595782,4115.06439726,4114.01996056,4126.63181931,4136.46955908,4140.61337579,4134.2804803,4157.96479735,4151.58809552,715.372680362
do_nothing,4147.47446388,4148.38703575,4145.20776955,4132.50113772,4118.77565052,4115.01664807,4113.50134203,4126.26354549,4136.46955904,4140.43366821,4134.46000121,4157.57968171,4151.7406862,726.717675082
do_nothing,4146.99102282,4147.81268623,4144.64469199,4132.43361781,4119.0748739,4115.05407082,4113.00239104,4125.7916251,4136.46955899,4140.15663818,4134.57903112,4157.0456816,4151.78341432,735.385289275
do_nothing,4146.4441804,4147.15216264,4144.0230668,4132.37005123,4119.50077425,4115.1686567,4112.53230383,4125.23351537,4136.46955895,4139.78374921,4134.63175761,4156.36326193,4151.70972149,741.158696284
do_nothing,4145.83063579,4146.39809882,4143.33830957,4132.3126163,4120.03811498,4115.3518704,4112.10129316,4124.61060451,4136.46955891,4139.32082085,4134.61477526,4155.53686654,4151.51751874,743.937409163
do_nothing,4145.14991257,4145.54711172,4142.58824722,4132.26348337,4120.66993896,4115.59510852,4111.72051852,4123.9476662,4136.46955887,4138.77792495,4134.52721814,4154.57497012,4151.20934154,743.736705706
do_nothing,4144.40436039,4144.59996054,4141.77327302,4132.22474714,4121.37825516,4115.89012791,4111.40195097,4123.27217481,4136.46955884,4138.16910018,4134.37079743,4153.48999402,4150.79232413,740.682487026
do_nothing,4143.59903579,4143.56153721,4140.89640425,4132.19835744,4122.14472317,4116.22942537,4111.15816985,4122.61349885,4136.46955882,4137.51189172,4134.14974213,4152.29808193,4150.27799133,735.00180553
do_nothing,4142.74146721,4142.44068867,4139.96323994,4132.18604991,4122.95131038,4116.60655303,4111.00209181,4122.00199461,4136.4695588,4136.82672941,4133.87064383,4151.01873496,4149.68187222,727.009457213
do_nothing,4141.84131304,4141.24987702,4138.98181945,4132.18927919,4123.78089884,4117.01635721,4110.94663713,4121.4680263,4136.46955879,4136.13616394,4133.54221035,4149.67431104,4149.02294695,717.091182836
do_nothing,4140.90992592,4140.00469043,4137.96238622,4132.20915641,4124.61782115,4117.45513225,4111.00434299,4121.04094322,4136.46955879,4135.46398713,4133.17493636,4148.28939886,4148.32294501,705.684155459
do_nothing,4139.95984064,4138.72322361,4136.91706469,4132.24639369,4125.44830776,4117.92068479,4111.18693751,4120.74804885,4136.4695588,4134.83426858,4132.78070245,4146.89008309,4147.60551965,693.255541533
do_nothing,4139.00420661,4137.42535224,4135.85946199,4132.30125782,4126.26083162,4118.41230791,4111.50489177,4120.61359906,4136.46955881,4134.27034574,4132.37231763,4145.50312331,4146.89532934,680.280003652
do_nothing,4138.05618879,4136.13193032,4134.80420908,4132.37353529,4127.04634053,4118.93066849,4111.96696931,4120.6578683,4136.46955883,4133.79380844,4131.96302246,4144.15507439,4146.21706162,667.21706105
do_nothing,4137.12836267,4134.86394251,4133.76645877,4132.46251068,4127.79837172,4119.47761454,4112.57979339,4120.89632154,4136.46955886,4133.42352027,4131.565972,4142.87138042,4145.59443782,654.489235943
do_nothing,4136.2321294,4133.6416454,4132.76135943,4132.56696027,4128.51304851,4120.05591285,4113.34745213,4121.33892707,4136.46955889,4133.17471898,4131.19371873,4141.67547649,4145.04923846,642.461888755
do_nothing,4135.37717634,4132.48373189,4131.80352449,4132.68516201,4129.18896313,4120.66893022,4114.27116067,4121.98964098,4136.46955893,4133.05823561,4130.8577158,4140.58793371,4144.60038889,631.425583436
do_nothing,4134.57100656,4131.40655184,4130.90651786,4132.81492301,4129.82695471,4121.32027377,4115.34899731,4122.84608755,4136.46955897,4133.07986758,4130.56785996,4139.62568193,4144.26314233,621.581727458
do_nothing,4133.81855799,4130.42341958,4130.08237479,4132.95362463,4130.42979535,4122.01340797,4116.57572784,4123.89945287,4136.469559,4133.23993497,4130.33209222,4138.80134176,4144.04839357,613.032103258
do_nothing,4133.12192915,4129.54403533,4129.34117653,4133.09828473,4131.00180108,4122.75126698,4117.94272892,4125.13460047,4136.46955904,4133.53304172,4130.15607186,4138.12269396,4143.96215152,605.772753759
do_nothing,4132.48022405,4128.77404293,4128.690695,4133.24563584,4131.54838729,4123.53588091,4119.43801767,4126.53040933,4136.46955907,4133.94805545,4130.04293648,4137.5923091,4144.00519237,599.692510254
do_nothing,4131.88952412,4128.11474116,4128.13612141,4133.3922169,4132.07559047,4124.36803457,4121.04639019,4128.06032572,4136.4695591,4134.46831064,4129.99315755,4137.20735446,4144.17290822,594.576263438
do_nothing,4131.34298988,4127.56296025,4127.67988936,4133.53447563,4132.58957919,4125.24697547,4122.74966724,4129.69311204,4136.46955913,4135.07203091,4130.00449712,4136.95958854,4144.4553588,590.112885269
do_nothing,4130.83109013,4127.11110883,4127.32159982,4133.66887786,4133.09617743,4126.17018623,4124.52704162,4131.39376773,4136.46955915,4135.73295738,4130.07206736,4136.83554639,4144.8375261,585.907518611
do_nothing,4130.34195146,4126.74739097,4127.05805123,4133.79201936,4133.60042262,4127.13323388,4126.35551737,4133.12459036,4136.46955916,4136.42116122,4130.18849067,4136.81691165,4145.29976405,581.497771051
do_nothing,4129.86181655,4126.45618629,4126.88337391,4133.90073596,4134.10617878,4128.12970514,4128.2104283,4134.84633978,4136.46955917,4137.10401153,4130.3441545,4136.88106405,4145.81842835,576.373186379
do_nothing,4129.3755952,4126.2185807,4126.78926394,4133.99220748,4134.61582239,4129.15123372,4130.06602004,4136.51946375,4136.46955916,4137.74726316,4130.52755109,4137.0017845,4146.36666477,569.997228737
do_nothing,4128.86748874,4126.01302999,4126.76530762,4134.06405143,4135.13001524,4130.187621,4131.89607732,4138.10534101,4136.46955916,4138.31622439,4130.72568969,4137.15009394,4146.91532857,561.830906094
do_nothing,4128.32166512,4125.81613354,4126.79938428,4134.11440281,4135.64757393,4131.22704767,4133.67457603,4139.56749694,4136.46955914,4138.77696102,4130.92456564,4137.29519685,4147.43400274,551.357086074
do_nothing,4127.72295948,4125.6034912,4126.87813179,4134.14197693,4136.16544148,4132.25636939,4135.37633821,4140.87274753,4136.46955912,4139.09749203,4131.10966905,4137.40549657,4147.89207915,538.104521371
do_nothing,4127.05757302,4125.35061319,4126.98745663,4134.14611296,4136.67876159,4133.26148605,4136.97766783,4141.99223005,4136.4695591,4139.24893217,4131.26651409,4137.44964671,4148.25986414,521.670605497
do_nothing,4126.31374214,4125.03385009,4127.11306831,4134.12679647,4137.18105156,4134.2277705,4138.45694567,4142.90228289,4136.46955907,4139.20653913,4131.38116941,4137.39760187,4148.50966902,501.741922564
do_nothing,4125.48234994,4124.63130902,4127.24101656,4134.08466027,4137.66446515,4135.14053989,4139.79516298,4143.58514241,4136.46955904,4138.95062623,4131.44077,4137.22163045,4148.616846,478.111735333
do_nothing,4124.55745334,4124.12372154,4127.35820922,4134.02096355,4138.12013287,4135.98555041,4140.97637528,4144.02943121,4136.46955901,4138.46730647,4131.43399151,4136.89725356,4148.56073152,450.69367091
do_nothing,4123.53670198,4123.49523027,4127.45288953,4133.93755003,4138.53856314,4136.74949444,4141.98806034,4144.2304198,4136.46955898,4137.74903961,4131.35146952,4136.40407632,4148.32546146,419.531008505
do_nothing,4122.42162816,4122.73406306,4127.51505257,4133.83678675,4138.91008507,4137.42047875,4142.82136708,4144.19005181,4136.46955894,4136.79496079,4131.18614814,4135.72648081,4147.90062693,384.801142878
do_nothing,4121.21779204,4121.83306717,4127.53678367,4133.7214856,4139.22531143,4137.98846237,4143.47124643,4143.9167317,4136.46955892,4135.6109769,4130.93354511,4134.85415527,4147.2817443,346.814983737
do_nothing,4119.93477136,4120.79008042,4127.51250438,4133.59481037,4139.47559882,4138.44563376,4143.93645889,4143.42488328,4136.46955889,4134.20962535,4130.59192338,4133.78243946,4146.4705197,306.011247999
do_nothing,4118.58599076,4119.60812196,4127.43911586,4133.4601726,4139.65348237,4138.78670939,4144.21945891,4142.73429607,4136.46955887,4132.6096987,4130.16236293,4132.51247294,4145.47489533,262.945800624
do_nothing,4117.18839197,4118.29539195,4127.31603417,4133.32111991,4139.75306271,4139.00913856,4144.32616031,4141.86928488,4136.46955886,4130.83564717,4129.64872978,4131.05114048,4144.30887318,218.276392847
do_nothing,4115.76195278,4116.8650767,4127.14511635,4133.18122072,4139.77032581,4139.11320358,4144.26559256,4140.85769593,4136.46955885,4128.9167798,4129.05754347,4129.41081622,4142.99211984,172.743326446
do_nothing,4114.32906899,4115.33496358,4126.93048151,4133.0439496,4139.70337935,4139.10200918,4144.04946174,4139.72979921,4136.46955885,4126.88629298,4128.39774805,4127.60891651,4141.54936495,127.146732055
do_nothing,4112.91382008,4113.72687838,4126.67823566,4132.91257747,4139.55259397,4138.98136045,4143.69163522,4138.5171123,4136.46955885,4124.78016266,4127.6803954,4125.66727916,4140.00961439,82.3212823449
do_nothing,4111.54114531,4112.06596521,4126.39611356,4132.79007048,4139.32064224,4138.75953399,4143.20757276,4137.25120501,4136.46955886,4122.63594266,4126.91825361,4123.61139472,4138.40520685,39.1092618619
do_nothing,4110.23596149,4110.37983616,4126.09305472,4132.67900141,4139.01243416,4138.44695249,4142.61372952,4135.96253532,4136.46955887,4120.49151653,4126.12535586,4121.46952189,4136.77074958,-1.667019284
do_nothing,4109.02225782,4108.69762404,4125.77873368,4132.58147675,4138.63495241,4138.05577752,4141.92695821,4134.67936692,4136.46955889,4118.38385248,4125.31650801,4119.27172403,4135.1419741,-39.2324534407
do_nothing,4107.92220505,4107.04897537,4125.46306691,4132.49908165,4138.19699632,4137.59943954,4141.16393725,4133.42681475,4136.46955891,4116.3478115,4124.50677442,4117.04886707,4133.55455616,-72.8850024322
do_nothing,4106.95531643,4105.46302393,4125.15571956,4132.4328447,4137.7088475,4137.09212676,4140.34065064,4132.22605934,4136.46955894,4114.41505624,4123.71096215,4114.83161965,4132.0429457,-102.019251088
do_nothing,4106.1376963,4103.96738536,4124.8656348,4132.38322323,4137.18187384,4136.54825636,4139.47194178,4131.09376277,4136.46955896,4112.61310358,4122.94312355,4112.64949553,4130.63925163,-126.146781073
do_nothing,4105.48140848,4102.58721238,4124.60060732,4132.35010933,4136.62809125,4135.98195143,4138.5711597,4130.04170886,4136.46955899,4110.96455703,4122.21609609,4110.52997464,4129.37222363,-144.912616035
do_nothing,4104.99399146,4101.34434683,4124.36691968,4132.33285613,4136.0597035,4135.40654643,4137.64991036,4129.07667976,4136.46955902,4109.48654666,4121.54109659,4108.49773486,4128.26636828,-158.107129373
do_nothing,4104.67814118,4100.25660081,4124.16905734,4132.3303232,4135.48864128,4134.83414175,4136.71792029,4128.20056943,4136.46955904,4108.19039494,4120.92738441,4106.57402038,4127.3412313,-165.672960818
do_nothing,4104.5315752,4099.3371933,4124.00951402,4132.3409393,4134.92612061,4134.27522565,4135.78301373,4127.41072379,4136.46955906,4107.08151685,4120.38200536,4104.77616595,4126.61087002,-167.706652856
do_nothing,4104.54708432,4098.59436235,4123.88869478,4132.36277993,4134.38223981,4133.73837845,4134.85119896,4126.70048685,4136.46955908,4106.15955237,4119.90962419,4103.11728903,4126.08353233,-164.45489286
do_nothing,4104.71277015,4098.03116541,4123.80491945,4132.39365651,4133.86563224,4133.23006984,4133.92685421,4126.05992325,4136.4695591,4105.41871998,4119.51245009,4101.6061546,4125.76154996,-156.305433045
do_nothing,4105.0124597,4097.64547301,4123.75452421,4132.43121353,4133.38318955,4132.75455658,4133.01299907,4125.47668014,4136.46955911,4104.84837091,4119.19025568,4100.24721062,4125.64144518,-143.772954775
do_nothing,4105.42628053,4097.43015296,4123.73205502,4132.47302968,4132.93986683,4132.31388279,4132.11163329,4124.93694549,4136.46955912,4104.43371609,4118.94048622,4099.04078492,4125.71424205,-127.480335614
do_nothing,4105.93137379,4097.37343483,4123.73054215,4132.51671877,4132.53857737,4131.90798058,4131.22412218,4124.42645621,4136.46955912,4104.15669107,4118.75845217,4097.98342874,4125.96596498,-108.135953825
do_nothing,4106.50271652,4097.45943729,4123.74184187,4132.56002648,4132.18018052,4131.53486425,4130.35160514,4123.93150764,4136.46955911,4103.99691884,4118.63759545,4097.06838615,4126.37830091,-86.5078180946
do_nothing,4107.11402006,4097.66883456,4123.75702833,4132.60091885,4131.86356143,4131.19090629,4129.49540296,4123.43991577,4136.4695591,4103.93272702,4118.56981651,4096.28616384,4126.92939476,-63.3954386895
do_nothing,4107.73866872,4097.979633,4123.76681641,4132.63765917,4131.58579721,4130.87118007,4128.65739911,4122.94188623,4136.46955909,4103.94217358,4118.54584762,4095.62517248,4127.5947437,-39.600458553
do_nothing,4108.35066086,4098.3680251,4123.76199535,4132.66887019,4131.34239985,4130.56985064,4127.84037097,4122.43074756,4136.46955908,4104.00403606,4118.55565618,4095.07240823,4128.34815214,-15.8971312812
do_nothing,4108.92551524,4098.80928546,4123.73385222,4132.69357914,4131.12762257,4130.28059302,4127.04824959,4121.90351272,4136.46955906,4104.09872115,4118.588861,4094.61414235,4129.16270822,6.9962414756
do_nothing,4109.44110695,4099.27867291,4123.67456541,4132.71124379,4130.93481336,4129.99701659,4126.28628942,4121.36124031,4136.46955903,4104.2090562,4118.63514472,4094.23658777,4130.01174309,28.4438214337
do_nothing,4109.87840097,4099.7523036,4123.57754982,4132.72175861,4130.75679763,4129.71307399,4125.56113471,4120.80917618,4136.46955901,4104.32093027,4118.68464625,4093.92651415,4130.86973635,47.915667017
do_nothing,4110.22205585,4100.20796239,4123.43773794,4132.72544082,4130.58627094,4129.42343465,4124.88077401,4120.25666653,4136.46955899,4104.42376028,4118.72831841,4093.6717868,4131.71313511,65.0071678328
do_nothing,4110.460876,4100.62582391,4123.25178453,4132.72299723,4130.41618279,4129.12380496,4124.25438084,4119.71684416,4136.46955897,4104.51076664,4118.75823792,4093.46180996,4132.52105947,79.4537043047
do_nothing,4110.58809797,4100.98905915,4123.0181864,4132.71547352,4130.2400937,4128.81118037,4123.69204452,4119.2061009,4136.46955895,4104.57905212,4118.76785759,4093.28786115,4133.27587336,91.1399342704
do_nothing,4110.60150281,4101.28430939,4122.73731357,4132.7041888,4130.05248927,4128.48401829,4123.20440121,4118.74336932,4136.46955893,4104.62948739,4118.75219314,4093.14330909,4133.96360636,100.103310616
do_nothing,4110.50335422,4101.50201488,4122.41135203,4132.69065836,4129.8490378,4128.1423249,4122.80218091,4118.34924573,4136.46955891,4104.66641526,4118.70794029,4093.02371413,4134.57421891,106.531653198
do_nothing,4110.30016887,4101.63659188,4122.04416312,4132.67650861,4129.62678072,4127.78765304,4122.49569054,4118.0449943,4136.4695589,4104.69719399,4118.63352085,4092.92681556,4135.10170981,110.754827515
do_nothing,4110.00233146,4101.68645675,4121.64106766,4132.66338806,4129.38424883,4127.42301295,4122.29425763,4117.8514774,4136.46955889,4104.73160636,4118.52905889,4092.85241497,4135.54407053,113.230812415
do_nothing,4109.62357302,4101.65390209,4121.20856659,4132.65287846,4129.12150098,4127.05270162,4122.2056618,4117.78806158,4136.46955889,4104.78116673,4118.39629142,4092.80216912,4135.90309652,114.526658636
do_nothing,4109.18033553,4101.54483431,4120.75401217,4132.64641005,4128.84008539,4126.6820604,4122.23558298,4117.87154999,4136.46955889,4104.85836197,4118.23841956,4092.77930894,4136.18407019,115.295040615
do_nothing,4108.69105036,4101.36838736,4120.28524604,4132.6451848,4128.54292771,4126.31717402,4122.3870957,4118.11519185,4136.46955889,4104.97586412,4118.05990872,4092.78830361,4136.39533418,116.247279334
do_nothing,4108.17536073,4101.13643116,4119.8102215,4132.65011087,4128.23415324,4125.96452698,4122.66023763,4118.52781678,4136.4695589,4105.1457533,4117.86624779,4092.83449008,4136.547777,118.123856727
do_nothing,4107.65332069,4100.8629973,4119.33662813,4132.66175115,4127.91885402,4125.63063575,4123.05167839,4119.11313684,4136.46955891,4105.37878797,4117.66367854,4092.92368885,4136.65425522,121.663544622
do_nothing,4107.14460335,4100.56364671,4118.87153662,4132.68028808,4127.6028142,4125.32167646,4123.55451088,4119.86925259,4136.46955893,4105.68375708,4117.45890752,4093.06182626,4136.72897787,127.572329576
do_nothing,4106.66775089,4100.25480669,4118.42108073,4132.70550616,4127.29220891,4125.04312832,4124.15818242,4120.78839048,4136.46955895,4106.0669445,4117.25881273,4093.25458216,4136.78687957,136.493328438
do_nothing,4106.23949619,4099.9531046,4117.99019148,4132.73679272,4126.99329274,4124.79945213,4124.84857725,4121.85688886,4136.46955896,4106.53172995,4117.0701575,4093.50707902,4136.84300738,148.978857197
do_nothing,4105.87418295,4099.67472534,4117.58239649,4132.77315683,4126.71209395,4124.59382129,4125.60825494,4123.05543884,4136.46955898,4107.07834384,4116.89932275,4093.82362506,4136.9119448,165.465737129
do_nothing,4105.58330606,4099.4348176,4117.19969394,4132.81326538,4126.45412981,4124.42791976,4126.41684272,4124.35957473,4136.469559,4107.70378544,4116.75206795,4094.20751986,4137.00729301,186.254800644
