label,COUNTER,INTERPOLATED,AF3,F7,F3,FC5,T7,P7,O1,O2,P8,T8,FC6,F4,F8,AF4,RAW_CQ,GYROX,GYROY,MARKER,SYNC,TIME_STAMP_s,TIME_STAMP_ms,CQ_AF3,CQ_F7,CQ_F3,CQ_FC5,CQ_T7,CQ_P7,CQ_O1,CQ_O2,CQ_P8,CQ_T8,CQ_FC6,CQ_F4,CQ_F8,CQ_AF4,CQ_CMS,CQ_DRL
off_to_on,9.61716349688,4.40595702855,6.8960560288,-0.0342841579325,7.73430885366,5.69941549355,5.55359432235,5.55949457182,-0.567193768987,4.51125371646,-0.247909064335,8.75205856005,3.35138717508,8.5455450829
off_to_on,8.9537359962,5.86005256473,8.42982345811,0.842207929265,4.11484882351,-9.10921290915,-17.4816253252,-18.0918596808,-0.317779942904,-0.739723980003,4.51187939263,-4.65758282402,9.39153913252,-60.6890005806
off_to_on,0.425660694059,2.34753158641,2.84626704417,1.06874554017,-3.13077595732,-9.45769804365,-10.9319161946,-12.8917744149,0.254089644667,-0.949928508856,4.74846352878,-4.61483402173,6.62371525687,-10.3491382753
off_to_on,-8.5572393191,-1.6813523987,-4.85798166419,0.90844835726,-7.24113934407,1.37854403246,14.1468986917,11.1069675601,0.50487659367,3.29606467302,2.76742931032,5.49663035897,-1.59710397953,51.8324156933
off_to_on,-9.36373047754,-2.60827127002,-7.47739885029,0.346681431933,-4.4143283139,5.91332424987,17.8674912605,16.3964966674,0.256335613866,3.61894278373,0.935472968604,6.11993627089,-6.14841589639,8.26132849303
off_to_on,-1.96481902534,-1.33057837574,-3.32550732918,-0.626270610146,1.96937088907,-0.263828126117,-6.6175510097,-5.05036039674,-0.107254673773,-3.22978884256,-1.40802640361,-6.87459380472,-4.15165081409,-67.930309869
off_to_on,5.36250660197,-0.527531668664,2.5093696508,-1.38935474146,5.37093908082,-3.73552844511,-22.2998315946,-20.0759674788,-0.161224822206,-9.09349176269,-4.43235198104,-14.5082102319,-0.990977665203,-43.3594487736
off_to_on,5.95745513297,-0.682504561018,4.46398940996,-1.26148492206,3.13851671873,2.98647152263,-5.56907966475,-5.55823927852,0.065645083746,-5.18938730992,-5.22996444612,-3.23235332716,-0.680293594425,47.1088528223
off_to_on,1.4071634711,-0.395899078156,2.12314346225,-0.371498273756,-1.60575293482,7.99211779746,17.132939143,16.0073220675,0.133198093773,4.53943863744,-1.51652594146,12.9872034774,-0.412827763504,61.6300709734
off_to_on,-2.32479899262,0.766162283986,-0.970239984033,0.67801026153,-4.12242613177,-0.607619148784,10.876334229,11.7342163165,-0.230719178329,7.93368030216,4.11798210445,11.7888821617,2.88854504261,-11.5261838899
off_to_on,-2.38353942492,1.58073665578,-2.14316349118,1.51200874532,-2.62874465793,-12.8478719396,-12.465875337,-9.94496327131,-0.644359826651,1.92007598675,6.39573851017,-4.31239806659,5.80600784313,-45.0040897216
off_to_on,-0.622964235399,1.03219260749,-1.56105662903,1.70481667308,0.972901059773,-9.39576965929,-12.8528164582,-12.4276737284,-0.432483810524,-3.26302557002,3.21879562412,-11.1680048387,3.03286872486,6.72246740826
off_to_on,0.456440040563,-0.325022790569,-0.360343620502,0.60807905239,3.55051085249,8.23780208037,13.051610799,10.1530709253,0.413572193095,-0.276652667224,-2.37564880276,0.499400199206,-3.73769874666,40.5312628348
off_to_on,0.629327219756,-0.994609845618,1.02915297173,-1.43565678781,3.38179083514,16.8292274045,23.5544573668,21.0387645374,0.998273691583,3.73963714622,-5.66601640511,10.8124180996,-6.80384852979,-6.52763443929
off_to_on,0.753285064271,-0.153655003229,2.23180447049,-2.44049079342,0.903388365456,4.09588792542,-3.33432424909,-2.28835189629,0.599107189496,-0.579276560165,-4.33336331684,1.9791368907,-2.50063056636,-50.2345459885
off_to_on,0.679580681802,1.23320578268,2.10451693623,-0.949871561018,-2.29791475421,-13.0898475593,-31.896559576,-29.5931603515,-0.31281503233,-7.93612622236,0.285973271008,-12.7561823125,3.92167962013,-12.3048925558
off_to_on,-0.355414194869,1.07859512618,-0.078356936896,1.46010060151,-4.50994766828,-12.5602136684,-19.5576550273,-20.2014796685,-0.670843136358,-5.48857701455,4.51303139308,-9.01397542542,5.12837075316,43.4291857985
off_to_on,-1.76746888909,-1.24501034524,-2.88086754348,1.75994623492,-4.02937409649,2.63101451282,18.7014150558,15.7911803322,-0.271992129161,5.72384592382,5.08029175405,9.59270750974,0.649715399627,25.6091016636
off_to_on,-1.47500888368,-3.21328818167,-3.41618209304,-0.271944428179,0.104043808488,11.3228804319,31.1954595497,30.903862851,0.0643460757399,10.1872227439,1.83961227278,15.3335867965,-3.43099233125,-28.3781538195
off_to_on,1.29791371614,-1.72290222345,-0.586041945287,-1.49774391057,5.84495354272,5.33515239073,4.71991064442,8.70870213678,-0.140067048646,1.35972145425,-2.21396387941,-0.838039562273,-2.56548774771,-24.7375173104
off_to_on,3.6530742615,2.23017823813,2.88871950639,-0.00522812915321,7.64673595023,-3.03573639229,-19.6329799885,-15.8812973923,-0.30772788793,-7.76277094943,-4.22201730373,-14.644081919,1.01940754828,22.874587277
off_to_on,1.51072421001,3.73809117522,2.9334570769,1.90627567158,1.49202161353,-4.04610160008,-11.1470786769,-12.2380379303,0.136151290971,-4.93241528427,-4.06941894369,-6.2908328692,1.84776210434,25.3181160265
off_to_on,-4.37235430271,0.50515296213,-0.830192668063,1.13387354994,-8.42951275362,-3.57120932777,7.37315551893,2.97889170148,0.700323131439,2.55195826372,-2.76760022174,8.83854708597,-1.33752101211,-20.85354308
off_to_on,-6.89850513758,-3.02498634908,-3.61438931028,-1.46737770705,-11.2493943217,-6.68545776004,2.43522924228,-0.0433216345949,0.539896643649,1.60758770914,0.300068894274,6.18520284229,-3.40878355331,-30.6656523431
off_to_on,-0.457329699711,-1.25552555733,-0.789905104841,-2.293922396,-1.23065069504,-4.07389548154,-13.6729963155,-12.4344623231,-0.197704286829,-3.26712755333,5.72419941351,-7.09939463025,0.663320339879,15.3439170014
off_to_on,9.8848760331,3.92310335066,5.34286835565,-0.306621036269,12.9108417704,11.0248423894,-4.93550618238,-3.10058463327,-0.572853202902,1.99755030069,9.85547658579,-4.27276753393,7.75773880202,36.5485448112
off_to_on,11.4022527336,4.45685555745,6.57200184861,1.64954094397,14.9843614811,22.5289173068,23.4950650673,23.2645674113,-0.244331821528,12.8759142831,6.25197739219,13.6043035908,7.9905314096,-5.08264438789
off_to_on,-1.04778711497,-2.65497957741,-1.32577673564,1.19471039846,-0.167105703085,8.21774836241,25.5893057414,24.7844238346,0.166702017742,7.68780628514,-5.73109996078,14.2207867259,-3.13589928524,-38.8347504766
off_to_on,-15.7337317394,-9.52350961937,-11.1675311519,-0.45750522659,-18.020872935,-23.6244905743,-13.0605220828,-11.9281607643,0.14856627985,-16.2104392281,-16.0644499404,-13.4165828916,-15.6749483588,-8.71000410716
off_to_on,-15.36664782,-6.45358968006,-10.7309250446,-0.890823487692,-18.4995026929,-35.0034636218,-42.7674400867,-40.6838263415,-0.0612782263603,-28.3786822298,-12.5965123609,-32.7762453008,-13.7245680106,32.3562336661
off_to_on,1.93445994997,4.97662843179,2.19762136166,0.00276791827037,0.994150998619,-6.10709814219,-16.6420916546,-16.7697026475,-0.126267863909,-4.84232635172,4.17727576729,-9.4159937884,4.76270706639,17.3112379747
off_to_on,18.2907036428,12.4739579399,14.726233803,0.603199128911,20.7025866715,32.860141693,36.3172232635,33.8420087435,-0.149429566608,31.5424313125,18.5410200571,32.8238648542,21.4849502581,-22.5036935392
off_to_on,16.0252905904,7.50158939341,12.6488978394,0.329202364999,19.6945221698,35.676010439,44.6000726644,43.5337363017,-0.18397985134,34.6759561291,15.3969706205,38.0805866164,16.9755314295,-18.6503684051
off_to_on,-1.63431606962,-4.44964208636,-2.21129853424,-0.0573782842706,-0.423351591636,-0.579817581254,-6.10022127432,-3.6441180516,0.0957568728878,-2.73221569896,-2.41319299345,-3.60096655226,-5.35986324326,16.3628480646
off_to_on,-15.0486108813,-10.6446267158,-13.4624731396,-0.212666268054,-17.7422604445,-31.3683990646,-49.3892894015,-46.9754144661,0.679299760144,-36.042921129,-16.5155133823,-39.3719132731,-21.5022340774,19.2658785677
off_to_on,-11.9276799989,-6.02827549218,-9.79901803086,-0.469278028424,-15.865427748,-22.9408685803,-28.6206770256,-31.1689924527,0.79187701057,-26.746671843,-13.455622221,-25.4401200558,-14.8886721203,-10.4660392358
off_to_on,0.0794811356145,2.27997372691,2.05938643245,-0.612388745484,-1.33274554032,6.37350097344,25.543724767,19.4249675718,-0.0567392458734,8.21202659464,1.06100446935,14.407127342,4.60828631708,-16.9072663934
off_to_on,6.43834764766,5.20923283124,7.63020124622,-0.0651051562215,8.17643463809,16.8825948061,40.5474459548,38.3746072986,-1.03574496697,23.8591113789,10.8488374421,26.4326185945,14.7427718929,7.69432353128
off_to_on,4.46949186789,2.34816685919,3.3991120587,0.716387137927,6.90530152818,3.15689285598,3.62190529809,9.62828491387,-0.934516372583,9.04961997663,8.55142381138,2.93844578888,8.34431159078,13.0445121342
off_to_on,2.53037418544,-0.144894490363,-1.36044435131,0.606139488991,3.84216148037,-5.24677601692,-26.5015003876,-17.841568461,0.0612946737699,-5.86075172331,1.04697967109,-13.9127465237,-1.86147542121,-12.2597160575
off_to_on,4.22746404314,0.615952909876,-0.00847622561541,-0.250054774655,4.78233895188,5.91750640062,-10.1097823851,-8.0363210445,0.576265679609,-0.213312097506,-3.010459431,-0.109012503844,-3.88932795229,-18.8335674475
off_to_on,3.06490184909,1.18739170203,2.588270569,-0.416410255083,3.22111984132,13.4353478443,17.7180159342,11.515721922,0.10927426825,7.91679299984,-3.67661477577,15.9105391431,-1.1083722378,10.7068689025
off_to_on,-5.01935087472,-1.28137677233,-0.281807325912,0.47973447359,-6.13417283293,-3.76044204229,6.95925123324,-0.177727279431,-0.235475392876,-3.72897588767,-4.74748481285,1.90480410209,-2.24740815582,26.4951450884
off_to_on,-12.1179461364,-3.82885973056,-5.58004348062,0.940315793182,-14.4366938069,-26.2292152326,-26.6315025338,-28.2141537435,0.415960931576,-21.638282978,-4.68495950197,-24.7715820478,-5.85887918544,0.361313570398
off_to_on,-8.02296077732,-2.33632066071,-5.18376312282,-0.0637883385506,-9.30644553108,-19.2990208104,-25.008582737,-22.5284599793,1.16416083139,-15.4602532893,0.526427576016,-21.967307569,-3.64446484419,-22.6141726843
off_to_on,4.74991980183,1.66790281801,1.35057301034,-1.36555463128,5.9835854561,13.8764391077,19.8526028879,21.6279220357,0.60216260619,13.3828016943,7.94660022317,12.39834145,4.67716975057,-4.54087395527
off_to_on,13.1712777364,3.13142287138,6.17020541783,-1.3434600817,14.9568947525,32.5649553872,47.3616108704,48.1305743032,-0.970097951538,29.4017966973,8.95486499428,34.2152169231,9.60020717205,18.9412736762
off_to_on,9.91842709837,1.13510716661,4.68763532495,-0.230337990152,9.46740123266,14.1864193616,15.4944754862,18.0598940095,-1.77530882998,12.2183549583,1.20768772946,15.2833689998,5.43576158424,6.11199910669
off_to_on,0.389601024929,-0.320794556634,0.644016770445,0.656245790475,-1.44724105078,-15.7185223914,-35.5658384013,-32.2512976879,-0.924158821843,-15.4626594878,-7.06162938963,-18.1293447348,-2.38776402649,-16.368162646
off_to_on,-6.94155109071,0.540360776022,-1.67616734004,1.03345501342,-6.60328483239,-21.4240988777,-39.3318482215,-40.0352919652,0.525938444292,-20.695012321,-7.67615988057,-24.407177567,-6.18317774393,-9.80687304381
off_to_on,-9.71229543478,0.42181765573,-3.33029214464,1.3924426893,-6.39471758654,-4.47738164487,3.68701998976,-1.70399661389,1.14417166198,-3.65175667368,-2.36567135336,-2.91391007681,-5.39779100843,0.867183982332
off_to_on,-8.48035561867,-2.56996703897,-5.41206829469,1.28598734781,-5.88875119097,6.72428118233,31.3343789173,27.2961254799,0.836175508526,9.2299333495,1.87736372295,12.3671403131,-3.28042624979,-15.1995187848
off_to_on,-1.97978778711,-4.32731906925,-4.22410067165,-0.17931225675,-3.47424700448,1.91991769313,11.139675998,13.2368916659,0.421892446593,5.15248139654,2.79350368925,4.82609034187,-0.175055738245,-13.3546201495
off_to_on,8.1380494852,-0.8290061706,2.39057877974,-2.2013630452,3.98795950044,-1.98554360421,-18.9611074028,-14.1607119708,0.199555826653,-2.81573469722,2.85258811785,-6.50895008989,4.17500123839,49.3590248306
off_to_on,13.1856772706,4.50519680091,8.33670003944,-2.57541223,10.4651560112,5.2369168353,-13.8934266232,-13.220029585,-0.224840447754,-1.78250702808,2.50553524357,-2.39084461391,6.09029913295,94.1177183615
off_to_on,6.55823967174,5.01315787251,6.20413215639,-0.666322229558,6.90391679909,10.184768935,13.2974089998,9.24598345537,-0.905511719048,3.05014430776,0.18332879106,8.2054238275,2.66101703496,9.52854035571
off_to_on,-5.1675274543,0.684268631899,-1.28508994954,1.50706139716,-3.45467337241,1.38117235613,18.9870525047,16.2606778002,-1.1802796118,2.81818779815,-2.12996581317,7.46331535276,-1.67674000875,-141.293579048
off_to_on,-8.97499940695,-2.25104971859,-4.6242121235,1.93440535384,-7.48634801768,-9.15353384028,-2.29776103744,0.222807484602,-0.543034677334,0.897955975556,-0.519921580984,-1.72276396124,-0.825099681454,-153.934103965
off_to_on,-3.1613203982,-1.48593315511,-1.85499948133,0.988288219997,-1.49451577025,-5.66690595881,-15.1781912765,-10.5332323534,0.575888973691,2.93450612509,2.86338801278,-4.1758946125,2.09668518422,26.411399904
off_to_on,0.969975143891,-1.52254451434,-0.772843833903,0.189593507553,3.15529538632,4.1867244484,-3.14688292627,-1.52414745225,1.21053876428,2.70957280549,0.78276689376,-0.213119864079,-1.51157836536,190.681943068
off_to_on,-2.55369111156,-4.29000108284,-4.7007022402,-0.125816234002,-1.56666325501,1.81070011769,7.96644118858,5.89142663872,0.876436763889,-7.13920878396,-7.07203806348,-3.42800444447,-10.113867223,140.83567806
off_to_on,-4.67748379144,-3.97931437579,-5.47029917159,-0.586627193941,-6.98220136546,-9.91606159601,-3.39682945808,-6.13994552434,0.00169589019799,-16.7685734336,-10.0728846332,-12.7334593266,-10.3518205663,-40.2380588541
off_to_on,3.20302489781,3.40554772134,3.13469311516,-1.12404939886,-1.59903691148,-9.0217751968,-17.0548700991,-18.670642518,-0.591908453106,-8.72698846111,-0.595750084297,-9.09486046074,3.60805639629,-128.308077205
off_to_on,12.7910313635,10.6758963335,12.4693441138,-1.03156625261,9.39951535005,9.47413291972,-4.03939157531,-5.19583987439,-0.52303338067,13.8269183278,12.9603452607,12.5038053497,17.7568863434,-76.2443799082
off_to_on,9.3186827714,7.46784182615,9.3433558217,-0.303053884071,10.6270507593,21.5330196551,23.4101941246,22.512743099,-0.142478008944,25.1370886982,14.9561894923,27.2259580517,14.5948610275,-20.5804912111
off_to_on,-5.49846805084,-4.3917528338,-4.21198101888,0.381402077878,-0.493547192537,8.22319669075,26.0575064203,26.9896068572,-0.00254918467944,9.91435275471,2.55025394721,12.2135634171,-3.07788387313,-16.6060223305
off_to_on,-13.9118684061,-11.7173915871,-12.2843522729,0.778941902853,-9.7876896217,-14.8758094609,-3.51268896509,0.0998756331434,-0.139707118392,-14.5672683877,-10.8756476512,-17.780585505,-15.4256948018,27.665058104
off_to_on,-6.71121945589,-7.02027723029,-6.65814233255,1.045885311,-6.94830430625,-18.6376859355,-27.5002215733,-23.3587547717,-0.109906835404,-20.4662658207,-12.8983862741,-26.6912829415,-11.3213495504,127.247404415
off_to_on,4.79749658789,2.67321412361,3.18676965516,0.867433239938,1.27934534846,-1.21059791941,-16.431873877,-15.3788254051,0.242556563621,-5.02923854403,-5.28642444125,-5.58703247277,0.142729154828,133.853558429
off_to_on,6.50688559977,6.81286671767,5.26271432349,-0.0789194168712,3.60012429438,11.3860785683,9.90349071182,6.58982978671,0.444529660137,9.37858560884,2.4642385379,16.0775694287,5.77018038951,-24.5284893005
off_to_on,0.654092057223,4.38677102863,1.03113961172,-0.984514577173,0.476077030955,3.98548103834,13.9052307664,8.97540433735,0.122980698881,7.5216459276,5.85062625296,12.3493257739,4.86722715128,-178.515676927
off_to_on,-1.54021073292,1.15813019487,-0.671496883895,-0.721349420389,-0.165015020708,-7.80129539249,-4.6672971025,-7.0286282246,-0.281562736321,-1.54639909577,6.36699301992,-5.35896123701,3.67175772005,-138.384011768
off_to_on,1.36173346245,-0.649536346259,1.30861083389,0.187140022836,2.65116828387,-3.62985027025,-11.85566533,-10.3758586961,-0.0992244532756,-2.80924665386,4.68790603766,-9.35249699059,2.32752906317,28.5869235469
off_to_on,1.48122211326,-2.86421508958,1.02611990922,0.0771543706373,2.69571930105,10.7548636866,6.16191238875,8.76859319608,0.431630973956,2.63389446514,0.0338757869249,3.24157988015,-2.55207024579,106.845391589
off_to_on,-2.45208178601,-4.41201980647,-2.11775503174,-1.04350014523,-1.45890322534,12.9192573799,20.9943835854,21.8630963923,0.357130555445,3.36882114779,-4.99025546084,10.1868384791,-7.09632641091,49.7102125854
off_to_on,-2.63730180975,-1.75308330592,-1.95444819994,-1.07685128224,-3.77812796488,-2.74918485193,5.85784207338,5.77292558353,-0.513320921156,-2.28450618328,-5.46591226676,0.644648945124,-3.44522418761,3.48241030159
off_to_on,2.84335386348,3.5439324774,2.64944405565,0.859178343155,-1.18151996052,-16.709479796,-21.0739407798,-19.5863668354,-1.09167307157,-4.37525115176,-1.1166842894,-9.31365457606,6.21497064589,35.9576607416
off_to_on,4.72830468301,4.79371864723,4.12809364999,2.53795596191,1.56315403566,-11.3272396292,-20.7291102981,-18.4461103876,-0.466437316709,1.60095513683,2.62278678889,-3.689626506,9.38448861878,39.1213558414
off_to_on,-2.16250433482,0.00110590900818,-1.66902472743,1.62264104821,0.44141286998,6.06163098563,8.83283078042,8.0213925018,0.729888681774,6.78630723537,2.0715580882,8.13612171406,0.531834448971,-51.9463483246
off_to_on,-8.36267180512,-4.26743583162,-7.37697867297,-0.84430020409,-1.16454444298,14.323506694,26.5676685473,22.0234601657,1.13286950578,2.10496624009,-0.259429001184,6.48780315534,-9.84813329868,-122.140694182
off_to_on,-3.37227860926,-2.3448425768,-4.39974754759,-1.96155592364,0.799599422528,5.74678189366,6.21589557612,3.11944165975,0.46639630198,-8.03526321328,-0.735640705782,-7.90124906089,-9.25215502541,-59.9028295999
off_to_on,7.00568781437,2.18921237194,3.91926225588,-1.09166464026,3.0849789572,-7.03064949888,-24.9524673414,-22.5486335107,-0.29155061944,-11.3213544266,-0.125676214858,-14.5879875748,0.151164243232,55.9948858792
off_to_on,8.15886031144,2.49785831967,7.00142444652,-0.169923757087,0.364698089273,-9.4817117255,-23.5766812545,-19.4629629311,-0.442101431739,-3.32983874456,-0.717500453509,-3.16572048713,6.41281877729,81.0161464528
off_to_on,-1.36886077745,-0.894725452023,2.31232149859,-0.210402325567,-4.69223079367,-1.86081721817,9.00515671961,8.24008188731,-0.331312441941,8.0948957557,-1.06262566444,12.6440253875,5.21393217808,23.9000250439
off_to_on,-7.54866033309,-1.73990997628,-2.21869660036,-0.0202507187226,-4.08779816222,5.2561122384,29.531511285,24.9657480531,-0.392035852334,13.0455412239,1.63818749059,14.9546591215,3.03231198561,0.777018134105
off_to_on,-1.98956336316,1.30163010846,-1.1535246964,1.10162434058,2.97918982997,5.77788245994,13.7888277809,13.4618386839,-0.333161363674,8.97965142994,5.17235972371,4.30269671583,3.65341455379,28.0364334394
off_to_on,6.11584393212,2.61865955169,1.15433670493,1.73791482626,7.52543487123,2.66444704744,-12.7880781009,-6.21325460491,0.168602372895,-0.0937831620782,3.67314535922,-5.5260932584,1.74118145508,13.8313204531
off_to_on,4.82681533651,-0.733220202325,-0.725675665739,0.683850709798,3.23078334527,0.11439708879,-15.9140182585,-10.5031363023,0.655174196502,-8.74015118776,-3.53237052998,-7.55399290069,-6.07771934696,-57.9287402554
off_to_on,-3.02531338503,-3.81216230585,-4.04658698287,-0.883855158553,-4.48241825008,-2.21576040442,-0.434074774174,-4.04158876618,0.510223577156,-12.4133722066,-8.97219931772,-6.37956903956,-11.997426067,-85.7102835888
off_to_on,-6.0658298983,-1.643980936,-2.94875054452,-1.17785368718,-6.34762776618,-5.44708444263,4.32152609912,-4.49987755826,-0.021109011698,-8.67344387722,-5.92615609169,-5.96553720376,-6.78339258392,-21.0817295786
off_to_on,-2.23814559459,2.59774199649,1.45089184477,-0.477500739083,-2.04516627773,-6.73745809393,-6.67097519542,-10.5023762769,-0.225347307664,0.288216081932,2.58748344656,-3.24328683758,5.39247398038,48.4897301947
off_to_on,0.479836156523,2.44813479535,2.87707384494,-0.276365090968,1.05272476988,-2.5763919435,-9.05520002293,-5.1269740272,-0.0865311787522,7.95876226254,7.50618689265,3.93834787079,10.8711778976,43.0364463176
off_to_on,-0.682589395648,-1.56185469151,0.323661758267,-0.610863949506,0.125113102433,4.88959151677,7.38448608092,12.51310256,-0.192128527921,9.30876368632,5.07764664453,10.2160992053,4.95583397743,8.17771183475
off_to_on,0.942758712771,-2.60194350581,-0.386424739405,-0.192850289119,0.559040642313,9.06970200339,19.2887393116,20.7022108757,-0.5304402504,5.61288597481,0.31257231668,9.00159904704,-2.26553519057,15.9529490956
off_to_on,7.68477427961,1.65069215152,3.32721037899,1.08071203848,5.51464101089,6.68650885892,6.75189816686,6.69090589398,-0.354805657324,1.49582212626,-1.21003226609,1.62981035927,-1.42973613511,36.6988176518
off_to_on,10.0771710711,4.94102742312,5.56516627885,1.67292302896,8.44489927478,0.898917250252,-13.111720479,-12.1953262448,0.478999912867,-1.34273553808,-0.568279767634,-4.41330781653,2.75858883258,3.4097752885
off_to_on,0.443139623674,1.64948240904,0.625448155312,0.742981021551,1.74604849598,-3.9897408527,-11.5931517129,-12.3437313023,0.964890898085,-4.37442861087,-1.87165275068,-4.97316029967,0.305958529475,-57.439667063
off_to_on,-12.9229550937,-4.57704737969,-7.46459409908,-0.642157082464,-10.2303310453,-7.08015283806,6.51783271162,2.17129154431,0.345623276454,-7.17609193837,-4.57901221135,-3.06788782634,-7.31101151296,-62.714876132
off_to_on,-14.613158631,-5.78608665706,-9.44866010578,-1.17378193142,-13.983673193,-8.13302029836,10.5036522948,6.98763254632,-0.642692391799,-6.42961193197,-3.998554292,-3.14757804705,-8.71898009848,-8.88998374147
off_to_on,-2.59641830586,-0.844391230108,-3.07549774188,-0.898075784583,-3.81713090162,-4.51558013196,-7.09960923582,-4.95612648321,-0.744682082197,-1.17717815156,1.00109713351,-4.58052455548,-0.25353064208,28.3365915013
off_to_on,9.37400204913,3.55509835611,4.53489698678,-0.492041991842,9.80927246128,4.30163045347,-17.980010352,-13.1382162079,0.0270817048129,4.43991235861,5.2828727062,-2.77923376307,7.77615087888,20.0637443961
off_to_on,10.2617323511,2.7968040816,6.81345053691,-0.0452047465364,12.6233892034,11.4673154519,-2.88731425142,-2.03934028884,0.506097050943,5.98204789528,4.24095295395,3.85464321926,6.06026692918,13.7963661041
off_to_on,3.95740859645,0.10921157571,4.87043976165,0.597949407841,3.58970351541,8.4871398462,17.155647804,14.0135862067,0.126659770975,3.91644965281,0.0544578538639,10.1270640591,-0.483921990147,30.2594306307
off_to_on,-0.142604914294,0.352853034136,2.86088988985,1.06342217415,-5.47154843436,-2.75080624139,13.3560409201,12.5202748664,-0.387106590171,1.7169593617,-1.79261660103,9.10621801509,-1.29618169514,24.9037766002
off_to_on,-0.875828197002,2.24615527869,0.90549320497,0.862983719228,-5.76521286159,-9.69443161191,-5.83153266089,-2.49073676396,-0.246688240065,0.724548402696,-0.23864464431,0.93798714471,3.30765290314,-18.4862478624
off_to_on,-3.07278297201,0.960925937465,-3.18378393953,0.125766059729,-0.907946430628,-4.40499028105,-8.84176678773,-7.11062584343,0.319792322123,-0.40826206961,0.783991626042,-6.22587746044,3.38325000637,-41.2880128873
off_to_on,-6.45756626918,-3.50901323274,-7.59565508485,-0.653669121773,1.02410427785,5.47102102903,7.82677987923,4.16711000171,0.58856324988,-2.46583550576,-1.03501587315,-6.22055986805,-4.18625963622,-7.42736425292
off_to_on,-5.31551454255,-5.51577570224,-7.1503847841,-1.11886124751,-0.873672515441,6.4067470084,13.0792189787,8.77902397653,0.309962661646,-4.59400699063,-3.10447061063,-2.87440921918,-10.0532832653,22.7760810919
off_to_on,1.22579379322,-1.84984831929,-0.722014262722,-0.931633651467,-1.38100460936,-2.8984250025,-8.74143939323,-7.74071396529,-0.26531669157,-5.65539895033,-2.39142913809,-3.43426006255,-6.05654107366,-15.0604108188
off_to_on,6.08505500934,3.46891121606,5.95925737311,0.0916234211352,1.19630854628,-9.89056867268,-29.2926655452,-24.962731766,-0.79799589284,-4.32403784552,0.102398601154,-6.02851838821,3.16793962093,-70.6169254756
off_to_on,3.90880389557,4.65694655441,6.86690378463,1.21970299917,2.60362064885,-5.12760931668,-15.8484661957,-14.4432066657,-0.86116885809,0.816431736314,1.58949643392,-1.53199299983,7.5291754275,-36.3588968194
off_to_on,-1.3593005956,1.58426808818,2.62917372237,1.12846535388,0.276867252256,5.68716075744,19.0335490845,16.7421360241,-0.0849122895067,8.13790549987,1.91756643872,10.3734816078,5.128832393,86.3825195983
off_to_on,-2.30834906278,-1.19280732048,-1.24668204291,-0.232754050438,-2.00319038502,10.190025283,32.6911368231,31.5579654194,1.10867219734,11.3197528779,2.7483575587,16.0971103642,1.96289504908,157.634800151
off_to_on,1.72530083189,-1.15736294779,-1.56771594046,-1.09936173722,-0.0187483829029,5.17627285719,10.8174738786,12.7722015583,1.43418418071,5.46256298314,3.4812019605,5.96146858506,1.01589940602,65.1660386914
off_to_on,4.41316623902,-0.202151667536,-0.351641051513,-0.311356214912,3.7911553131,-1.66127726671,-15.3910273081,-14.0875125309,0.234152545347,-5.1143130237,1.41576985157,-9.74878048263,-0.804521093545,-121.742224808
off_to_on,1.24520629573,-0.525065668233,-0.843948008032,0.762782680466,3.2855305799,-3.8583500934,-15.2841578958,-17.3771484845,-1.28855187849,-10.2259497348,-3.56071899842,-13.0098914003,-4.84666720781,-208.191655428
off_to_on,-4.97701261799,-1.38127927517,-2.9437462872,0.291604801916,-2.46414381667,-3.48223601836,1.21814484852,-1.64006632138,-1.33236803579,-6.27053566774,-7.18835127601,-2.98809786618,-6.75977096052,-86.6020802687
off_to_on,-7.78332673269,-1.02699235214,-3.61985696352,-0.930765009588,-7.18887850479,-4.63331692258,4.73280157609,4.72463249505,0.0751442636327,-0.149153056255,-5.28107424278,3.85502602284,-3.04171469604,128.096864362
off_to_on,-4.01438037776,0.352180671387,-0.968874103932,-0.649196948236,-5.14425537666,-5.17548518371,-7.97030046424,-5.62595938124,1.03310237417,1.57052097865,1.26538231852,-0.68311088525,3.08760075297,206.179121515
off_to_on,3.33231715905,1.25221093113,3.18867428986,0.979377762982,1.91099790542,-0.183232539122,-12.14590709,-10.3108697441,0.422378154081,1.38413356326,7.03364675062,-4.98076921052,5.71360803355,60.7570485042
off_to_on,8.02254556503,1.09661395234,5.0135072773,1.34275718332,7.01034724738,8.15760692645,3.96182060134,4.21739747517,-0.575872111352,3.89625294552,7.11146760728,1.86859455565,3.40558712859,-136.58487298
off_to_on,6.21853288775,0.442226493809,2.79936896316,-0.340431729387,5.75873718066,10.3350441746,19.347534589,18.7165691037,-0.373110417449,5.84619250668,1.34307631549,10.8971230874,-0.449441607091,-152.066019804
off_to_on,0.0418042396548,-0.200071823178,-1.02324798127,-1.49126829394,0.269549056175,1.80900045866,11.3707173716,10.2104485296,0.618102088709,1.36515480208,-5.38023653869,7.32364591659,-2.41631956739,17.0288232282
off_to_on,-4.62656895494,-0.506885782439,-2.62534354959,-0.316241557094,-3.9875895532,-8.69999707934,-9.41975674783,-10.7197171583,0.726572931868,-5.69437932997,-6.90565821748,-4.56909145695,-1.52862948531,138.685728039
off_to_on,-4.36253730497,-0.0590608660537,-1.2678372236,1.12453354043,-3.86637870967,-8.59646937303,-13.6364886457,-13.7454587324,-0.317930178741,-4.99181326113,-1.50295494555,-7.18575214075,1.18589102598,60.1862117418
off_to_on,-1.33624881456,0.805633123212,0.158463257311,0.319627129236,-0.94054651187,1.87164525055,3.4971307157,5.06449138576,-0.965325105523,3.61808200361,5.50302089365,1.86393060169,3.0344245394,-88.3822778961
off_to_on,0.448653558147,0.564273655678,-0.631556165973,-1.30589552539,1.03152181471,8.66729266537,14.1073404831,15.4594917956,-0.256815959319,7.05370664895,6.44037052541,5.02167827588,0.989683099434,-94.599262797
off_to_on,0.33918211944,-1.48389574139,-2.15349874414,-0.606786926906,0.483027571078,2.41486427124,-0.964598441109,-1.73717064768,0.716754781356,-2.05923660129,-0.109912437806,-6.44916477145,-4.39517069177,28.1393200193
off_to_on,0.51017329502,-3.19943854963,-1.48338843495,1.80372880848,-0.547273404786,-8.12294323661,-21.3813821861,-23.3307552289,0.505538509534,-12.1962534255,-6.95007939823,-15.6318962617,-7.44595253204,83.8534054028
off_to_on,1.61405570793,-1.59067240404,1.46316449847,2.05369941673,0.393996414026,-7.65662999833,-15.0323503507,-15.7669298434,-0.530592132084,-7.77366886503,-6.31344650915,-4.2782720289,-3.0956889995,5.30128916759
off_to_on,1.86785303258,2.76917986426,3.77311349994,-0.832599638843,2.3922737673,3.75097662946,13.4590051819,14.5480138838,-0.82285789071,7.86104630542,0.929556486567,17.2408054661,5.84981218224,-59.8526685144
off_to_on,0.314555143765,5.2257125701,3.12455344148,-3.00125768718,2.09134047486,10.0991125308,26.0115522101,27.8010241673,0.0932517518574,15.4300971058,6.54804179427,21.3483691299,10.370315246,-6.05140652707
off_to_on,-1.65956383553,2.34537494825,-0.0414216634807,-1.42436950192,-1.40054129777,2.46442748068,5.39269496032,6.9622491429,1.00675616572,5.58488503355,4.99506701474,1.49471556159,5.29544943455,63.0316843387
off_to_on,-2.35210872274,-3.3023542118,-3.38080736846,1.6526573444,-4.30399567627,-7.52114683365,-18.3888571961,-17.9855908933,0.806626221147,-8.80603506439,-0.623499528058,-18.0489423578,-4.44084407701,21.8863255268
off_to_on,-1.10997179017,-5.47128691112,-4.09648890218,2.25443016259,-2.39398787928,-4.60489447602,-11.4768864218,-13.6535485976,-0.146862444607,-10.4530070707,-3.42019896182,-14.701523125,-9.06230330186,-63.4376399792
off_to_on,2.04833650903,-1.4900525541,-0.593955991695,0.33559808172,3.25734224003,6.9465813904,13.1807700661,9.22350440942,-0.786725314113,0.225065153317,-1.21828369355,3.90062826035,-4.40974817381,-51.9387469745
off_to_on,5.30659929992,4.22087423453,4.7828498315,-1.00337004773,6.54309742278,8.95537411052,15.1981440283,13.8200235767,-0.733901530221,7.92397013782,1.75036276703,13.0307347523,3.93233609119,34.5372377978
off_to_on,4.10591380664,4.92213684785,5.7129745806,-0.527911724826,2.92559735728,-3.60124023315,-10.9398866128,-7.15417529816,-0.354829949288,3.43207725563,0.781954853956,3.79302241371,6.67117428399,54.8509684424
off_to_on,-3.95088195837,-0.588507434362,-1.31809216866,0.0970531147361,-5.02321999023,-14.2292726649,-25.7559140152,-21.3475324843,0.0858947506454,-6.16670077258,-3.46123559341,-8.98492754856,0.69788394265,-12.5501167566
off_to_on,-12.3005082931,-6.18762731973,-9.94347078847,-0.176697196803,-9.5335855466,-8.21161660362,-4.71307403184,-6.09406708309,0.589676184539,-8.58585449976,-5.60657104097,-9.32889680554,-7.12232908314,-44.4517787821
off_to_on,-9.56986245204,-5.20212229081,-8.82607672776,-0.356650460821,-5.36403202731,6.68696006679,22.9035878715,17.7690727172,0.880869944887,-1.42390423023,-1.74820227945,0.816631201288,-7.06320943684,9.64299873435
off_to_on,5.44239690513,1.81068321893,3.69767232086,0.113333924248,4.46791239118,12.1132738169,17.6448689021,17.6584020114,0.465648425822,6.99501638618,5.48933100854,8.40478239612,2.02411151726,48.2558806952
off_to_on,18.0909349958,7.51373190146,14.7161748694,0.230140459067,11.0858302942,4.74711222752,-9.93635948406,-2.81251226939,-0.510465164512,8.72401608361,8.97145607011,7.29457533682,10.4562175591,2.00035496881
off_to_on,13.7296584414,6.11471219393,11.3734872211,-0.285491187853,8.35993666575,-2.18464064139,-16.2009581013,-11.9294756867,-1.03239307684,4.13675552272,4.8075525295,2.6443334981,8.91516704916,-48.307912177
off_to_on,-3.60929164893,-0.459825257824,-2.88474823002,-0.050976404101,-1.03134204212,-0.976298926344,7.22287283358,0.609019462367,-0.373506625248,-1.17437602027,-2.96880476723,0.0499851064541,-0.384525629572,-17.7997565322
off_to_on,-15.7650368407,-5.68288953637,-12.8112211463,1.25759870966,-8.62088506374,0.501022055266,20.5605397037,9.82663320213,0.762450724952,-4.09281931653,-7.06932439602,-2.23233981402,-7.44925459496,36.8199072641
off_to_on,-12.6287001975,-5.95534009218,-10.3344020953,1.48408912568,-8.75130112525,-5.05947273947,-0.831293411082,-2.64775286651,0.898932101759,-5.77802224098,-5.36391192275,-7.4278432719,-7.56750494007,22.1067732134
off_to_on,-1.66511838552,-2.86683023178,-1.82381090546,-0.724718433438,-3.052667046,-10.034490974,-26.4392753324,-17.9072406807,-0.298720920502,-6.67582637762,-1.93926092942,-11.3644656013,-4.78512807055,-30.3169767277
off_to_on,5.56259162809,0.825725938918,3.7693639085,-2.96525251002,3.07550676605,-3.57164651723,-17.3648597606,-9.28479908966,-1.36379382946,-3.95915877602,-0.0964581011352,-6.02272031797,-2.45294639409,-26.2648979831
off_to_on,7.16847128528,4.00836361152,5.70291712706,-1.95783020296,5.97583454154,9.06370622496,13.2171984661,13.9460427481,-0.772508852267,3.31439998861,1.62722495394,7.53651188928,1.95181100884,24.4681399263
off_to_on,6.81437750536,5.54646557665,6.77990522186,1.52569415575,4.96555667355,11.5580618262,20.8545657049,18.4473746005,0.992174375119,9.4815362896,4.74693016484,16.3105502014,8.94992224245,31.1823140582
off_to_on,4.14917859222,3.49968937223,5.36986916945,3.33207123684,0.967696783634,0.414708800816,-1.17009781722,-2.07346341867,1.85899427618,7.84582962027,6.27735016129,10.3631033757,11.277561736,-15.0456346173
off_to_on,-2.40003328518,-1.61206436161,-0.892740214098,1.4845422979,-3.40749757566,-8.6519464024,-13.3445070086,-15.8624958396,0.727419551095,0.355181342751,2.88737120746,-3.41178532163,3.29495369605,-29.4867071794
off_to_on,-7.996253413,-5.27006232455,-7.59429020242,-1.45156803665,-4.20458015216,-3.10044963712,5.3771930449,-1.48389936228,-1.1293159923,-4.16992433208,-2.87754388903,-9.77665437582,-8.12417298697,12.8615642092
off_to_on,-5.8866968065,-3.85040865129,-7.56326598918,-2.19539724945,-0.134457930696,7.79259333563,22.7942611247,17.9965744709,-1.68465795101,-2.64092444257,-5.34493580912,-5.47365931818,-10.7838334958,33.9606718794
off_to_on,1.62449428845,0.320405561495,-1.25886376323,-0.75312262976,4.18799624113,6.35124168643,4.49534021992,9.44563117346,-0.621280050887,-1.71553192147,-3.66078865192,-1.49686372236,-3.68667519053,-7.37090130031
off_to_on,5.05919254,2.08161916414,3.71724650923,0.612559993617,2.74005428828,-7.08283670494,-29.006693832,-18.1512017665,0.590129098372,-5.50684690465,-1.94340777198,-3.7857994158,2.53333288797,-42.2331081334
off_to_on,1.23237510522,0.713398629327,3.47910824702,0.738122310153,-3.57511254418,-13.8234075941,-29.6919409306,-24.6189071384,0.802814724572,-6.72806246793,-1.59679922964,-3.51234175487,2.01004096666,-11.5598323709
off_to_on,-2.85421087825,0.157814448654,1.62206246764,0.270714178581,-6.87840719605,-3.62134669755,6.17377598752,1.44597738407,0.399677589045,1.87059074863,0.697068910752,6.064234569,0.733476712627,33.5033870298
off_to_on,-1.47949643604,1.88597350487,1.21848456386,-0.0240812131922,-2.38242054507,10.5357434211,31.121729658,24.2769841529,0.204913569014,12.4963744494,5.53092814359,13.8703740246,3.90993508991,22.0606460073
off_to_on,1.92435590396,2.19758054582,0.105754482454,-0.0650514968462,4.98624600151,11.0575484673,15.0258333917,13.3738543083,0.167335592755,10.3589573213,7.2209285677,5.78608496458,5.91759779822,-18.4859256102
off_to_on,2.09135490124,-1.27551574221,-2.87284937554,0.0879380770621,7.04067214658,0.0365831483191,-13.7759876499,-11.952446446,-0.188817280154,-3.95612026497,1.89083749385,-10.6384360449,0.263001890101,-17.818892049
off_to_on,0.429781229525,-4.48958368314,-3.4698572012,0.326054883829,2.70655667908,-5.99473583508,-13.8302723819,-13.3773901625,-0.643854883904,-12.6574630541,-5.27401898053,-13.3632545682,-7.45305017546,15.6579584291
off_to_on,0.664701338191,-2.35737960461,1.01465177721,0.193295846955,-2.04631387672,-1.17411445567,8.90413963232,7.99736675999,-0.544899170939,-5.20951204642,-6.32681782353,1.61022804338,-6.44393254015,18.6418912412
off_to_on,1.12825042797,3.18681756387,5.26003203271,-0.507314702178,-3.07341693695,3.1527167716,15.0394558335,15.4160073648,0.0453771411352,6.8965824353,-1.47327198361,12.6947441804,2.51730392532,-12.0167668607
off_to_on,-1.71240452161,5.15007586103,2.74964789176,-0.998101752167,-2.1057315371,-1.39351110435,-5.87087108897,-4.5192446125,0.382612016436,7.59994787868,2.19371803434,4.59539009427,7.45166061992,-20.0059812949
off_to_on,-5.17676194182,1.00800929139,-3.86523427458,-0.416163170462,-1.79358930497,-6.62081796562,-21.0730910686,-20.5201596244,0.247020869407,-1.12745521836,1.47457697094,-8.96620481278,2.41082331195,5.18020828571
off_to_on,-3.33687168403,-4.09718685309,-5.98833746849,0.724449353951,-1.41251871182,-2.15014015882,-7.04397826385,-6.48987693439,0.209531221075,-5.4540959285,0.104036574618,-7.65312969031,-4.96543823711,13.2047165714
off_to_on,2.8982210105,-4.5319786925,-1.43065896342,1.04385859684,0.463778715632,6.31362854615,14.5281842779,16.3284419578,0.447157116203,-2.01898245345,0.779216116303,3.73934860984,-5.65104677181,-10.2576775506
off_to_on,5.89567376227,-0.820694084588,3.28794962857,0.28061518667,2.4282058138,5.30540446851,11.5647936842,12.3522749953,0.238025102923,0.060874130805,0.928847508693,5.16569267121,-0.89041551247,-16.8239522717
off_to_on,2.29366223867,2.62204505033,3.27733423374,-0.387418213188,2.21807142361,-4.2452017623,-8.58324735233,-11.5589042263,-0.734956048312,-2.28930611353,-1.14910280727,-4.24026547105,2.76502358046,12.6257526447
off_to_on,-2.57584714696,3.36032677004,1.14565827844,-0.233336223445,0.326552226174,-7.21657869733,-11.5456187215,-15.9235639852,-1.37165200772,-0.848646915422,-1.96837994266,-4.92894145959,3.52030650904,28.5937866448
off_to_on,-3.14009709742,2.05535997354,0.582387062767,0.0214633018986,-0.863347965633,2.1045205257,9.44229363333,8.78080325573,-0.472266277831,7.00335292387,1.10935939464,8.37337273984,3.50576645424,1.05042215687
off_to_on,-0.597055089517,-0.107616871987,0.390625128498,-0.326050604213,-0.365563451281,10.2224996692,21.6799831417,25.0948277292,1.28914811067,10.1301626296,4.10292091713,14.4654208124,2.4083273502,-24.9258488686
off_to_on,1.33370033466,-2.13990307704,-1.38745288618,-0.634819484843,0.939814212922,4.81860645878,2.92933834734,5.67446102361,1.87307546034,0.82128844335,1.9459541374,-0.852697503804,-1.33530022179,-8.39702879027
off_to_on,2.23277158761,-2.48777498343,-2.52225591274,-0.0527534212042,1.87126329297,-6.25265563297,-22.9095482248,-23.3236718235,0.491936969821,-10.5424425455,-3.19145069266,-18.7234706719,-5.16601486979,16.7188635936
off_to_on,2.57141119366,-0.475194442328,-0.653079134007,0.828288591042,1.14343017834,-7.3700290912,-19.6360665727,-20.676534536,-1.309619805,-9.43437047912,-4.81297306392,-13.2264867867,-4.59646690911,6.62611883826
off_to_on,0.225676163598,1.71198736035,1.3791923146,0.708769850961,-2.32955614548,0.61344410989,7.7031483872,7.98502843666,-1.6534739865,1.03581685434,-1.73276210284,8.7707620155,-0.320308237234,-14.5210900135
off_to_on,-5.25014292224,1.07815736928,-0.266687996646,-0.351156953662,-6.79309547371,2.72413200547,19.8480997736,19.61716267,-0.56321803546,5.33094071033,1.09344451534,16.4811261579,2.29522756342,-8.04008091357
off_to_on,-8.1722882793,-1.83424428181,-3.22643130608,-0.872661933334,-6.94523809815,-5.0796889866,1.00638379768,-0.597010859375,0.514359963651,-0.480003241471,1.05970241275,0.490477505054,1.12944120146,1.83807518725
off_to_on,-2.81633810187,-2.98012815784,-1.81204620876,-0.0874481347138,0.385931681061,-8.40954415185,-18.400438044,-18.2039059787,0.784194350654,-3.9253868554,1.12634988514,-14.2137829149,-0.171313836054,-15.7488749221
off_to_on,7.26996832643,-0.0402084956048,3.73573746721,0.962611407506,10.209703631,2.81430937373,-7.46686288307,-3.85563129078,0.691396521293,2.80951183768,3.17418781404,-6.11952406338,1.3977996756,-14.7713837601
off_to_on,11.9457570876,4.2768333368,6.744271256,0.884967917083,12.9885873807,16.6711963363,19.1492521749,21.4796763471,0.65012605857,10.1784478636,3.87094760691,12.1822007793,3.69844719559,50.1324035317
off_to_on,6.68019109309,5.37801384994,3.50238604679,-0.297808853118,5.3243430213,14.6797042813,22.8628460349,18.8726747016,0.300305100698,6.31839582583,0.373558699314,14.5873892097,3.21856778012,98.4310057069
off_to_on,-2.88102372783,1.95426422267,-2.11805174392,-1.37251233556,-6.06412668841,-2.24841059747,-2.32384706458,-9.51665868556,-0.60143351482,-4.82833320575,-4.12890220547,-0.878787416213,-0.0739217324327,12.4344680635
off_to_on,-8.97461564881,-3.14531244888,-5.0003987496,-1.36826430459,-12.1444067972,-15.3595621852,-22.0433373004,-24.1382456901,-1.34704331034,-9.84530173536,-4.65470037404,-12.6283735378,-3.65947179084,-146.438744398
off_to_on,-9.29722590064,-6.18522606146,-4.92019731616,-0.260584497175,-10.2492458147,-13.3074690897,-12.5076156441,-6.93761961987,-1.0182679262,-5.04283747162,-1.53522829439,-8.37675437636,-5.61236558017,-164.968670569
off_to_on,-5.43563205944,-5.47618138152,-3.85852545452,1.26059214225,-3.647690103,-3.9583268392,6.56432230052,13.8193951107,0.227508585528,0.563924409211,0.78181777436,0.56501769601,-5.05441632025,21.03350694
off_to_on,0.854962549521,-1.79700247599,-1.49679111957,2.13275733205,3.69712728486,0.97096679434,4.76778030989,7.67003951901,1.1996530506,0.140267234108,0.447538501577,0.492814584904,-1.8270573391,198.352000296
off_to_on,6.90643304348,2.67953581495,2.89250575111,1.44331562833,8.8425488838,2.11821163256,-11.8377340171,-13.1128597043,1.01099198189,-2.08549539805,-0.153970453593,-4.03910560771,2.57847323694,154.621443994
off_to_on,8.84135591734,5.79814151032,6.87772151161,-0.606762716907,9.26594835104,6.62382830979,-10.8158373037,-13.5742680525,0.0146067221301,0.979558925685,1.16353722482,0.118193589668,5.69749607084,-33.5882986617
off_to_on,5.6056389082,6.43980460899,7.0410717508,-2.37548246064,4.78512292638,13.1601960337,15.1643043573,11.1550823851,-0.678536198591,8.34142698432,3.64867279128,12.4316528623,6.75599790567,-132.933672382
off_to_on,0.685313999305,4.38302787417,3.25542595547,-2.18671222727,-0.936704968342,12.2554163467,33.6819931467,28.3007412096,-0.42451793352,11.9404762673,5.09566678309,17.4105046965,6.34315461185,-84.9910995624
off_to_on,-2.7949384832,-0.287564593991,-2.01513625824,-0.225768791786,-4.161276005,0.445572703592,17.4691041049,13.9474322399,0.312841343758,6.10974821594,3.46549724601,5.32831356897,3.05981053544,-26.2862812149
off_to_on,-5.55797463426,-6.3578713622,-6.83187433118,1.5641664257,-5.40684181568,-13.4250392148,-17.0290502598,-14.762426864,0.52441197623,-6.35310495598,-2.20984698067,-14.0298798391,-5.19178137043,-18.8355010324
off_to_on,-7.97425484376,-10.1371562483,-9.29950207378,1.69796587738,-6.8005545416,-18.0816365157,-32.6540958125,-25.2582437305,-0.161447621612,-16.3648679325,-9.46142558276,-22.2361795108,-14.5520525027,27.5431333317
off_to_on,-6.49576709527,-7.40211981384,-6.45152388887,0.678637539944,-6.6291373507,-11.4694195396,-20.0879424,-12.5157744443,-0.975102264041,-15.9193824889,-11.7403372024,-12.9566656488,-15.0799909998,130.573872665
off_to_on,0.840138205108,1.44230110882,1.9197356837,-0.0631310710813,-1.35560737909,-0.165719332078,-2.10804779923,1.15145550939,-0.874204833386,-4.73240969128,-4.37391188402,3.01701014618,-2.38353955647,140.630811964
off_to_on,8.42508644842,9.70554018267,9.66165010569,-0.16187096528,7.05257539308,9.29963605721,5.581329578,2.94839273507,0.169887412969,9.45528171587,8.18706629315,12.4891726752,13.8639370596,-19.2522869027
off_to_on,8.76601007894,10.4872051163,9.57648126057,-0.444410647814,11.2024255183,14.6322744302,12.4289555615,4.85018022067,1.12114409851,17.4804280338,15.0316390144,13.5783408132,19.0497842064,-179.364904259
off_to_on,2.79183806599,3.98552620091,2.45900931197,-1.22712506782,7.41225037515,14.6492609012,25.2347306455,16.6188911893,1.15377357362,15.3659152212,10.3325436644,11.4436133132,9.9322424805,-143.339089139
off_to_on,-1.79226424276,-3.38014895136,-3.78812305022,-1.47373556131,0.231504323844,7.18542484255,26.3429686071,22.9266337968,0.49057267014,4.87155701251,-0.788289716309,6.07449162092,-3.59334648502,24.9909630531
off_to_on,-1.94189363126,-6.52529614719,-4.5091722467,-0.212992004976,-4.43449707388,-6.56689367457,-0.0734527567869,4.87262057495,-0.238474878847,-8.89704354816,-9.1599222517,-6.21295801136,-11.5816027655,105.986266639
off_to_on,-2.09104348194,-5.64698992789,-2.77314229312,1.73158568654,-6.21725838134,-17.9110851623,-33.421556923,-24.8910900722,-0.85655990314,-18.0160756236,-10.71155692,-19.3879793314,-12.1944388832,48.9607894128
off_to_on,-4.63019926646,-2.9817577636,-2.33877899874,2.31079797337,-7.07995459056,-16.4928243272,-35.3180668452,-31.4185885658,-1.31405453746,-14.5412534415,-6.88022954187,-18.0585420952,-7.29701096695,2.43138031323
off_to_on,-5.22375812868,0.44763650841,-1.90875850685,0.688229019979,-5.7410035297,-2.71514926583,-2.74001560718,-5.1300495663,-1.0740485715,0.567926247866,-0.258112047362,1.14224909601,1.44918477247,37.350981519
off_to_on,-0.999641473677,3.4202151221,0.439845445257,-1.55262218573,-0.437177327392,9.8822360607,23.4164388058,20.9579553236,0.210229812352,13.4188203759,6.11464706782,18.0662110622,9.22075157183,43.2576075805
off_to_on,3.48282893891,3.56526331626,2.32574336159,-2.13405350494,5.64593456346,9.61698829215,13.4498475158,15.0372808914,1.59814241417,10.60075018,8.10865097447,12.2055038728,8.83046269607,-48.959811311
off_to_on,3.64898553962,0.811223167537,1.41635754339,-0.674804631715,7.48111051805,1.52081293532,-10.0136349,-8.6892381345,1.57654829248,-2.69746153591,4.21497598501,-7.30349956885,0.542204938174,-122.872343608
off_to_on,2.5366378566,-0.822642175759,0.694863391936,1.06279754488,5.33135408058,0.0794268082545,-6.88282044181,-11.1938732155,0.117546740069,-7.4030613757,-1.17334086313,-11.5945126648,-5.02079748738,-62.1482049521
off_to_on,4.39378833321,1.46240763769,3.43179889625,1.4061938038,3.1880133177,7.4842191858,19.4177964931,12.6745668746,-1.04233438692,3.20264599138,-2.55777833615,6.5261818891,-0.57123283936,55.0585059051
off_to_on,5.33115803758,3.94461524496,5.68996365908,0.49765111474,1.1225770843,9.09403560701,26.084212904,25.1102342247,-0.722339316913,12.4896040367,-0.682028801105,19.8360193765,6.19326143888,80.5785947277
off_to_on,-1.02844165546,0.874058320429,1.02167904686,-0.440199858302,-4.15208927352,-4.34484232603,-4.36805072435,1.80103193069,0.11844830954,3.92033121391,-0.652033278017,5.34609246546,3.03309672303,22.1579871255
off_to_on,-10.7489392142,-6.26483731946,-8.09248980496,-0.768879312916,-10.6045597733,-19.4670266529,-35.1444699132,-29.3670718776,0.0159347972746,-13.6271409935,-3.28288627071,-20.6746995466,-7.98186018899,-0.91730467173
off_to_on,-12.0448044202,-9.04783107408,-11.1407998144,-0.671039327425,-10.2480031283,-16.3070068589,-26.3896766208,-26.6999724641,-0.669014445487,-17.2658399211,-3.79402512548,-24.4265845233,-12.2771737424,28.9550988647
off_to_on,-1.73845759334,-3.09716322495,-3.67641915284,-0.257327586478,-0.539353187489,3.24279301784,8.4738608997,5.51574458494,-0.436286946347,-2.5309361599,-0.071054675912,-1.99335729316,-3.49681998893,16.6595600406
off_to_on,9.26487592994,5.67209199567,6.19994344569,0.527542483249,9.66846230845,16.6804026222,23.7522651108,24.2297120808,0.759511773912,11.305400594,3.44207985975,17.2999146583,7.89357807931,-56.2300574807
off_to_on,10.2411376156,8.60606038511,8.78804629215,1.15796347731,10.5225277137,11.1985476138,6.75946483503,9.78127627124,1.25686840494,9.79481984484,2.80162176246,13.9864001692,10.0214415141,-85.8942772739
off_to_on,3.3281284525,4.6633476645,4.51896182818,0.761537314244,3.30164910824,-1.15344294127,-9.38219150896,-10.022995058,0.270837414339,1.45210872443,0.577709652567,1.69214359798,4.46826841568,-21.2584609363
off_to_on,-2.44950166103,-0.460198716699,0.219451998031,-0.512522804415,-3.01564331641,-4.07727163952,0.0246790646924,-6.06676332732,-0.828325282469,0.166176250703,0.860266640713,-0.410817482978,-0.124494730236,48.8536780227
off_to_on,-3.66883005775,-2.95971619697,-1.51330286138,-1.26726377416,-3.9136468923,0.215615805867,15.4104895513,9.76289754852,-0.612015346174,3.18216961401,2.21426040024,2.72842505376,-1.78965934993,42.1855575463
off_to_on,-3.06700831279,-3.85447257616,-3.02462820133,-0.656227766536,-2.16431231354,-0.261909520086,7.68937488957,8.65415340149,0.287813827552,-0.632306194329,0.612493428438,-3.62790231083,-4.25910022146,5.71495042493
off_to_on,-2.092321087,-4.1564357008,-4.50714903325,0.350293832248,-0.769313465552,-5.2856400338,-14.4363600274,-7.8654497171,0.346237005962,-9.18026781786,-3.18510618063,-14.3595722587,-6.7757956606,14.2866521882
off_to_on,0.0519967661201,-2.37156366573,-3.13571345296,0.405357653925,0.209068702952,-4.35740570731,-18.6856359497,-12.8855020211,-0.418009810501,-9.45492491849,-4.63695426231,-11.1215680785,-4.3493599455,37.528188243
off_to_on,1.9341153351,1.67937361079,0.88943645421,-0.126866303738,0.158604994704,2.86483853015,-0.28052079203,0.483397073962,-0.630029385981,0.802733129634,-2.58213936825,6.11436149834,2.57874056627,5.27087197662
off_to_on,1.02184029822,4.56121811472,3.36870560256,0.162829145451,-2.20547165321,4.38478017442,11.4537500415,8.65097285215,0.144064099116,8.69759532626,-0.0569333443845,15.9554308605,6.9422522591,-56.5556448702
off_to_on,-1.20756252055,3.39804341533,2.31903447818,1.16874178298,-4.32564536589,-3.31944178132,0.336358363038,-2.15121095313,0.779220924998,5.80931811443,1.59795747481,7.07118569001,4.84290893591,-62.453764256
off_to_on,-0.899653235551,-0.066021238791,0.429178098467,1.02929806102,-1.14443366067,-7.20630807046,-11.2865901145,-12.125592821,0.446012143948,-0.700306085103,3.81960624544,-6.03110486051,0.0897415413599,-8.10520273202
off_to_on,1.55599699845,-2.08040474973,-0.0553750167402,-0.929213564667,6.60739532388,1.96665697149,0.581504037203,-0.432399994678,-0.228684853107,-1.89636997415,5.47661525964,-6.76895255838,-2.7246506192,28.942075322
off_to_on,2.00593117635,-1.74941879463,-0.391342657109,-2.49577135616,10.6303732303,13.014397837,20.9796908723,18.5265783168,-0.3708666804,-0.609707837533,2.58146703939,-0.131639085462,-3.64270194384,19.1419106068
off_to_on,-0.0903497210503,-0.74865652539,-1.36543658243,-1.26871383726,5.11580046481,9.58263332163,16.9857383312,15.1366951829,-0.147355302163,-2.7603887432,-4.20722960959,0.17562715528,-3.42461106058,11.9956476689
off_to_on,-0.630653854906,0.238396661098,-0.759561445131,1.70985620935,-5.19384946258,-5.19732871831,-10.5830895039,-8.67395698988,-0.099748603635,-4.19690667307,-7.42999435813,-3.66370159074,-0.275807202151,29.3333122355
off_to_on,1.4645964816,1.63643986505,2.12395842372,2.82510485516,-10.7229287211,-12.7212717803,-25.1084791969,-19.7327341551,-0.0550182354625,2.14815619107,-2.46197803133,0.846588135998,5.29886526015,24.9315275103
off_to_on,1.619782434,2.25314168219,3.24260746155,0.5637308084,-7.98672326759,-5.43338572003,-7.28378340738,-2.81427861127,0.339950004267,10.6539520943,4.82889285019,11.3362816672,7.22782362586,-18.6574703038
off_to_on,-2.50177848174,-0.000781761931557,-0.695247147496,-2.32066573535,-1.24609911393,3.95527241263,15.8779600315,15.7101214022,0.58516243224,7.59408312907,5.28285844833,10.0043530507,1.07581047129,-41.3018491664
off_to_on,-5.97715777212,-4.01826831502,-6.04594021201,-2.26045329221,4.11712174246,2.52348056514,10.4583317758,6.60177922327,-0.0391377208426,-7.9734132702,-1.22299586407,-8.27258136236,-8.1297821551,-5.75067780815
off_to_on,-3.69682658461,-5.20327020368,-6.10820424787,0.586812204114,5.82303053681,-4.82889674398,-14.3774961259,-18.2085422648,-1.02164258006,-19.1517009744,-6.15648585882,-23.1344356374,-10.6966904573,25.5523615298
off_to_on,1.94826639836,-0.974935531654,-0.0125126344006,2.65135875231,4.17483003617,-4.38373398924,-19.5577911281,-21.5525086878,-0.972744114649,-11.6358108313,-3.90380500564,-13.8498591547,-3.76656779958,-14.2386913804
off_to_on,5.2582468832,5.3624075113,6.43886531699,1.49858157191,1.47689828833,6.12005676483,6.88919140798,5.95356931018,0.372195463018,8.33755633817,2.47525418957,12.1740703287,6.37793729868,-73.1687316264
off_to_on,5.34779117972,7.97735069784,8.1739341408,-1.35508438938,0.848073468305,14.5955965269,31.6230254638,31.6484230499,1.51665278384,21.8078158432,7.01227659755,27.4772498643,12.238257596,-39.6208291348
off_to_on,4.48180842485,4.54028083557,5.02538102226,-2.60347816588,2.04488065241,10.2386779615,21.6867267018,24.2448771798,1.08892404501,17.7933181235,6.97958460526,17.3583188096,10.6722353486,85.9189719223
off_to_on,1.56679751144,-2.31743854765,-0.990293299396,-1.08958588232,0.191082760598,-4.20699246557,-11.626667538,-6.54678499152,-0.376716667979,1.20932625109,2.30685121508,-5.81433573905,1.92930034934,159.852181615
off_to_on,-5.35531416607,-8.01990679534,-7.6050338146,1.29496272414,-6.93381792152,-16.3189787985,-30.0355595006,-25.9891815112,-1.23140276948,-15.4015771171,-5.63237268589,-20.5390322222,-10.4286968369,66.7493711427
off_to_on,-11.4265623157,-8.8875874235,-10.6587205293,2.16089971087,-12.2757741798,-16.3632183196,-18.0587004315,-18.88988258,-0.814699604791,-21.7315527033,-11.9422806403,-18.5886124383,-17.8139191309,-122.804613265
off_to_on,-8.2186610469,-3.68525114054,-5.86355016381,1.06483080681,-6.67184126429,-5.07989378818,3.52183223441,-1.91945881455,0.0202665408318,-13.9373069724,-9.725156655,-6.55511956617,-11.7076766589,-209.941114985
off_to_on,3.51969057775,4.78892557709,4.6630646884,-0.645462203638,7.26642966129,8.29120803235,11.4744948882,5.60223702071,0.321333316878,3.41882148394,1.74243463911,6.40750871262,5.43394182439,-85.5942500032
off_to_on,11.8244292267,10.1380910644,11.5136780971,-1.53944769739,15.6195960535,14.4582210285,7.73017425758,5.49246231326,0.174361639491,18.2938610021,12.9658852017,14.9118475266,18.811914845,131.754576367
off_to_on,8.22931327762,7.51522542126,7.86828443678,-1.16630220271,10.1183772488,11.2764627415,6.18587681618,8.61309285964,0.203913342467,19.345267359,13.1702020709,15.1625877317,15.8905352508,207.388968548
off_to_on,-1.27636801491,-0.71282142869,-1.78586490043,0.0298359754059,-1.73358054673,3.38052166718,7.58891838764,12.742165169,0.504917038683,6.46880943857,2.6015748342,5.50342814531,0.442483861441,55.3836341267
off_to_on,-5.15728739938,-6.69370402887,-6.89630755731,1.12696455533,-7.66204048872,-3.92933266311,2.41641338317,6.85635837379,0.542400769551,-8.625123122,-7.95997668335,-8.40148272309,-12.14052876,-143.8172871
off_to_on,-1.74990247478,-5.70636139356,-3.71282299608,1.19964640289,-6.02620760509,-8.44955538718,-8.2570391028,-7.47314606838,-0.0233399542886,-14.0271381438,-9.78797063435,-14.8382953633,-12.1695868839,-150.119035646
off_to_on,0.785802547376,-1.08722469217,1.35526912783,0.0862852544444,-4.02273109986,-9.45051727899,-11.6579378554,-14.704848253,-0.772435584183,-8.56809360996,-4.5283214563,-7.83160278828,-3.96817356778,30.4669325008
off_to_on,-2.18132364984,1.04479673738,1.39306443794,-1.14805596565,-4.53034782846,-6.25481022879,-4.07696936396,-7.93790549604,-0.920215893136,-0.375248587499,0.687918984391,4.36874627664,2.610147089,148.706059744
off_to_on,-5.56853856858,-0.0906314631387,-2.30719813514,-1.09320967784,-2.86551879923,-0.211936560967,2.27320188861,0.81637817868,-0.215334777478,3.45529957379,2.4999695277,7.99491413265,3.90954436469,50.5748341715
off_to_on,-2.89579517807,-0.122715509933,-3.32979530783,0.309957432273,3.68268595375,5.01956501449,-0.551284407484,0.409990452054,0.672545807632,3.38084768255,2.96692890062,0.988528753453,3.42078088877,-110.731468932
off_to_on,4.43843929543,2.90649489978,0.75803549685,1.42204590636,10.2262187666,7.42374062759,-2.27874408401,-1.43824769392,0.806837360664,3.78270073224,4.02618369759,-4.51510378164,4.14740121988,-103.219272358
off_to_on,8.97904589933,5.03262340785,5.4574364166,0.79214872996,10.3586789128,8.02861839403,7.54668859442,7.01475413201,0.0595426776168,5.27858497317,3.93582417141,0.361525267672,4.02796713781,45.5610873215
off_to_on,5.88271706673,2.12141875243,5.1814816902,-0.908438023886,3.41200939913,6.39285273443,17.2746443203,17.0312324615,-0.672531416608,3.51049662622,0.271137053132,7.78885688995,-0.223905700796,106.987054177
off_to_on,-2.25089326306,-3.56567424886,-0.0492021902998,-1.56965863977,-6.06353612521,-0.691352615054,6.85558971339,8.81880819298,-0.511085492026,-3.48665831138,-5.23817389602,4.51251855591,-6.71657338946,7.61876042176
off_to_on,-8.15034144191,-5.71711338388,-4.75093936348,-0.288411307886,-12.3937012506,-11.5913172543,-17.944856901,-14.6003430126,0.332849469127,-9.54957040895,-7.09699780205,-7.21664517445,-8.58898951012,-75.7871592913
off_to_on,-6.72093354786,-2.19838682935,-4.35986930677,1.41803600327,-11.2133591451,-15.7744558153,-25.6015167419,-23.9302209518,0.852666991223,-6.45296453089,-2.27364090335,-10.9636705106,-2.14689938939,-16.2322744178
off_to_on,0.0197098975393,2.27170930974,-0.348130066221,1.4600047291,-2.11992488607,-5.36995606872,-1.63582856206,-3.8547097994,0.498785994007,4.13215069057,5.04254659685,-0.0866707608439,6.8429350004,66.711587459
off_to_on,5.01757665213,2.62069153577,2.07883776634,-0.260697123028,8.83105935725,11.1564591813,25.9867525899,20.8367286959,-0.293755311509,10.169745017,7.17627045805,10.9581657061,8.57762913511,23.6032637025
off_to_on,4.11054341535,-0.0690881568045,0.897402236114,-1.75978798869,12.8389217435,16.2606860429,21.3499325232,17.1487816998,-0.831727607872,4.14112985722,1.96024891261,6.7604921861,1.43031738762,-71.9427556378
off_to_on,0.494556194625,-0.928267958111,-0.497943065073,-1.32604158472,7.2252043187,5.41584715175,-9.67107127699,-9.10495162607,-0.882546221201,-6.17788963919,-4.40066171726,-6.34742256643,-5.45454962668,-55.1527960724
off_to_on,-0.713340850103,1.30012286755,0.908353689224,0.584264427193,-1.92308463149,-7.26881290178,-26.4291693882,-21.2579653162,-0.481678525445,-7.69612432991,-5.10620909658,-9.5940331253,-4.2510674842,48.7971759453
off_to_on,-0.0720383422963,2.62546951462,2.56899254314,1.95812052416,-7.50444258406,-8.79416874521,-9.39571544541,-4.44753527099,0.367110397688,0.168480323366,-0.985669146052,0.467868064389,1.19658339863,71.4150497657
off_to_on,-1.57584940583,0.0867211629491,0.395203263611,1.40098151673,-8.13294765452,-2.98437491939,14.9316258198,15.0538005275,1.29754280668,5.63257220325,2.07405047764,7.87303266703,2.05147820752,-14.8109957076
off_to_on,-4.15739387259,-3.48989934797,-3.72802132676,-0.517200897882,-5.25283555223,0.0117040873904,14.792002043,11.2371914041,1.3879712792,2.31367661197,1.9185683666,2.47293728408,-1.8454148503,-60.2123476606
off_to_on,-2.04717339871,-3.32411168239,-3.51186671375,-1.94779775444,1.02846199462,0.570635345742,-2.3720407694,-4.29655076343,0.175327684423,-2.40729069189,1.56964812182,-5.16820951661,-2.52879627808,2.16433156279
off_to_on,4.84018253304,0.534023537848,2.03859001356,-1.59807638242,8.44330655418,4.7668407696,-6.67700906607,-4.98780312809,-1.31202442173,-0.498267653325,2.23028003947,-1.8278808206,2.40312617004,52.7738200792
off_to_on,7.80267376135,3.32839426145,5.76460642465,0.118002069771,9.70166342917,8.66647232984,5.64888412018,6.85004890331,-1.45806666494,3.77231066075,0.72513614243,6.85695893652,5.34484746394,2.81838077177
off_to_on,1.24507317417,2.15488306464,2.10311935571,1.61872576237,0.735910270343,2.17752670893,8.2926627336,5.35237973247,-0.160364910634,1.57654788439,-3.76425446092,5.51942889706,1.00528609518,-55.3647300785
off_to_on,-7.71621951179,-0.690564539307,-4.57160648852,1.68519497974,-10.1856902977,-11.3891061319,-9.75963035924,-13.9017748264,0.881160139287,-5.29551694399,-5.78988134195,-6.14633813523,-4.63183631046,-17.6074315472
off_to_on,-8.06498892378,-1.74216957614,-5.85506962517,0.422060472893,-9.99109978051,-14.4744045164,-22.7194711358,-22.4671660525,0.44502745121,-6.70100151075,-1.13784437731,-12.1093483528,-3.61499016448,50.5077819169
off_to_on,0.0217875015648,-0.939146448907,-0.8101098665,-1.06998312487,1.80073168961,0.166422512633,-6.48627201557,-1.69993099748,-0.514546347581,0.00485867813031,5.37252115281,-3.75337595686,1.54372576138,33.0249525792
off_to_on,6.29491775077,-0.268343255854,3.81346192219,-1.65512466093,11.1397628991,16.1137306383,21.4831574646,25.6796749723,-0.334247309724,6.0193393395,5.50231659678,8.10056720104,2.54080113408,-35.6375863717
off_to_on,5.16716097123,0.0242425299107,3.70274499789,-0.890366081203,7.57817804223,14.121627843,24.2699907173,25.005435579,0.818938130515,4.61757562334,-0.604625411743,9.68147212537,-1.11605739139,-37.7176117217
off_to_on,1.22988443583,1.05370003616,1.4739876377,0.668972546634,-3.00566171951,-2.05689072921,-1.28638475865,-2.19841412945,1.16154657237,0.107724033927,-4.55206697139,2.56662311182,-2.13598859943,22.2214108102
off_to_on,-0.6231970044,2.12118856132,0.367659394702,1.67955989293,-8.3155806141,-12.4120108935,-19.9003238399,-21.3906693234,-0.0163230234965,-0.80608487601,-1.86620400607,-2.25846121433,1.67458122883,34.3881974112
off_to_on,-2.09255796107,1.06436203063,-0.747040134521,1.06078110368,-5.61848513558,-8.44683512514,-9.13557051187,-13.0887903671,-1.24563337949,0.36247050427,2.30627768123,-1.75388975799,3.75206456066,-18.533413174
off_to_on,-4.90305373352,-1.90610922324,-3.27189665647,-0.694484693142,-1.05199748602,-0.752054542506,9.81608079897,4.25858824402,-1.01070434747,-1.76568305837,1.91780556524,-2.31945443308,0.15003767764,-36.1138020223
off_to_on,-4.83185339287,-3.47037338983,-4.41450001267,-1.68997548247,2.11539652661,0.967446818778,6.78809018249,5.74906482074,0.141092629873,-5.76251131962,-1.2653981498,-6.19778772249,-3.67040765314,16.4817032712
off_to_on,1.34638986011,-1.51185084605,-1.16367091356,-0.753611356809,5.59592955747,1.37199360729,-11.1550458547,-4.33130982405,0.608109177227,-4.61402541378,-1.86577525774,-6.3825647406,-1.93321735761,46.4657670281
off_to_on,7.82826044957,1.84839321625,3.87256333905,0.948967649686,8.01370120817,6.99944582305,-12.1501657096,-3.86657321251,0.113731942674,3.013928118,0.307874681017,1.96351184511,2.09849939458,-1.50203308743
off_to_on,6.20155259995,3.07613223425,5.12767643846,1.3023220785,4.09305078386,11.3574965557,9.30151450478,9.9814758738,-0.186659784756,9.15921688856,1.08974071123,11.6620046314,1.91859074512,-48.0445409419
off_to_on,-2.16679991735,1.6168807978,1.6030925505,0.0571150121707,-5.73244302442,3.6394350061,21.7042625303,15.3726795781,0.268978747118,6.31881359737,-0.444848216799,10.8409870766,-1.58667847317,-17.3994834024
off_to_on,-7.32164451663,-0.276280324817,-2.22816383085,-0.913994572357,-12.1070263356,-12.0497437528,4.12432025022,-0.207336569183,0.652527629957,-2.91394913303,-0.850095993698,-1.56909292088,-2.22124663944,34.7880742938
off_to_on,-4.13791534894,-1.08044249852,-2.86158537833,-0.383523900778,-7.56812118252,-17.9484366079,-19.9573877784,-18.1973561157,0.245040603807,-8.7343425125,1.24602694167,-12.7068809717,1.09529984048,22.4503598377
off_to_on,1.9632701868,-1.33717644332,-1.44631210762,0.553801396866,3.62015923422,-5.24957144719,-15.6527675834,-13.5612145026,-0.422304104808,-5.41091618086,2.54487959129,-10.2618781812,2.9469452477,-25.2038257316
off_to_on,3.93800255761,-1.689355145,-0.443748257548,0.377634526771,10.5472309425,12.9092124993,11.0279691017,8.43501354204,-0.552559097854,2.45072257541,0.418687909388,2.40552749496,0.350835703242,-23.1173203456
off_to_on,1.85376783151,-1.45582411969,0.0807257861667,-0.479016604503,7.96340629035,16.6348181098,20.5536719411,17.5163652213,-0.314851123483,5.63526729041,-2.82341623746,9.90030500379,-2.91616881145,20.9801535272
off_to_on,-0.019226451633,0.226548032482,1.23076958927,-0.52656287321,0.109670063382,3.35787115311,-1.81478682423,0.954781775121,-0.260504985201,1.59700940873,-3.16638514453,4.3326855309,-2.27847260536,28.4783518454
off_to_on,-0.224665147403,2.72321344075,2.51523181488,0.24152426645,-5.69094308428,-9.99430659649,-23.0788700682,-17.0044625904,-0.181449188621,-2.38093166784,-0.148723340705,-4.23256374018,1.65312003568,-9.39199290904
off_to_on,-0.480181737312,3.87838108408,2.15689738238,0.438339869081,-5.89271050345,-8.91156897329,-10.7472286449,-9.21595772171,0.406465008565,0.425753041376,2.9792120475,-2.38498518421,4.55479660117,-23.9630913223
off_to_on,-1.63817798143,1.74299265673,-0.562650396999,-0.221566619203,-2.20505799507,1.26491395959,18.2811734671,13.9768844852,1.01958275681,5.18105735839,3.03427908748,5.84495872631,2.9669900387,3.67519185286
off_to_on,-2.56300301215,-3.00406509848,-4.00544074775,-0.363823667537,1.10593163378,4.68107909101,21.8323863624,18.2276394021,0.647303619479,1.36425406468,-0.212011693373,3.94046963133,-2.94842691619,14.8399100222
off_to_on,-1.80175521797,-6.19029372515,-4.82613366665,0.591116318115,1.58818366817,-2.14245754212,-5.03191804558,-4.18065503115,-0.539505540847,-9.65071797354,-3.67775884307,-10.0529647635,-8.31972752996,-12.6250363462
off_to_on,1.29487291109,-3.4894111084,-0.682068956199,1.13170919454,1.10384209527,-5.87963731461,-22.5670334976,-21.1093673078,-1.1019512879,-12.1065982008,-3.22412142455,-15.5522593308,-6.13540241054,-22.8491492554
off_to_on,5.3478193795,3.80015367238,6.02592264663,-0.0299474953106,2.54924946839,2.61968867385,-5.93606732736,-7.4040568471,-0.346242570339,2.33372945135,1.76590490755,1.37995031717,4.47069096233,11.7485901486
off_to_on,6.03133876462,8.08019848815,8.23422844453,-1.63810838262,4.09852030021,12.2631548579,17.7727357511,16.5614324181,0.619989274792,18.1972370687,5.95554757399,22.3042584845,13.1529114877,33.9856782247
off_to_on,-0.0814412940994,3.60628298912,1.53658492783,-1.48500527331,0.746873622716,6.41485035724,11.562003027,14.5829055493,0.523895754764,13.8864776872,3.31467833434,17.7142326949,8.27542500422,2.45464797514
off_to_on,-8.77556771127,-5.38837533725,-8.43632087408,0.358071717404,-6.55694579662,-10.7914807271,-14.353243697,-10.1299918459,-0.252638300512,-7.3609707472,-4.28074693425,-9.85806499332,-6.72264559146,-30.9861689084
off_to_on,-9.82220042281,-8.56438527471,-10.3865601414,1.62689823706,-8.63785772044,-16.677835248,-18.3523308026,-19.0705503222,-0.451195498952,-19.2688702814,-7.67336585073,-25.443973409,-14.567690965,-9.19268517463
off_to_on,0.318301481969,-2.16943676966,-1.13600522987,1.06320327702,-0.100568421181,-1.43499411508,7.56358193673,2.24477909291,0.0705313581814,-8.06528770848,-2.13153304302,-9.4631335315,-5.8559643288,30.5839589237
off_to_on,11.1715168719,6.12441858157,9.14916956344,-0.150435799192,10.4177930936,16.0769450291,24.2197436091,21.0170375427,0.325141688936,9.13904914139,5.56509390161,14.8458444496,7.95092471179,20.9837258896
off_to_on,9.85697339865,7.14968952572,9.14640710579,-0.525399888785,9.55193201944,13.3296815122,5.30949082324,7.7232100226,-0.0299203570282,10.3295984926,6.01995131973,15.6353400896,10.1208161377,-22.5750623232
off_to_on,-1.96837489503,1.25405066606,0.3179700202,-0.291910462317,-2.53417507063,-4.91149886338,-21.4294573186,-17.3897987668,-0.188878811737,-0.673113079189,-0.0126999164564,-2.76176528565,0.90047528212,-36.2255755329
off_to_on,-10.0319076788,-4.1381780157,-6.37309737649,-0.399630415555,-11.4169474373,-14.4584273165,-16.2940138069,-15.5150198915,0.280541204596,-4.4235707339,-3.72949710433,-10.8151438596,-5.65330793755,-15.7240736901
off_to_on,-6.27833450283,-4.89300381014,-5.29709863622,-0.672467274156,-7.27813257309,-5.78244968275,11.7305787514,9.86813019681,0.578927584648,2.14188562897,-1.55474172392,-0.24627568291,-3.27898914083,-0.840596789871
off_to_on,2.13857669137,-2.97050932594,-1.10222690275,-0.247058311368,3.35877567539,6.00531854218,19.6515825243,18.6068883024,-0.0158026507815,3.71977367519,0.98532751066,7.25349604604,0.372944519765,16.3795314586
off_to_on,5.13335202762,-0.345927576207,0.958669389674,0.718416283052,8.30127900048,6.51949297153,-2.82370159831,-2.42437944457,-0.858308149985,-4.60413636262,-0.352148053144,-0.929337444611,-0.324282124447,62.8789836807
off_to_on,2.97886842803,3.53741214444,2.12485483339,1.07736561123,5.04037486913,1.04616851345,-18.6616794426,-18.6930781813,-0.824915026522,-7.70345431017,-1.79229440048,-7.77679043439,0.0194501377584,82.4835070408
off_to_on,1.60499540851,7.02113338458,4.42084899035,0.379847932826,-0.26650264557,0.431146105997,-2.91356401834,-3.68603824985,0.0443193186334,3.1080607562,0.80554904868,2.14391854671,5.23400557387,-8.89812090413
off_to_on,0.943839358414,4.99399996243,4.29783923922,-0.529135734761,-3.62818428591,1.80231145472,17.9365860554,17.9410944028,0.708017043813,12.1073934823,3.71222105675,13.1867008674,7.17140439508,-149.670839327
off_to_on,-3.21763217452,-3.56622031212,-1.81854380914,-0.766282668931,-5.38762783513,-3.28897911467,8.65210143404,9.59820475812,0.643511686566,2.31221276526,1.13086753613,2.47100543479,-1.97958479243,-154.265707655
off_to_on,-8.25825715502,-10.7253798088,-8.90189923603,-0.409667650336,-4.45624700662,-9.79085569141,-17.5034681748,-17.2460779705,0.286988570786,-15.2628880047,-4.34513863557,-19.5329716665,-13.7045291858,26.8743077365
off_to_on,-5.47432003929,-7.63802079383,-7.47882173134,0.0377749431616,1.14819257533,-4.61030714017,-17.8930254009,-18.8035284262,0.0341796422385,-14.4242556573,-4.49327260682,-19.3320545239,-11.7466869674,194.831463971
off_to_on,6.00883817502,3.693736538,3.20057255768,0.417473589596,7.69289776209,10.1809737171,12.2441117128,11.839064553,-0.26545290511,7.67563100687,2.01321372042,9.4023898701,4.7158147763,153.215688568
off_to_on,14.0701172132,11.5477965619,12.036010429,0.681140732861,7.20988249816,15.4776356261,28.8568114093,30.1748893517,-0.631410453593,23.8166123251,6.88118769621,31.8155428647,17.7392330598,-28.1261717747
off_to_on,7.80037095136,7.984156338,8.82015064127,0.486668156845,-1.62272581967,1.55653690561,3.88132671975,5.77593419087,-0.607200565236,12.8785333945,3.69749540088,18.1050747326,12.9998749727,-130.515093283
off_to_on,-7.49096544248,-2.49704388043,-3.42859117272,-0.324675477298,-9.52773110357,-15.8780108216,-30.6197048281,-30.2407749888,-0.011960848046,-12.3770487361,-3.54547320071,-15.690526114,-3.22777246775,-91.9102082694
off_to_on,-15.6104249111,-9.16354505508,-12.0815726348,-1.12830863561,-7.35782586899,-15.1765636263,-26.090920933,-28.0401442734,0.574466326591,-23.1334619487,-6.56729110729,-29.8112807884,-13.9069622669,-32.9828707163
off_to_on,-8.53930821229,-6.93591746396,-9.12475790239,-1.01821548947,2.56981692228,2.90045880864,13.3970171697,10.1266977082,0.556628826652,-10.4852861135,-3.31086127935,-12.370491248,-11.441102519,-14.8961731703
off_to_on,5.20936728382,0.0883822864604,1.24528485098,0.0905156677898,9.52912164894,16.7028130657,35.9390086672,33.6245658965,0.117270597767,8.07101315,1.51977462841,10.764270364,-2.18776958461,36.0255861117
off_to_on,11.9216344234,4.9971902052,8.7795562538,1.26891836606,6.85007859588,11.3251350763,13.0647653233,14.0847731568,-0.17743646397,13.9996916843,3.76801469844,14.8372946188,4.94655242811,130.524936612
off_to_on,7.73835023454,5.02199511654,8.07071336055,1.52408551321,-1.84648366094,-4.83446899474,-23.1004448029,-18.5919918076,-0.183527977339,7.61299683647,3.43725856402,5.15086038539,7.36237414082,133.049563536
off_to_on,-0.235664280061,2.20531311207,2.12923350683,0.675347634842,-7.9014531901,-13.0674628254,-26.1314284528,-21.6237429492,-0.127518259575,0.736442176637,1.98148997765,0.632427724527,6.73670982242,-21.4031813763
off_to_on,-4.67690757984,-0.539915878756,-3.1078058593,-0.665936173195,-6.45584541795,-6.82486372077,2.52582656928,2.79231668518,-0.083938261462,-1.20459907567,-0.120831599954,3.80098621879,3.96899594019,-172.762090147
off_to_on,-5.19728331306,-2.33936892787,-5.12836552734,-1.64013265646,-0.0831800989848,3.78676171578,20.6407605621,16.7216296278,-0.00370812311443,-2.83396366768,-2.44142343355,1.50056430924,-1.13172058075,-139.47256391
off_to_on,-4.58791997392,-3.47354382849,-4.88717450713,-1.62436511929,4.81651242455,6.97599521459,6.61491324018,2.98111624208,0.0040856384726,-7.46947254848,-3.68384357301,-9.91031653298,-6.96608639751,19.3066200866
off_to_on,-2.61665865605,-3.16903993106,-2.8229895508,-0.563402112916,4.73038609938,2.73514977724,-13.3066564523,-13.7164401414,-0.0879224819837,-9.59954447805,-2.77254610133,-15.872208513,-9.3292243466,99.8935114641
off_to_on,2.38637849841,-0.211035117771,1.66658594476,0.917320261642,1.87680011247,-0.676297126095,-7.62017660563,-6.93765867488,0.017107822051,-2.51595006122,-0.0359613444327,-4.78726423053,-4.8419017206,52.0805972512
off_to_on,7.44732188806,3.94100824612,6.41544636117,1.86973051688,-0.0650582884145,0.1123144217,13.0157527791,12.0447114064,0.394669469564,9.53354330206,2.8406205003,12.6835720973,4.1951375529,9.11798243976
off_to_on,6.08248225087,4.97257857707,6.18418801447,1.7083519541,-1.26637167858,-0.132500748356,13.405111134,12.7440953843,0.439996939488,13.3553092836,3.67566926924,15.7433721333,9.86283830336,36.8675557865
off_to_on,-2.26835773745,0.861840572485,-0.56426690439,0.573753731537,-3.75884365257,-4.6042747067,-10.4870212605,-7.17330726631,-0.28688948206,3.53256413932,1.52775377423,1.55004164037,6.4221553268,37.8194985883
off_to_on,-8.45484452809,-4.16241172935,-7.0904549517,-0.913029496679,-5.38211517732,-6.58325496975,-22.6139531488,-17.0378025639,-0.999918792446,-8.35975075646,-1.5739889276,-10.3260925729,-2.09613485842,-48.912464015
off_to_on,-4.16643809773,-4.0167697891,-5.36543436237,-2.03132118618,-1.33401213079,1.02863129438,-1.04056430403,0.488161001885,-0.494685496027,-7.79899188357,-2.0387069918,-4.8213999489,-5.85786162225,-117.209587121
off_to_on,5.94934505255,1.05265424328,2.89095315724,-2.10327010972,6.70995594842,11.5850062972,25.4135989766,20.7001022186,0.915093631649,2.52076636278,0.631520523786,7.56986309793,-1.75420541104,-61.1892945247
off_to_on,8.85550075158,4.288611714,7.32543232827,-0.758829027725,9.18445383239,10.201563095,17.009388986,11.4666555748,1.41632557128,6.13305959615,2.20451464118,6.33949451708,2.60829117208,48.6440906899
off_to_on,0.0731163346923,1.45756859854,2.31433989163,1.44462095724,0.934193352533,-4.85351228542,-16.7233615645,-17.6027398833,0.149539989908,-2.95407673717,-0.822347811332,-8.46180400142,0.122916334803,76.5960622963
off_to_on,-10.1663224953,-3.56707975718,-5.79939004576,2.87842186814,-9.71227220803,-16.4766720013,-28.2789351965,-26.1339656301,-1.39195537532,-10.8456808918,-5.42581395313,-15.5661733654,-5.43656195851,26.3294075585
off_to_on,-10.1227892325,-4.50467033946,-7.5418341665,2.06991672842,-10.3751744053,-10.4782971925,-1.52606013278,-1.16146892878,-1.28909823456,-4.49306209785,-5.11987682267,-3.56243164485,-5.2668538626,3.83714576776
off_to_on,-0.320032959626,-0.727919546222,-1.87132871457,-0.570013140833,-0.352938560701,5.56680032976,24.721842057,23.6476788865,0.226952405011,8.63170224942,1.40195668027,12.4780965933,1.72468623236,26.9825101037
off_to_on,9.6873291089,3.56272010288,5.01085284354,-2.70493992007,9.59728436059,14.0335429965,15.4189721682,17.5305088497,1.23152276492,12.2650075772,8.15896311531,13.7181638961,8.30932699014,13.2027509645
off_to_on,13.0476358142,5.45418682839,8.36327213079,-2.32584859126,11.2356228304,10.5554581132,-9.75223594776,-4.14279021335,0.742737026064,5.17220584177,8.95173584382,3.99342189194,9.08715344181,-53.4273583122
off_to_on,8.61072226233,4.4737210574,7.0729798073,0.0632523079093,5.3123277137,3.65704225393,-11.3280019727,-8.4959674165,-0.298910456628,-0.890794567752,3.31874280034,-0.768582981659,4.55575730115,-80.832285363
off_to_on,-2.78379498305,-0.0682832633647,0.466926747929,1.99499933759,-4.45695618758,-3.45330605009,6.3475780641,1.89954160559,-0.664636649301,-2.95207947164,-5.04895326623,-0.543606033644,-3.57924533485,-23.0616622593
off_to_on,-16.4073183546,-7.25033369184,-9.6476856527,1.75665984432,-14.3633152709,-14.080765059,5.52497825198,-2.15586031119,-0.298877730893,-8.99904409838,-11.7125514534,-8.28973175676,-12.9155948355,41.8181755557
off_to_on,-20.5516634346,-10.8715545916,-14.8918008214,0.038960216808,-16.6103521404,-21.1546732458,-17.8914697242,-20.9827787661,0.167421794876,-16.8061822107,-11.8628429342,-20.5131847456,-15.8853191309,39.9346991922
off_to_on,-6.38219508762,-4.4451413071,-6.92686770077,-1.2380034141,-3.55614758523,-8.90497733955,-22.3683177831,-18.747268972,0.396668786168,-10.1744618002,-2.49053651267,-14.6779399354,-4.82885595577,10.3272027918
off_to_on,16.7905700714,8.29011427925,9.54568671459,-1.11616043071,17.9907633957,19.7476415778,11.4318848854,16.7277165717,0.314228525372,13.6596758189,11.5958317685,14.1683674402,14.2474132297,17.4947254295
off_to_on,26.1642224342,14.2326313764,18.0899386733,-0.169373495856,26.4688032333,34.7479065601,41.0698086404,42.9363798151,-0.152312954484,29.6505505674,17.8916756192,35.082933761,22.3040213321,35.2958545162
off_to_on,11.3748909463,6.39261176366,9.54742687929,0.624020378065,9.61953760184,14.3403136707,20.927860784,19.491657422,-0.697511599636,15.2682344363,8.64552019847,19.1025355788,9.39388769031,3.65334848605
off_to_on,-11.5558524043,-6.39836130015,-6.09028742996,0.82840882689,-16.8117238033,-21.4688934676,-26.5640875014,-28.1478923357,-0.596746387261,-14.8460315969,-8.01558366731,-17.1736224936,-10.5348598101,-53.3369949215
off_to_on,-19.4379114401,-10.4924549417,-12.4837837727,0.483399687027,-25.5059086633,-32.4654135413,-38.9703845244,-39.2719035274,0.299851592554,-25.1261110682,-15.5871174343,-30.1837672358,-16.254651211,-59.6889207504
off_to_on,-9.21586981483,-4.38149291915,-6.79175082554,-0.157187549329,-10.2366871192,-9.54128838095,-2.9240755542,-3.04746971245,1.02055165227,-6.93819049054,-8.32109833943,-8.07230543294,-6.01461554567,-10.8299847723
off_to_on,2.8608013544,1.86731674154,0.43408067438,-0.620390527115,9.03229039602,15.8119098776,28.4596573546,27.6562205272,0.652814641038,11.4068022986,2.97069113565,15.0514708931,3.28614501684,24.9996881229
off_to_on,5.20454578875,1.93220327718,1.90041297896,-0.51374498405,13.4614218965,15.6747954466,14.2071068946,13.7807738693,-0.316649035564,6.60678124916,5.96474139565,9.46406347114,1.57105908837,19.7968666364
off_to_on,2.46256049424,0.0527956157508,1.09147880214,-0.0880873190115,5.70073516913,-0.759177872276,-18.468927879,-17.1685269835,-0.679778977251,-8.4522775252,1.58713579219,-10.0229568212,-2.66546400622,14.4208649579
off_to_on,2.76504805105,1.63034624183,2.87568765974,0.000278288647754,-0.656040625466,-7.51550304414,-19.753974068,-17.6019580246,-0.260324537528,-7.80953953019,-0.561229340132,-10.6426824852,1.09448065041,27.8132998797
off_to_on,4.89846122691,4.53458511698,5.19773497021,-0.247879948177,-0.734315914214,0.813567144872,10.110330288,10.2462078499,0.00714480399473,8.78463747797,3.06650482484,9.09522481936,8.93143365241,21.8865826569
off_to_on,3.49443983074,3.71533915175,3.80467608633,0.00452100357629,0.510272509278,8.17537814823,27.4971460245,24.2124234316,-0.265207233157,18.3360387296,6.32155361039,20.4564053513,9.96324339108,-16.6262028747
off_to_on,-0.882605353224,-0.589360630652,-0.55621711456,1.01472949862,-0.352578407111,4.59157075852,11.611792464,7.67758821565,-0.298564442528,8.91849772859,3.32611555865,8.43210358412,2.47639056613,-35.6402628394
off_to_on,-3.78217978364,-4.07689327362,-4.07628931757,1.53430528155,-2.09134906131,-3.18558853499,-12.0936414299,-11.9644402634,0.412416610257,-7.10213443332,-3.88180209468,-9.82196857163,-6.034021317,-4.52145812778
off_to_on,-4.4972892879,-4.82789186671,-5.33114230077,0.307272512278,-3.92859741053,-7.0716597093,-16.7152358729,-11.4056062637,1.03487390537,-14.3903643805,-9.00791641396,-14.2309533279,-10.3875539924,20.8911309896
off_to_on,-5.10163356358,-3.92962485211,-4.83149261316,-1.78809619097,-5.80265595738,-8.06604197004,-9.6160144793,-3.65401918935,0.566553306166,-12.7856274241,-8.62259486603,-8.45229802934,-10.7412627186,-17.3274741003
off_to_on,-4.53905389514,-1.55976212155,-2.05708352842,-2.35140364048,-4.82279747499,-7.79945571693,-8.78273835795,-7.73756583536,-0.563393721247,-8.62995480311,-3.54886633653,-5.92617399042,-6.59732395312,-70.8003179713
off_to_on,0.0221324251723,2.80953742447,2.9415092371,-0.514499568443,1.6418469407,-2.10650921514,-8.1036592609,-12.8140202679,-1.0100502475,-1.19612322062,3.74130321554,-4.73781901588,3.24607046246,-37.363461714
off_to_on,6.83715000268,6.83975610731,6.88597920949,1.73030017717,9.63992141,9.96404103043,9.04091666085,2.5488629529,-0.375692086936,11.827908955,10.1396278527,6.16142800946,14.1374463438,83.2567468615
off_to_on,10.0012968599,6.39157028502,6.19034845526,1.97499197375,11.4676531826,18.6752834041,32.7704829865,28.8246192472,0.366854725251,22.4023018671,11.7759070816,22.0503201168,16.5757882097,156.440785237
off_to_on,6.5488162739,1.02599259017,1.6660290387,0.341557345734,5.22451231942,13.3556573688,31.1937410434,31.7112953158,0.361507764051,17.6243385856,6.1720294515,22.5938527051,6.87979686415,68.3687449
off_to_on,-0.664036615419,-4.68001346293,-2.72733211483,-0.99958409621,-3.46249820583,-3.43808939667,-4.16988851822,0.679657479882,-0.0549021925176,-2.66340749563,-4.43943501135,0.467897105502,-7.46674759059,-118.339704654
off_to_on,-7.04104318806,-6.32073978482,-4.77928023378,-0.761246566993,-9.20364454677,-17.6126782601,-39.1977969351,-32.2694423228,-0.0971538197369,-21.841263316,-13.1700342021,-24.033242474,-15.4905791795,-208.762968582
off_to_on,-9.69088271577,-3.88040009867,-4.81849007375,0.182028291369,-10.9679174403,-18.3799995544,-36.645390613,-32.4536136591,0.269243253619,-23.3138951259,-13.350109411,-25.9882955453,-12.8165751432,-88.1925357579
off_to_on,-7.30999122089,-0.187678477433,-3.05284858033,0.419665998996,-8.39998078802,-7.51721785031,-2.4378260242,-5.09677656453,0.407347858394,-7.72494907721,-4.40202934894,-6.13702865956,-3.18063109755,130.111711449
off_to_on,-0.805691466752,2.43775363518,0.294974453743,-0.200199445241,-0.612254077595,5.18289040207,23.8973290478,16.3494648733,0.00540567280521,9.2514712141,6.88346488997,11.931488314,6.3200507345,209.130014395
off_to_on,5.61844351785,3.11933029757,3.09914663412,-0.794852919758,9.19722177611,11.9805821819,20.1179256091,15.0399266929,-0.511824218688,14.3598872614,11.9071003382,12.3229181571,9.9037693282,58.3846881659
off_to_on,7.7316961783,2.19196331783,3.35576612802,-0.671247159758,13.6971690389,12.0897722701,3.88015709338,5.73633821116,-0.559881490363,8.93625993248,8.17491266034,3.69290375811,6.6152929826,-143.102406121
off_to_on,6.03068159209,1.14600875736,2.55254885029,0.182501165668,9.3910259723,8.61779163361,0.384070081597,5.40935496161,-0.0684170328428,3.27317998231,1.1476234588,2.31797175279,1.31109352682,-154.599239152
off_to_on,3.79002736022,1.13143663425,3.09120611443,1.25204379608,0.623166375602,2.80936064933,5.90973771724,7.63457597959,0.491839609487,2.03575646461,-2.68977103208,7.79239431461,-0.423631826768,21.3815680172
off_to_on,0.904676847998,0.90864187818,2.98074869054,1.6340334138,-6.72691860848,-6.22949944491,-0.203656880382,-2.38818214476,0.601303004864,-0.0304721935423,-3.15040495707,5.71128688656,0.584436826259,143.34600327
off_to_on,-5.0865240259,-1.62229006907,-1.72853287581,0.571153845081,-10.8664754085,-15.2696660992,-17.1918704042,-18.6907971379,0.165437376112,-7.00821168549,-4.36970765565,-8.08749288148,-1.42654785997,59.5922543696
off_to_on,-11.3502638579,-5.21320131552,-8.68168329585,-1.45222874107,-10.9318184344,-15.1624480581,-20.2040987147,-18.8792554746,-0.419706375828,-12.5207275595,-6.77399318677,-18.4077313453,-7.32835319771,-90.7938682407
do_nothing,-9.98823680168,-5.41914955483,-9.48714522831,-2.54569628175,-4.52022057838,-1.67533036034,0.260908382801,1.88785421721,-0.640429885982,-7.93630066131,-5.55910502913,-11.4175103188,-9.85091710494,-93.356730621
do_nothing,0.624280734204,-0.594384139856,-1.1096520978,-1.26256685124,6.41264240356,13.9985084936,18.7888376002,18.9853845087,-0.322880533073,3.23587324064,1.43684758443,4.76985785231,-3.60935049982,31.1196073627
do_nothing,10.6910090107,4.94906426679,8.3122902603,1.39450303754,12.6236562599,15.0225716311,10.5244559623,10.8580991187,0.260379140696,8.44465198704,8.65979575321,11.1270030063,6.23131030233,82.9627056867
do_nothing,10.5321986993,6.15920114382,9.41789695685,2.7055700752,7.80331726856,1.14956389592,-9.82552909785,-9.07979889594,0.666497320599,4.35690643438,9.19236003243,4.87149042285,10.4332578032,0.978947106032
do_nothing,2.81940719408,3.29983949207,3.26571900508,1.312371592,-1.66535026958,-8.97209019369,-8.52669974422,-10.5416969256,0.597340416276,1.54887603151,3.51317859083,1.38345884287,7.40082778211,-61.8878124296
do_nothing,-2.8060237215,-0.0248752585151,-2.13335336431,-1.13144665016,-4.78995152699,-3.23400141376,14.1984677553,8.66773368596,0.0583846517278,6.14803982586,-2.17558508892,7.48285469253,2.47238422452,-4.10551720982
do_nothing,-3.47894277693,-2.51527564221,-3.45696385489,-1.95961735531,-1.28532593894,6.65496340545,21.2591332328,17.9220693648,-0.589002046669,7.76759586999,-4.58466695613,8.88838895427,-1.72473545091,64.6956756031
do_nothing,-3.68498313177,-4.81653298016,-3.65003765908,-0.657863329202,-0.0505960242631,3.60498829769,-4.67605859455,-0.363083802277,-0.79119427812,-3.69435583379,-5.43620269893,-5.6687088642,-6.56774890058,20.9173141466
do_nothing,-4.45112890668,-5.21615251154,-3.80013594245,0.790297533582,-3.6067622486,-8.0143339532,-30.6696960051,-22.0857806759,-0.312589314433,-17.5417502239,-5.56744511674,-21.1489257866,-9.94181421836,-63.8346243868
do_nothing,-1.68277350228,-1.1270909359,-1.30776362612,0.642642599798,-4.64192778633,-9.65452706194,-19.9397320861,-15.9357677589,0.37636077946,-14.2762303551,-2.74369193335,-14.7633214508,-6.35643565685,-49.3228113087
do_nothing,3.77033899404,4.86614805387,3.04025857773,-0.443081529139,0.0750216051225,1.16553904067,12.7567661671,9.06542180369,0.542591085735,4.30408244896,2.92413613863,8.10179357059,3.0253739184,37.1140576085
do_nothing,4.30655240838,6.03534641345,3.7755361931,-0.550108465939,3.33790196988,6.95469048961,22.587233135,16.5887483383,0.129772587123,14.7526301942,6.53665475512,17.951619824,8.5448950458,53.7927039815
do_nothing,-1.84914572961,0.785165295525,-0.340574385036,0.722970593348,0.458903271176,-0.238483239337,1.59256424927,-1.31078050291,-0.133106226825,5.79988030769,4.83463395678,3.87630911084,4.96111372688,-15.5967487921
do_nothing,-4.97673156338,-3.95425602569,-2.61798630103,1.59825401461,-1.35739066728,-4.87400028059,-11.9482737057,-12.0880957515,0.192774228218,-5.04546632442,1.25614795008,-9.65306970544,-0.529659011684,-45.6612157175
do_nothing,2.02506108332,-2.15383371795,1.51475187603,0.494374063637,4.65560553657,5.54069130313,4.14721170518,4.89993290379,0.509470306281,0.384455994916,0.37567972755,-0.491058422276,0.464556336202,10.198173463
do_nothing,10.5045278812,2.56282714936,6.0608531637,-1.65812176715,10.7431114979,16.3401805686,20.3521158262,22.8065103621,0.0276404446787,11.3273920274,0.368373659179,15.6439374255,4.00663423797,47.8277415422
do_nothing,6.7817523758,2.54946573242,2.65250508529,-2.31234910722,4.54819353944,6.27690078671,3.32079916296,7.34505882708,-0.918492017482,4.91564394682,-3.41079797428,8.69067389764,0.408125059319,0.725174179285
do_nothing,-7.20072380992,-2.22819247488,-6.06245131856,-0.465744632631,-10.4537780176,-17.0487589339,-27.9008326456,-26.6459193389,-1.12203358663,-15.5486484703,-8.79200371826,-17.2498880662,-8.74506214903,-47.5842898308
do_nothing,-14.7973952257,-4.45019735869,-9.0391944473,1.91569188487,-17.0216769735,-24.0049870544,-27.216466792,-31.6241269109,-0.129204552713,-21.8030070151,-7.55532155559,-26.2355150859,-10.8526560829,-14.8082552063
do_nothing,-7.03807052604,-0.860113038824,-2.40241478201,2.16765955876,-7.39684019312,-4.64566038901,8.50779174975,3.34099830903,1.05657353659,-2.0583529805,2.44683456344,-3.09383525735,-0.937539638498,38.8697076228
do_nothing,5.95798279967,3.10891742312,5.304425313,0.145927365079,6.83679789857,16.9935352162,32.1107751133,33.7367601164,1.20919193076,19.9113580383,11.7605329509,22.6995042327,9.80995295093,21.4534807837
do_nothing,9.98445452668,2.17725276025,5.60635714483,-1.65464462917,11.6542573932,16.7832499725,13.7159460174,21.4002439568,0.321434910756,17.5325377841,10.1527055151,18.7604304421,9.13744102771,-31.7897038574
do_nothing,4.73016117199,-0.921277458342,1.09601211298,-1.21766036395,7.36318099538,1.3069425629,-17.6425007754,-13.1802965674,-0.599200610531,-2.58360959598,-0.378589383703,-5.08603411262,0.074141328155,-26.8143274759
do_nothing,-0.0718036762517,-0.580876717994,-0.556621154204,0.604021385486,2.53997495572,-7.03202944299,-18.3835122742,-23.2217781778,-0.807989323214,-13.0800716578,-8.26102982482,-14.4238773731,-4.92983630204,23.7854164538
do_nothing,-0.538834591467,2.43261131792,1.35030391587,1.35750652822,-0.345596715636,-2.78457999728,7.60532953616,-1.93378138334,-0.406879312183,-4.84687858628,-6.67927650951,-1.09275920509,-1.71941932647,29.3541106363
do_nothing,-1.45486879005,2.36059254274,0.969699442529,0.129874134184,-4.37563967851,0.882369153959,19.2560214273,14.1944170065,0.120089982042,5.07106332164,-0.337058508009,9.43026485825,2.05872042658,-16.3107247205
do_nothing,-4.91753859621,-2.13194966169,-3.44946176047,-1.4468683294,-8.1376450089,-2.80956381722,0.399249275338,3.68867794911,0.41098158198,2.77684917179,2.66020836994,0.643037294591,0.126052015559,-28.2728967677
do_nothing,-5.58801270034,-5.38992910047,-6.10916867409,-1.37485853114,-6.18195422259,-5.18300402303,-19.4427216582,-10.993135674,0.307114994584,-3.88674069702,1.05449211581,-10.9268679571,-3.87757126263,15.4337058267
do_nothing,-0.0352221641827,-2.84273612464,-2.39100970262,0.296327241621,1.0618728804,0.306099926249,-11.5268377413,-3.65952054606,-0.0856135183961,-2.28615271211,-0.370283521591,-4.98855253804,-3.4784706068,35.4053951814
do_nothing,6.05173501783,2.54976283805,3.96893984407,1.72216487414,6.00958623396,6.0536016685,10.8258930906,13.1816449479,-0.345496855678,3.98249693844,0.90921469732,9.36954674755,0.910080327085,-7.36461107208
do_nothing,5.15440441845,4.59534361313,5.82542341395,1.51963655179,4.18491119598,2.92280336859,14.845577062,9.52665639572,-0.130009200639,2.9663957603,2.05123689661,8.92668102288,3.7338230428,-42.3043959542
do_nothing,-1.21275459793,2.04131095164,2.0351196184,0.126485729428,-0.262042788619,-4.58167276648,-2.78086934067,-12.5572292666,0.309603503554,-4.54628838299,0.326499686083,-5.92667549412,2.67212508603,-11.6714466703
do_nothing,-4.56254940418,-0.8808569744,-1.96086308791,-1.05805113745,-1.45211210899,-4.88642516521,-13.1866637082,-19.6491229223,0.387705260347,-5.69775769347,-2.04712886487,-11.3253927727,0.621581422145,32.1783067927
do_nothing,-1.28763834689,-1.12416455726,-2.14839306233,-1.26599385807,0.633149775713,3.2606019894,0.00043415871169,2.00568564414,0.0257055364523,3.5040094248,-1.21805520305,2.39019515037,0.0839388735171,19.8664968998
do_nothing,3.00454211285,-0.457884703497,-0.56044638072,-0.774263717871,2.11734455812,8.85997444413,16.0907452715,23.3438503568,-0.229203393395,10.4503225518,1.91354100747,14.6642360776,-0.267041845801,-19.5727048745
do_nothing,2.29871454701,-1.43698940882,-0.676314472121,-0.137159469549,1.09707386269,4.03316338725,8.69691908358,13.9021816988,-0.0962311949317,3.98946061619,2.32342505345,5.76924020939,-2.15908060436,-17.0203770289
do_nothing,-1.37537210859,-2.62508523521,-1.55162250648,0.422709539788,-1.3793501062,-5.64613124528,-13.8794708861,-13.286489966,-0.0236184262824,-8.56587221592,-1.61548709356,-12.5036108451,-3.72352524439,17.0593376342
do_nothing,-1.98619910042,-0.690471823391,0.109795369423,0.847305214353,-3.6977275094,-9.05721553643,-19.4860986561,-20.5303733036,-0.355523304562,-10.8761157461,-4.80724918063,-13.6845938653,-1.66338552462,19.6257121837
do_nothing,0.75725660851,3.61227576559,3.39936005692,0.941497533911,-4.39972381535,-3.65436354097,0.784017653647,-0.178169356381,-0.549346175219,-0.158890023264,-2.20528900548,3.99019634812,3.23380929794,-11.023683249
do_nothing,1.15390336583,4.97923986889,3.19813369837,0.535987071045,-2.27972593681,2.73395843985,18.6736448349,16.0800063578,0.0663701412531,9.18947848662,3.55367354292,14.8196071254,5.58966249379,-18.8941276843
do_nothing,-2.68560374428,0.527016892836,-1.92714277579,-0.200096635669,1.9586541584,3.36324115326,9.79435080923,5.87117177133,1.00707065038,5.68446211122,5.2901890606,3.62086224049,1.87575562918,5.20325802397
do_nothing,-4.50698183694,-5.2437591038,-5.84933654862,-0.825210889046,5.33039713118,1.03421139245,-10.7401118458,-11.6969769019,1.00412770604,-4.14733665971,1.22260194264,-12.3309382364,-4.33217755722,11.5274790116
do_nothing,0.828579424502,-5.39664288656,-2.610934296,-0.965331662917,5.46869476176,2.13138483441,-11.9631398547,-8.17733477608,-0.180105313931,-6.36333795424,-2.90367775759,-9.62634068273,-6.02908504623,-12.2207858005
do_nothing,7.81212614326,0.414982328443,4.4075268471,-0.528335539426,2.77832484299,5.34860240909,5.57741878888,9.33571516318,-1.1598313721,0.538858734998,-2.51320415986,6.85847186913,-1.35788977511,-17.4412192052
do_nothing,6.4474342346,5.30519483522,6.22189521137,0.243767599375,-1.1161099181,2.83349281485,11.9856550547,11.003287089,-0.701803088013,5.29400161473,-0.16626742736,12.7173349837,4.26549984637,13.0338901888
do_nothing,-3.01196350155,4.10429113834,0.744463226308,0.802430679425,-4.96301575415,-6.28808587239,-3.15698067883,-6.34461886746,0.510795630149,1.90221277545,-0.030114520986,1.14691464856,5.27011643309,28.7311867318
do_nothing,-8.87523791687,-0.528257237403,-4.32766280457,0.626670837844,-6.76664842171,-10.9238556676,-13.1395054263,-13.0689461808,0.74373736986,-2.32944018557,-0.803529075927,-8.58585320257,2.15632313338,0.965486120712
do_nothing,-3.9571416728,-2.91515720488,-2.96633250223,-0.148756492522,-4.02836467448,-2.7369532259,1.81266563072,4.60920433861,-0.345562875433,-0.335891437119,0.966826553439,-2.79273837433,-1.21153480766,-24.0107848085
do_nothing,4.21959318837,-2.09047009038,0.815388815569,-0.618628304856,2.32697550756,9.32361638978,18.6450697275,19.0509863747,-1.11189243173,2.5369860216,3.3983934563,5.68002128987,-3.37191808424,-6.29609035166
do_nothing,4.6247273081,-1.12677042972,0.496736825894,-0.0888896732118,6.69370350793,9.09148736477,5.6071450533,3.12787761379,-0.162086453502,-1.73517711832,1.46398407557,0.0484460511382,-4.75248889048,18.440543099
do_nothing,-1.31301736806,-0.8390061366,-2.07531833366,0.861339725563,4.80879342262,-3.42573800842,-23.6423716684,-23.9858831703,1.54641831869,-8.19079009153,-3.85277756124,-11.2456272142,-3.74710734007,6.33223577166
do_nothing,-3.21488825669,0.893217372116,-0.455954706442,0.88084918272,-0.549322387742,-10.4421740243,-24.7421839952,-21.734672323,1.7253019306,-4.7377625345,-5.22940211612,-6.94225397683,1.40700652359,-16.8739828871
do_nothing,1.38012804604,3.59211825547,4.34748149204,-0.386550195245,-3.28293860841,-1.7774734014,9.97649591111,10.5625078371,-0.242416912674,7.58929355986,0.302011706559,11.4337166972,7.11406815582,-10.9418267909
do_nothing,3.82310329162,3.17916502459,4.35257624661,-1.61716198076,-1.96014569728,9.83225966542,35.1358474777,30.1570601764,-2.24415819191,12.9352899925,6.11366387681,18.2562348338,6.52737735293,0.264889312666
do_nothing,-0.536882345999,-1.41429943365,-2.07553677728,-1.35875402666,-0.106419121979,7.60877558512,16.7991614345,12.4530784335,-1.90146753491,3.11551568723,4.9838988211,1.79169206351,-0.886032435394,-15.0567382716
do_nothing,-4.24297204338,-4.92398352537,-6.10244510742,0.16298705303,0.362636108471,-4.35746746993,-18.2562073636,-15.0094131298,0.45822258593,-9.4356746596,-1.1452079711,-16.5127225879,-6.86391335888,-12.4834101958
do_nothing,-0.332292150317,-2.56093631231,-1.62927719576,1.4124863701,0.935927080502,-8.3776718458,-23.505201476,-16.0741007434,2.15499975901,-9.17712225248,-4.92485029072,-12.5432026453,-4.75966337103,52.4216089067
do_nothing,5.22911494386,2.77651667709,4.78450542435,1.44025492256,1.5734326454,-0.686714088333,-0.30666183864,1.95359397938,1.43772094905,0.714433854222,-3.7974569374,5.76787057965,1.643162228,99.6885267633
do_nothing,2.5760933472,4.29442352494,3.71098227152,0.649546610139,-0.362117225226,4.29738175261,10.6803153628,6.09479085161,-0.524581219156,5.13060691258,-1.12310710806,11.8106839801,4.06365963168,12.5734866995
do_nothing,-5.59714548827,0.660137604027,-2.77835681275,-0.225660731269,-4.21757580364,-1.35744543293,-3.8608384339,-7.63013283545,-1.40201799416,0.468871112426,0.851186528123,0.0419564462114,1.1852628963,-147.561176072
do_nothing,-7.23971433501,-2.95116596311,-4.8378068125,-0.951031746585,-4.39924598576,-6.2632939136,-12.2171209711,-10.5379537284,-0.65137057276,-2.27213325613,3.05009163818,-8.66913137779,-1.4239279252,-167.572876147
do_nothing,0.575216281069,-2.72814507329,-0.218651924218,-1.32370518187,1.61668911028,0.609862484571,6.20357472394,8.4791913126,0.280161256403,2.34971118015,4.71868871514,-1.52883273116,-1.00932938472,18.2920822006
do_nothing,7.15801741575,-0.481596157157,3.3472607041,-0.840393642312,7.72985189267,10.5146474179,24.5113880442,22.004560133,0.330100388124,5.04899077917,2.61265300575,7.48553350823,-0.579615298809,198.306635122
do_nothing,4.55160530737,0.870826611989,1.40501954942,0.423479231991,6.49395439975,7.98217046937,11.0984553045,6.89732046019,0.0862944551383,-1.52689662061,-2.95217775143,2.49307755512,-1.66489904753,158.064204688
do_nothing,-1.45657889918,1.62729133418,-0.823245226339,1.27027240789,-0.732057811994,-4.58121037198,-17.9162737732,-17.4672166108,0.350807524211,-8.50191372861,-6.13413826553,-7.70209493338,-0.774461829647,-30.1306591424
do_nothing,-2.10609979832,2.71988642189,1.30672492226,0.712846678027,-6.06380570792,-10.3376282833,-21.682741795,-16.9597659599,0.640206200646,-3.50443369937,-2.91715914151,-4.20171026868,3.79697735304,-133.422478382
do_nothing,0.637886265827,2.36237862987,3.24950333649,-0.461785986813,-5.78054727653,-3.55286721123,2.60104450324,5.87527946433,0.070174504187,8.81086104582,2.87480075939,9.97726759862,6.74374976381,-88.4466164832
do_nothing,-0.613256683604,-1.11841699537,-0.815493636064,-0.568449348,-3.02352303841,3.50130640085,16.0974265412,15.9641445922,-0.957365966428,11.2911949209,4.46331674767,12.2000099595,2.25176674225,-28.0026541736
do_nothing,-4.77795757027,-5.01150635796,-6.88679572683,0.517914546586,-0.473969396539,1.54296819518,-0.691245733044,-1.14542226981,-1.13082054398,-1.3905489746,0.890447690732,-5.12791925407,-6.7452783431,-17.0883105728
do_nothing,-3.72218352448,-4.61844564492,-5.88529393102,0.995580046188,3.00555520252,-2.13797067776,-18.0333331095,-17.9816145667,-0.133122301375,-14.1487651114,-2.66796953447,-20.3549132926,-10.7352471894,29.3573637323
do_nothing,3.48286951819,0.361452325964,2.51087286169,-0.249625272142,6.77654064347,1.56900867149,-4.38899370237,-7.10072809082,0.90237428364,-11.1900843547,-2.23532017261,-11.7511042739,-4.86044293429,129.653427064
do_nothing,7.45732453616,4.93291638349,8.46742753288,-1.76070405217,5.96349302339,6.89931081866,23.00291105,17.3691271974,0.985765178715,3.7086921474,0.790163822442,11.5281397495,5.52544376534,139.13514667
do_nothing,2.32247621064,4.7883182173,5.25269763684,-1.34030252671,-1.088730732,2.99645299328,22.8171643158,20.184483246,0.392487711726,13.2589174014,2.72389813447,21.1689916683,11.0534881787,-18.169657534
do_nothing,-5.13514230672,0.887155777035,-2.38267471756,0.800163034064,-7.47033121607,-6.42130764786,-7.82880252126,-3.488414726,-0.126038479325,8.77438341432,1.96160883882,7.31555429433,7.67966476683,-177.120304577
do_nothing,-5.13233759132,-2.66150866611,-5.61683934525,2.09387902212,-5.57532508357,-7.19718129308,-27.7876069044,-21.0627977336,-0.402651033168,-1.50600662282,-0.442846313766,-10.3433704748,-0.762941742178,-143.743140227
do_nothing,1.42797757636,-3.37102099987,-2.6831371535,0.965725082316,1.93059602569,2.54648965105,-11.6453566784,-9.5527607274,-0.59605542086,-6.03376399822,-2.58715560256,-11.3203323371,-7.35322259004,22.0403476189
do_nothing,5.15313853245,-1.88637394734,1.07662922097,-1.09307320808,5.09578544783,7.81164877741,14.2925000661,11.9993990526,-0.563635199525,-4.3699281363,-3.13252436287,-0.710266910644,-8.15202288941,104.470000129
do_nothing,1.67250452136,0.00314549716354,1.56011321552,-1.53253424032,0.430287756036,-0.560586249542,12.4356642763,11.3333122709,-0.174441455117,-3.46720815134,-1.8399479471,2.72159511888,-4.19771809644,50.5301501593
do_nothing,-3.41262374273,1.3726814071,0.184486556162,-0.0499783618078,-4.42012523825,-10.3937050029,-10.2412837219,-9.16722639481,0.21960813367,-4.18568868161,0.631664749228,-3.67519562829,1.20384272488,4.29449333637
do_nothing,-3.54736789524,2.21338402188,0.13682281271,1.21490766544,-1.92927626507,-5.21454639629,-13.979681792,-15.725864615,0.298924008693,0.0638120001657,3.37220630682,-3.9790372245,5.7333128466,37.2792768661
do_nothing,0.093554753291,2.26706427565,1.44236385474,0.659470101771,4.50234197392,10.2338833343,11.9826561446,5.88102525675,0.369009901938,9.76963591844,5.11421419944,8.2602040649,7.77999374399,42.8811350554
do_nothing,1.74438499455,0.637072386449,1.2729415518,-0.750215095053,5.58763508592,14.6065670826,29.9776358336,25.9692020657,0.71993125569,12.9306612591,3.75265081098,15.6743061091,4.92193649995,-47.8288276615
do_nothing,-0.122838129654,-2.60398098976,-1.55098322843,-1.00692975622,-0.556294938739,-0.0608053833648,7.99675431733,11.928976138,0.7815193143,0.34441413018,-1.76009631839,1.93440017463,-3.28511147034,-121.94269347
do_nothing,-1.08349234965,-4.69548520315,-3.86452769147,0.130600325107,-5.78465869385,-15.6679999672,-30.3227359337,-22.0562412001,-0.131147266522,-16.7487369415,-7.90655713826,-19.3387912636,-10.7011863476,-63.7558059235
do_nothing,2.03145155546,-2.19977474858,-1.54289016349,0.937823546194,-3.33032967181,-11.9028911125,-34.76389892,-30.7058024474,-1.39981537549,-16.2839779101,-7.97280339022,-18.6064167448,-8.30180507665,52.2973746742
do_nothing,5.44193637108,3.85147753477,4.15144228441,0.288210214698,2.87269013092,5.95901408564,1.78133212007,-0.754112513715,-1.54394107412,4.65257756255,-0.133652539888,7.16666157724,3.77486055798,79.9055653554
do_nothing,2.75687454877,6.94939153685,6.15755983585,-0.736013934474,3.77358920089,14.2212153747,32.3600775661,28.5082182447,-0.267019133711,21.3694050787,8.0255516321,25.5214648849,12.5398894882,23.7506485661
do_nothing,-5.4612111188,2.40098720818,0.32063626399,-0.508016761626,-2.01820425077,3.2048576909,20.5750571811,19.4857642812,1.00244085244,12.2306338936,7.6684429195,11.44373695,6.92255474018,0.328360819644
do_nothing,-10.0027790292,-5.36661671306,-7.27614179238,0.654984825689,-5.81905445337,-10.1157363235,-11.1443425624,-11.5335938459,1.06848135773,-11.1014516542,0.387529495741,-16.5906256429,-6.4688257601,29.0122290624
do_nothing,-3.71395210387,-7.01288954181,-6.54518785714,0.92333969583,-0.646678814549,-6.68700677891,-17.5745909571,-20.0755636191,0.464359542853,-18.3983384489,-3.91099102408,-21.296637188,-10.6271033734,17.2698422343
do_nothing,7.86087827931,-0.458490726045,2.67376906702,-0.237152369244,8.23873383784,7.62348279234,3.89183859292,1.41719285386,0.262488176084,-2.31273143267,-1.25370917157,1.34248202724,-1.11692678652,-54.6734528623
do_nothing,11.2320066447,5.71766265705,8.70385009338,-1.12161386634,8.82496854231,10.7570539552,14.3183747311,15.8211978465,0.299716926126,12.6094787908,1.12692247927,17.8563551147,7.82791013554,-85.6474365199
do_nothing,1.56833392883,3.68379780556,3.28083952327,-0.315304778138,-1.99010832044,-3.49176635043,-4.49878658798,0.444007454521,-0.276215501967,6.49365367004,-2.88283030451,6.72046913887,3.94314386903,-23.4375339253
do_nothing,-9.95941854477,-2.93787082164,-6.46333821293,1.02590132956,-12.7698272901,-15.7852498153,-22.5160327643,-18.6195725076,-1.21858691453,-7.98371117855,-7.38128462667,-11.9773042076,-5.63790627539,46.4774489661
do_nothing,-9.32031824744,-4.49592198731,-7.28846884598,0.755151389324,-10.4833172426,-8.03899597761,-8.99396171693,-8.73825999179,-1.29266214833,-7.08808977447,-2.9526568515,-9.28508757084,-5.87797495164,41.9026654366
do_nothing,2.68100323203,0.931681718492,1.82788245034,-0.983346880484,3.36021479108,10.9953865703,19.5136504982,17.4369415576,-0.179652579426,7.36044189088,7.70062386121,9.01670056923,3.52712777897,6.71337085062
do_nothing,11.3912342955,5.33178368396,8.45319293403,-1.71440393267,13.8246364663,17.342896993,23.776482457,21.1496345581,0.946254070843,12.0767925824,11.6170189952,13.6177704371,8.44974539657,14.7368088911
do_nothing,6.82410505497,2.67080527049,4.20660345945,-0.101562822079,9.95502940703,3.97088579388,-0.280261283475,-3.15415373123,1.0742905909,-1.03508220341,3.42607712133,-2.29285683772,1.99391553486,37.8236687139
do_nothing,-4.62982689539,-2.96708640309,-4.32720630891,2.05330397419,-2.96516918859,-11.2565062933,-18.276384749,-20.4570115334,0.564851442281,-12.9502889859,-6.95285819818,-13.9382472791,-5.94507030323,6.72788799117
do_nothing,-9.70240267101,-4.18544435333,-6.09109597513,2.15082791388,-10.7972936277,-11.0675099006,-9.73172610358,-8.99391093756,0.195431078226,-7.16231666408,-7.96380611994,-4.63694075739,-4.56073688602,-54.8361570981
do_nothing,-4.86782272471,-0.813545035329,-0.91297373068,0.0980712916886,-7.22181533081,-0.428315389544,5.81700624637,9.5173333302,-0.0695699103742,6.21628059269,-1.33118245797,9.1385648564,2.03482205544,-62.6387076487
do_nothing,1.67721377475,1.17505650652,2.20677568391,-1.87520537354,0.972568575853,4.35147728396,4.31555649659,7.23369680726,-0.579856754526,7.51320976535,2.36834573578,5.09858487909,2.44266129738,-10.1172432552
do_nothing,2.86513215548,-0.660572322838,-0.587344620846,-2.10662299192,4.50329061909,-0.114867670187,-6.29367451408,-7.13881861919,-0.968171614882,-3.04105395019,-0.753834622797,-9.70575086496,-4.11270042766,27.3619523552
do_nothing,1.38380355477,-1.94170837703,-2.9271721761,-0.949370088223,2.67913290651,-2.2732047123,-4.0387699888,-6.30180948068,-0.602928697529,-7.91311796612,-3.70377329687,-10.351981191,-6.6962133628,18.9542119577
do_nothing,3.23584437574,1.29138983667,1.25514197893,0.449492454401,1.30276792449,4.14059100972,9.00460162995,9.83765569088,0.24783680314,0.55683161615,0.213741864895,7.21750045754,1.14005613583,11.9669157421
do_nothing,7.08757547216,6.10352516832,7.96862941229,1.46376367668,2.62737558574,9.79253226632,11.1267051872,14.649646181,0.652281352487,10.5724279823,7.78358635451,19.7872634142,11.7282468265,28.9104203384
do_nothing,5.2783005625,6.09849093131,7.97846211977,1.77811107993,2.40759272291,4.23909642935,-2.13212452704,-1.5397724741,0.352318964808,9.46544424124,9.98909021792,10.4942575142,12.6151105164,25.440885877
do_nothing,-4.62087639536,-0.34568997803,-1.00709929853,1.04527065709,-2.358454438,-7.61682745361,-10.3526345284,-15.7252211554,0.0289657764091,-0.473020313803,2.93737893094,-9.02143730835,1.31156661827,-16.6572928705
do_nothing,-13.9292297707,-7.77989063903,-10.9183013005,-0.473283887897,-7.17632653237,-11.7475353639,-1.68846602955,-8.41973631629,0.159570458881,-9.06822260268,-7.85593912405,-17.5430887964,-12.3549720638,-39.6333404487
do_nothing,-11.9290745609,-9.50564509995,-12.2185323974,-1.60247637847,-5.36329812483,-4.27223396958,7.6557391479,6.77951439241,0.383657955412,-11.6573002184,-13.2599500752,-11.7763761515,-16.7271249527,-6.09575565828
do_nothing,0.81140065396,-4.16085249288,-3.80211312608,-1.40090995438,2.09215530276,4.27174395066,-0.210490771172,6.08941199731,0.216045885082,-9.09638833512,-9.07571150966,-3.39845536122,-8.85862519252,24.10722725
do_nothing,12.1824416985,3.72520365825,6.80066992035,-0.300408937388,6.7242944625,4.67109112496,-14.4546207116,-6.72506514978,-0.276877297486,-1.38438427542,0.941519306807,2.47576907106,4.40894273303,-14.9706441596
do_nothing,12.3200992324,8.51537711552,11.5248003188,0.52178605831,3.65216457115,0.952621795731,-10.0269552827,-7.11107737743,-0.769305366322,10.3729009193,9.38955700313,10.7392874719,13.6081607055,-73.2738779591
do_nothing,4.04316069796,7.94833803279,8.59098945378,0.615202671298,-1.8489137358,1.84351031769,13.2741386376,10.2705257941,-1.0251121948,18.5974427783,11.6766648228,19.774982383,14.136114465,-40.3419608791
do_nothing,-2.85539052539,3.48213736463,1.83245932319,0.446294687475,-2.04210209886,6.07511299823,26.1751417346,20.6679775557,-0.69983111759,14.1157309655,8.09723968933,16.7292624244,7.58983541381,84.8084997296
do_nothing,-4.41365117571,-2.20669866445,-4.48161178125,0.361131609841,2.1221284908,4.31756779091,9.0382099548,4.96885079798,0.471519067002,-2.28425928268,1.004060681,-3.8673014946,-2.10957616321,159.955327033
do_nothing,-4.70523010422,-6.87933402308,-8.37604360517,0.178594613801,2.73325677845,-5.27324515661,-19.7109347042,-20.614973059,1.82822555914,-18.0366292337,-7.29081663021,-26.0723188609,-11.3668077155,68.5859470733
do_nothing,-6.41544096491,-8.49025570869,-8.7406332448,-0.144168045633,-2.88066414911,-12.0435148225,-26.1707454712,-24.7004615918,1.89212972601,-20.5760717719,-13.1010422184,-27.4512670302,-15.826849682,-120.673843997
do_nothing,-5.73570917742,-5.43983532314,-4.45946745932,-0.237305428423,-7.57467860048,-7.07429574277,-4.49653249259,-2.56239016703,0.136695217693,-8.85802719918,-11.3928743375,-5.81820672125,-10.9280911183,-209.453848101
do_nothing,0.576718740106,1.39950114571,3.15264718054,-0.0098219520476,-4.34660722963,3.90103852594,16.9504153688,18.464339966,-1.866541846,7.22342648011,-1.07783205384,17.5266980059,2.5022788933,-87.589958227
do_nothing,8.02625147148,7.72205992732,8.99985763254,0.0212948134779,3.78698370257,8.3342968325,13.9966245715,15.9779541814,-2.06445940241,16.4332434297,10.8110611119,22.4505743872,15.0124478091,128.686493746
do_nothing,9.31238749595,8.80088796292,8.37332037575,-0.457331162339,8.09055933205,4.09999749559,-3.02641163758,-0.16073744715,-0.471637355261,14.4910554006,14.4252011494,10.7189744391,15.9832792283,207.124740924
do_nothing,4.07044179934,4.02533464938,2.3977105487,-0.879145163638,5.43970873696,0.535673075666,-7.35412332388,-6.04989323792,0.933880416435,5.17734231583,7.42624798644,-1.57957252601,5.24300038002,60.623785314
do_nothing,-1.51409511053,-2.49519310622,-3.15461318593,-0.477902920308,0.322258767098,2.42503449317,4.70755285915,1.30368805387,0.882757996455,-4.61033562362,-2.95870769074,-5.91317815314,-6.55550292798,-137.628745759
do_nothing,-3.84019410414,-6.11868166788,-4.7287709332,0.604388899241,-3.15444091594,2.51952006238,9.67689228816,2.89696762149,0.239145057192,-10.4143778877,-8.76470027657,-7.34850730588,-10.2747617503,-153.132394924
do_nothing,-5.02088309606,-5.53583434794,-4.02776016581,1.40261377713,-5.3684497317,-5.13404119301,-5.64962367301,-9.6077352397,0.315214116311,-11.2397766413,-8.62638687427,-10.4338216366,-7.01285937065,16.1478890134
do_nothing,-6.30414472101,-2.4239540279,-3.4893672015,1.21598108148,-6.42044916126,-12.3920157949,-20.7567054774,-17.759064259,0.819464494664,-6.95140425005,-5.16015075646,-9.56650867437,-2.76620520816,137.896950371
do_nothing,-4.43895867277,1.05217999385,-2.08562246301,0.20398745386,-3.30171244139,-7.01390349826,-9.7632549664,-3.26006770813,0.4597977391,1.83492839328,0.262965341579,0.753828563772,0.561935864041,60.1873106736
do_nothing,2.14163674622,3.31236881812,1.78770336989,-0.961586762438,4.36365733732,7.7760125509,17.6135326247,20.799229399,-0.916541053728,10.3960817695,6.29186972094,12.8609419894,4.25852899676,-86.5647756171
do_nothing,8.17941514304,3.32527763055,5.71878429898,-1.56995141439,9.94531330068,14.776860967,25.3415963228,23.6124663551,-1.88260103087,11.0756231736,8.62410479727,13.1094243461,6.57734207813,-91.3620202661
do_nothing,7.52655792488,1.38893016302,5.4892622044,-1.12951051236,6.70086013186,5.76790292848,1.80688892602,-0.372603730648,-1.23420135814,2.22779414064,4.00300960816,1.19900619959,4.07784767351,30.4997265172
do_nothing,1.64978754235,-0.449173278585,1.20808957065,0.191252813155,-2.5228781999,-7.02995831183,-21.7599590164,-21.4647509688,0.51328994387,-6.90965178828,-3.60420539978,-7.76989206645,-1.45015535356,83.1558016664
do_nothing,-2.85161939745,-0.472888191342,-2.56112879502,1.29372802983,-7.97149576147,-8.33307949156,-15.1572039413,-15.0017192867,1.75554889298,-6.28328912368,-6.26857698093,-4.03335577673,-3.77820676135,1.85611676318
do_nothing,-3.71004615512,0.246618602266,-3.18276424884,1.03718092361,-5.45518650467,-0.602688551202,7.98025802175,5.37461083591,1.53377766007,1.2646939583,-2.30549269079,3.17447179467,-1.26054799397,-63.4653542369
do_nothing,-4.22597442991,-0.745743999083,-2.71695934,-0.249484222286,-0.648702691108,2.16050286736,12.6374720732,10.1077240275,0.328847629282,3.58912650489,1.71654292709,0.361308832247,0.622744125698,-7.61311152561
do_nothing,-5.14189601794,-3.14372074724,-2.95603219042,-0.832409679557,0.73508897143,-2.94978550195,-4.05146332235,-2.35042738175,-0.695566236476,-2.74883461868,0.858742823131,-8.65784623051,-1.70138976846,63.6163518099
do_nothing,-2.08005483469,-3.32657036536,-1.6343795924,0.206543120603,1.19311649963,-3.93086671125,-10.6388303883,-6.52417410767,-0.940465252167,-6.79502815846,-1.38541069372,-7.91501515996,-3.74338903595,23.5943574054
do_nothing,5.83818131063,0.617521463652,3.09570782346,1.41528377624,5.118934464,5.42878741418,6.53149536653,7.24115946935,-0.750142061935,-0.0531049169619,0.250683298143,5.46195013382,-0.314063029845,-61.0701773009
do_nothing,10.6182592557,5.0779050374,7.1831276858,0.708022831487,8.59204876836,13.0872568699,19.7155008897,16.2090878686,-0.624710903437,9.19861011203,3.66067176233,14.6469519744,5.16245558334,-49.1487051716
do_nothing,4.68073992743,4.66762326658,4.60407165449,-1.55227083431,3.33293146377,5.31820073553,3.45692283613,1.67995817049,-0.382405049456,7.30399011859,2.62094979423,6.81074739858,4.98103122918,36.4383724682
do_nothing,-7.1253872889,-0.652798527262,-3.49495906234,-2.59080748071,-9.13593858351,-11.5156999596,-22.6163658829,-19.0318367485,0.457862381336,-3.92667159824,-2.70211316952,-7.81574161227,-1.01233386163,54.1383867528
do_nothing,-11.5846516711,-4.91875133074,-8.37954689084,-0.828459247624,-15.2710076395,-17.1825344477,-20.9233918431,-16.7556572867,1.52399031274,-9.12801630195,-5.02908515862,-10.4698873377,-4.75445929169,-15.7684627769
do_nothing,-3.63551781848,-3.50079712884,-4.35995066711,1.82239887141,-5.91844896606,-4.34923884262,7.18345190167,5.50550799415,1.57281903585,-1.87706872369,-0.731617979945,-0.377308938651,-1.82073053244,-47.8829532786
do_nothing,7.10439261156,1.18560582904,3.70789634248,2.39076511749,10.1515156955,11.7257296551,22.811527129,16.8684128061,0.113219819509,6.29704568177,4.40858897762,6.06724154258,2.44492700103,8.04988964212
do_nothing,8.83651429929,3.23750908487,6.63089624443,0.69532936731,15.5933886916,13.5797524734,7.29628772249,4.54744081386,-1.54433126597,3.72046482796,3.41281511391,0.733989681921,1.61012874511,48.5170150383
do_nothing,1.79640937637,1.04922633782,2.35522846645,-0.819590124299,5.52723119037,2.77587411401,-12.4030815605,-9.23147318791,-1.69486458823,-4.44744071322,-1.9633820707,-5.45260722083,-2.19963057278,3.2256843724
do_nothing,-4.32237436545,-1.30624905232,-2.65190357485,-0.747709147996,-7.44573736075,-5.88872397748,-7.53510927883,-3.59679058164,-0.408281549927,-5.24147021727,-4.09573465953,-1.27990283173,-2.25102154607,-46.2758106756
do_nothing,-4.00711518646,-0.470255502957,-2.86022174073,-0.268565453334,-9.92110114399,-5.26569843278,9.68307361287,9.58766523761,0.674536962886,2.35951427909,-0.417650453059,7.05573636115,2.09534389154,-15.0394917861
do_nothing,-1.0822435806,1.48851168544,-0.206391774651,-0.574397215478,-2.86106262854,-1.54808730351,9.14255962376,6.96805473816,0.653833963458,6.99310767494,3.51681607119,6.26357486993,4.42043903789,38.9415837076
do_nothing,-0.474496678538,0.626136882368,0.408970805779,-0.766061647233,3.27872166062,-0.975049550041,-8.59615880112,-8.53539558692,0.327460759204,2.41256789807,2.34768609245,-3.22649551169,0.851215100287,21.8675077423
do_nothing,-0.879687671221,-2.57903018298,-1.29892632086,0.236989572225,3.22207831549,-1.12751905127,-15.3270416209,-13.2392066307,0.510152624412,-4.59358033523,-1.98438722686,-8.32485122817,-4.41672049689,-32.7955549508
do_nothing,1.23258471869,-3.54293738725,-1.41723615754,1.23934115559,0.595056858593,1.44237741196,-1.42059145451,-0.680462998247,0.622952915285,-5.63930146087,-3.71780285057,-3.12706830347,-5.06526716563,-29.0531429628
do_nothing,4.27917745328,-0.114245487154,1.41607854637,0.449690697981,-0.587901519298,3.27750223183,10.4823004258,9.15884949512,-0.140644119206,-1.71183204825,-1.1391218641,3.68331158209,-0.671045585987,22.8131594412
do_nothing,3.28784534938,4.10071689712,3.58685263786,-1.13125925634,-1.0310932801,0.245041855249,4.04200467742,2.73195025779,-1.14785846303,1.56471903946,2.15738163692,3.53630288057,3.88531739532,30.5764402388
do_nothing,-1.89161057278,4.36641940244,1.86579977727,-0.708458760947,-1.69088768256,-3.44659540311,-4.91153957705,-5.87976965319,-1.08717310133,3.11790336192,2.85316124302,0.101747853909,4.93844384114,-14.8396168026
do_nothing,-5.01705162578,0.777706581069,-1.69952848013,1.66560396854,-0.329031542007,-0.618546263921,2.86451835872,0.798970404311,0.012061819183,4.71900526011,1.53654746815,0.74815989805,2.94680636859,-27.9631546739
do_nothing,-1.82044860532,-2.55381707434,-2.63908736721,2.33037410636,3.84945076323,6.33100505658,15.2040934243,13.4965568714,0.806648488154,4.29636489584,0.247202251842,3.27165997736,-0.230645944969,15.657424818
do_nothing,3.58143140791,-3.12492012688,-0.366076933078,-0.605776174003,6.13797413938,6.8886790492,6.58819045852,9.33544882847,0.624089516407,-1.44420294381,-0.855690578332,0.196970086825,-3.62250934215,36.3965170614
do_nothing,3.88809062932,-2.14983662157,1.27907831123,-3.64875264835,1.76128257393,-2.08889217858,-18.1729020216,-11.1772469977,0.170894890834,-8.68869736543,-2.48437167591,-6.83696726376,-5.87102266699,-7.04283847745
do_nothing,-1.4994473571,-1.15814565869,-0.172924953323,-2.4003609065,-6.29239648177,-10.3235926465,-25.7646929352,-21.502815279,0.0654166777747,-8.38833242411,-3.47662319853,-7.22392855064,-4.47057259343,-43.8858746398
do_nothing,-5.682297466,0.426347467671,-2.30884836866,1.85043811498,-9.64446176413,-7.99933404169,-2.93043574088,-7.00720425456,-0.0689893330671,1.20207182179,-1.71743290487,2.26904909422,1.14149302286,-13.6672244923
do_nothing,-3.51024951484,2.85685293533,-1.58817297323,3.52976710695,-4.81567303847,0.68248155841,21.6563348408,13.0764500592,-0.501146292719,9.75846344925,2.19393467154,10.1653163083,6.70799431888,31.8687963917
do_nothing,2.14112793614,3.78641492802,1.45746354899,0.664512130131,2.97079429412,4.7218768138,17.3956200813,13.2936851325,-0.557305771207,7.2169128365,4.58002846409,5.28580615038,6.44509897516,20.8392266975
do_nothing,5.18688788336,1.22381138305,3.22338643764,-2.35204503996,7.18738328596,2.84426950699,-4.95495441694,-1.62567059842,0.189020943581,-2.69538161104,3.07732895647,-6.4586861991,0.213240530582,-19.0346956965
do_nothing,4.24340253207,-2.48774120756,2.2644020701,-1.31392842233,7.06981626199,3.38547424452,-11.1714391131,-5.97646933886,0.797741405483,-7.11421791685,-0.327845664743,-8.92448195022,-5.06992768484,-16.8820638746
do_nothing,2.22835768144,-2.94410396514,0.624611028388,1.7516170203,5.00166898021,8.07269265844,4.62001941566,6.26489812884,0.224466774975,-1.31922975329,-2.19634264122,1.66794980076,-3.53672007707,17.9970324812
do_nothing,0.0759424083475,0.0676602663278,-0.201990527823,1.97813190141,0.921622893152,6.80060675766,12.4418579163,11.6687193694,-0.849104591656,5.21598326805,-2.09605260145,10.4247508676,1.77061669814,20.8613925482
do_nothing,-3.94807301165,1.95371554295,-1.46222357235,-0.986777208301,-5.76309632559,-5.83243303519,-5.32190527044,-5.05724367976,-0.795015296004,2.73110116807,-1.8612958549,4.31317849617,2.84098312177,-11.2944472149
do_nothing,-8.20687657,0.0395725082234,-3.7492186717,-2.79667825965,-10.6230379069,-17.4033893008,-23.598163747,-23.0049202042,0.494965347281,-4.59039071669,-1.4658566121,-8.64429428397,-1.82222362909,-20.6253425835
do_nothing,-6.76125435313,-2.46424732779,-4.33360605279,-1.10411563251,-7.16507971738,-11.8301841934,-10.8275334489,-12.9765364044,1.29792864848,-5.01096733281,0.793452599213,-9.99803014174,-4.74863803028,4.15472006892
do_nothing,1.85263414947,-1.65648672225,-0.964575714692,1.3828484103,2.94760672729,6.37280292653,20.1786748367,16.2774093804,0.505143490928,2.38914717202,3.58132603703,2.20516195163,-0.865930024653,12.1105236415
