label,COUNTER,INTERPOLATED,AF3,F7,F3,FC5,T7,P7,O1,O2,P8,T8,FC6,F4,F8,AF4,RAW_CQ,GYROX,GYROY,MARKER,SYNC,TIME_STAMP_s,TIME_STAMP_ms,CQ_AF3,CQ_F7,CQ_F3,CQ_FC5,CQ_T7,CQ_P7,CQ_O1,CQ_O2,CQ_P8,CQ_T8,CQ_FC6,CQ_F4,CQ_F8,CQ_AF4,CQ_CMS,CQ_DRL
off_to_on,-1.18309022044,-1.02190384462,-1.46409943728,0.412279175682,1.14444512199,-0.112303535041,-5.71665133344,-9.9909190735,-0.0924438125917,-8.78927268294,-5.56109399139,-5.28421779291,-7.1428569113,94.1475036984
off_to_on,-0.0590287684377,2.05346288348,-0.589222390751,-0.150234224043,-0.707168705688,-5.59347039066,-0.729893403661,-5.82389308457,-0.119972548951,-1.13536736891,-0.460789690423,-1.41176564407,3.03008501813,53.780655685
off_to_on,2.40421170426,1.25576037595,0.574555580364,-0.40725997044,-0.399556427804,-3.59680018241,5.31876829153,4.89193341459,-0.0592876821283,5.89934196205,4.24335541753,0.882553039019,8.76202763692,-36.9552799528
off_to_on,5.58403873462,0.893329710754,1.9304894975,0.15769639594,3.42273682058,6.24885635202,6.83377939715,9.66544399496,-0.0386010345019,5.60434187541,3.89246862342,1.13096961856,5.67807469645,-31.8863370782
off_to_on,4.41813993009,2.46929116461,2.28222745649,0.761361289351,4.75325668017,9.72581618557,1.28860423191,2.5091194612,-0.0538966052632,-0.26591608159,0.266209733223,0.763600361081,-1.19515563643,43.9407887976
off_to_on,-2.71028533873,2.0445748517,0.53050456124,0.376911291818,-0.326538087419,-0.275794173889,-7.39541617448,-8.76165208568,0.000400786928746,-4.75475701431,-2.07906459817,0.251894085368,-4.93137116256,50.1828489147
off_to_on,-8.74413805783,-2.36643727418,-2.16909727078,-0.62976128798,-6.23641045082,-10.8003991435,-10.0612729514,-10.6033552852,0.113312736607,-3.50461531695,-1.69688548168,-0.196859115122,-3.90187470571,-34.5645206967
off_to_on,-5.86414729175,-6.01592173966,-3.09518241836,-0.888587834201,-5.15151460099,-6.92940071354,-1.66454321099,0.324189978435,0.146463154986,1.19895961393,-0.596467747113,0.119650982726,-1.21765674981,-77.8716881048
off_to_on,3.27553964107,-3.45263125868,-1.23264687034,-0.046248497109,1.57116030067,5.85946196836,10.2538394765,11.8670439138,0.0540532295558,3.75901792697,-0.314739840641,1.02114657682,0.46338072752,-11.1818885957
off_to_on,8.01080659666,3.43567204684,1.42243229895,0.679064561953,5.25104656309,9.718753726,12.2067037324,10.3183085072,-0.0450553373129,1.9430503005,-0.114746358712,1.17667725036,1.52788227097,59.7906250072
off_to_on,3.60967532395,7.20956781653,2.43723263089,0.353392182276,2.18593906621,0.60295420941,1.67503790085,-2.19744841243,-0.0604658788934,-0.901255255405,0.943318006924,0.26512407239,3.09004125037,31.3957370375
off_to_on,-2.91458873791,3.98881819278,1.66463553366,-0.297474272276,-1.99745456389,-7.14317496315,-8.88509307254,-10.1744280348,-0.0522037902434,-0.883676937202,2.04323841812,-0.429618279339,3.95044371576,-32.8589598917
off_to_on,-3.24398405675,-2.34652104888,0.520409494722,-0.167184318181,-1.52993805169,-3.21043862008,-8.49155839972,-5.22126150514,-0.0851373815394,0.842966293022,1.61213644228,-0.533774109141,1.65041225191,-20.4348385524
off_to_on,0.957983127776,-5.45807776554,-0.38771268195,0.405904737047,1.39817382309,4.44095508609,-1.44677228966,3.32016785227,-0.0906837815926,0.0880499624788,-0.50344002028,-1.44492031905,-3.34769849651,38.363437078
off_to_on,1.77899556906,-3.64179085204,-1.48944355981,0.266251920384,1.14880642498,3.49111637325,1.5137501049,2.93008064855,0.0102833896365,-3.32684348318,-2.61966966429,-3.17216531252,-6.52472700795,30.7985860573
off_to_on,-2.72170593114,-0.358695240931,-2.55762633465,-0.537658994269,-2.32887461409,-4.19781830853,-0.142816759613,-3.65083005692,0.135143337221,-4.34048494279,-2.8438818986,-2.80608265963,-4.22086210944,-38.5592069572
off_to_on,-5.76244067833,0.961923766802,-2.32080795483,-0.743164041253,-3.63931111203,-6.78122383059,1.32171016208,-3.62264458827,0.130971748119,-0.08827559808,-0.867712860576,1.26348635302,1.31053859191,-55.5725025207
off_to_on,-1.64105127035,0.856854530127,-0.11820528239,0.0541444784703,-0.117126068339,-0.17222699131,6.32107589734,5.16926315685,0.00523628594356,5.03444615162,1.75320525481,5.60232664517,4.44054536466,7.26452370454
off_to_on,6.25820309626,2.13625015275,2.91608461863,0.698528322956,4.35276150797,7.50640017632,6.18164621496,10.095266393,-0.072334705484,5.20312702579,3.02964451878,5.59289440591,3.61607803291,47.3654372731
off_to_on,9.42882503822,4.97816640172,4.61069188341,0.355486296233,4.5916011861,8.00057864965,-1.42219525409,2.78091949529,-0.0149250970526,1.4263859658,2.30240598167,1.73884005102,2.66958141045,9.47084157018
off_to_on,3.91717129871,5.18818291209,3.30336276499,-0.167198608606,0.400957027341,1.91078694901,-6.78588913028,-7.95518351184,0.0538030194424,-0.868242987918,0.494045333117,-1.77744662803,3.35887603747,-27.7673072649
off_to_on,-5.77622529451,-0.924291933083,-0.926991581364,0.0877297433963,-3.92812959532,-5.07218444705,-3.36998630294,-8.92024971697,-0.0157593232619,-1.03780180451,-1.28116033542,-3.84475383059,1.16824149181,2.14018678921
off_to_on,-11.1970972188,-9.88854995322,-5.53475024301,0.462374120518,-4.72940591301,-8.70470273667,1.30843826959,-1.05852807278,-0.16091919325,-3.46590888847,-2.65967335601,-6.46497339484,-6.86730976779,38.7292870624
off_to_on,-7.37137543262,-12.1218423683,-6.48293473857,-0.203658473272,-2.04453227294,-7.13418674555,-1.44799870879,3.95323456461,-0.158772454812,-7.65075285681,-3.22991508984,-7.7647470183,-13.3661378495,7.74754409506
off_to_on,2.74427717971,-2.52057468108,-1.89829287292,-1.30298722346,1.51460662834,-0.530672324049,-5.75981889897,1.7465981765,0.0703674146157,-5.70311408237,-1.87976097246,-1.95891813385,-7.37573919146,-45.0595526065
off_to_on,10.2621410995,11.2228750032,4.74210232044,-1.02207585635,3.48301779635,7.12983040931,-0.27464752921,-0.470090472812,0.296971300034,5.23714963025,1.61871257947,9.92612700498,9.02157675487,-34.0892922588
off_to_on,8.43530851983,15.1164762028,7.08836164728,0.755784138412,3.1837191219,9.50940920215,11.1310434108,2.26685972235,0.21731649397,14.2646077117,4.80338692763,15.7847163546,18.7715233569,18.7080876377
off_to_on,-0.151171682855,4.89437521001,2.96520759812,1.83432670285,1.57996508289,4.58315619182,11.9997833386,4.64047130459,-0.141961348413,8.93940779152,4.28890425245,6.39733987577,9.86261207808,27.0066639079
off_to_on,-6.19146439477,-8.26423071239,-2.69869912351,0.749043562146,-0.160861264187,-2.28625311681,-1.89067370895,0.848917724677,-0.374889516189,-6.22069272905,0.00341368709649,-9.74553374156,-8.08154030911,-9.463756806
off_to_on,-4.58691585174,-10.9549196053,-3.90556638596,-0.998732435241,-1.85349439719,-4.8792211656,-13.8840121003,-5.15419502929,-0.163812598511,-13.3607892125,-3.96585129603,-14.7707659999,-14.9539809602,-12.9525405103
off_to_on,-0.124639501015,-3.35820875337,-1.07541029306,-1.05760277211,-3.61009379075,-3.65913556665,-9.15705742013,-5.50376990634,0.274876951732,-4.88220486099,-3.96479743925,-4.55853642381,-5.57871845228,27.5969244467
off_to_on,0.198886011166,2.96632059712,0.438590242936,0.355753897149,-4.19107596666,-3.25313965814,4.50457225485,-0.164488901465,0.402901169685,6.27801463281,-0.98203027868,6.05340092445,5.17605945169,35.5228163825
off_to_on,-2.47606703386,1.55955343567,-1.33709375587,0.86180254501,-1.59551465461,-4.05693446683,8.63857919972,3.72268025265,0.0425757959222,5.32876975398,1.22546482838,4.5219067354,4.09431540409,-15.5551821356
off_to_on,-1.25125895796,-1.42570390652,-2.2185447889,-0.459746419782,3.60860003692,-1.4923603564,0.193067073379,2.37848061333,-0.369774636214,-3.66518790448,1.17703897423,-2.46157889785,-3.07991536813,-50.3052925223
off_to_on,4.77296092687,1.55949240673,1.13371794439,-1.64546431034,6.91300970858,5.47713395228,-6.3833558452,-0.704093404331,-0.347315286347,-5.21237389956,0.709514747399,-1.10839205059,-2.48447583035,-17.2927145358
off_to_on,7.64524128974,7.00079382563,5.15272326305,-0.701577879004,4.21692185094,10.1124916157,-1.517756176,-1.29123015613,0.0234949592575,3.81604980188,1.27142751999,7.32302560185,6.30160270859,26.9499357917
off_to_on,1.99825578922,5.40651653208,3.93573652377,1.47560051863,-2.45395708689,5.95775247746,6.87610619978,0.203248667016,0.262219346575,9.72915828605,1.6585459227,8.38169643386,9.79911906919,16.8045528881
off_to_on,-6.12465720294,-3.70011480941,-1.9065879108,2.25757033904,-6.14233580137,-3.55432350694,6.57478708797,1.07706081536,0.175401194342,2.80902576852,0.369351357185,-2.75859937998,0.964066499683,-16.1576227777
off_to_on,-6.98770828253,-9.55121774829,-5.37150363647,0.736142508281,-3.16161023183,-8.4136870053,-1.93061377254,0.452065775551,0.0302000907909,-8.22819696069,-1.66788721156,-12.5992220089,-10.0195703734,-7.80437514541
off_to_on,-0.59132443668,-4.70817020509,-2.45162248451,-1.28807830862,2.06388868642,-4.71051389567,-7.80921487396,-0.614017306429,0.0423746168063,-8.94961442901,-2.31171106817,-8.12901521544,-9.71831717292,25.799174704
off_to_on,3.89507525981,4.34984913028,2.50672533898,-1.7671042127,2.74349341912,0.832877182729,-4.8022696709,-0.928008728811,0.0519520737379,0.607555942011,-1.16576863427,4.78973832274,0.458056093334,23.1522970694
off_to_on,1.53236947952,6.00680733557,2.95782508393,-0.728843044337,-1.14660231941,0.910540830221,2.36772415605,-0.0385491980122,-0.121725280652,7.21439089531,0.239519638794,9.92520792751,7.17588510737,-12.0925845715
off_to_on,-2.14757736283,-0.639278680731,-1.03544044689,0.325084145743,-3.06324098407,-2.1674392083,5.32702081328,1.12509342242,-0.297377433566,3.37429396487,0.785277149907,2.68519443588,3.54325027567,-22.53824849
off_to_on,-0.559830318856,-5.09329322543,-3.40830339671,0.536804812054,0.543908087316,-0.819038481514,1.5337515822,0.486243568533,-0.191517916747,-3.82516506868,0.844043945405,-5.53292795042,-3.00321056426,-1.5903402833
off_to_on,3.84551617274,-0.56025732924,-0.628378813224,0.376257852581,4.90623468859,5.54314901104,-3.90181427185,-2.25592791511,0.109715728664,-4.28920973144,1.02416563394,-4.33748196608,-2.57528196001,1.44863038637
off_to_on,3.7674936944,6.54047910221,3.74831389421,0.462981862454,3.7138580745,8.72170222156,-4.0288348032,-3.49457332595,0.257555786319,1.56452738962,1.06470126437,2.708951907,3.49066562132,-19.5211130886
off_to_on,-1.60775154086,5.69825557121,4.07165291848,0.573728964309,-1.74612339599,3.29557123868,2.15573313003,0.169966114678,0.15172821655,5.18904233993,0.410120706393,5.24458763737,5.56770561597,-12.2374579689
off_to_on,-5.28024455904,-2.92452659423,-0.119860541059,0.162473548382,-4.48311923858,-5.48428273678,7.49876376633,5.66598618366,0.0281232206479,2.17423462389,-0.789267151765,0.562631625585,-0.188856494085,31.0351190886
off_to_on,-2.55130703733,-8.5013557257,-3.87364145665,-0.607001570758,-1.86941091899,-8.80805584781,4.36178987172,5.73127760193,0.0287657314074,-2.91803641114,-1.65560943296,-4.28886586716,-6.46630060282,42.5436785565
off_to_on,2.53866129549,-4.11407106363,-3.23349903197,-0.917088191086,1.11496637822,-5.35812911712,-4.9592955901,-0.973017403579,0.00504251712702,-3.68419085714,-1.37722718462,-3.08602713245,-5.02769253964,-8.259423856
off_to_on,3.21260147865,4.09558958285,0.18160669681,-0.377912808053,0.0532465544305,-0.513254262631,-9.36402078448,-6.64998804952,-0.147961667933,-0.107990786053,-0.0650633044039,1.63237676301,1.85197119291,-49.4581994781
off_to_on,-0.792631665924,5.48024111893,1.84598515328,0.394006232964,-2.08430856187,2.71131376199,-3.03567445334,-4.55595087749,-0.250169276401,2.21225221791,1.05418642201,2.72425961687,4.55501524762,-15.0081788956
off_to_on,-3.41666903977,-0.704603763991,0.362518163196,0.537019326187,-0.0471985314222,5.56456937409,5.90557762845,1.63587438385,-0.121124843276,-0.137486818477,0.782072958213,-1.60560114654,-0.279096805233,45.3223725817
off_to_on,-0.777392039747,-4.70400836357,-1.03689160191,0.0423532441248,4.62675104318,7.04080064338,5.99287644769,3.51302252858,0.105168613637,-3.58855810783,-0.342859716512,-4.88483086072,-4.65115987269,40.6382619648
off_to_on,3.78228003497,-0.206323027008,0.572489786705,-0.289827620465,5.003535392,2.98176806601,-1.49975560428,0.107415711156,0.178417879659,-2.07090485734,-0.321587494044,-0.745567871519,-0.518085604481,-21.8983840517
off_to_on,4.254066341,6.49116558686,3.20238932278,0.0288014860997,-0.847615972938,-5.49801824239,-4.6846873961,-1.8475529444,0.101806027191,4.2691768506,1.40528645965,7.37547382124,7.70791502392,-57.8027203523
off_to_on,-0.260565563741,5.09637132149,2.42138718947,0.506731761967,-6.06899592262,-9.28449027077,1.01893723221,0.931390477296,0.0607682199878,7.6887580136,2.33405015887,8.77697966,7.92827240344,-36.365072942
off_to_on,-4.42687383329,-3.90170429884,-2.02824385216,0.363295215054,-4.12312594521,-2.65561638897,6.00865891912,3.61681958972,0.0765550328385,2.38928617659,0.0182046118362,-0.615670130371,-2.66190476795,0.193130687085
off_to_on,-3.43609879007,-9.08267508061,-4.9672645962,-0.368001624057,2.06620950585,6.82324531024,1.47283200426,1.55442569487,0.000877463977867,-6.6229106166,-3.66058959048,-10.8402830937,-11.9985147294,32.2342244978
off_to_on,0.922879186351,-3.48241333206,-2.52147798616,-0.815470783914,4.18287339402,6.95439989903,-6.51830194322,-2.55001970309,-0.164120528889,-8.54628319945,-3.9607859239,-9.27937158564,-8.25946011734,73.9383939969
off_to_on,2.74594213315,5.61931242275,2.28754779941,-0.365237935847,0.045021127418,-2.22040401188,-5.78225138905,-3.3503152687,-0.211759555309,-0.843943784712,0.258141875587,2.41672641598,4.21290703446,86.807783837
off_to_on,0.0577338520695,6.49609675245,3.50513059268,0.531050331785,-3.72654711634,-8.05653850239,3.25448122675,-0.79444225088,-0.0577698479591,6.67076997624,4.19271770646,9.60693395571,10.3542973646,1.27991277652
off_to_on,-2.41975821571,-1.02442463005,0.47479067183,0.84725509617,-1.3713610032,-2.95530056999,7.45170475385,0.958533124869,0.106828309576,4.59888666077,3.16406571337,4.07407178462,4.00468668254,-137.074547554
off_to_on,-0.147868260718,-5.75266784806,-1.66069597513,0.181801752476,3.88455763303,5.36133862017,0.194763706771,0.268202604212,0.0977568461028,-3.36878111622,-1.02057352528,-5.09541476465,-5.04905512222,-162.963802539
off_to_on,4.05504918088,-1.11237567336,0.0666371731935,-0.739972719551,4.49864935619,5.64753476602,-8.40896732944,-0.567223128124,-0.00656309070826,-5.68206685628,-2.6823264393,-4.84814808536,-5.25267302124,-12.0314873867
off_to_on,3.50736414254,5.85527359899,2.11233664938,-0.855815483512,-0.746491470364,-0.811683799842,-5.5170530633,0.280685465116,-0.0195961306353,1.06640154001,-0.224130579848,3.42800096846,1.87247767366,154.117052013
off_to_on,-2.2529599073,4.9340439242,0.3323344541,0.0110618769252,-4.9886774609,-3.28259768409,6.27177690638,1.87149070587,0.0791895412099,7.64858194763,2.04862289592,6.84588850411,5.68130570557,149.997221391
off_to_on,-5.7181833235,-2.79471523147,-3.11868776037,0.904547293333,-2.72487325245,1.65243120784,12.0059237083,2.4556463838,0.15717593471,4.98133349846,0.541092114783,0.15093797553,1.39609293047,14.5046358826
off_to_on,-1.81058332237,-6.956218709,-2.80884876422,0.8364322947,2.63312364216,4.87020031174,3.95131417362,1.21700667767,0.113717074159,-3.90863974985,-2.52205057418,-7.22978814311,-4.81977618479,-72.0470622972
off_to_on,4.25764216851,-2.61974802292,1.52084659999,-0.0290885567305,3.49472453177,-1.31891424463,-8.77105053951,-1.54449843889,-0.059826230505,-8.40908474752,-2.59133158285,-5.37836091623,-5.26624578435,-58.9916170621
off_to_on,3.92945592469,3.55767658002,4.0917637692,-0.6306320319,-1.32780968042,-10.4212471897,-11.9329671547,-3.89233312662,-0.295057410047,-3.9698118204,0.73196777141,2.45040842396,-0.160410692017,-49.1808071681
off_to_on,-2.37246949883,3.47331789363,1.27513900218,-0.435412570337,-4.79748688448,-9.14541814353,-3.0606944045,-3.01620965289,-0.405386225736,3.18052051273,3.35573072423,5.54863397366,4.00067410546,-70.9640704848
off_to_on,-5.66211974703,-1.45850026863,-3.27848431281,-0.0772584409068,-1.38238877289,4.20103344296,6.98434988168,0.94497690688,-0.17308029907,4.78652002629,2.19941989932,0.752317399254,2.74960457131,-20.5146700278
off_to_on,-1.17286985514,-3.38396095923,-3.7485009277,-0.24163783076,4.93529440827,15.2240890559,7.6551687645,3.35484438095,0.33529231492,0.566737749377,-1.20085463577,-4.41380022992,-1.63106876211,115.671468237
off_to_on,5.15367400836,0.760344131561,0.285985756288,-0.462321131727,5.75296726696,10.3649628259,0.39408416369,0.906041465885,0.65590633069,-2.40934988458,-2.91381160561,-2.59371489669,-3.00517985369,166.276712066
off_to_on,5.46787889355,5.6232744045,4.00988337323,0.166115492139,-0.220869872625,-5.42308701357,-4.53801986169,-2.45064876912,0.387946090639,0.693154539713,-1.12068314979,4.27203031057,1.43506244031,24.4203261101
off_to_on,0.496997778456,4.82698904945,3.66130774275,1.27058329514,-5.26995217944,-13.57797321,-1.21492000405,-0.460059961843,-0.257614456721,5.70749889175,2.07688691279,7.7991419999,6.74861487667,-150.24272623
off_to_on,-3.09721373592,-1.40948840519,0.109480954452,1.2928920055,-3.320086595,-4.90955543567,4.7786906307,4.97921430574,-0.626941826955,4.21274174999,2.88576240631,2.823706228,4.74978018569,-139.599818525
off_to_on,-2.74268021934,-7.06395436669,-3.25006447245,-0.278895206396,1.80654681813,8.29332513382,3.96277044119,4.9259971996,-0.385088992361,-4.86139894517,-0.0756722932822,-6.71601774939,-5.21611998833,16.2187345239
off_to_on,-1.82712438371,-6.88802757235,-3.91939754827,-1.75275715886,2.308025793,8.00766321841,-3.93924124276,-2.99736030433,0.123829810732,-11.5111048343,-3.72263140452,-11.1312138627,-12.5350316298,93.4707499137
off_to_on,-2.37945507004,-1.23848625244,-1.67295001467,-1.26555140835,-2.08795105912,-5.36099824241,-8.76381478403,-9.07010218096,0.359644404104,-6.15068203228,-3.46198092373,-4.99205144998,-7.02089051544,27.2671551466
off_to_on,-1.62484563185,4.70392336692,1.60019651317,0.587651595599,-3.82398942824,-13.0184163893,-3.43472473075,-4.67742771035,0.202526753316,6.65381234638,1.08581796459,5.9193465384,6.6509275606,-25.0751049694
off_to_on,2.37277298565,5.99004227924,3.13846834561,1.41324191469,1.08061590427,-3.22640704115,5.58880449547,4.5184086357,-0.0543920191756,11.9012003546,4.73218164234,10.0477179671,12.7780376871,26.8150819539
off_to_on,6.02131941684,2.63404714652,1.80121325073,0.276439424782,6.65413057099,12.3196690266,6.59151708492,6.29444802188,-0.137063493994,3.39015675581,2.89129019722,3.78204405987,4.74149841561,63.3870997296
off_to_on,4.59552946306,-0.838092917315,-0.463721571729,-1.04368813645,5.11599528087,14.2866535984,-0.697815663956,-0.199070087125,-0.0227620337889,-7.13338891632,-2.0469534213,-3.75232473709,-5.79734196654,-17.1871070922
off_to_on,-0.84973836038,-1.01246572567,-0.862452882818,-0.635048270512,-2.14998111681,1.61834357559,-4.29005217352,-3.56402986366,0.140314190955,-5.54530617771,-3.49428239115,-2.94832712709,-5.089208395,-107.664765303
off_to_on,-4.49096378919,0.311687809187,0.556365587166,0.853808559097,-6.49667111156,-8.87739409208,2.15531933033,1.99570470217,0.163194647614,4.759264542,0.211055786544,2.88586372428,3.33093695418,-65.0267614673
off_to_on,-3.21214795678,-0.781680212666,1.00751782248,1.25051523639,-3.75150565751,-7.15527449728,8.49281634125,7.31885570806,-0.0488657116404,7.46122594874,3.17457405766,2.67113382158,4.49121993291,51.4738463055
off_to_on,-0.137912575824,-4.09877761054,-0.975486069621,-0.0070429162315,1.00797882978,-1.77409048842,2.17657312163,1.97114550357,-0.331987772059,-3.01328489543,0.355423604331,-5.39605997247,-5.13713511422,78.4571312404
off_to_on,0.0945450838188,-5.07403658235,-3.31882171044,-1.19336915438,1.63931532301,-2.99785551752,-11.634169917,-9.31623007949,-0.336935299712,-12.6751134392,-4.65764793716,-10.1801060692,-11.6736772819,7.95151316721
off_to_on,-2.35365911,-1.1891004735,-3.08558494535,-0.847016140553,-0.547906900911,-5.56425243015,-14.5513480715,-11.9456053914,0.0449382088556,-7.31403822405,-4.19273141739,-3.46670829308,-3.96729587972,-24.6733130953
off_to_on,-2.69318068746,4.21287536658,-0.0257570143306,0.30142782029,0.0231807914265,1.31192965718,-0.344364195842,-1.23924703494,0.433937672962,7.43838476471,2.48502046729,7.86924210141,9.73923129768,19.3286190148
off_to_on,2.07343939677,6.18620314892,3.50825190602,0.63306361695,3.92449964728,13.3179810305,14.5941819514,10.8562204356,0.384501696609,13.7149172063,7.37236817238,11.160246104,12.8975456288,31.8764319838
off_to_on,8.19054210314,4.05943719321,5.0519467328,-0.0259066435549,5.3560496926,14.152750116,12.4105766046,10.8745355869,-0.0169041761552,5.25581834495,4.15350554113,4.55041055633,3.02761696684,-34.9150082452
off_to_on,8.21947799222,0.814757258502,3.49074405484,-0.411777137803,0.560141177716,-0.379769100011,-2.13737319505,0.256864547538,-0.274056879961,-5.86811845622,-3.37621114508,-2.74039949138,-6.3777675313,-77.9345646815
off_to_on,-0.168008599993,-1.71401903804,-0.660317209065,0.154702619979,-6.18466111283,-14.0051187093,-8.95494859254,-7.59971040551,-0.181216376712,-6.98304392793,-6.33088431089,-4.42011314307,-5.32974867424,-21.4749640634
off_to_on,-9.8191566826,-3.96372748567,-4.96505831977,0.811875147118,-7.44661202545,-11.3778679702,-1.11468309756,-4.56023091878,-0.0400946316203,-0.621050505466,-2.14081712416,-3.57077958798,0.499861409898,52.3815687587
off_to_on,-10.9235833814,-5.4905220065,-6.01593378153,0.472925766014,-1.77318610497,1.48044818919,6.26868697038,2.95992969723,-0.091059900483,2.0466776368,2.89566757093,-4.31978070284,0.473296285014,43.0312547711
off_to_on,-2.3544496527,-4.11521908481,-2.55536776096,-0.613138677946,4.7493608494,6.92487773335,-0.559515932077,3.59709641351,-0.121608594018,-2.0368612062,2.54812648958,-4.32905777628,-5.02582022484,-7.83042102133
off_to_on,6.53365481941,0.524380898552,2.51887335123,-1.14504846996,5.83636993081,0.326199827368,-12.6024459809,-3.44661785381,0.108657615065,-4.81397934178,-1.45135669159,0.278806415148,-6.03191200993,-4.65624137609
off_to_on,6.94024767285,4.90686873048,4.79484178786,-0.392097974585,1.6685526316,-5.71870283738,-10.4252754541,-7.35773423639,0.375893707386,-0.0573726107728,-2.65728731869,6.81141630277,1.763613709,33.0154015819
off_to_on,0.91609725887,5.20896534168,3.06240419139,0.883010752252,-2.47986340149,-1.07651069359,7.04452303209,-0.907102659222,0.294975531117,7.15606751698,0.947578012371,8.16244494548,10.1239965112,15.6585368187
off_to_on,-2.34230168786,2.03653844613,0.150500026487,1.22010468232,-2.65406235219,8.27859351106,18.9889843338,8.53850476462,-0.0748914020631,7.25585321146,4.42720565737,2.27323170803,8.93300048944,-48.4900095044
off_to_on,0.99562648689,-0.407553346294,-0.937904542961,0.0934240911434,0.122989692246,10.139627531,10.4750556353,8.38946141994,-0.323789191623,-0.565834601496,2.88158459194,-4.61502800098,-0.445261067458,-61.8609966518
off_to_on,4.80711129984,0.0612333513131,-0.308149473819,-1.35440890827,2.00634233306,2.36850956594,-7.33777803986,-1.36095088604,-0.29236158578,-6.74074007688,-1.93760332149,-5.34101402407,-7.01959347038,-2.66284104911
off_to_on,1.87842234144,0.64671695391,-0.173528579957,-1.41392415537,0.803714182248,-6.64721170871,-12.9308652657,-7.59192812217,-0.169674394378,-3.87242566342,-4.24721963478,-0.370825417729,-4.61745116967,41.9548635433
off_to_on,-6.12024175953,-2.37777862436,-1.69750571988,0.219856906295,-1.99465535046,-9.89649889771,-3.50433838375,-2.83738575777,-0.0293722237463,3.08725198616,-2.06501612673,2.93932429182,0.532362466173,23.0115433652
off_to_on,-10.3296327895,-7.36799513735,-3.50922016289,1.86018992299,-3.0905368173,-7.67389039339,3.63761187496,3.88522474654,0.25609011392,3.41564425259,0.726401925002,-0.344935422469,-0.466551205359,-3.03834134024
off_to_on,-5.23085799162,-7.53268716407,-2.98651450333,1.64161675332,-0.984808500517,-2.85918227105,-1.87909228053,1.19901109186,0.545801128331,-3.93331650918,0.576188028332,-5.83915097917,-5.54640390176,10.3188685162
off_to_on,4.97176298639,0.702059724484,0.922655715967,-0.23341442707,2.29889712398,3.39393831618,-8.1800080098,-6.43939771403,0.383524029576,-7.68269542403,-0.659546911329,-4.67217922993,-4.15846247215,20.7333801666
off_to_on,10.8707023053,10.9412318757,5.62636323324,-1.70046487122,3.36575373948,9.44418959535,-0.10784445079,-5.12947838869,-0.288181333907,-0.0136938201559,0.735811429839,4.38117379788,6.2718850744,-9.68871429834
off_to_on,7.58222323332,12.1444875939,6.3812076903,-1.36587963085,1.37399177618,11.0600069141,15.6173375537,6.17545880793,-0.783132269201,10.6064985817,3.76517476629,11.1729672267,13.762983898,-32.5930719092
off_to_on,-0.724555574626,1.94856902632,1.41314660007,-0.0555671187838,-1.01003451829,5.25614381408,17.2062882528,12.1370618448,-0.477498995953,9.59205875121,3.5620962475,6.27185555905,7.02580731342,-2.37321961386
off_to_on,-5.88211271848,-8.91369787314,-4.89124584378,0.602536039347,-1.21042067102,-4.82251937404,-1.37778106659,3.25763654861,0.298318503357,-2.93903553216,-1.10094481225,-5.5477584768,-7.58179349613,25.2758292675
off_to_on,-4.63488546356,-9.00863596755,-6.19742541738,0.367303341522,-0.21107487579,-11.5023116888,-19.6043208148,-9.35072730619,0.660252091534,-10.9213044818,-5.06339223732,-10.1149918859,-12.8630167713,-19.0433951805
off_to_on,-1.24612280696,-0.523158601604,-1.87832957064,0.247746048288,-0.715841805417,-9.63655702327,-16.4580310738,-9.52776111361,0.329227111047,-4.43798223007,-3.61209246411,-2.64882429625,-3.70686983074,-78.4687577178
off_to_on,-0.773927680909,4.19722481916,2.2449846331,0.619465741633,-2.39861473191,-1.36298028338,2.15704253057,1.1245237771,-0.133167025308,6.07979676216,0.84724356879,5.51392184458,6.19330623402,-31.9991052129
off_to_on,-2.03112836209,-0.113592688937,1.85401531684,0.694126464925,-1.78876173426,6.1172458141,12.5781621715,6.87477233283,-0.238031791703,4.98934018017,2.31409157798,3.00704717618,3.91564897962,107.271154558
off_to_on,-0.234262005402,-4.83323792317,-0.363098790046,-3.36639855485e-05,2.0649326611,7.11974134399,5.44620919023,1.18689254803,-0.151416332813,-5.62525950352,-0.135729183569,-5.30718179816,-4.91712544754,167.937744626
off_to_on,4.47512907158,-0.906143443988,0.290159814355,-0.741154883183,4.71121785343,2.33845918546,-4.29554455391,-5.37593993514,-0.177948862475,-9.00706604225,-1.37428590503,-5.84726942138,-5.47321757992,38.9001153598
off_to_on,6.0456852044,7.33255661939,2.90289999905,-0.774121785299,2.00515269308,-2.16636277007,-1.32281146989,-2.323016703,-0.183323034666,1.61068266103,1.68458647469,3.51793416525,4.4203063244,-163.758304362
off_to_on,1.59080493454,8.47425917133,2.67552408748,-0.462997120456,-3.0739509697,-1.20946378693,8.37011687396,5.88223451413,0.0763211448142,12.9172109369,5.04326610651,10.5346353066,11.672073057,-217.108656228
off_to_on,-3.42204546665,0.687295355919,-1.03029293882,-0.472780352356,-3.60694966147,3.56467050727,8.02073425776,7.67167783897,0.390795224606,10.1359639709,3.11430156723,6.33232908841,6.64696543617,-52.204562246
off_to_on,-3.01555979865,-6.31773559217,-3.51012219135,-0.442195559182,1.1523520975,4.67329214888,-4.93148456801,0.53015097606,0.339243803301,-3.28123005157,-3.2104485123,-3.20699857098,-4.77417771054,163.163148479
off_to_on,0.112456363831,-5.87351480048,-2.2157589526,0.453798064133,3.76824163625,-2.50168767041,-15.5228794593,-7.35075018571,-0.0460803354238,-11.8483832237,-7.26110832467,-7.67930627879,-10.7707849447,209.943273289
off_to_on,-0.740152258013,-2.36281936302,-0.366042848499,1.82698972222,-0.661795430725,-12.0646156648,-11.5869305632,-8.31771022943,-0.303517249245,-8.46705402284,-4.76075267831,-5.90428959687,-7.97417617121,53.9101336813
off_to_on,-4.50221873438,-1.56754808151,-0.76959492376,2.0850436342,-6.15012989457,-11.8004220576,2.25870662429,-2.419905581,-0.207071426878,-0.153131960992,1.48529497424,-3.14924968668,-1.52790534538,-127.419601871
off_to_on,-3.09537473518,-0.902857896588,-0.728065083076,0.430783823022,-3.51479741818,2.24627170908,12.809789152,4.98079762559,-0.0131297210196,4.48786988789,5.47490469197,-0.521591849376,3.91411632329,-150.173195427
off_to_on,4.88263685093,4.12611229975,2.72647613558,-1.90208782128,5.59285897403,17.5395148141,12.8606949277,8.0529032114,0.0120237103177,4.81604767624,4.48593848324,4.3550945484,7.08134712352,-25.7428165569
off_to_on,9.45385235354,9.09137902728,5.99186671629,-2.86808669617,9.31101409757,16.7493807599,4.49203316288,4.15181824631,-0.0457541906263,3.93358344214,0.747946571239,8.75503270144,6.78363838694,77.0388240806
off_to_on,3.17166838393,5.41063245889,3.13959926435,-1.67580255651,1.73217351047,-1.15018766261,-5.73733790897,-3.21188307909,0.00757990786901,2.19250157669,-1.9198647319,6.18326295384,2.18085126907,55.2858996124
off_to_on,-6.66348062725,-5.24454612042,-4.17748958928,0.626422360544,-8.06361331439,-17.1154734933,-10.581784511,-6.23847734813,0.153244402833,-1.15113787924,-1.88198895653,-2.72246787266,-3.73724085139,-14.1320759311
off_to_on,-7.39253148676,-10.5061355476,-7.35345341151,2.24571850426,-7.90647945529,-13.9170417582,-6.27940079564,-1.70474063942,0.248850714952,-4.07934842579,-0.558145145731,-8.44262228871,-5.89482815536,-15.0587910471
off_to_on,0.842546864577,-3.87164639645,-2.60427610219,2.10376548083,0.971515148242,2.52591267619,2.26559878648,3.68075806777,0.222278925708,-3.83561216054,-0.299970266894,-4.9225245659,-3.26652691521,32.5998597819
off_to_on,5.51630671864,5.78015648485,3.53757533348,0.610490446587,6.33159868859,11.2473963451,4.82078724995,1.86090661048,0.0345337245033,-0.952475547567,-1.4515178806,2.22396693026,0.202891736829,25.4095834327
off_to_on,0.395713700035,6.31368232757,3.62843759142,-0.752582963525,2.42294638451,3.98672853847,-0.878574372504,-4.21727640006,-0.321865671228,1.64294660809,-1.79700769714,3.97753670543,1.35380810615,-41.2814973735
off_to_on,-5.60635730946,-1.29963757129,-0.399712698901,-0.935584441771,-2.934521376,-5.41128304435,-4.33082589887,-4.08400072286,-0.61894980562,2.24276908345,0.400128517573,-0.0983639731767,1.07730791172,-62.7080264699
off_to_on,-2.40432012506,-5.56851179316,-1.25730714919,-0.483959231617,-1.22950266166,-2.6813827248,2.55720122042,3.92385957414,-0.448607254309,1.10224506425,3.32911187374,-3.07338289865,1.09050815718,-0.00218718327493
off_to_on,5.94539316556,-1.06336186846,2.16866545518,-0.653270020915,3.90001287967,6.24691261328,10.9789985151,8.531139877,0.237778261867,-0.762913281744,3.32378160353,-1.04282660426,1.03152989138,53.550214076
off_to_on,7.29685575505,5.05826715521,3.4733307435,-1.31586497052,2.93913921245,5.83894010332,6.52581988638,1.95279526964,0.840373224402,-1.60139762123,-0.086436883766,2.93329234533,0.354065962042,25.3015110204
off_to_on,-0.907466610904,4.20740488449,-0.949717860681,-0.826193869299,-4.25437694429,-4.40272427791,-7.78764060731,-7.49512409743,0.717972285192,0.251237272335,-2.92592699848,4.3226772827,0.0447531284997,-23.5316983918
off_to_on,-8.24979928918,-2.08176441316,-5.97763272965,1.35910490665,-7.55268302583,-9.36103382065,-13.4361628507,-7.00465727343,-0.0017604090773,3.28073834885,-1.93620035591,2.07851220044,0.453854162668,-10.5129784236
off_to_on,-5.83457178313,-5.40911284754,-4.85009729308,3.06895553415,-1.3584512505,-2.00795130881,-3.40887181677,1.82554541107,-0.576889653919,2.84130043402,0.887111094488,-1.9025711346,0.0227148410773,28.9561912298
off_to_on,2.69684951009,-1.96056682599,1.53079347813,1.89756389544,6.93482869209,6.13043614222,7.07414358835,5.87404471381,-0.583255729098,-2.44736706611,1.2676560433,-4.7416055171,-1.67323387764,12.3966581763
off_to_on,7.31799929716,3.51720958944,6.07263043063,-1.25724821918,7.06418058837,3.65043852056,4.23363257954,0.606721397415,-0.292106668369,-6.55627590514,-1.03820812609,-3.87756232243,-2.1459650374,-40.2746941077
off_to_on,4.08998200505,4.45273825496,4.54853526012,-2.95776092151,-0.35313362508,-3.25139618698,-3.27519265698,-3.92824997725,-0.0672264161743,-3.04670801921,-2.08575767868,0.43403826458,0.0752781225281,-40.4022645456
off_to_on,-2.20521812991,0.0161297601731,-0.344684012307,-1.65396875148,-5.65228347756,-2.01713969166,-0.0968267612303,0.0414570866067,0.141902092797,4.80487899878,0.0518111600856,3.85358571674,2.07672546554,15.4083688859
off_to_on,-5.30806507691,-4.69068654647,-3.59990523707,0.512451845448,-3.56558854714,5.33717920271,8.9931251302,5.53963471472,0.449427266822,6.81017009096,2.36365838741,2.41501328285,0.603928991728,40.2944918918
off_to_on,-3.61469853283,-4.47427618189,-3.41452289097,1.05174839358,1.12295826856,5.61005928453,6.20549168993,2.38319940813,0.585006511035,-0.0601090093261,1.71563619594,-1.64125515672,-2.21232934626,5.20281033721
off_to_on,0.189742704314,0.59750412643,-1.33265992208,0.43130369163,1.96616225824,-3.74671888441,-8.50731544806,-5.96092572605,0.245022946914,-6.50735402297,-0.368339824537,-2.23071306213,-1.4401577142,-19.2559035922
off_to_on,2.74908716948,5.30842341633,0.718489453594,0.522441926064,-0.396900308721,-9.77239274218,-14.1409816647,-7.02960044017,-0.313966824482,-3.51642342489,-0.523153705636,1.73274687134,2.81269401879,7.53748444669
off_to_on,2.82234541204,4.78331310963,1.89537268879,1.16712797589,-0.962281226725,-3.76206455292,-0.939820413572,1.5924291958,-0.520012531022,4.77608852063,0.788474902749,4.22923370536,4.72216412552,28.0760653993
off_to_on,1.6694845663,-0.168309071867,2.01039510192,0.573673868906,1.39898655171,5.77652486345,12.5521216686,8.11612463783,-0.279645267834,6.75195049424,0.123595883688,0.899320518022,0.997662891657,-5.01134092153
off_to_on,0.875398795455,-4.06933180126,1.16562805604,-1.28810005137,2.70702749788,6.50471331187,6.6758180495,3.51961427576,-0.0544171197855,-0.498186216914,-2.78967685287,-4.30493380259,-4.22024291826,-41.8128480405
off_to_on,-0.0430437029359,-3.31824725058,-0.168946734499,-2.10580668709,0.332198484222,-0.0293232324364,-9.01334167388,-5.57032238997,-0.0814217772716,-7.42903719577,-3.65921002206,-4.78954352494,-4.97527716086,-22.0606650445
off_to_on,-2.402366853,-0.085003826632,-1.30950251293,-0.627995664903,-2.98073895381,-2.97460411365,-9.80492506968,-6.37468702245,-0.0194258700533,-5.25445128343,0.126181662623,-0.483667582081,-1.05729860152,20.8386437366
off_to_on,-4.6250304008,1.37351442468,-1.67035831724,1.32054996189,-2.89803175088,0.601354256879,6.60735372579,2.31287225044,0.37755375065,2.84345876631,4.83740343609,3.06292573367,2.76175100247,20.4630839034
off_to_on,-2.84137545795,0.402190909201,-1.00787785556,1.41238600342,0.692502964701,3.05469235325,16.1107291515,8.60145911694,0.68338539342,6.81450970931,4.71141644089,2.82630865345,3.07049927842,-8.75960049695
off_to_on,2.80807409974,-0.351789256766,0.226899922123,0.00168883571328,3.49506423062,-0.422059378362,3.47101565052,3.33249377984,0.356389933437,2.58686164127,-0.447338144631,0.833332074732,0.662419245995,-4.38982347855
off_to_on,5.84410805623,0.292444399681,0.92401589681,-0.753695016582,2.02275640777,-4.91874096358,-15.5390079896,-7.84273984334,-0.377703152504,-4.02108293193,-4.81174755918,-0.631481090395,-1.69960333438,28.1976788586
off_to_on,1.63407295286,0.788064624205,0.478905648726,-0.0974990706946,-2.2422943498,-4.36921999166,-16.2120759646,-11.0149512236,-0.738156220937,-5.20202312107,-3.68848059767,-1.50507643665,-1.8372412355,24.4371582148
off_to_on,-4.41762443599,0.415732570985,-0.114759838304,0.637828256573,-4.36438989393,0.000891697420541,1.95617411869,-0.942074429272,-0.436271504056,0.0381260223211,1.1409634717,-1.38480742316,0.664523925955,-22.6880923797
off_to_on,-3.01467545535,0.715419909435,0.56612077279,0.306395911594,-1.44470119447,3.27933122082,16.2689066481,11.7526992113,0.0206683890249,5.501847227,4.07892439738,0.787623618313,3.57143158611,-44.5884990279
off_to_on,4.84214598273,1.99847589717,1.89546056284,-0.589790844079,3.80452868207,3.97999969766,10.9434647553,12.1627119674,0.172752936942,4.90934220832,2.24180236049,3.2274986194,3.14009839381,-10.2010600532
off_to_on,7.22317608282,1.42875128933,1.37456978521,-0.959833592412,5.6251459348,3.5338968315,-5.06119092847,-1.06703783994,0.21404336385,-1.30527213303,-1.89769992788,1.89818318112,-1.5284896987,24.6585147334
off_to_on,-1.89133270907,-2.75218817829,-1.75757163405,-0.515057459252,1.64155098617,1.96760699553,-12.1092239193,-13.0477056597,0.442709853908,-6.51489181416,-3.8270429109,-3.21569009115,-6.09203585902,12.7679987159
off_to_on,-11.967766284,-6.90393214087,-4.45231017647,0.308450214674,-4.12937386737,-1.60690812574,-4.08168059701,-10.0792139482,0.56682905344,-5.36738639108,-1.81869039325,-6.25901012367,-5.49407900364,-11.406104988
off_to_on,-8.96244678417,-5.24839699575,-3.12931981709,0.985866179071,-5.72291211893,-5.56309352023,6.78594889839,3.3955665887,0.1131085584,0.311935895267,1.77690318926,-2.83200975589,-0.21852415285,-0.518637930522
off_to_on,4.94602027656,2.55247216784,1.55052935287,1.05177869174,-2.05073195801,-6.34301269085,6.96681845562,10.610408945,-0.669403215208,4.51092541141,3.47063687806,3.84532793255,4.7255210832,23.2409526026
off_to_on,13.375214241,9.67342026463,5.0364353955,0.300792601086,2.38521358646,-2.46963947004,-1.89528978496,4.27131733999,-0.931727839029,4.62276112523,2.20829385878,7.1333969575,6.20623572228,13.6700167806
off_to_on,7.25480863113,8.99339707709,4.09330008504,-0.732132152732,3.48752182906,3.70597510934,-6.71901490052,-4.96412519025,-0.331437203298,2.88973094627,-0.236404675519,4.75938812766,4.7917692249,-15.2962229326
off_to_on,-4.29484898103,0.570015582048,0.0901227843019,-1.06477186354,1.9679217933,7.78205318567,-1.25619429069,-4.68630222245,0.488201468467,0.820051168773,-1.86845418593,-0.576589601161,0.983857813123,-17.6137641886
off_to_on,-7.71409982502,-8.28598412807,-3.21061644425,-0.455623199623,0.710974960413,6.15463178069,5.48476193804,2.15351464262,0.737931011143,-2.83515521873,-2.34349416919,-5.49708887366,-5.08205085761,1.07484757169
off_to_on,-2.35973712585,-9.88271325525,-3.62775520824,0.225059495012,0.0829570181681,-0.927738782504,2.75301912492,3.69251875959,0.392333095191,-6.78832265968,-2.00429182207,-7.14678272998,-9.35246262297,-1.42139239049
off_to_on,1.91933909164,-3.28693464548,-1.70692656998,0.226494487028,-1.48247716774,-7.69965913706,-5.28004575111,-1.99211389204,-0.0335596958805,-5.50695193403,-0.538615814494,-3.14924207956,-5.66152457935,-19.5974111041
off_to_on,0.109128437716,4.76338485013,0.701788740537,-0.0448957177724,-3.32262431348,-6.90087101888,-5.12558204914,-4.7900533114,-0.260501629099,2.45471626601,1.95949857369,4.51275618471,4.55978573729,-6.75676823584
off_to_on,-2.69776115922,6.61609651322,1.96160205349,0.203395205551,-2.4584403617,1.61739033039,4.82695840106,0.599507405008,-0.366742250432,8.76572045261,3.4795622817,7.95680544599,10.1652852351,32.8123929362
off_to_on,-0.854044602237,1.95009239883,1.5984313938,0.809119404916,1.48942984289,8.41097556348,9.93625534902,6.01266963617,-0.34924189517,4.93768769748,1.8399240087,2.15977229302,3.91991370948,36.4843106501
off_to_on,3.62733911511,-2.15451529521,0.621793360054,0.839677895109,4.23225565775,4.66127128127,0.786475117712,2.62608759815,-0.0833449057657,-4.54646277655,-1.83238059868,-6.02885139748,-6.02083116209,-11.2477377493
off_to_on,4.84422799201,-0.618802378046,0.307166108763,-0.0536607231078,1.98334276828,-5.96433535391,-11.20032278,-5.27174216746,0.283661710514,-6.96919438164,-3.48048318846,-5.29025585022,-6.17729142337,-41.5080235219
off_to_on,1.20667914334,2.68443969735,0.303999776253,-1.13586038158,-2.83236149187,-10.3963014763,-9.25626877392,-6.54567387463,0.368951652349,0.519585833773,-1.06796841473,3.52717546336,2.96243197236,-8.47826116661
off_to_on,-3.0868004518,0.913108711766,-0.818960816338,-1.45121445244,-3.92982273435,-2.14954968284,4.28178455806,0.818422299389,0.110666987419,6.53984595693,2.47424512287,7.27743852242,7.39611420362,34.3461813829
off_to_on,-3.47349064417,-4.68548101598,-2.58429229747,-0.716506616544,0.672665434029,9.99710353306,11.4149163182,7.54567181856,-0.101376038661,2.45397635229,2.81295892533,-0.0479429879302,0.330844443138,21.0717559405
off_to_on,-0.103432525262,-5.67315372061,-2.14973647634,0.59210866306,5.41330320725,12.1041452513,4.21864313479,5.8633263745,-0.0299928968219,-5.07515509931,-0.356875398504,-7.59840439384,-7.87293741685,-22.4278808508
off_to_on,2.42831020095,0.721114791225,1.41714599085,1.58142182907,3.72383764046,1.40307938784,-5.84843727622,-1.78047333683,0.0465976873906,-5.09043643692,-3.23811429733,-4.19041768537,-5.60067459598,-31.6739610733
off_to_on,0.341103526023,6.2500402152,4.24789662604,1.44827260848,-3.45125329455,-10.7500542011,-6.4542198864,-7.36529468384,-0.150270341714,1.09264320676,-2.75786114266,4.21783526846,3.01509287158,-11.8437656305
off_to_on,-4.11569675214,3.30973382183,2.09088100843,0.187293185706,-7.97567566757,-11.7675668574,-0.253702115409,-6.04607478139,-0.35906991363,3.65007084059,0.323528776353,4.35975274998,5.6609358687,-6.86834526498
off_to_on,-4.2643783102,-3.42791513573,-3.11045410753,-1.16075277312,-3.95515642652,-1.24185515076,3.32806506254,0.599762467455,-0.162516925984,0.552072606341,3.04772877756,-2.7322864149,0.725930905338,1.37943752863
off_to_on,2.345923689,-3.77163196226,-4.7260279985,-1.4366275174,4.8061349396,9.27944502227,2.42503616598,6.55513080994,0.293953328009,-0.771754916125,3.33867774695,-3.72492008423,-2.14800370316,54.8391356824
off_to_on,8.82013350958,2.55037633534,-0.286682185598,-0.598875750822,8.71134090246,9.01281240475,0.971393065979,6.10505715847,0.449757586662,2.37782776076,1.1998761576,4.34137391252,1.26663194212,97.2383568758
off_to_on,6.42337117516,5.46260311167,4.69028955241,0.372411766724,3.56062548204,-0.57509834223,-0.409911450058,-0.372264532655,0.147990665653,3.14443521809,-1.6932194596,8.12532990387,3.68071649203,22.6083934763
off_to_on,-3.37679263749,-0.100104173994,3.89626449625,0.746151849573,-4.45545847291,-7.88967257129,-2.97183146796,-5.58457387088,-0.170609932867,-2.29093803149,-3.09954304205,-0.639440024725,-0.641615039868,-129.94968361
off_to_on,-9.5106183087,-6.54502925261,-1.42580589679,0.638808451325,-6.41858458371,-4.87888479895,-3.78068998067,-3.62985470226,-0.171502854181,-6.85438979503,-2.047190407,-10.7907964277,-6.12504188867,-169.6467718
off_to_on,-5.39840230621,-4.93811733673,-4.53288934725,0.350311681188,-1.51938739462,3.56547035106,0.193134216847,1.88389136717,-0.0647835707375,-3.33558331661,0.0293231139739,-7.91574701253,-4.72144477565,-15.8593109515
off_to_on,2.73759466812,2.31300743501,-2.2331367211,-0.11562658937,2.84751358367,6.32131141309,4.73056551105,2.84271160344,-0.12900880396,4.03167327302,0.964256593964,4.22315532811,1.89975449493,156.816386098
off_to_on,5.08284776146,5.74212023113,1.71776825642,-0.589214916055,1.5584593994,0.598584633358,3.52378087789,-1.07865189134,-0.203984876077,6.00322424038,0.699369504858,9.86335939043,5.53728296458,147.708346945
off_to_on,1.26236700808,2.1743827227,2.50699100078,-0.554642278554,-1.69603230977,-4.94098712635,-1.26428299408,-2.14719920192,-0.0105264430933,1.65377913343,0.961668261472,3.88542207712,3.14154754257,4.61210288558
off_to_on,-1.27206186035,-2.39175736604,0.353384569568,0.0475739555418,-0.686601122756,-2.70152368644,-2.25896038854,2.19381251297,0.299203346949,-2.25997819586,1.96288094539,-3.61010265527,-0.921704985461,-75.8084450876
off_to_on,0.736061365361,-2.23489849534,-0.970704074875,0.45740108374,3.6613623358,3.32979729116,0.54105719492,4.2505244434,0.331295880913,-2.29352796976,1.61135120349,-4.06708664254,-2.38646646295,-48.86468389
off_to_on,2.59762035347,1.15605570188,0.175810627752,0.156636383721,4.41001206507,3.81298490127,0.180577901267,-1.10351380907,0.0626884920716,-1.04722193294,-0.928413732903,-0.578031204402,-1.33393299487,-37.955764414
off_to_on,0.195167063439,2.51432475562,1.42104130701,-0.260595241484,-1.03335359488,-2.3258507122,-3.85380173859,-6.44746345331,-0.147114792933,-0.389510392731,-3.10320214328,0.64229387675,0.300194917151,-73.3484967739
off_to_on,-3.69469621324,-0.337779868613,0.132375498024,-0.0396404964605,-6.50438752272,-6.47550289026,-3.52115967127,-2.75608105778,-0.129186432877,0.576050604253,-2.36548840659,-0.485870339636,0.92357333866,-30.697855426
off_to_on,-3.99435669228,-4.34411534614,-2.57403265496,0.414082896139,-5.16733350283,-2.57312812435,3.22502237881,5.30687568136,-0.0905356469809,1.07078307692,0.0328852568581,-0.97922915992,-0.469304888892,113.936796457
off_to_on,-0.295569821929,-4.38024922438,-2.83802959142,0.177218882414,1.35038460224,4.76117582199,6.69037326303,5.611432679,-0.164053805047,-0.652329671306,1.14760678307,-0.233349716407,-2.4986109845,173.676960274
off_to_on,3.50857430295,1.30709254372,0.820273965547,-0.526767723482,5.4272114517,6.96393124691,0.829804303431,-2.21990550785,-0.159156259704,-1.90099140761,0.91210204933,1.38837551416,-1.19594684773,26.4447256775
off_to_on,4.12564408647,7.6290456933,4.58105529934,-0.545449730655,3.51550493657,2.73599847299,-5.31210763329,-5.66090353768,0.0630782860594,1.56181250686,1.42473485859,3.82754129583,4.0759959727,-158.199593128
off_to_on,1.26177882407,6.57313064753,3.31001234203,0.260773738364,-0.263547586363,-1.61795761047,-1.38263109037,0.905107936479,0.282540599813,6.17383030519,2.32149149303,4.2142684226,6.51350036956,-144.539511884
off_to_on,-2.87177594149,-2.66446089719,-2.42808435564,0.63731364494,-1.0094814683,-1.91197335869,6.32359907954,6.78290581416,0.238026264198,2.95289982239,0.801454350459,-1.30414368064,0.0585710825534,22.8967569852
off_to_on,-4.72130366702,-9.99965982282,-5.84571538247,-0.0181356945895,0.196695652359,-1.55311718389,3.51962787907,1.45208187681,0.0281670774087,-7.45678839558,-2.95967148429,-9.09248470815,-9.27104250587,101.595456014
off_to_on,-2.07630256404,-5.91968435403,-2.29315197773,-0.540477007442,-0.968591468415,-5.05061062434,-8.49343507093,-8.60846545176,-0.0772120504965,-11.4952681026,-4.3880521065,-8.6255022537,-8.63151573972,24.9108242102
off_to_on,2.80506136295,4.9706492189,4.0323195448,0.106682803401,-4.46977516791,-8.88244323064,-12.2110782951,-8.83085731654,-0.0631325616312,-1.23080748188,-0.832577544817,2.69050068356,3.25869804262,-32.3455653796
off_to_on,4.84981772375,8.84399972835,5.19564882512,0.923389496685,-4.85653812937,-4.1128555049,0.465456725011,2.51550892609,-0.109139154766,11.8132006585,3.7720735032,12.2513911072,11.9391482954,27.184322596
off_to_on,2.362712541,1.56692316607,0.270487430132,0.311932210761,1.08770524801,9.95374384385,14.6946512283,12.0879451655,-0.20327293005,11.1911956677,3.82919799131,8.05118295908,6.47554451377,69.5231637223
off_to_on,-1.07544617766,-5.64517241785,-3.68322822548,-1.20638686659,8.29363723077,19.5749929076,12.2880188141,9.2878007262,-0.143174145832,-1.37893260166,-0.291955110466,-3.82646223694,-5.17823776742,-17.44023876
off_to_on,-2.42259852833,-3.13431882261,-2.06851849067,-1.46834423123,8.1909485639,10.8831149062,-3.62335385996,-1.86695489504,0.0830494812007,-9.22108645322,-3.20468675574,-7.93230872221,-8.13202591647,-115.089179651
off_to_on,-3.05289546039,3.1757176772,1.0879692374,0.113789945097,-0.437134813804,-10.1761881763,-13.369289371,-9.94733839797,0.226434301437,-4.97415067456,-2.10140640298,-2.0729467995,-1.66921090902,-67.4649221954
off_to_on,-3.94275251681,2.30454266657,0.46861055183,1.55648414127,-8.59051343951,-20.9678556191,-6.69279295586,-8.92231440054,0.156270554883,1.33152380304,0.475383173255,1.54886182783,2.40220424702,58.2869553575
off_to_on,-1.66638329927,-3.78994871858,-1.81294866998,1.15584328657,-7.39072797507,-9.77236412641,5.7861910585,-1.60390068359,0.039275943389,0.571167704005,1.50855739409,-2.32356942369,-0.432874613387,83.7441740858
off_to_on,5.18545668186,-3.87872790041,-0.339426665675,-0.183903419667,0.732568873415,7.78610138963,8.1772472715,5.12794204649,0.027371424659,-1.980722998,1.26312170704,-3.8552735679,-1.87218821214,4.29657975523
off_to_on,9.37118067647,3.34535207238,3.61451161591,-0.600471408387,5.19771247191,9.25521128328,-0.90045658124,6.17521977048,0.0146773392805,1.6247337439,0.959662481101,3.55459343796,3.12968506313,-29.407329841
off_to_on,3.14040679289,6.39429757837,3.34001926818,-0.091032655824,1.50156537939,-3.27149127961,-8.52786610832,2.1783822156,-0.122722029939,6.97360926477,0.126347532529,9.98547567409,6.87648078779,22.1163153177
off_to_on,-8.05734388256,-0.282082779975,-2.08435428693,-0.110995751004,-2.87417206234,-6.64189689703,-4.55147219988,-1.12452413901,-0.250382287414,4.45296835335,-1.53690304788,4.22115494341,1.8746695419,36.4835201035
off_to_on,-9.81983219485,-6.56665611574,-5.13130910444,-0.921550965405,0.163657803526,7.94403348144,6.29441566606,0.140150071892,-0.166158543654,-4.16183208842,-2.2156481357,-7.06459584097,-5.94406853096,-38.0346984596
off_to_on,0.82609987352,-2.49306814872,-1.13200251938,-1.09719201788,6.57663177434,19.6769741982,10.7446399597,2.20178469918,0.0616707178384,-7.5766632769,-0.563371601616,-8.40817068526,-5.9905409054,-84.951989878
off_to_on,9.21609810575,5.55101606061,4.06730065951,0.143560871108,5.35559481802,7.71761726923,3.35493356219,-0.98628020342,0.185240178614,-2.01087347605,1.49351384381,0.837237158144,0.614081058898,-21.2858059221
off_to_on,3.46606362992,4.60884962536,2.76729557358,1.6068698439,-4.752668203,-16.9588342715,-7.03634905513,-7.11747981241,0.13914180587,3.9024938607,1.3042756821,5.99159790552,3.48765470735,59.4608675675
off_to_on,-7.53506837934,-4.32055766124,-2.78953208216,1.74818495446,-11.5337686559,-25.0676259034,-8.70044666022,-6.89250463637,0.0781642271822,2.75042457437,-0.307214161287,0.0591271651995,-0.47499566193,46.0956634015
off_to_on,-6.79210883054,-7.50917888856,-3.92253169065,0.564945778386,-5.49269612836,-8.46767450666,-1.65297065755,1.98144843363,0.0754605556926,-1.77484158552,-0.356216435301,-6.26903344835,-3.16165798358,-12.012092445
off_to_on,5.28285432156,0.473191291884,1.21197097347,-0.832912715577,6.53631198143,11.3500819124,3.7595825216,9.34602340247,0.0222225333397,-2.28132359331,1.33145953885,-2.15842346229,1.01350462842,-7.44209965656
off_to_on,11.0598552738,8.51345189964,5.05640235045,-1.65616537178,10.1543719628,14.6815232665,1.79663777398,6.16805989792,-0.127523259628,1.46511607773,1.66693689864,6.83923154055,6.30625733198,36.2909749427
off_to_on,1.69336962634,5.41692738393,2.11935923507,-1.63257752588,2.40593369616,6.45742425538,-1.77830759692,-2.43022390462,-0.225851772287,3.88005039225,-0.75505084743,7.82247875626,4.6115103853,18.1413310716
off_to_on,-10.0133881907,-4.42120250626,-3.40991570029,-0.577914654313,-5.51603891116,1.32074706428,-0.0468963595241,-4.98070615145,-0.146034338022,1.92002104137,-3.21611071139,-0.676844272993,-2.85984881175,-52.1435275924
off_to_on,-8.48936526823,-8.25234564785,-4.44341892617,1.12585671448,-4.42576041236,0.745862800907,4.2817734776,-0.425418363054,0.0259803295081,-2.19992780212,-2.67688865491,-7.87599011091,-7.82764951672,-65.8709790651
off_to_on,2.89504522804,-2.31971401421,-0.646195729919,2.1007173408,1.59167559867,-2.76874232994,4.06463925055,2.01153820211,0.126572931433,-4.50424644721,0.240114454849,-5.95037833294,-5.45119352828,-0.62745806414
off_to_on,8.42513596818,5.22763384978,2.73159516638,1.2551015742,3.28548023661,-8.01562473966,-0.570778565938,-1.53152707321,0.125118848844,-2.58533524028,2.66713717015,1.58720959825,1.54801948849,45.8497908032
off_to_on,2.69475201323,6.3139549764,2.68806366276,-0.585594619487,-0.405048306517,-6.44997705413,-3.08815257151,-4.02728032011,0.0913811666516,2.46280759352,3.11070135279,6.330312483,6.99558948528,21.959933558
off_to_on,-4.24784661766,1.30678995681,0.784403866162,-1.45584908523,-2.94866738234,1.46556768976,-1.60007199626,-0.206546629996,0.0508226286108,5.45353257429,1.88090024456,4.11338491098,6.24617791183,-6.13637350175
off_to_on,-3.47926136617,-4.21956397119,-0.897087138516,-0.746504190159,-1.1923245904,4.85363315392,-1.29923895161,4.25294033498,-0.00917464274817,1.60695680295,-0.539367105883,-2.59937658811,-0.650066892055,12.2106869779
off_to_on,1.32532842618,-5.77904118909,-1.91468454512,0.196780308022,0.986288289827,-0.710607498759,-4.55786041117,2.11153396672,-0.0594490286493,-5.90189546364,-3.23767347644,-7.27040759987,-7.56345621221,25.5092988787
off_to_on,2.24921906409,-2.33680183658,-1.82465216597,0.226450304988,0.266935127074,-5.65263753597,-5.58157982484,-3.13035877628,-0.0696617826612,-7.06417866547,-3.91290277635,-4.3106397701,-6.53735320017,-10.1683412553
off_to_on,-0.700761328842,3.44236880663,-0.0433058074423,-0.104222055299,-0.758736278553,-0.364006372914,1.07076738491,-2.29646354416,-0.0753547351383,1.96940103059,-0.943089670408,4.67827433835,2.70545917691,-38.212497064
off_to_on,-1.65045506272,6.23830812988,2.07217396036,0.128540817461,1.34730469576,10.5881778611,10.9316057113,4.70622327244,-0.100737608364,10.9855996026,3.39672441118,10.2497453016,9.80082382279,-4.61153453866
off_to_on,0.950266982183,2.79772742064,2.00613557742,0.540652016597,4.32144626348,13.8495167554,13.3526849217,7.47460215962,-0.07366074151,7.49867576443,4.35019187789,5.06632408115,5.31175049009,28.8732291545
off_to_on,2.53875089756,-3.31511255344,-0.167187359021,0.249218342819,2.92789293779,3.34826977949,3.75986324261,-0.221821707531,0.06158059604,-5.59195636968,0.501098198279,-5.8487986298,-6.09983497997,-17.0269894541
off_to_on,0.170960370137,-4.97198067212,-1.45937918143,-0.401277453125,-2.99167001204,-12.9122179106,-10.5198618832,-10.6714058568,0.197024564475,-12.3656124742,-3.71815634768,-10.0729296268,-10.3112010413,-81.8996865648
off_to_on,-3.03612901963,-0.698366044623,-0.468970587709,-0.332772086317,-7.14936865842,-20.3161591508,-16.6823882678,-11.1050440466,0.171754479682,-4.88865593824,-3.17418635578,-3.62664370521,-2.16121370972,-34.115982018
off_to_on,-2.63774212986,3.05552204631,0.472025560111,0.347136813963,-4.43546061418,-10.7582067679,-8.56817466819,0.397237326933,0.00982950259634,6.41925195878,1.35936366207,4.18246739199,7.52007076785,112.132862494
off_to_on,0.98662851304,1.07213626185,-0.640851140855,0.401800209114,2.54429783966,8.63806066532,6.35820510058,11.9759655466,-0.103733790739,7.63168447095,4.00011762408,4.20817125443,6.67852010953,173.884492626
off_to_on,3.32758280471,-3.01250598428,-1.83182915931,-0.422334623733,6.38084511757,19.7331255556,13.1650873043,11.3423286214,-0.0893510786626,-0.292760328041,1.28326227404,-0.467756610801,-2.0122561748,37.0920569943
off_to_on,1.52970443958,-2.28083228412,-0.270309609524,-0.797954225704,3.4659777976,11.2853484992,5.60939425108,-0.285796243404,-0.0552614010682,-4.97889157033,-3.29442326623,-1.0641562538,-6.08229593423,-171.550903427
off_to_on,-2.14692219559,2.86760431265,2.68493745685,0.0645057765942,-2.06826848579,-6.54885761643,-5.3466018956,-9.63300077465,-0.0781662125966,-0.744532569231,-3.74330126886,3.02235031522,-0.918304912298,-221.200531576
off_to_on,-2.92730091044,5.17554034695,2.98991286507,0.971764829371,-3.49581427519,-12.3317133075,-4.69058181225,-6.80219465648,-0.0715077628282,5.06289505833,0.623498738047,4.30776740187,5.13241563176,-48.3038419597
off_to_on,0.77107114141,1.31307529155,-0.00821804618736,0.473511268118,0.433297076949,-0.350666899209,5.78674673161,3.14681963104,0.0372371268039,4.02621870683,4.23856139354,-0.315363647332,3.73478921159,169.748746079
off_to_on,4.76590614106,-3.43553030353,-2.49124266377,-0.831874607638,3.98795728367,11.0167705728,8.79347801373,6.87020194311,0.14459976592,-2.23866089648,2.53367174767,-4.94167059004,-2.38400715502,211.744210611
off_to_on,3.30761762333,-3.35248626212,-1.84903301303,-1.04970037059,1.53786899077,4.15735227802,-3.36677584895,-0.0584660971913,0.119444579916,-6.06876939708,-2.11379034821,-4.14450674207,-4.99423520274,48.5152707901
off_to_on,-3.59317371398,-0.381700160789,-0.173128925885,0.262026627042,-4.98422779423,-12.7639989437,-15.6273171,-7.64952146274,0.0109111403629,-4.22839399702,-3.69090794119,-0.67789169184,-2.1843587531,-135.251843884
off_to_on,-8.50795637821,0.065105655149,-0.2615385185,1.42206893251,-7.61537738252,-16.6597486042,-10.7257422718,-5.30766887282,-0.0385867566148,-0.150831325389,-0.61642201574,0.135784389092,0.866286516903,-150.737513592
off_to_on,-4.49051628706,-1.71221264016,-0.903002003353,0.925141311161,-1.8833961132,-1.24680213161,5.6002797651,3.96029509365,-0.0189414061377,2.27561141695,2.50973858513,-0.837696003655,1.02420152933,-13.880854079
off_to_on,5.61585652252,-0.458960234762,0.739064009662,-0.631020869094,6.98951361984,15.2803544554,13.0652170222,8.51996658478,-0.0332955486534,3.03095312807,1.69680693284,1.22633507579,1.0913648409,90.8512044281
off_to_on,10.7769737001,4.44965009813,3.52467838823,-1.45950780869,9.4457633157,15.4477287758,6.07599754827,4.19831827721,-0.0902315532101,3.73225389642,-1.02290597418,6.03266965772,3.37730538757,51.8233864317
off_to_on,4.47502768963,6.26365306151,3.07690410338,-0.786025472946,2.75896771478,3.15534027242,-1.16645023295,-1.88821296529,-0.0834926881394,3.8785572956,-1.25202728414,7.06175813572,4.45736509379,-36.7728856392
off_to_on,-6.45119729678,0.580874892295,-1.4069720108,0.476259201443,-5.57708847302,-6.13116445555,0.541713276395,-3.32501815341,0.0123258111336,1.26787369952,0.927350546361,0.718012317156,0.241075822033,-31.6935531164
off_to_on,-9.21306766507,-6.7131443442,-4.77294014464,0.987104791927,-6.78013187592,-6.22354382503,2.24149303723,-2.37273782434,0.0840210586738,-4.09998393253,1.42643371849,-7.54186640583,-6.27287952558,44.143132508
off_to_on,-0.967044139702,-6.4038423248,-2.60375105474,0.422155140176,-1.17629662558,-3.17920713542,-4.69788975694,-3.11923259652,0.0615483416735,-8.03591998693,-1.03972626783,-9.16488391089,-7.30636396226,51.6983659473
off_to_on,7.10820775872,1.04511070813,2.24189154011,-0.354762113312,2.97082415201,-3.01596526832,-11.6555434417,-3.56349099281,0.0192381060618,-5.80305745301,-2.67553731608,-2.8513877127,-0.772036551339,-32.910201058
off_to_on,4.1385180158,5.54639975212,3.2266010266,-0.363538520368,0.634883884906,-4.75142596643,-6.57450159221,-0.0514255285936,0.0293323060335,1.72717976954,-0.546492385804,4.09316375792,5.90589261741,-78.3331417506
off_to_on,-5.67944051051,1.45146322797,-0.669458063536,0.321027338285,-3.46062627874,-3.97191402932,5.30064299627,4.84263601146,0.0379897877578,7.39182566763,2.60513864483,4.83898548792,5.0071180968,-13.0550396375
off_to_on,-8.16255453882,-4.34184554262,-3.36544268555,0.630207456439,-1.77339459386,2.03293792532,9.12680241737,5.38497715895,-0.0211551050641,5.45518468422,2.33179739715,0.904421273987,-1.3090244678,59.0949825994
off_to_on,1.54194602457,-2.399910611,-0.362170118581,-0.0843628222523,4.95690798285,11.1430373269,3.50194986935,1.61928408474,-0.0904850466719,-0.901875733701,-0.836208198594,-0.767361057879,-3.97883079789,32.0673910987
off_to_on,11.4620826322,5.23178042086,4.57513941558,-1.01316857854,7.92566359212,15.20069394,0.434605228271,-0.992515979617,-0.0769206419578,-3.14592962583,-2.24907756277,2.60202326934,0.641509289134,-32.767690725
off_to_on,8.32447760018,7.42991210396,4.40292735931,-0.862750757678,2.13666990623,6.13220223884,3.68885669037,-0.41801974742,-0.00687412129841,1.09165286779,-0.101781910067,5.69403673101,5.80856384149,-21.0664716164
off_to_on,-4.55379539417,-0.300348647383,-1.4822500027,0.273257296942,-6.29725425891,-11.8389552022,2.95924868208,-0.607733783234,0.0243541208846,4.18554031869,2.054440315,1.97402243647,3.42359388731,38.788580098
off_to_on,-11.7099755097,-9.09512638831,-6.31498415453,0.92353646158,-7.93495496528,-21.2409678631,-6.73739427759,-4.01941103089,0.0116255912723,-0.841057339171,0.717125496441,-7.08517873523,-5.05741271053,32.2348040419
off_to_on,-5.99521495916,-8.27728257388,-4.71688676209,0.36316157258,-2.23852817193,-10.5521855313,-13.8845493698,-6.66857350063,0.0268654845549,-9.12435115192,-2.46678494417,-12.2157117827,-9.94483392983,-38.335316305
off_to_on,3.49899424562,1.10234106997,1.06330474366,-0.296979420514,2.82985376795,9.15048322532,-6.8359620974,-3.4227437225,0.0706596387649,-8.93390829279,-3.03357526392,-6.55525127049,-4.86327050079,-57.0494756992
off_to_on,5.71885514008,8.45425728906,4.91648717842,0.108215504019,2.59639856538,16.3918105694,8.07832724054,4.61022556428,0.0630802384592,2.25660777929,0.258540795822,5.83287809755,5.64390741013,6.3517922727
off_to_on,1.9627260495,6.84324937118,4.13536464156,0.819662729766,1.11793509798,6.48670839747,14.3250396082,10.4942685109,-0.0110718308746,12.5018152345,3.82838662812,13.3435245115,10.9104702627,48.2037219796
off_to_on,0.388206364961,-0.435034305028,0.823765285003,0.245975354645,2.7953509058,-4.69812464166,6.15634986472,8.26416971528,-0.0656714329818,9.65087994321,3.62686708606,8.94076674948,5.59727422952,10.3245619763
off_to_on,2.01822917079,-5.62439956964,-2.00707791623,-1.34671525435,4.25134505691,-4.91386021483,-6.20673252827,-1.23012209877,-0.0507132591523,-2.78998006138,-0.210070396923,-2.23751643078,-4.46011399604,-28.258612519
off_to_on,0.79314223209,-4.79452899261,-3.03293847618,-1.8059899703,-0.0133349647824,-0.356100471343,-9.94842122606,-10.0189084166,-0.0213475520278,-9.63239058825,-3.56234127171,-8.52272060532,-8.33327927162,1.63978593467
off_to_on,-4.22122588725,0.0480837063221,-2.12252415315,-0.119978402609,-7.00406202177,-0.907436044145,-2.42505222763,-9.51135177547,-0.0262116387563,-3.49955932741,-2.93675088433,-4.78880019263,-2.27180481812,39.4993574374
off_to_on,-5.87928822943,3.93753514614,0.0421424403771,1.88848774817,-7.49070889567,-3.27434327644,7.6521466961,-0.0586181512706,-0.0238822664231,5.62775315897,0.485270127921,1.97007047316,5.34611090601,8.44391392999
off_to_on,-0.456252951878,3.13206346931,1.68155796946,1.8346696124,0.605205651773,0.313571362356,8.30972580662,7.38948662996,0.0269041759698,3.99393045512,2.16584173406,1.85298265699,3.85005673347,-45.9839825761
off_to_on,5.44847116896,-1.38700243301,1.3545032515,-0.114187486464,7.78404158594,5.58509583605,-3.27917235942,3.85661648669,0.0761447263166,-6.71559734713,0.0649143101401,-4.57606952247,-5.30190245572,-35.4164734743
off_to_on,4.27762105369,-4.13096978047,0.0420903366857,-1.57127770974,5.35603428853,2.53332002358,-14.274629312,-4.58602937856,0.0596708182521,-10.6800933167,-2.19933854166,-6.3842310829,-8.7806114607,18.9870716708
off_to_on,-1.4649917327,-1.14612154156,-0.0279512134378,-1.05289130751,-2.69656113781,-5.80058333546,-8.49909003333,-3.824470462,0.00579664407485,0.555891978931,-0.17471568493,2.55106999409,0.945042399091,28.2701072481
off_to_on,-3.54210100702,4.1109966417,1.07862073676,0.406838111871,-5.52849300216,-5.89843697466,10.7162074883,7.0293059663,-0.0177301527869,14.7891594799,4.2502495539,13.0180828758,13.0991644047,-9.23691179059
off_to_on,-0.244448059921,4.3037076037,0.828194637238,0.943163735355,-0.412887521083,4.1296356507,19.397599396,11.4253639371,-0.0160323158533,13.5493035977,4.26642362757,10.8406304511,10.9290178639,-13.6270152227
off_to_on,2.27047293091,-1.63045819586,-1.5985072945,0.205444938354,4.41431474923,9.47384730623,3.68822580401,-1.09664929531,-0.0377948014166,-3.30635714642,-2.03485923121,-3.77422381614,-5.13097588594,27.7779283797
off_to_on,0.169968595979,-6.11881283184,-3.30130650043,-0.582281439467,2.08623957495,0.931099693002,-17.4711361634,-16.4473348601,-0.0672452133813,-16.0543042908,-7.35185417547,-14.7042139325,-15.9513559997,36.4594886153
off_to_on,-2.80761963579,-3.1679750379,-1.5751563886,-0.429410523123,-3.65578229192,-10.0470388607,-15.5198731786,-13.183740192,-0.0428556139601,-10.1846902614,-4.34814863796,-10.0871900189,-8.37583603904,-15.7549282754
off_to_on,-1.78560815264,3.26597700181,2.00603337181,0.264536482418,-4.53613668574,-7.69482265724,7.0328506745,6.46215774706,0.0271922061353,5.1519523414,3.70056200149,2.85562897955,7.33005035178,-51.7877473888
off_to_on,2.3049457243,5.30841935896,3.66109489782,0.448556982998,0.763223272235,5.22352782932,18.7598706979,17.8081324927,0.0642365912327,10.4473531553,6.76884584469,8.73923942017,11.9198434293,-17.945038776
off_to_on,4.65417962403,2.15278000772,2.29857895421,-0.108005660642,5.44080899063,11.9349713527,4.08286119052,7.47748416412,0.0412935994426,2.05660698894,1.77672753061,4.41476356702,2.77021878619,27.9218611522
off_to_on,2.50068817406,-0.784518764905,-0.112345935181,-0.508056310526,3.76407246697,4.82033605992,-14.993114471,-8.96132174987,0.0158168231135,-5.30152689491,-3.66429028437,-0.192164788208,-5.50135448691,17.5831566076
off_to_on,-2.74848009389,-1.61121221021,-2.09358072583,0.00424345411109,-2.22514122993,-6.70997896727,-12.1913946993,-10.4451171421,0.0204428710354,-1.6429783633,-2.73844855439,0.56619573424,-3.7776278273,-16.7008185812
off_to_on,-6.93758900558,-3.4308491951,-3.54588368185,0.837023580695,-5.80838326926,-10.7167920385,5.76391392078,0.830607427175,0.010681801862,4.58867462745,1.30633526983,0.7346724348,0.636318794392,-8.16276986535
off_to_on,-5.59282408982,-5.73434666173,-3.3943716786,0.69853137423,-3.27800070601,-5.77387302936,12.4899473584,6.41659668518,-0.0392537577495,1.69083507566,1.49973999877,-4.27526470264,-0.859078667394,26.8705529346
off_to_on,1.940438264,-2.64899446233,-0.0283786228969,-0.52217085931,2.48545798645,1.94176320658,1.52653031268,0.0681269989683,-0.0718453925669,-6.01143042939,-1.78226655862,-7.49775983161,-3.60936620441,24.1539331004
off_to_on,9.33423032814,6.37733974394,4.78496457767,-1.31670979395,5.3982640848,7.08941099276,-8.17045926641,-5.77182080087,-0.0378751371177,-5.04008614466,-2.27820676978,-1.128022678,0.926030632077,-12.93445663
off_to_on,8.13310695442,11.4297613074,5.89848284452,-0.554359238659,2.68156389743,7.78249012201,-3.4324227856,-1.28646006998,0.0145136100342,5.14799013543,1.51166825044,8.84609338072,8.58566865656,-24.1772412642
off_to_on,-1.51287834914,4.54582345966,1.19096289628,0.775137246653,-2.12203332763,4.72911582298,6.23723558224,6.66596665252,0.0171034645431,9.80377005725,3.87940525536,9.0712152237,7.08239009899,-1.87684935802
off_to_on,-8.91802016732,-7.3869691677,-4.50399999015,0.853873424538,-3.36207418546,0.401321219151,6.81228913918,6.54941948403,-0.00198942542073,0.765929250409,1.02098259427,-1.74935242078,-4.51617581589,2.33092004885
off_to_on,-5.82818258419,-10.5236065911,-5.01888520196,-0.270661150771,-0.435444190961,-3.55035091317,-0.939060763298,-1.41728410231,0.0308874399661,-10.5519602558,-3.17667290116,-10.0465201365,-12.3113587818,-19.2174120021
off_to_on,2.2982201222,-2.86150178304,-0.837613316729,-0.68214492691,1.45879199807,-7.89858433738,-7.39530810316,-7.59343904527,0.0918705265355,-8.99502809025,-3.23269805847,-6.08549605672,-6.50349342671,-12.6066205096
off_to_on,4.02210629593,3.94862351438,2.12406241706,0.462999221848,-0.961099490126,-11.4322015408,-8.00402098992,-6.1943742154,0.069813722158,3.05596659493,0.232029380271,3.35969201769,5.25219376733,31.3290542886
off_to_on,-1.464715474,2.33544916805,1.05839067058,1.46363543192,-3.48310452415,-7.5990148291,-3.72469584201,-0.0184090269823,-0.0599261737759,9.78099208427,2.49519703615,6.02114282793,9.08038498811,43.3789389275
off_to_on,-3.67308454566,-1.16870387612,-0.553776747246,0.508948769288,-0.351280894847,6.7354340894,3.82332913274,5.08701490547,-0.159988397777,4.17956097721,1.70700255709,1.09641389396,3.18269399244,-8.32615612222
off_to_on,2.51791622104,1.82255409743,0.781736585223,-1.51753536786,5.88788932171,20.1966828906,10.4071432481,5.56992115707,-0.0927761972539,-3.89219573482,0.0324457438774,-2.13992132575,-2.43089445444,-50.2569099789
off_to_on,8.37180946706,7.30295566304,3.03250458564,-2.11278941009,6.30521539891,15.8663069157,9.43207311779,1.84424208844,0.0843841217017,-3.36079591456,-0.698179231724,0.727335519939,-1.38853724489,-14.838420996
off_to_on,4.27556892286,5.05114391262,2.05508236546,-0.550122711032,-1.44366687302,-4.88521569403,0.907154817495,-1.95415538225,0.163607764502,2.96255737504,-0.801311770741,3.82627758779,1.7507617216,46.3075108785
off_to_on,-5.59188068857,-4.93437768548,-1.88151815029,1.3143063747,-8.06838444948,-19.0938398869,-6.19384960225,-1.81048348349,0.0394837275204,4.11026518308,-0.688104757671,0.997498576736,0.256537783909,40.1438617419
off_to_on,-9.09199331516,-11.2867551664,-4.34637529882,1.65691578965,-4.83332295002,-11.0848619362,-6.49058135194,0.429046988969,-0.14118483814,-2.98743506208,-0.163520892783,-5.19740853405,-4.89819883026,-24.2095751896
off_to_on,-3.15172758314,-6.71565881607,-2.77969929199,0.710282696093,3.69068011011,5.48866767182,-5.45917804545,-1.17724746294,-0.142947072285,-9.55585343294,0.224117891306,-7.35483964622,-6.96457342551,-58.9176166645
off_to_on,3.34057670532,2.96169875165,0.663465137554,-0.224802923843,5.68638357544,7.21719906699,-7.06402213963,-6.42294407214,0.0563707838667,-6.56185854819,-0.224622369004,-2.62752055545,-2.24092095969,-34.3825940306
off_to_on,3.33842828138,7.69043203916,2.55273070478,-0.566375227316,-0.922039623049,-4.77664512363,-3.71793624327,-6.12754171653,0.21076862121,4.22366378989,-0.478562363533,4.62607065037,5.7531890179,2.89910347157
off_to_on,0.383884256221,5.3464487423,2.13515759104,-0.532973849035,-5.47945538482,-7.66361898319,9.70673160328,4.45755671664,0.109541198707,12.271015894,0.859286103105,8.05796685853,9.96144237404,32.6609761691
off_to_on,0.848121933086,1.2415971443,0.982236202817,-0.343618286125,-0.447783370979,6.80179330651,20.0136960187,14.5589900255,-0.13138822981,9.64616646772,2.39085222156,5.28261941291,6.42581668871,72.8655323544
off_to_on,3.67737670851,-0.674307432023,0.30573149207,-0.162146226381,7.13937898701,18.2825758964,10.4392856983,9.79225688496,-0.203870024597,-0.943357437104,1.26088174394,-0.668887853012,-2.005054939,86.5513763846
off_to_on,2.9223084917,-1.4135650409,-0.135628223487,-0.232408142702,5.6682191612,8.07657580215,-11.7355502387,-6.63544087094,-0.0246087668374,-9.33194271404,-1.93790450624,-4.76486477193,-8.16394316258,1.080932478
off_to_on,-2.54451797569,-2.96635534265,-1.03318257144,-0.361977423354,-4.08215998319,-12.5188056975,-20.6315678315,-15.673636258,0.143481066152,-8.70559354933,-3.12404862063,-4.93881222583,-7.5508545728,-139.398133186
off_to_on,-6.9576652592,-4.53549331474,-2.2135354899,0.118910990324,-9.57352253515,-18.2173881521,-7.20687727688,-7.49596063651,0.0668832337587,-2.22879034802,-0.82038086453,-3.26237590873,-2.5273577537,-165.753977934
off_to_on,-5.09185628771,-3.49106927426,-2.34700884987,1.15363626753,-3.691802236,-4.84387601706,8.65452771791,5.8416953036,-0.115367531498,2.20424047196,1.39405305142,-1.70685273456,1.63740488412,-10.910616823
off_to_on,1.49690569275,1.19810600222,-0.253893727667,1.44309356598,5.85398389255,7.99815226145,8.36674914888,8.37799878722,-0.0997998717406,2.27406877371,0.721584756054,1.08671571231,3.52632217532,159.204926606
off_to_on,6.33776602683,6.57897187836,2.97277206396,0.167400272568,7.31392252713,6.56991091446,-0.301161764956,1.4520715464,0.117374562159,2.52137644329,-0.298808909718,5.91007997076,5.21432121883,153.366217462
off_to_on,4.76152239287,7.06676930773,3.94316944872,-1.40443420996,0.131611148648,-0.858722892251,-0.741130993406,-2.21230241319,0.222083884006,5.10155208422,1.33862462874,7.97009709844,5.95982251149,12.3787123245
off_to_on,-1.34378916282,0.3446912617,0.725811651917,-1.39084726089,-5.59272138598,-0.887490344267,4.56921165203,0.908481599774,0.046747014678,4.90014113209,2.94994296924,1.72702253461,1.75430622555,-76.2640945832
off_to_on,-5.08092887253,-7.64018060639,-3.6304228957,-0.0375099421671,-2.99013382933,5.1657769024,1.77039977028,2.44342446254,-0.185191104879,-1.93223165239,0.173377834196,-8.55564333533,-6.52802753424,-60.0563069923
off_to_on,-1.894564267,-7.34716572562,-3.75755309703,0.637542985096,3.46299921004,6.28719502016,-7.30250211908,-1.69291240797,-0.194061176541,-8.96783383512,-4.58032946429,-10.2888381603,-10.0333440124,-47.4772511677
off_to_on,4.32461566493,2.08641817143,0.973398696778,-0.0271360699925,4.91500303274,-0.953455375912,-6.83213591951,-4.60397726693,-0.0282939913763,-6.41630403782,-4.17513006107,0.848583231718,-2.6796830668,-70.6346709244
off_to_on,4.97836116056,9.20233512067,4.61250546509,-0.410137689946,-0.36400318765,-8.75497174574,5.12147387643,-0.964734209493,0.0692016816307,3.87884492637,2.08898187572,11.8317028557,8.09063444541,-22.1429670736
off_to_on,-1.95898086086,3.99532473662,2.05992079768,0.544864339483,-5.47709659442,-9.02092135084,10.7338784705,3.60794229443,0.0436412269529,8.6641319668,5.89559480209,7.68127445784,8.79717845608,115.670452056
off_to_on,-7.8365774881,-7.42276172773,-3.64366976613,1.39260721657,-4.03319336991,-1.8638583994,-0.00101911037375,1.80099192236,0.0439781124586,1.27223701176,1.61382457992,-7.25774635723,-1.78358765261,169.163058104
off_to_on,-4.25697030429,-9.50616749016,-4.91764840021,0.487265388729,2.03469638659,5.95053927537,-12.7018207392,-3.49891456494,0.110157378468,-8.07060624635,-4.93148811799,-13.4500153581,-9.63789511189,26.6935077638
off_to_on,4.6956913922,1.26732432445,0.0568045524601,-1.17381452947,5.21064000144,7.58822162477,-9.65042934477,-3.86515590749,0.0970351350536,-6.01359824788,-4.55936452231,-2.48402867223,-4.18470127292,-151.41572267
off_to_on,7.26365660453,10.5024944517,4.7370843458,-1.31418875939,1.88086398137,2.29657784921,4.99041922639,1.77286549595,-0.0499519091859,4.99880512668,2.04550492901,11.1389343268,6.9787153884,-142.268932924
off_to_on,0.548230981591,5.74564369046,3.25783852256,0.128160947684,-3.21847731345,-3.21647043516,13.1733575026,6.12652773664,-0.165025519729,10.1102914158,5.69252970061,10.1109500204,8.68540543165,15.2818945171
off_to_on,-5.17280263084,-5.73032314855,-1.65480912843,0.951659840973,-3.20533421273,-1.98356021022,8.0702205973,4.241947072,-0.111732790483,2.88653975425,2.0548700045,-2.22402949287,-0.661032318251,94.0515656092
off_to_on,-1.57089835773,-7.54360211136,-3.04088096515,0.0961222083325,1.82216522998,3.4702239506,-1.50214271103,-1.06466555694,0.0102207182026,-6.45504781309,-3.08722548269,-8.20933033723,-7.60182072876,27.2359711884
off_to_on,5.21381633313,1.91334390258,0.275385072862,-0.911590180471,4.69931852496,3.28580453508,-7.08848985681,-4.7041853012,0.0426894531789,-6.33523974042,-3.29256950644,-1.54030453855,-3.36665221272,-25.5826082751
off_to_on,3.73534061538,7.50277559441,2.49645702097,-0.49428378451,0.762205924849,-5.13763751152,-8.319365076,-4.98732198811,0.0170439287679,0.490727500981,-0.164212476914,5.24905379468,4.13350453348,27.6770825744
off_to_on,-5.21234544191,0.134202369066,-0.220340044462,0.697304603441,-5.45417608793,-10.94508638,-5.99705488471,-2.71095905625,0.0569484451928,2.80626617843,0.8848428615,0.780725675307,2.95058505596,65.3977479981
off_to_on,-9.01306213214,-9.51413822603,-3.97134004981,1.0741524967,-5.76377383444,-4.19288552385,0.64701218013,1.00032849175,0.126050755304,-1.93695157766,-0.668709218778,-8.19352110462,-4.85736650907,-16.3941422922
off_to_on,-1.38102931936,-6.49117332003,-2.72041132718,0.435820600707,0.893031958389,8.80603588751,8.03471988464,4.14118522857,0.0725084358754,-4.54759598333,-0.822354311773,-7.01615362528,-6.25838318172,-108.91102581
off_to_on,8.29949792165,6.57209984615,2.88388982131,-0.221061622248,6.85120893859,13.0000778142,9.07305950324,4.40673615945,-0.0963398939452,1.498640514,1.7274987091,5.28957627911,3.22462722219,-66.4972381304
off_to_on,7.86691256218,12.7136128299,5.92865321612,-0.426747852327,5.39357802668,4.61970750867,2.81399805998,2.06129531974,-0.180604121734,9.57921220815,3.49689143739,13.809642516,11.7867260855,51.176997876
off_to_on,-1.25929568126,3.78004499356,2.26737320839,-0.525831506258,-1.24496847977,-5.69844772032,-3.84937203054,-0.280659432527,-0.0747036758505,8.20143993917,1.62945089207,7.30737423227,6.86008998451,78.537186257
off_to_on,-6.91350669478,-9.03929146076,-3.98201304459,-0.651217585058,-5.48731195673,-8.82921200026,-6.06176843075,-1.65863809855,0.075653208871,-3.27869765566,-2.09613985874,-7.14671261122,-7.24923715116,7.54066665207
off_to_on,-2.89043229433,-10.4793741445,-5.52453862254,-0.511176968992,-3.74817215204,-6.09444843056,-5.39813148452,-3.39682725162,0.0920177459928,-12.484352071,-3.84999563752,-13.0263046049,-13.8122090944,-24.7326804364
off_to_on,3.90863666376,-0.337437086336,-0.855235418894,-0.0409577574744,0.641737762366,-1.38412647073,-2.93349431757,-4.74577610794,0.0115790042818,-8.66198606914,-2.23283257727,-4.54070096133,-4.80605718993,20.4823910256
off_to_on,4.01718720533,7.98257602463,4.09945548887,0.550085048388,2.86544687061,4.65994889334,3.07704997951,-2.25868758909,-0.00863687065183,3.8867862896,0.867136336077,6.9749326922,8.73284134066,33.2406268985
off_to_on,-2.14832242322,5.18881183867,3.44126914906,1.1427901669,1.93284846128,8.87046830376,9.18150112141,3.803629297,0.0449521319671,10.5277838455,2.55812510561,7.59480724018,10.5636863265,-34.8286890675
off_to_on,-5.87824021785,-3.39884904445,-1.46671179111,1.39772464989,0.0755048707707,4.83191729808,6.37506850127,6.83930351555,0.0344369245663,4.11130712708,1.47875821659,-1.94673250352,-0.409054168291,-78.8819183778
off_to_on,-2.00275963388,-6.07136214439,-3.92028546155,0.573456720987,-0.809153004851,-5.47597945414,-5.44963695045,2.36640602936,-0.0792343017441,-6.05419703967,-0.880987131919,-7.64423831028,-9.24169238209,-22.1512917032
off_to_on,4.72152792941,0.271215937833,-0.616042273591,-1.30027805951,-0.664083427778,-9.10385202632,-11.7877771959,-4.0837928477,-0.135679258429,-6.20043850595,-1.32223736917,-0.874672089916,-4.53464289354,52.2218162557
off_to_on,5.90342163983,6.75476534551,3.87763839349,-2.513509306,-0.289123624497,-0.085538406112,-2.33648820381,-3.70841247618,-0.00682891911477,3.56838370303,1.23838901822,9.44572591693,6.83947802556,42.6823111647
off_to_on,0.114186505704,4.21356989642,3.09266755447,-1.38849418579,-0.163984872343,8.77683620745,11.2859089049,2.38097682153,0.173856804332,9.10908749934,3.37904707357,8.22139245684,9.08072684436,-8.28295934634
off_to_on,-5.21602114239,-4.65815450744,-2.35129790284,1.14210716053,-0.141224762413,3.58920966243,9.56009514706,4.05611600249,0.153818512804,1.62870399321,0.939113012687,-4.74012134124,-1.32035598764,-4.33373984675
off_to_on,-3.17363922719,-8.2068584443,-5.06544524794,2.25416827509,0.16069071024,-8.33280180281,-6.30161044753,-2.52951952117,-0.0816681465989,-9.50050599794,-4.52410966698,-12.9874868889,-10.7331613096,34.0970756593
off_to_on,3.35318327928,-1.08045564105,-0.921933782998,0.903388065712,0.614306076292,-8.56730494835,-14.4717423572,-8.07042764776,-0.243727759681,-9.16095355194,-6.1999965168,-5.35063002227,-6.67924965511,16.371137438
off_to_on,4.94767124805,7.73233937329,4.74876181293,-0.81759163635,0.471532176789,3.81987669821,-3.29829530124,-3.18824803783,-0.107671374419,2.41676503994,-0.8104148497,8.13624323762,5.32674962804,-48.6949878402
off_to_on,-1.48600849883,6.20297439105,4.12533812822,-0.780161104579,-0.435422755603,10.8979078849,12.2007791995,7.22239148772,0.16541582754,9.83244366007,5.94054081355,9.69646223583,9.45453939611,-62.3006708952
off_to_on,-7.39731585532,-3.93499438367,-2.08235389382,0.292324334796,-0.853920264221,3.9827437201,11.9228930149,9.89839551823,0.224818423543,4.07364818193,6.09030014313,-1.45504514683,1.22361416286,-2.7866557849
off_to_on,-3.71878070923,-8.61718826133,-5.35999945829,0.40021810389,0.258158590771,-4.64165438887,-2.1576363211,1.3292479351,0.00724219990507,-5.4058206011,-0.0650500250571,-8.5627824623,-6.94046521981,41.744426233
off_to_on,5.72508868365,-0.928372663398,-1.36639312915,-0.515399866073,1.51778698701,-3.90662322683,-11.22844931,-7.63073876618,-0.176090564977,-5.11663974097,-4.47829880563,-1.86353314574,-3.77383285934,22.4048750943
off_to_on,8.33274957911,8.4427434568,3.97446051685,-0.813600713748,0.501964208526,-0.729187611435,-5.97119140632,-6.56553515299,-0.0856106717027,3.20167848343,-2.37759143447,7.76050224036,5.06106833947,-3.4774384849
off_to_on,0.333355686107,5.99024631622,3.25554013385,-0.0247583044747,-2.19969952165,-3.78232955655,4.09819967125,1.42116713468,0.108260342116,6.3467180464,1.80958988063,5.68664000427,5.89509984819,10.5678412578
off_to_on,-7.16906487492,-4.93549681647,-1.68935400724,0.552160702271,-2.72667921606,-5.58557102194,6.46105872625,5.30183790449,0.0969423713477,-0.438142628288,1.62314852825,-4.83670288594,-2.72714683727,21.4061950099
off_to_on,-3.81190967495,-8.65943390169,-3.04121745708,0.205494509915,0.639092193679,3.30294054568,0.629744054349,0.929855212955,-0.0946735335884,-7.22411887698,-2.1556284257,-8.38424158564,-8.09984850733,-8.859437927
off_to_on,4.74188107511,-0.0945026152202,0.887505138907,-0.123891271708,4.01123618367,13.0923676307,-4.94244655882,-4.83818342624,-0.157288380057,-4.66727966881,-3.35167719523,-0.589682662529,-2.23503359035,-31.6099840497
off_to_on,4.98407701394,7.76589732215,3.23623077292,0.277929680822,2.68904693816,7.34257251918,-4.08689962203,-4.02316316183,0.0156196705045,3.00994596595,0.257517122082,6.35005695327,6.41399483562,-2.37206545273
off_to_on,-4.0059771405,3.30983162906,-0.429064935755,0.586000558028,-1.90095471831,-8.51039984723,2.11294533946,2.77579351339,0.167402390796,5.46999398225,4.01752887085,2.8373194163,5.53841198072,22.394944558
off_to_on,-8.45535883846,-6.25457917471,-4.73512252956,-0.0114937856606,-3.73688925676,-12.3634638928,7.53767154827,7.91729008846,0.0868638018654,1.14597516954,3.33777044296,-4.31290581386,-2.93439444503,-23.2311754628
off_to_on,-0.263507246883,-5.82672452348,-2.40462786048,-0.74038631257,-0.712918568827,0.366766879349,6.15553543048,5.65145676199,-0.0743045735449,-2.27566354866,-0.286063109516,-3.34623348451,-5.95175129659,-77.1978537981
off_to_on,10.0627034005,4.60113548965,4.28578469124,-0.480888680034,2.38268064201,9.13314813394,-2.05814827604,-2.1833315579,-0.0698243052157,-0.261086605722,-2.27897740533,4.46089182123,1.12080493808,-21.5460284913
off_to_on,7.78655767592,9.50112405058,6.04114912534,0.311848187566,1.07778343364,1.10369100345,-9.50486876973,-8.57286569906,0.0468317444328,2.62764871085,-1.44887187543,7.08078805019,7.43341981828,116.968767918
off_to_on,-4.76624886252,0.720034606637,-0.157914580735,0.330811367488,-2.18421616655,-8.74121527375,-8.52377816611,-8.1621361327,0.0427170048122,0.623355513593,-0.463645358906,-0.473461734621,2.53049954833,159.421916966
off_to_on,-11.015952911,-10.2062966324,-6.36614612052,-0.425617879151,-1.98126591296,-3.02252477257,-0.702307268565,-1.74431474806,-0.0873222371681,-4.3953141268,-0.906829785484,-9.04274985246,-7.88436384367,11.740568764
off_to_on,-3.07603471203,-8.2663993993,-4.48439011785,-0.648994696373,1.77797401875,9.3923119626,5.47426658286,5.21064429796,-0.115704016651,-5.42363954276,-1.07806665963,-7.67728350858,-9.23135773154,-180.678868717
off_to_on,7.89121843627,4.07808546061,2.79796423924,0.201941582187,3.7857078252,8.43369129175,6.10736461711,7.82170668371,0.0270809345075,0.126970317335,0.621130439173,2.49682989489,1.62171878682,-193.442772782
off_to_on,7.7027679974,10.7612358616,6.0019726561,1.10665245818,1.26386085476,-4.2647714309,5.07080099703,5.44862535596,0.133048098593,6.59468223994,2.6228773622,10.128584859,11.3810093958,-0.45757355433
off_to_on,-2.02604613022,4.07154582504,1.59704799221,0.994472486602,-2.25731934232,-8.81567724784,4.65723497688,0.808642984275,0.0592138945975,6.47757893087,2.31100799329,7.01592073883,7.66439096887,187.215398547
off_to_on,-7.78673465045,-6.17488190786,-4.04147905473,0.0267475123166,-2.49211047438,0.296740054869,0.839045415029,-3.19182211636,-0.0540633939487,-0.558138625153,-0.068997470323,-3.13043891078,-4.80533600916,167.764093076
off_to_on,-3.11799510754,-7.0566363875,-3.80415665446,-0.937434739796,-0.35176444438,6.59328965109,-7.62878594976,-5.17815515364,-0.037252915865,-6.6595940398,-1.70821530483,-9.16981717559,-10.5640619692,-20.973438274
do_nothing,4.21753069864,0.769282080054,1.05155509428,-1.29070718267,0.307028329394,-0.383730932871,-12.5857469955,-4.98851012757,0.0397240832379,-4.81073478714,-1.22463522759,-4.86926919,-3.40862148264,-156.304207995
do_nothing,4.49149767971,5.69478120334,3.50695175274,-0.796133983926,-1.13649346957,-8.78277025846,-6.65473247619,-3.06000814391,0.0265801475384,2.16835145557,-0.329645643507,3.95408632277,6.32358464759,-97.431907707
do_nothing,-1.10750988408,1.40303122453,0.513687456954,0.374522228982,-1.41262902462,-4.70887208055,4.56550034251,-0.126677935264,-0.0420847518922,4.73957711905,-0.784250828929,6.22480921841,6.09186442263,56.5516930767
do_nothing,-3.67323026751,-5.25741208705,-3.23379266924,1.32802848954,1.37288437919,6.36236278095,9.37304191148,3.19618816866,-0.046906349145,-0.376298652676,-1.41111304804,-0.185534649876,-2.3417674529,106.566516621
do_nothing,0.569620307144,-4.00173226042,-1.89863938248,1.03499233908,4.58244864357,10.0591238766,6.34948655436,6.28972144429,-0.0239582218056,-4.75444228644,0.0913392673754,-4.97697344181,-6.03388042283,10.6641482019
do_nothing,5.40103971054,4.71572584434,3.39763185648,-0.24126897161,4.18953702699,4.38357304015,3.88861583874,7.47167933263,-0.0648219474314,-0.099252316246,3.04756345036,0.229651857242,0.806419939146,-78.2807685103
do_nothing,3.1050518493,9.30260951429,5.47840338857,-0.925657631524,-0.321367990761,-1.99040729358,4.11217364585,4.1799632367,-0.0660493697091,7.99541056456,3.75965319077,8.14154374441,8.21039181162,-39.4436804968
do_nothing,-5.12474249386,1.75428378054,0.277022350771,-0.211831776455,-5.24506960746,-5.36258673533,-0.727162322668,-3.82791366005,0.126330563031,6.10662928118,0.329109623756,4.5440464359,3.98571897437,50.4990487145
do_nothing,-9.7706092393,-10.4768975137,-7.06324070389,0.671904775595,-6.35526868575,-7.93820167198,-12.0716756092,-11.6349115256,0.339471466347,-6.78521969859,-4.09912913404,-9.62827751209,-8.33556550617,49.9489493685
do_nothing,-4.11539931862,-11.9505405853,-7.52282926387,0.23457028494,-2.79319793071,-7.52947422224,-16.9836313287,-12.0544008122,0.189138424512,-14.4487198334,-4.57330823678,-15.6090999676,-12.4031719161,-27.9405329371
do_nothing,7.03616128993,1.1045017371,0.647568126197,-0.951401508957,2.42199510857,0.273169279507,-5.14784030841,-2.94946266383,-0.310592239256,-4.50523017848,-0.327382337105,-1.84340129974,-0.728468012734,-49.3688287787
do_nothing,11.9480090371,14.0997725164,8.87011647077,-1.0307043208,5.398339342,10.5820783747,13.6081791412,9.34347022209,-0.583850022383,12.705906837,4.10686609062,17.1793871566,13.7185993434,16.8722299921
do_nothing,5.38287210029,11.3567777457,8.0166916033,0.314322803984,4.80835262211,12.0777016498,19.5959858859,15.1906994797,-0.20282891086,15.9354131519,4.10934469782,17.7873379345,13.0864166921,53.4449817635
do_nothing,-5.24585086463,-3.75687419703,-0.695092189832,1.32917335549,2.19866110656,2.8518795379,7.79088920229,10.0363320017,0.458883511228,1.0134771226,0.0400292672493,-1.34023813696,-2.26292489008,-4.186406335
do_nothing,-9.10393636046,-13.0529586356,-7.4943037343,0.75096398433,-0.71981965897,-6.76834157061,-7.88556152592,-2.28798685894,0.626366617243,-13.7234006607,-3.64385002181,-17.1805906674,-14.1135920161,-59.4068595108
do_nothing,-4.77399343575,-7.0658349865,-6.04609119096,-0.458032668307,-3.63378556793,-8.91165439412,-13.4271208089,-12.8893498762,0.103898400472,-11.8412533152,-3.46781465066,-12.9204739742,-9.775564741,-19.2405872066
do_nothing,0.22297857346,4.14532039125,0.00429320926503,-0.687690146205,-5.79874394875,-5.897079654,-8.12845844715,-13.8959269989,-0.48439002121,1.29930843468,-0.126239372449,2.04695014022,3.07590644617,49.3989869846
do_nothing,1.41836213521,6.77067578391,3.43514091025,0.0328882413482,-4.71365458874,-1.4709026163,1.0011602972,-4.08111687815,-0.486819439851,8.89548084559,2.97749587998,8.69734204803,8.80619847477,35.2390923319
do_nothing,2.48719736519,1.54887387929,2.6171189965,0.382171782493,0.686125155227,4.60569186053,7.95538454054,8.83300850279,0.0249247706662,5.35033133965,3.23950279889,4.28905267834,4.24338158763,-31.0881227845
do_nothing,6.18553608142,-1.06737689764,1.16265765768,-0.164551364813,6.36012061643,9.30558943381,8.25125010602,13.3042929382,0.434549079589,-0.498004122999,0.801940899967,0.739363005522,-0.846052676626,-35.9925842926
do_nothing,6.90736282167,1.47399621132,0.901908919497,-0.720653118487,6.36787912947,5.3802920933,0.39177538959,5.21131563545,0.321116570889,-1.32853860983,-2.06058997518,2.98758754689,-0.369243156413,21.8697726949
do_nothing,-1.05853601555,1.56594107333,-0.0950090367498,-0.42353018758,0.654817167337,-5.39301856974,-8.51074450182,-6.45316639306,-0.142410317427,-0.25621536775,-2.99325423284,2.77313901954,0.610785719914,36.7056350046
do_nothing,-11.4088087359,-3.80007637937,-2.47360379951,0.419767843874,-3.90582279817,-9.07930165158,-7.16049345745,-9.01804405434,-0.436759115774,-2.2394310807,-1.46736746981,-4.88860333954,-3.161871379,-16.7648702256
do_nothing,-10.9514145688,-6.69760803613,-3.12846235358,0.886240152482,-2.46009264829,0.519387448076,4.0416839892,-1.35450128471,-0.228867423381,-4.83021806063,0.899036886256,-11.1152233577,-6.98587834838,-42.7505540539
do_nothing,2.11148914335,-0.91211130504,-0.0147655851001,0.575749679829,1.14047028368,9.02836749201,10.06422965,5.2247240763,0.284130977623,-2.4853456302,2.03377746332,-5.61649187977,-3.10627976607,5.02763890731
do_nothing,13.2537138167,7.08850635709,3.61613654223,-0.115784190961,0.362579092592,1.84446150281,1.98104774939,2.75182941764,0.526331888277,4.09754613435,1.46071756075,7.31509323514,6.37954786697,44.1541321613
do_nothing,9.46697105504,6.73379179606,2.99622708314,-0.562527420324,-3.76717813543,-11.0293274703,-8.10314727502,-2.88110913067,0.156270268057,8.01519209421,0.335527678551,13.2344182728,10.5848645998,9.42625306455
do_nothing,-4.00060993048,-1.57107897215,-1.48210790888,-0.499469977686,-3.99066217837,-8.23041458755,-4.54113546293,-2.07423928617,-0.451432231553,4.46985620509,-0.401051987237,5.56976250978,3.73646349776,-36.4200298823
do_nothing,-11.1433729486,-7.29713987437,-4.4707948388,-0.162355859651,1.81330196459,8.61715301545,6.5270694326,3.16949268152,-0.558254908638,-3.88659743053,-0.969697562693,-7.14399065732,-7.23454536729,-16.6108035637
do_nothing,-5.69203698678,-4.12339378624,-2.41213747033,0.0498720339266,6.67629301119,14.8519311484,5.75878006559,2.81541594104,0.00179357990943,-9.45779057369,-1.5068343506,-11.9224078767,-10.8172422774,27.6917757481
do_nothing,3.53049931883,3.16249320651,2.43005771311,0.0570731940781,4.44470958619,0.475254655053,-7.61197557981,-4.00936514371,0.526054001307,-6.454601303,-1.06691274415,-4.88141377814,-3.68046731214,16.3068339241
do_nothing,6.61584566435,6.34290572479,5.10354427636,0.12884680351,-1.45808134332,-13.3418206552,-12.1196307414,-6.07709608195,0.346289815991,3.25595861753,0.870253390503,6.2736417182,6.52598144501,-27.0684258156
do_nothing,3.72487683287,2.97553960742,3.18778254976,0.356342218175,-3.59113998934,-6.61528191615,2.37073373795,2.2002051349,-0.237576145581,10.2716185421,2.57447420007,10.4356266812,9.62530019787,-20.5662055284
do_nothing,0.179584273417,-3.20472576406,-1.62675733994,0.381354455881,-1.32055078491,8.63486327693,16.3394697211,9.82889644863,-0.377552488599,6.53519012305,1.5949516452,3.63856783371,2.97292746117,27.7951966847
do_nothing,-2.29867084509,-6.79476019986,-5.42580426373,-0.0412510610062,-0.320103938379,7.89225671346,8.98531597759,4.32572735351,0.0881427427465,-4.33315864491,-1.60679056917,-6.69164953555,-6.16303278621,33.2514032338
do_nothing,-4.46942757287,-4.33432994228,-4.90982192667,-0.482776643447,-2.57998585312,-7.2327357996,-9.5639209794,-8.46753318004,0.408398825962,-9.45923537756,-3.34734799575,-8.93352394545,-8.01976907307,-16.5819856422
do_nothing,-4.45398889773,2.85275806199,-0.0837563897921,-0.350328922546,-3.24382478607,-12.1320039213,-13.1742576949,-10.9637263632,0.0626580055523,-2.62256112015,-1.19545397479,-0.617513761369,-0.88383527846,-39.3949558403
do_nothing,-0.0582136420351,8.12588969593,4.93785846196,0.174418101396,1.14120012668,2.11406178907,1.00466305016,0.997014521498,-0.452348603585,6.62105204804,2.52026508661,7.72020214216,6.61389575219,0.402012403933
do_nothing,5.51284726345,5.46862278224,5.35137705145,0.322440836715,6.39903582658,15.4076325943,9.89306245998,11.3940459685,-0.382952253052,5.47242297314,3.37438435949,5.5485672873,5.56055955472,33.5186066912
do_nothing,6.02920026272,-2.6294527506,1.00142449613,-0.0965669245041,6.08106819239,9.23648192823,1.11721660384,6.40729866058,0.163082093557,-3.86257979076,0.459532618133,-3.4928324529,-2.10510095067,7.06330251548
do_nothing,0.615498829733,-7.08164112741,-3.14755887052,-0.382118290234,0.0962820469867,-7.44854348044,-9.30863775497,-6.37181518851,0.437060262547,-7.14593124387,-2.57570882504,-6.64280818782,-6.19587514031,-28.6906566508
do_nothing,-4.66253946602,-3.72615367193,-3.07870117429,-0.0425731330983,-5.45080083674,-13.467511979,-3.98320901427,-9.32480957536,0.182020338247,0.837542067836,-2.34422256456,-0.23276917028,-1.97320913685,-12.5243083764
do_nothing,-4.56195345801,1.55639830973,-0.49529965766,0.429228987341,-5.7086727349,-4.37964711748,8.91089009731,0.52357232473,-0.102382921375,8.29466564225,0.221123313622,5.47474890428,3.8312264044,24.3526524809
do_nothing,-0.492508847152,2.13156874542,0.429127609889,0.338200734531,-1.62634781305,6.06599296123,9.74358593743,8.67956860141,-0.0515196807401,3.96933243349,1.66235566271,2.20072598794,3.22372506942,19.4706224804
do_nothing,2.65461650033,0.0412162812512,-0.659920017562,-0.15131043198,2.31159885601,6.83870405806,-2.46348285656,4.28786879605,0.0433293178195,-6.04016778668,0.608630883502,-4.04077205455,-1.65075808796,-12.593854603
do_nothing,2.46217447505,0.959440883547,-0.50298017917,-0.333253041849,2.8163154342,0.528644472239,-10.3739212911,-5.75089133316,-0.141271306323,-7.46739954801,-0.965216322856,-3.06870681768,-2.63518857707,-14.4987424464
do_nothing,0.139887407217,3.68273157112,1.81439251522,-0.0392936990145,0.513669765068,-4.25867226756,-4.62587217809,-7.68585799621,-0.343716176282,1.19734548878,-0.778557160566,3.26195601975,1.58916365651,8.51075156771
do_nothing,-1.85654631272,2.10650169266,2.96935138639,0.229375386355,-0.921463177935,-2.73480675645,5.21111020979,0.549890623996,-0.156090250142,7.32060400085,0.889334496536,4.39165349375,3.70752494877,4.72066105285
do_nothing,-1.6274591567,-3.53773503158,0.704880246776,0.127246813884,0.96954849341,3.21978234721,6.82237941664,7.92633382934,0.258201749335,2.99589975167,1.84637994445,-1.86209990403,-0.555825915515,-21.1754259054
do_nothing,0.872912294494,-5.55044440187,-2.26755037928,-0.158882247172,3.58638199045,6.65320907121,0.470809387042,5.31197977536,0.38456932481,-4.63689720756,0.759078472601,-5.84979441752,-5.47223510953,-12.6605823024
do_nothing,2.92037417595,-0.664207813336,-2.17686290848,-0.339080298508,1.85565175197,1.80084205074,-5.27378655784,-3.684937686,0.134268008935,-5.14452514949,-1.34939873595,-1.33522021407,-3.6162140249,29.2098210509
do_nothing,1.38763435712,4.18872658622,0.200258869391,-0.308625175404,-4.07854964655,-7.31401573024,-4.87891790159,-8.08570611177,-0.0904079743379,0.830234968478,-2.29449082774,4.99072904568,3.17949712143,33.2642385871
do_nothing,-2.57585245689,2.18152486214,1.01841869197,-0.000458970812835,-7.0342910742,-8.90227570291,0.659367618,-2.83376795276,-0.0731405528647,4.5768165535,-1.14319784883,4.10801874684,6.25727561524,-20.0187771206
do_nothing,-3.76078441183,-2.96702536247,-0.577959964163,0.527482857259,-2.0554380672,0.638370392926,6.01197113903,5.60908109105,-0.0444517869076,2.15057608056,0.777258285869,-1.97712542355,1.96293220986,-51.2295115554
do_nothing,0.017375591787,-2.80901586449,-1.38136943942,0.809223227613,5.34018518373,8.79690808102,5.06918204393,7.0490517974,-0.172926547601,-1.99398150127,1.47453640986,-4.25261307433,-3.89889082179,-4.37879006499
do_nothing,3.80154262512,2.86472255915,0.528554193458,0.347058452263,5.63763349912,3.65761890998,-2.58205484381,-0.244083068208,-0.239008340895,-2.645940944,0.70828362025,-0.306215736772,-4.21596287574,57.6104730214
do_nothing,2.06142963937,5.71619550653,2.60177012035,-0.56727049813,-1.03468296168,-6.90884368477,-8.08127413087,-7.10074810219,-0.0406793971039,0.0154728263052,0.106201146878,3.35731505947,0.500302468607,45.7973939301
do_nothing,-2.72383440052,1.15133117296,1.69388487343,-0.977976603083,-4.52928921603,-5.39188522705,-2.79200526371,-4.56403959577,0.218062610945,2.22233600849,0.622462326364,1.74624419568,3.6330138946,-22.7649043682
do_nothing,-3.13733032517,-5.2563464432,-1.14130546935,-0.484587886757,0.470916301181,8.04376789887,7.86174050702,4.36149476682,0.237378746744,1.34072793507,0.916202159033,-2.27163395127,1.25204925745,-61.9464577931
do_nothing,1.89433833709,-5.70141733689,-2.22302404496,0.215835937226,6.14070516008,13.5364177344,8.83991053395,7.90262683999,0.0811362999044,-1.76952497561,-0.606194466888,-3.32292062022,-3.20528016049,-44.0547694272
do_nothing,4.79112604706,-0.252246964553,-0.589806850506,0.380810887959,2.83456549277,0.420499667445,-3.1473966753,0.857430340766,0.0113986206096,-3.48976783518,-2.77903737041,-0.587847054763,-3.56890219264,-7.06981889773
do_nothing,0.483340104712,4.19833395337,0.896400892742,0.242273142409,-6.35626361526,-16.0753821506,-12.5945573955,-7.97121154015,0.0308871056707,-1.00171945002,-2.55936871038,2.58749696084,1.12886059249,33.9163915153
do_nothing,-5.41861281605,3.08156353683,0.0327970242751,0.381409821743,-9.41511197964,-15.6119774424,-6.28853101539,-7.08164488752,-0.0625294870286,3.62838520816,0.680656081394,3.22212983852,5.13665766743,83.7265749664
do_nothing,-4.30977962202,-0.900268352268,-1.46957922462,0.574594705894,-1.94371259541,0.322564549491,7.43415785056,2.43669042239,-0.243716106309,4.65587756654,3.54217174644,1.02002596357,3.12689680887,90.467805961
do_nothing,2.75693014569,-2.05411019868,-0.637006322871,0.138395376769,7.29302055749,13.1584344715,10.789509772,8.51435102861,-0.244920001762,0.0895082728208,2.66087379457,-1.95589361056,-2.62955647161,-9.32797383828
do_nothing,6.18767515564,0.947306147476,2.15060758819,-0.742088111704,8.40740190924,12.183130055,1.79413431363,4.23650305024,-0.0015265510464,-4.43971913228,-0.782134426762,-2.83441094081,-4.81509626727,-148.620146871
do_nothing,1.32153186908,3.37757059912,3.226748678,-1.00221205802,2.05550146748,3.24650496586,-5.30437876542,-3.78141182224,0.210262598294,-2.93751048197,-2.55044266364,-0.779033705888,-0.862141615835,-157.006684234
do_nothing,-5.08737937216,0.596972779783,0.528307951297,-0.236245320753,-3.73324545053,-3.9602502353,-2.66957565527,-5.3763500305,0.183908239937,1.90855997624,-0.990590365097,1.42092550978,3.31033330367,8.03220198056
do_nothing,-4.32721651794,-5.0135039076,-3.18975364024,0.59530582416,-4.15579930033,-6.1223463228,1.70116837554,-0.19341955157,0.0576534486834,2.45905539978,1.06392156502,0.758811685055,1.68269148313,166.120447577
do_nothing,2.47216268585,-5.82597932518,-3.39969703129,0.496108037562,-1.32195411525,-4.25332777993,-0.353293925353,3.53051919476,0.0320253365151,-1.7911397194,0.688524111278,-1.13413523116,-2.88286613075,142.175209985
do_nothing,6.17486350891,0.924333287932,0.361373758182,-0.158943815668,0.466476317026,-0.781601621519,-4.42318483166,1.08507897451,0.0488421075157,-2.97524432511,-0.984535615505,-0.0567628191573,-2.72231116321,-1.86861773727
do_nothing,1.80886922796,7.7015226286,3.41386205722,-0.244962556676,-0.344110307615,0.391219373063,-2.84244797886,-3.21445712462,-0.0445243189738,2.2218256308,-0.896360636994,3.26364415872,2.76492157784,-81.5941716476
do_nothing,-5.28797121912,5.40194067516,1.66350348815,0.426749921595,-1.84178864943,-1.98529717721,2.40116181663,-3.16865135472,-0.184228650828,5.86709117502,0.963089292346,2.6684233842,5.41088921873,-60.5674319863
do_nothing,-6.49252990542,-3.78654084485,-2.76768861845,0.837635263556,-0.978277723038,-2.50137865583,4.21853371312,0.988258730856,-0.182181519344,0.648091567016,1.47132812174,-3.58933750584,0.317634466053,-48.7313913189
do_nothing,-0.374007779247,-7.98562530387,-3.7350820099,0.214091428896,2.8635780873,3.59076017631,2.05583411814,3.95935784387,-0.0363317432313,-7.26280573548,-0.549842683227,-7.49094178976,-6.01458279019,-67.418763481
do_nothing,6.09048231855,-1.44970865859,0.895923701072,-0.895978206915,5.94545206364,10.1632394965,0.782727905252,2.85277622994,0.0798426920512,-5.7852139086,-1.9902956022,-1.50655523067,-4.40848800221,-9.81238070892
do_nothing,6.06054073328,7.09086607556,5.74420621963,-1.29748446459,3.66674466821,6.71789697873,1.39866773763,0.113262907843,0.0964968536578,4.71558396192,0.00991106288827,8.76497282208,3.49408029283,128.405743538
do_nothing,0.38238065217,6.14837680854,4.31164935143,-0.553558553834,-2.9409994355,-4.67948505893,0.5037513796,-0.953832476268,0.101570360032,10.218785906,3.11336976439,9.84823880775,6.87395865764,170.022292958
do_nothing,-4.39070160335,-2.88182546553,-2.47908121689,0.597794456505,-6.98221068392,-10.1215945955,-2.65730758411,-0.893110001723,0.12294831714,2.32183893163,2.40150879651,-1.35336708587,0.698798644295,16.5728373042
do_nothing,-4.17554668397,-8.17927943164,-6.98873627316,1.1129705847,-4.22144788293,-4.31209044899,-5.14974642416,-2.39976558161,0.0690294140182,-9.50681053514,-2.33681753462,-12.0421250494,-7.10728172921,-161.547683843
do_nothing,-1.26327196862,-3.78771961437,-4.27081844047,0.7043338424,1.10827660387,1.75212695668,-5.22699485347,-4.85949472927,-0.0713331892473,-10.3874825955,-5.24867506653,-9.66503668663,-6.21495086757,-147.20364373
do_nothing,0.320984349295,3.67103105692,2.07292256356,0.00126480926271,2.60790425917,-0.423148602227,-2.75762459619,-3.5959255732,-0.158975732897,0.532337568169,-1.97021719943,2.30631596789,2.57513911788,12.4158824814
do_nothing,0.655917264673,5.61137730066,5.00354021078,-0.278477471449,1.03154109867,-2.7191434551,3.20393435747,3.49734762885,-0.112449135329,10.038874835,3.94883874709,10.1022554384,8.68300147479,92.7549949053
do_nothing,2.37878308558,2.28600509539,2.74375797322,-0.181487041944,1.79282039589,4.22516239723,10.8513133285,10.418479607,-0.0294565992387,8.28027026117,5.19454693226,7.35322094411,5.16022351554,32.1020116564
do_nothing,4.64287066375,-0.550300564797,-0.400077396767,-0.308852820043,4.59478755218,11.9291137239,11.977912735,8.22676725812,-0.00891485688667,-0.569934777096,0.351754232144,0.370846178057,-3.43154330566,-14.8144417665
do_nothing,2.99321622811,-0.937142134174,-0.877306908669,-0.745164309515,2.91354074031,5.79227766497,0.823423688402,-3.15394527196,0.00578799125253,-6.01487894855,-4.15334371065,-3.09647725235,-7.38095895118,36.0848617635
do_nothing,-3.29218667475,-1.44662106278,-0.064353243236,-0.70285707082,-4.49866506114,-9.44140859015,-13.6706669869,-12.2329286358,0.0888624331176,-4.1984651078,-2.70830470917,-3.21714782878,-3.30011498341,65.4895554146
do_nothing,-7.71457509728,-2.89223756547,-0.743483229796,0.303221602867,-8.95312532223,-13.5646179008,-14.9035617396,-8.76659450796,0.160258741993,-0.0637393896608,2.08915506816,-3.91837797257,2.89958701044,-21.5376058743
do_nothing,-4.2320681154,-2.7077059066,-2.36481503066,1.34492376252,-3.60623201211,-0.95280643154,-0.956612075607,2.97369661401,0.100868486129,0.712918474934,3.36988087607,-4.85143584708,3.87472348555,-114.030078394
do_nothing,3.68454986923,0.20612725129,-2.19452552972,1.03358520205,5.50161657743,10.2776860109,10.5644885064,8.96750457513,-0.0400104505984,-1.54425959136,-0.493571031011,-2.2740074365,-0.365234603477,-71.3700989027
do_nothing,6.59260431919,3.13554519496,0.229789825488,-0.429804788479,7.09820865128,5.18687030787,6.34061818289,3.42015642468,-0.10935940813,-1.9722264007,-4.00258514458,3.97317425432,-3.07897664809,45.6610745905
do_nothing,1.66524352724,3.32988738332,2.41590780042,-1.21239120252,0.487190856766,-6.56999327958,-3.84645316311,-4.10342621984,-0.0790880526774,2.14471566973,-2.36819402646,8.69649230969,0.0748250721146,75.8940808033
do_nothing,-3.46202246241,1.39372404617,2.50419601585,-0.322939318471,-4.1468550568,-6.83176921071,-2.62158845692,-2.57211780088,-0.053794201891,7.12626386319,2.20206724862,7.12578650499,4.90843442053,11.4347835054
do_nothing,-1.6935069501,-0.425145343928,1.29209872906,0.877089543022,-1.0706233856,4.01155386188,7.81671075166,4.86945411816,-0.066799371979,6.32231840679,4.01593597802,0.231726734375,4.04660455605,-16.9930530253
do_nothing,3.34392045554,-1.29032402494,0.211158193554,0.581477621205,3.37195793507,9.55610809875,8.82086465996,5.72758949894,-0.0319161060789,-1.57545678179,1.49279546168,-6.4315844186,-2.673224437,26.1385296091
do_nothing,2.9025448665,-1.7136838572,-0.750904555691,-0.789251955978,1.45842619748,2.27513931313,-5.33507470365,-3.32959505244,0.0759240382188,-9.28612840062,-1.62418295799,-8.07323123181,-7.10187277466,35.0912134488
do_nothing,-3.62608797172,-1.90980691184,-2.0099116231,-1.19755861928,-4.16231149655,-7.41086919485,-16.8013335218,-10.8044643014,0.144458078131,-8.58003993842,-1.99452581462,-4.52411462849,-3.54643772022,-34.7810219554
do_nothing,-7.33567277944,-1.59262149282,-2.72453025555,-0.0240587548637,-4.98852908808,-7.39893754525,-9.14114361358,-5.93852150511,0.0931625856023,-0.453385771901,-0.631016944309,0.456954745913,3.18026663219,-80.6924125046
do_nothing,-2.41913407477,-0.562527076038,-1.70646393516,1.08876890993,0.664511497865,1.04475457128,8.94726386483,6.21916246325,-0.00332543433628,5.97362861786,-0.224906069932,3.33873854023,4.38015669565,-27.5653129204
do_nothing,5.5502721843,1.30170427653,0.669352489068,0.799453256,5.70789822888,7.50888371228,15.6298502605,11.1899540086,-0.0417623214605,5.23198782385,-0.813544147575,4.12039476752,-0.166784232369,45.2204512908
do_nothing,7.31755013517,3.59873034994,2.73970572417,-0.0493689221914,4.30738331217,5.16674790642,5.10646926876,3.85428616436,-0.0401549364639,1.64408330632,-0.238862096989,4.80063175896,-2.20876726806,39.3982514298
do_nothing,2.06667463888,4.39938790855,3.31840416234,-0.0870113847251,-1.25510458646,-3.49427958955,-7.39366804974,-5.87704286491,-0.065844138386,1.15402791301,1.85868323099,4.88184275742,2.12424169649,-5.93277927681
do_nothing,-2.9379249598,1.47856859187,2.17771140648,0.278403816914,-4.7104271526,-9.60157234809,-8.26872259947,-6.96182615816,-0.0939529233818,1.80393865867,2.8421395575,1.0552133686,5.71790878797,0.348863053872
do_nothing,-3.08126643016,-4.00994928957,-0.482492372434,-0.263334699981,-3.17717626185,-5.61352753272,-1.2774158424,-0.722248881845,-0.0516004083062,-1.86672166519,0.683791299501,-6.69746211021,0.850669783857,38.1008727533
do_nothing,-1.33350082881,-6.86415752341,-3.52676650548,-1.38399286726,1.06214595608,6.03737104008,2.67735447144,3.39368751849,0.0417518823713,-7.55689283083,-2.67947532461,-11.3597045124,-8.12807745519,19.8987116606
do_nothing,-1.71791631083,-3.40247232146,-4.45385014702,-1.27730058791,3.77643197942,12.6944460792,1.65975771174,1.53191984813,0.0918653485684,-6.44845053336,-3.262272704,-5.93244046319,-9.2530556616,-45.9196264131
do_nothing,-2.74843972382,3.11766661997,-1.6661243412,0.497073418478,2.4819280949,5.36653650068,1.22981184078,-1.11704186156,0.0711340402183,2.84679369979,-0.159300217007,5.91895271711,0.45571208596,-62.9405143182
do_nothing,-0.511578421092,5.6777870092,2.64497760475,1.99421879601,-1.43777853516,-7.92469680892,2.54371392294,0.0199993824013,0.0396919057986,9.41809740597,2.90255316108,11.7235836367,9.78178335984,-7.60444524254
do_nothing,4.43112881812,2.29632665454,4.15634099995,1.46170333298,-3.5979970554,-10.5403866787,1.05142009857,2.06734827112,0.0274090166673,4.39441745769,2.14303782024,5.34403820632,7.77430500521,36.4174249182
do_nothing,6.9627498239,-1.61953257549,1.76882039813,-0.3100813625,-1.25724510217,0.0333011917523,-3.82284004455,0.447702370169,-0.00459401417958,-5.45901355651,-1.2505558763,-4.49070796856,-1.8533900752,20.1030071099
do_nothing,3.71110580015,-1.15995005202,-0.958959146989,-1.2662580878,2.6707779398,7.7089715059,-5.84873306515,-2.98488523306,-0.0667247123961,-6.36316319925,-2.58024867104,-5.68176890556,-6.44988725399,-3.4829830204
do_nothing,-3.13548405117,1.17474704565,-1.06725607311,-0.840522498073,2.716381031,0.979336150963,-1.30631198107,-2.64893024173,-0.0981881734745,2.64233629187,-0.0558726442839,0.718595482959,-1.92104876724,10.9709973722
do_nothing,-8.2084882713,-0.108006419474,-0.318723937139,-0.167984955615,-1.41757491725,-9.33670269647,4.73824406504,1.61999867628,-0.0600704197398,7.86638107064,2.58496345277,2.92995782175,2.86083564566,23.1728886236
do_nothing,-7.39680441684,-4.1831404804,-1.48841186155,-0.0221063189869,-3.62537359089,-5.60884267998,5.43161687397,3.75785403912,0.00233210339364,0.850525498188,1.31673682155,-3.15938942876,0.324885519045,-4.59598497398
do_nothing,-0.628474254122,-4.19972634713,-2.82140754303,0.0519987287721,-0.0375866663277,9.64339303846,1.44042588423,0.686699478092,0.0342707191084,-8.82087916479,-2.19635377799,-7.14452920522,-4.40826348,-27.3432164399
do_nothing,7.38109710863,2.19950710458,-0.47909906643,0.475573806931,4.53066652453,15.8209618595,-1.44649246963,-2.78698623978,0.0463722332869,-7.00334249293,-2.70941293265,-0.0897788307595,-1.97578324289,-0.99767935747
do_nothing,9.63112971988,7.64866096745,4.13959695951,0.761195320972,2.94380020632,3.19258418148,-1.46605534552,-1.3536446843,0.0659488440503,4.46463677285,0.945165978506,10.2163809403,5.7753246362,22.1118206835
do_nothing,3.26003857439,4.27316096165,4.702667098,0.38928916321,-3.42212098297,-13.2059945815,-1.9618894922,2.4065932852,0.0692316098488,9.97426747203,3.71696020005,8.86610797468,7.21368485849,-23.8735373506
do_nothing,-5.92277625908,-4.68827874871,-0.748214437193,-0.302139021215,-5.78533836962,-14.0854005754,-3.84958289537,1.89383149633,0.0230514933092,2.0315257895,1.33557463536,-4.30844290558,-1.72723709889,-82.7190111213
do_nothing,-8.50043494651,-7.98571944012,-5.54212811823,-0.661307192651,-0.420316036968,-0.820948150328,-3.09161218967,-2.97875245658,-0.0440834039924,-8.35185797268,-3.31928024792,-12.8070734627,-9.85535011667,-35.113094671
do_nothing,-2.44766112838,-1.23187925088,-3.18281678534,-0.55077195544,5.5523756384,8.86663778586,2.13095544633,-4.8997601671,-0.074695965415,-7.02135977801,-3.8705750505,-5.53611061217,-5.44991816416,106.849631058
do_nothing,4.15733975071,6.77965478344,3.01501297224,-0.164828212904,3.98572523859,5.30495333206,6.62430801668,0.118716231564,-0.0621306437269,4.17019986491,0.717839652796,8.05297268494,6.69475569698,172.082866085
do_nothing,3.76173847432,5.64508856246,4.37571898417,0.378128293182,-2.78433993273,-2.81595951996,4.6249634915,6.2277442103,-0.0408224685608,10.4180119753,4.55087845252,10.9449320355,10.7861596164,45.2027569134
do_nothing,-0.800282159625,-2.73269836074,-0.546330423373,0.749109999202,-5.29780260314,-2.92330441478,-1.75348017679,5.39162730722,-0.0174213443879,3.7606763648,2.72530642161,0.950292112314,1.33466409771,-161.392803796
do_nothing,-1.46999059154,-7.01486704477,-4.03575389799,0.37144827677,-0.272696341346,4.45812501912,-5.05122877223,-1.57737574722,0.0268452939939,-7.3685184126,-2.24882388949,-8.17033473427,-9.39808236474,-220.257049518
do_nothing,2.41655550571,-1.96777490686,-0.94622491228,-0.611787839936,5.06385255638,7.75550211245,-2.39419189319,-6.17774205186,0.0752232325056,-9.93289058983,-4.10452105056,-6.22962303043,-8.14651257856,-54.3189114768
do_nothing,3.27988028038,4.91072556442,3.67676954408,-0.952898243947,3.28804191451,0.422860860051,1.51143486169,-3.54262419003,0.0807016677179,-2.28065412505,-1.05504954598,1.4321980737,2.0073158967,167.205250407
do_nothing,-2.20555217424,4.4126261888,2.54081878851,0.107641072479,-3.09266412617,-10.011261744,1.68332700178,1.91654563831,0.0370563934239,5.73190611083,2.53436649913,4.03531316297,7.31087123032,213.657469971
do_nothing,-6.69455952296,-1.70643592274,-2.70488036353,1.3042297727,-5.42534915235,-10.7858333685,-0.839796983192,3.36875343899,-0.0107066263406,6.14993983012,2.45012176297,0.504999892253,2.65335286007,46.5486960572
do_nothing,-2.65644276047,-4.07134705004,-4.07097615126,0.74851937038,-0.715493130238,0.0883140457892,-1.78096707846,0.415542659234,-0.0354280657101,1.46511346933,-0.229712713762,-1.40733679659,-3.03798017889,-142.514458044
do_nothing,5.57601689616,0.425546215334,0.600747637464,-1.15683170472,4.71170680512,10.4129419563,0.137440190299,-1.76577325074,-0.0537080359353,-1.11403509931,-1.56200430017,1.86030880535,-1.34559310343,-154.14690302
do_nothing,6.98879691257,4.36694667084,4.4465802428,-1.7867528825,3.95565946504,8.40482021012,2.24709815939,-0.259094744508,-0.0700901068716,0.0719016461384,-0.386622332054,4.49542643962,3.54379144702,-8.3649436938
do_nothing,-0.48683428642,1.04524451801,1.88448618568,0.0754457488805,-1.56005121817,-2.34526722723,1.9419060474,2.13399167889,-0.0528196942821,0.309188567471,0.724059546652,0.619638079496,2.27395253389,98.6520970207
do_nothing,-6.80638218442,-5.31071474784,-3.30393618153,2.1458153133,-4.56356144634,-7.67146142017,-0.427295569402,1.58525508283,0.00702292833848,-3.04827747178,-0.209392785215,-6.18911663988,-4.85199511423,54.5158710395
do_nothing,-3.91290598089,-5.25844173692,-3.79686918204,1.55146850046,-1.7010355782,-1.84449982446,-2.27026039081,-1.36120383643,0.0617496158494,-5.69973017652,-1.58289206751,-6.99087866076,-7.74256610557,-37.665857401
do_nothing,3.37461098913,2.22329119671,0.790113445088,-1.09365107947,2.67116851088,5.42698820144,-1.31114519157,-2.84519574999,0.068490026085,-2.38905636983,-0.6925122742,0.300228483727,-0.995112004387,-32.0721743214
do_nothing,5.00307810881,7.69718952118,4.0006191613,-2.37289226625,3.08082947345,3.90275627127,1.92830799705,-0.992414447752,0.04467081996,4.68599395576,2.04301370248,7.34212973018,7.97240569832,42.7341574959
do_nothing,-0.0632416226976,3.98935219793,2.00015260626,-0.715220881771,0.137531004071,-2.71300160663,3.6514496089,1.79177105047,0.0251200338063,7.52252583174,3.17552026229,5.75461239968,8.41220270429,46.782306716
do_nothing,-3.58774624315,-4.05326461217,-1.80944367834,1.55800047628,-1.50909324592,-4.21043569928,0.376125744242,2.06037394685,0.00274872927653,2.60541282566,0.684000999671,-1.99412965271,-0.00994792197724,-37.591268733
do_nothing,-0.912256745354,-6.3113677989,-2.59018578805,1.58504279808,-0.549987287104,-0.370306074066,-5.77153291214,-0.397687080315,-0.0410022029104,-4.17936669073,-3.10330625274,-5.84243351781,-7.38229898149,-77.6551472435
do_nothing,2.70730065637,-1.00099390498,-0.579225060226,-0.212906835158,-0.280866301166,0.314942970426,-7.41350329095,-2.39685653819,-0.0782249655611,-5.06521499542,-4.0307780564,-1.47358636713,-6.17944062859,-8.85120735278
do_nothing,0.968160204679,3.78777987837,0.68881795069,-1.13709933548,-2.1449805861,-3.21345618884,-0.34632280913,-1.20227698898,-0.0643007853138,-0.220096441688,-0.962691322328,4.24613328848,0.609104229427,61.3189821175
do_nothing,-3.52493738206,2.05434808775,0.186602649428,-0.186802926622,-2.39344262485,-1.81210565028,9.46051089775,2.14183986885,-0.010113294335,3.27650347745,2.95301958484,3.16882099768,4.81286619319,32.0311082713
do_nothing,-3.21777493169,-2.16212481725,0.0734300535961,0.824749226784,1.86859575109,7.09755629184,11.0160449315,3.71323908095,0.0308209790268,1.17489172105,3.85970848989,-2.84732253894,3.0878497272,-31.3247091253
do_nothing,2.6454481129,-1.77486672312,1.28369903655,0.238817617461,6.39167082291,11.4298479417,1.30622296961,1.05275804217,0.0403427669082,-2.99134755986,1.20432013323,-5.15038745542,-0.871777890614,-18.5903185681
do_nothing,6.12936340269,2.47687194743,1.73127691601,-1.03622995121,4.34228451759,1.52873929867,-10.0110642392,-3.56029230741,0.0457501288458,-3.39156560748,-2.08018431271,-0.856034624358,-2.37585450721,37.9581915408
do_nothing,1.76137165783,3.49187956179,-0.148886628491,-1.01917360806,-3.48905576351,-12.6488649597,-11.1266254839,-4.90251683876,0.0530520623463,0.701635456841,-2.82823312521,3.76685313789,-0.925968436103,28.0243168861
do_nothing,-5.1780703329,-0.998294341943,-2.43428017014,0.435447170511,-8.15037193994,-13.0056025316,-1.49721612653,-0.69153047378,0.0307458088161,4.77652268521,-0.72166012015,3.23879626949,0.849600185055,-40.8720599941
do_nothing,-5.45967961429,-4.65496891849,-2.14838187037,1.49590842544,-3.93756815938,1.27364160406,7.91984331717,4.78585674288,-0.0249800184224,4.59279074745,1.6159908671,0.219227389029,1.09813326496,-55.9493701744
do_nothing,1.28132299427,-1.96480862517,0.475266417832,0.883913644852,3.85415821337,11.9973563305,7.46114862388,4.77321755837,-0.0651607946007,0.16274354996,1.469251241,-0.402201036912,0.192847283043,7.33440545038
do_nothing,5.73638675296,3.3473798764,2.18893618128,-0.577539218019,5.97978986569,6.93224381737,-0.730181657787,-1.43843444638,-0.0557361505509,-4.68550524302,-0.854380404043,0.260853405007,-0.660219356562,46.9414287757
do_nothing,1.73142761389,3.65093009451,1.08427945426,-1.22025196252,1.25497141637,-4.76974730479,-6.19289566577,-6.27786158326,-0.0240136498209,-5.53966450474,-2.12279528565,-1.67174803314,-0.81101723316,10.0991158865
do_nothing,-5.00577022717,-1.41665248432,-1.04017201413,-0.558300562058,-3.00220383479,-7.34587435673,-2.85371861173,-2.84934669934,-0.00605318886732,-1.37518507769,-0.12908240783,-4.43752390427,-0.308320135714,-25.2044851988
do_nothing,-4.67055747768,-4.45765323394,-1.33992017777,0.447629816614,-1.66271469375,0.24957623161,4.1239227405,5.17329673722,0.00892531425231,3.70389081917,2.92429359199,-2.46157389917,0.375197156414,4.50469988889
do_nothing,2.80809108999,-1.0091749263,0.354719812553,0.736588062835,1.96149346454,6.13665357572,5.43520595623,7.07345621008,0.0411518832493,4.29043824956,2.70999490619,3.75864373029,0.66246343122,38.684041782
do_nothing,7.39983587526,4.2790067277,1.68640019828,0.212836791744,2.01499191445,3.62302348416,-0.153281618726,-0.475287072358,0.0650250145272,0.375131219866,-1.21641841537,6.60969646169,0.460754259082,6.21008654265
do_nothing,2.78501965903,4.37103434399,1.02254293875,-0.42841332829,-1.56290846088,-1.97429409409,-4.52137427655,-7.69033227119,0.0430131418023,-2.17628791081,-3.99635010445,2.21033393002,0.291790091413,-46.0334995171
do_nothing,-5.04204763883,-0.790153455385,-0.779059933698,-0.521780183653,-3.70743381303,-3.8143495563,-2.1690478444,-4.63983573265,-0.00799828995819,0.0644478479422,-1.81177727556,-3.76297970814,0.306276608869,-34.720744448
do_nothing,-6.31955006642,-4.94867394633,-1.86579148731,-0.0141673722702,-1.52696287168,-2.34337541667,1.46342061869,4.19025781659,-0.0372997211353,2.45178316208,2.3939798999,-4.5493468923,-0.30417416705,17.1221765786
do_nothing,-0.682118747104,-3.78699235637,-1.48152974351,0.548986551649,2.2674831698,-1.25377721462,-1.17553315431,5.7414086016,-0.0348114480815,-0.681396863754,2.75930889021,-1.38900956742,-1.79817482501,25.3898329421
do_nothing,3.55940732215,0.754062838098,-0.16513698507,0.564897436914,3.33085083882,-0.812175318292,-6.05208034063,-2.1879797149,-0.0322526160249,-5.78700413609,-0.879750152857,0.530449245618,-2.30750007979,-8.89322810917
do_nothing,1.78969851044,3.89295979079,1.18892694735,0.00837106403746,0.907843562498,0.840934779903,-1.90385119323,-6.7836628903,-0.0359216976528,-3.9358090533,-2.57487226503,0.769700996931,0.169354185347,-10.4228504957
do_nothing,-1.37691766082,3.08879939302,1.80554815686,-0.518367677969,-1.82147484908,3.26037288666,10.5941034673,0.650820658515,-0.015830558663,4.75265415124,0.57737427787,2.1042411033,3.86713815926,29.48665962
do_nothing,-0.313864117695,-0.358677260986,1.25355291212,-0.489158987279,-1.72566225945,4.28429941667,14.8822489319,10.169922582,0.030250434378,8.76779567573,3.53444079184,3.30500839366,4.01128656499,35.6676814451
do_nothing,3.15776510461,-2.85226130935,-0.031081635802,-0.0786017883751,0.741157470081,3.11875629932,1.05115333075,6.67772679566,0.0576355431205,1.51884558586,0.933809756782,0.820702367182,-0.725491419518,-15.7166057811
do_nothing,3.2327192421,-1.695296212,-0.902476735015,0.153191263159,2.11983909299,0.130567277588,-16.3803057791,-7.1018702835,0.0406180568573,-7.4794379732,-4.01876784257,-3.34413250111,-4.96834989335,-50.0126848962
do_nothing,-1.06664911553,1.70619047701,-0.870699932159,0.0780999061902,0.148738162148,-4.33985392013,-15.5507044974,-13.0522281504,0.00974145132661,-5.60815334873,-3.73535582025,-3.21080261854,-3.15048613868,-17.9223539697
