label,COUNTER,INTERPOLATED,AF3,F7,F3,FC5,T7,P7,O1,O2,P8,T8,FC6,F4,F8,AF4,RAW_CQ,GYROX,GYROY,MARKER,SYNC,TIME_STAMP_s,TIME_STAMP_ms,CQ_AF3,CQ_F7,CQ_F3,CQ_FC5,CQ_T7,CQ_P7,CQ_O1,CQ_O2,CQ_P8,CQ_T8,CQ_FC6,CQ_F4,CQ_F8,CQ_AF4,CQ_CMS,CQ_DRL
off_to_on,16.8787228133,17.0108845126,19.4484567244,1.59960546881,12.6378288135,22.5574442499,22.9941722731,22.3689399641,2.18329935901,18.8123393627,7.05854571376,19.7050628809,12.6974045759,38.6740127666
off_to_on,17.0182037961,16.0584981216,18.4371004399,2.65070888599,12.1176570241,16.6338530987,20.0895024626,21.3865869329,3.25622944701,17.5446895099,7.68397207138,19.186160455,12.298536856,51.008595975
off_to_on,13.2649479205,11.9441522302,13.6148029976,3.3166894482,8.92055507592,6.97559552992,12.505357459,15.5442764776,3.77175087193,12.3264200951,6.73683395618,14.4921395862,9.26415919369,46.9599968391
off_to_on,6.948595891,6.02919116853,6.577813916,3.39018893675,3.88541263862,-3.66396904209,2.66426799843,6.68636662976,3.5798478297,4.78718039994,4.56907017121,7.09107626142,4.60476304976,26.3237764793
off_to_on,-0.0435650534389,-0.0948440817559,-0.727118516854,2.78960490666,-1.73424007783,-12.3972476985,-6.62286887056,-2.7226766035,2.69072894085,-2.97533509783,1.78149579508,-1.00062107934,-0.371135243955,-5.54998664742
off_to_on,-5.89293086572,-5.08603037213,-6.60366051755,1.59759016172,-6.62533179642,-17.0634141395,-13.0474169759,-10.365616248,1.28133901457,-9.03637118584,-0.960674490502,-7.82676485492,-4.45823323682,-39.2320124031
off_to_on,-9.39584475793,-8.18811609269,-10.0584579044,0.0504133857612,-9.76142666691,-16.8350908378,-15.4467740301,-14.7180276985,-0.347465715732,-12.1789950052,-3.11192585117,-12.027301332,-6.88243798363,-64.076616852
off_to_on,-10.2476068751,-9.32593056686,-10.968125804,-1.52036205339,-10.6382978419,-12.3809028537,-14.004042813,-15.3736483023,-1.85034803611,-12.1594114401,-4.37256182061,-13.1383531411,-7.45719735958,-71.5769752926
off_to_on,-8.986569332,-8.95599805669,-9.93322120642,-2.77583607049,-9.3397701063,-5.54544438339,-9.97619305372,-12.9755391811,-2.92823352267,-9.63945612925,-4.72223792432,-11.5817688386,-6.53465391545,-58.1488984544
off_to_on,-6.64917024833,-7.75729676536,-7.90578386035,-3.45923996604,-6.43328618628,1.32903599865,-5.09313912349,-8.82116487102,-3.40156088124,-5.83965856258,-4.36028372379,-8.37902421257,-4.79045802237,-26.4514450673
off_to_on,-4.29040670462,-6.2994993096,-5.75308965449,-3.45880739855,-2.74824645551,6.19764144861,-0.877740920162,-4.31710495407,-3.24399552404,-2.05748438894,-3.58465648794,-4.71530292611,-2.93485351239,15.1922862452
off_to_on,-2.56485725773,-4.82336406157,-3.93146783,-2.82581479285,0.87911330234,7.95160254872,1.85465068615,-0.4953626515,-2.56895384073,0.769948932608,-2.66066077517,-1.52074989482,-1.45978241931,55.1207560592
off_to_on,-1.52774215564,-3.21329583907,-2.38867300579,-1.74538396608,3.81126021965,6.69207961042,3.14713274843,2.24071861411,-1.57781858965,2.31060143577,-1.73011715476,0.784949951855,-0.508395813753,81.7144906878
off_to_on,-0.719899144422,-1.15842755047,-0.714949589361,-0.473438217328,5.71115703827,3.56537488584,3.680401238,4.07579592459,-0.491214413445,2.82373104593,-0.792356116725,2.31060349484,0.0993777283509,86.8199989632
off_to_on,0.516242482208,1.58045935107,1.53907208744,0.736756137144,6.53009145821,0.242541827097,4.30550655875,5.50163434006,0.511347916821,2.92185096808,0.241884529083,3.49446844621,0.71243473639,68.1972391676
off_to_on,2.63462625977,4.92414708127,4.52541436221,1.69406611417,6.41287949902,-1.75173306307,5.54640761646,6.94060196986,1.32387785088,3.22312078915,1.45209329243,4.78928737959,1.63858196307,30.269047725
off_to_on,5.57437295164,8.36532869632,7.89544875563,2.29844287695,5.57592656446,-1.61143761312,7.28951231293,8.44593980079,1.91154219644,4.04101730265,2.81110746304,6.37057563538,2.96767689484,-17.042056395
off_to_on,8.67701687397,11.0561706218,10.8262959856,2.53589366186,4.21321916059,0.480534849201,8.79144608316,9.6091442615,2.28121943385,5.2329015142,4.13476987646,7.99047049038,4.49731384255,-61.045317452
off_to_on,10.8758658065,12.0714481692,12.2779754175,2.44897409114,2.46320362992,3.46973531395,8.99997524202,9.71259002154,2.4430906384,6.25935745531,5.1044577968,9.03652011066,5.78665978697,-89.7918050484
off_to_on,11.0902878851,10.7517772926,11.3869097497,2.10011778335,0.436718760038,5.87611859994,7.05158378411,8.06131961156,2.38369911469,6.42083216622,5.35967203309,8.77145386553,6.31354296312,-95.3668551256
off_to_on,8.67345287492,6.99482289663,7.84305579928,1.54512252848,-1.7229565626,6.39162696859,2.73472260862,4.35306853396,2.06440279506,5.1703890062,4.62946800255,6.65843610317,5.67217389177,-76.0506941761
off_to_on,3.73703689353,1.37738571432,2.09937015986,0.826891501804,-3.79048650859,4.40283833439,-3.28107932808,-1.07142535381,1.44669584316,2.37604489387,2.85460759598,2.64304183721,3.73709012688,-36.7688197526
off_to_on,-2.78007959233,-4.94790315468,-4.67724562289,-0.0114286925941,-5.45521754106,0.246756030989,-9.55860035689,-7.20980791839,0.532762599687,-1.56952384544,0.253239272236,-2.72067585056,0.735417082881,12.2613444504
off_to_on,-9.33728264436,-10.5545890372,-10.9085263353,-0.904602681371,-6.37721676302,-4.88876913527,-14.3221713788,-12.6335669135,-0.5986189725,-5.83220104628,-2.69869439185,-8.35484375637,-2.79420812537,58.2871934407
off_to_on,-14.2406071278,-14.1433388161,-15.0616471549,-1.74994077883,-6.28668787037,-9.37632903771,-16.0508970619,-15.9022913312,-1.78052291076,-9.37906017262,-5.3720504249,-12.9312932487,-6.1369733219,89.4130286566
off_to_on,-16.1604026297,-14.9066643078,-16.1040453842,-2.41091660446,-5.08864945304,-11.7165483812,-14.0173278725,-16.0133557031,-2.78160265819,-11.2899307212,-7.14460383154,-15.2452802136,-8.58274448239,97.7110618645
off_to_on,-14.5399308951,-12.7373399027,-13.8015582621,-2.74362930703,-2.92867089904,-11.0551631029,-8.57053668671,-12.730188844,-3.36202976879,-11.0278127073,-7.56822498275,-14.5674611623,-9.5947891988,81.235504148
off_to_on,-9.75755526738,-8.21908621645,-8.76341596256,-2.63911069585,-0.188036748151,-7.46812356069,-1.05677082718,-6.67691804337,-3.34486601836,-8.58055291607,-6.49227518654,-10.8626237315,-8.92116993159,44.4359889904
off_to_on,-2.99498864931,-2.4168364465,-2.22938924456,-2.06607848038,2.59722216457,-1.92302649879,6.59511008465,0.828771470812,-2.67821959044,-4.43898263628,-4.10690173521,-4.81151220697,-6.62953290454,-3.10025225959
off_to_on,4.13216795384,3.44779892798,4.31567372808,-1.09648242021,4.87005502701,4.05604086826,12.474033426,8.14202359399,-1.46485037255,0.56295188969,-0.895672599237,2.36201248496,-3.0731929521,-49.210732674
off_to_on,10.0465447992,8.31784944464,9.56014093013,0.0987536688428,6.19533820278,8.88987934466,15.2595188633,13.7302781401,0.0537985546282,5.47656730761,2.48528338217,9.19659424511,1.18617746996,-82.3289856123
off_to_on,13.6228529267,11.5150544063,12.6766732694,1.28586037105,6.36506373608,11.4304276458,14.5705316843,16.544826414,1.55654914487,9.45364361548,5.36412372391,14.3363985564,5.47147943895,-94.4293550652
off_to_on,14.416377927,12.7948736137,13.4373964841,2.22638394598,5.43317561034,11.2676574015,10.9835766581,16.219482491,2.72669402185,11.8875935266,7.20174985382,16.8172510434,9.08104244895,-82.9892175004
off_to_on,12.6563656747,12.2580540239,12.1249782648,2.73897972569,3.67365235491,8.76804465375,5.73895171461,13.0609022476,3.33476603353,12.461092827,7.69499558167,16.2323438101,11.3741573969,-51.4852286728
off_to_on,9.04334658226,10.1888229205,9.30818025264,2.74464401149,1.48285776298,4.85773706597,0.266726202882,7.86918982822,3.29372551409,11.122410768,6.81536540426,12.7591092716,11.8572753138,-8.33219092586
off_to_on,4.45498965604,6.90951582626,5.59350035046,2.28093462824,-0.734930339458,0.653410194519,-4.27918158009,1.6777248748,2.67025179036,8.03617468234,4.78480582298,7.07010041348,10.2747731195,35.4187053288
off_to_on,-0.316338886151,2.71993145442,1.45860042295,1.48180821129,-2.65815885279,-2.91116674432,-7.30918937645,-4.4891270268,1.65121994699,3.55044658008,2.00629366126,0.174105266095,6.69534153093,68.9876115856
off_to_on,-4.70331899846,-2.06195572273,-2.77651761586,0.531825459549,-4.08842683149,-5.3284827052,-8.8226244317,-9.77171959258,0.479633956752,-1.80506156574,-1.02572417415,-6.76519685626,1.56863154412,84.6001263487
off_to_on,-8.35587951158,-6.99921477476,-6.85521696188,-0.388018629091,-4.9379740231,-6.55935184011,-9.19569888336,-13.5281663004,-0.616312062701,-7.30983646765,-3.81239495178,-12.6013067657,-4.28267819505,79.3335358712
off_to_on,-11.0313049752,-11.4540535705,-10.4418844826,-1.14387826376,-5.18423572789,-6.88770486473,-8.85541149791,-15.3187408067,-1.47703476954,-12.0765060407,-5.92120940379,-16.3561969126,-9.76405547561,55.6178643025
off_to_on,-12.471845016,-14.60322491,-13.0307075935,-1.66864639532,-4.82366494719,-6.67497915526,-8.00170155869,-14.8809853188,-2.03268884723,-15.1502968292,-7.03668058223,-17.3520635471,-13.708166344,20.3117338708
off_to_on,-12.3592086036,-15.5889865339,-13.9818844076,-1.95453276837,-3.85373737725,-6.133762035,-6.50936287604,-12.1454912401,-2.28976238741,-15.696950674,-6.99376071169,-15.3236893626,-15.1409159672,-17.3346004741
off_to_on,-10.3918616112,-13.7798675311,-12.7011830547,-2.02654473928,-2.29505371912,-5.22235018627,-4.05402979215,-7.30457223301,-2.29466523242,-13.2458429874,-5.79762754302,-10.498908258,-13.5497540584,-48.2201510901
off_to_on,-6.46409695396,-9.05477826464,-8.90641090917,-1.91183690518,-0.242455564475,-3.70287846117,-0.400353571665,-0.899445213966,-2.093714048,-7.91261010148,-3.62958931596,-3.62000205314,-9.07238862156,-65.7129522132
off_to_on,-0.865438341495,-1.99380463509,-2.87140656215,-1.62030452839,2.08449084348,-1.33118317317,4.28947514675,6.1400451781,-1.70840506632,-0.508169384615,-0.833832092217,4.12585808915,-2.53410102786,-67.1200839777
off_to_on,5.60722722806,6.1246435227,4.47112509479,-1.14556148771,4.32666420887,1.91266507766,9.28780500706,12.5680923855,-1.13648669917,7.53884805466,2.12223503446,11.2856817311,4.70005114093,-53.9574329593
off_to_on,11.7106102659,13.5601926066,11.6452836376,-0.485308302898,6.03011287001,5.66447535869,13.3835939361,17.0360665709,-0.376771574911,14.4639806913,4.71751474886,16.4168517771,11.0359948798,-31.0414426372
off_to_on,16.0114649459,18.5363078318,16.9651928006,0.329588795503,6.75032223964,9.17164246926,15.2209884466,18.4147255874,0.535828833909,18.598262524,6.47091345742,18.409385824,15.0470606024,-4.77588281903
off_to_on,17.2800368355,19.7355493236,18.998890288,1.21304752312,6.18871436883,11.4673516727,13.7878532885,16.1365840373,1.50409876639,18.831162989,7.04220192628,16.7727112141,15.8444527359,18.7746308681
off_to_on,14.8963678264,16.706554619,17.0162545722,2.02264867759,4.31481811393,11.6732738201,8.87106575639,10.4399486705,2.36743432667,14.9599162898,6.31481899198,11.7983623968,13.3108501603,35.4133873039
off_to_on,9.1229443559,10.0423951607,11.2656852611,2.58518200002,1.4251687543,9.32562541939,1.28871089994,2.41078358092,2.93213022358,7.80246685064,4.43477455746,4.53419813135,8.12412688068,43.5132778713
off_to_on,1.13011863387,1.25901183104,2.97275543578,2.74333362504,-1.89301700074,4.60356503726,-7.22086154521,-6.22338725463,3.02595408829,-0.980287817073,1.78873794225,-3.44295896803,1.56208128937,43.778408545
off_to_on,-7.26034814787,-7.5999676593,-5.95596308865,2.40822321128,-4.89412066984,-1.63164143502,-14.4505810266,-13.5105984015,2.55870011944,-9.31447118023,-1.07900368558,-10.4065661799,-4.85227076129,38.2909467344
off_to_on,-14.051041297,-14.5141441234,-13.4410675621,1.59833910386,-6.86867892895,-8.01447425298,-18.3844527022,-17.7882218967,1.56594576544,-15.2719194007,-3.59204184503,-14.909458253,-9.75555909601,29.3084985544
off_to_on,-17.6215425666,-18.0226556672,-17.7944927635,0.448815798209,-7.34183107278,-13.0233113251,-17.8462443549,-18.1368647915,0.217572656663,-17.5877705502,-5.27654422875,-16.1389345369,-12.276513452,18.3332153502
off_to_on,-17.1833451603,-17.5813884305,-18.1638056255,-0.815093634713,-6.21203756686,-15.3938573407,-12.9086685015,-14.6289301961,-1.21563569704,-15.9774523489,-5.86743362731,-14.0927434465,-12.2012615297,5.82650811593
off_to_on,-12.9908276244,-13.6386614068,-14.721489422,-1.93374833067,-3.78351327875,-14.4709580582,-4.90998946268,-8.28934673424,-2.42916245497,-11.1583638115,-5.35624584222,-9.52583201518,-9.93553943321,-8.35101818885
off_to_on,-6.24189139171,-7.42260423059,-8.55056877122,-2.6807405146,-0.679772492864,-10.3928696792,3.94085186419,-0.779812928889,-3.16518673001,-4.57879486082,-3.96892066292,-3.69081204101,-6.29642357713,-24.0227387293
off_to_on,1.29519612799,-0.528002969441,-1.27874317461,-2.92058499824,2.33524776307,-4.05683481296,11.2448103413,6.0905268401,-3.28061323117,2.04776501743,-2.08387956174,2.03915329453,-2.21987297869,-39.7823540499
off_to_on,7.80288842271,5.5498151318,5.40775577674,-2.63814503903,4.57167658919,3.1168526983,15.1511581933,10.8687765296,-2.78107094228,7.24453096978,-0.119129903651,6.54138380588,1.50954109995,-52.60105968
off_to_on,11.9133229208,9.78153775204,10.2093597892,-1.93164435395,5.59616760294,9.54673390682,14.9044986793,12.8165716202,-1.81097965113,10.1471281115,1.57470362,9.19336503956,4.41974444801,-58.2897016319
off_to_on,13.0307020265,11.7674537349,12.4836987479,-0.974081740958,5.32707970946,13.8721620517,11.0188166354,12.0182651362,-0.60483710597,10.6431917522,2.78336052268,9.93417300261,6.36600416323,-52.803970517
off_to_on,11.3906209874,11.6769249958,12.2798206821,0.0413633105693,4.01805099436,15.2541163254,5.02936034358,9.22454030971,0.58232244878,9.25463643091,3.44367218168,9.14084583773,7.4224149582,-33.9987080616
off_to_on,7.86399381285,10.0254531364,10.1621636336,0.951854417483,2.14374114499,13.5274045745,-1.07820861923,5.50890157393,1.54144626263,6.83296052469,3.6083964331,7.38843121239,7.71942381746,-3.17045078139
off_to_on,3.59858365959,7.40304446589,6.92039285898,1.65463794332,0.233105340384,9.18509040055,-5.55125041545,1.87451824275,2.15204456468,4.19883308897,3.3831341044,5.19895173787,7.31197989742,34.3057546106
off_to_on,-0.362568885711,4.27051551498,3.28865721047,2.10895475167,-1.2903423414,3.22143259537,-7.42312838863,-1.04415317587,2.39025321601,1.86600849315,2.86534384866,2.87891551204,6.14179538265,69.6996510196
off_to_on,-3.35382712577,0.896058935913,-0.224621118538,2.31499941416,-2.20946392746,-3.11104946528,-6.74841304402,-3.08748024823,2.30530122484,-0.0548985333835,2.11119734865,0.500546354888,4.109466071,93.0136609891
off_to_on,-5.17349244155,-2.56662176721,-3.35511483229,2.28404967716,-2.52932714302,-8.56671220743,-4.4552128761,-4.46823959783,1.97869162814,-1.7560176505,1.14154444843,-1.98292342274,1.21821470146,95.9276980959
off_to_on,-5.98540190992,-5.92427538104,-5.97834890999,2.01667012771,-2.41467689244,-12.1403029533,-1.89187710564,-5.52766941265,1.48537042254,-3.49975503362,-0.0202934039441,-4.55633693544,-2.28628508213,74.704162766
off_to_on,-6.1074885128,-8.81444734922,-7.96368749654,1.50109242825,-2.08370939735,-13.2340513016,-0.254666096583,-6.46990055402,0.873062220323,-5.37064802348,-1.30112448766,-6.9932521106,-5.8599503388,32.047022969
off_to_on,-5.79523916665,-10.6883136971,-9.07938757528,0.733534204135,-1.70541537303,-11.7424424343,-0.119480021151,-7.19730530535,0.166391199682,-7.13045994588,-2.5482400416,-8.82202431414,-8.73679143217,-22.8527907232
off_to_on,-5.11738987386,-10.9404423838,-9.0104032461,-0.249252488619,-1.34118066669,-8.05195380517,-1.2524830033,-7.32171017293,-0.609475514264,-8.24849820563,-3.53797905352,-9.44085914083,-10.1312677049,-76.3196877832
off_to_on,-3.97102189335,-9.14764074485,-7.49102879095,-1.34251578457,-0.949256750235,-2.96027764114,-2.76157514308,-6.3484836994,-1.40013336057,-8.10223381544,-4.02670646952,-8.34813121582,-9.50298703402,-113.810668488
off_to_on,-2.21609934349,-5.31935062204,-4.49306578648,-2.36863297404,-0.44270028298,2.47520627046,-3.51720612279,-3.95399153204,-2.10536739561,-6.26776552462,-3.82933774569,-5.39779398648,-6.78534495721,-124.137001588
off_to_on,0.145889629271,-0.0416784942211,-0.374410155983,-3.1045699111,0.231056329258,7.1420439068,-2.66800828935,-0.232912195589,-2.58692616133,-2.77632020595,-2.8965169019,-0.968120006005,-2.48254147702,-102.997477497
off_to_on,2.84510678454,5.5727501489,4.10045936423,-3.33840209566,1.02882672163,10.1004804917,-0.042759494222,4.20138444224,-2.70227249627,1.78007135804,-1.3586040317,4.04387311293,2.41882960549,-54.660505848
off_to_on,5.34185939676,10.1458091916,7.90866610975,-2.93846397654,1.79905063132,10.7910306088,3.7229466487,8.32471064811,-2.35403655016,6.35513698485,0.485494068242,8.42740338303,6.71110508426,8.84367925644
off_to_on,6.96828832249,12.4372287856,10.0557527906,-1.91080660516,2.3262676394,9.1710426749,7.38833449153,10.9966340406,-1.53661950431,9.7457825741,2.23723498559,11.0094916752,9.32113361037,70.8963279298
off_to_on,7.16583568512,11.7564480345,9.90680976059,-0.421668000137,2.41530186967,5.73569059692,9.56232566386,11.342518496,-0.360306069427,10.9812015991,3.50600872551,11.037322489,9.64123480327,114.946112894
off_to_on,5.72383992907,8.23149051402,7.43727743025,1.22811004732,1.97937386522,1.40243829978,9.23819462735,9.08236512236,0.959919772629,9.66270490493,4.02068346561,8.45339037359,7.71907258044,129.263357305
off_to_on,2.91590742022,2.8235863442,3.29729844195,2.67365992185,1.09301350243,-2.724505393,6.20300995819,4.67795729781,2.1513037699,6.12491847835,3.7071952225,3.95498964374,4.23593100269,110.338662924
off_to_on,-0.534552922561,-2.93786856897,-1.35356665528,3.58235406253,-0.0160807881965,-5.65285059092,1.16362757932,-0.767675316043,2.95320435531,1.35094683431,2.70500988023,-1.19768685176,0.276622812909,63.8694389849
off_to_on,-3.66292844799,-7.42442947232,-5.19966254125,3.74617796317,-1.03746761928,-6.77887251632,-4.46239013128,-5.83448691218,3.18809757772,-3.33630844113,1.3164023786,-5.57039658404,-3.03101676755,3.02165486876
off_to_on,-5.57917554411,-9.42780443247,-7.19474394013,3.14042044219,-1.68590126264,-6.05401644149,-9.01696528677,-9.22578989284,2.81057044682,-6.70101803945,-0.0937324153329,-8.01196751744,-4.88129938472,-55.4941460734
off_to_on,-5.77691351269,-8.5499369623,-6.90972251693,1.92920930587,-1.80531346821,-3.98130275337,-11.161816036,-10.1720067706,1.91822894462,-7.98843579394,-1.2122583706,-8.02133113806,-5.0322860851,-96.3116893859
off_to_on,-4.31813420453,-5.32429568637,-4.67396906797,0.415825370187,-1.42706549997,-1.4340127794,-10.3256034151,-8.65589565656,0.721318019087,-7.14552640996,-1.86637848772,-5.89371650801,-3.84014998933,-109.753286977
off_to_on,-1.81807867271,-1.02053397215,-1.45233335799,-1.04591525583,-0.757383365643,0.649991767573,-6.87835499892,-5.38091333946,-0.518212856301,-4.79084498871,-2.05645071736,-2.59171690374,-2.07830108691,-94.3183189462
off_to_on,0.771863974735,2.80351291259,1.50456577294,-2.15018951937,-0.0963241420239,1.59765779347,-1.97589270095,-1.4973000829,-1.55758453339,-1.94877047749,-1.92415446161,0.614732825939,-0.612252897424,-56.6202794361
off_to_on,2.50863356445,4.84730548523,3.1145619088,-2.71604982145,0.281894126059,1.23844187163,2.86134641325,1.81183976998,-2.23110535096,0.349690268695,-1.6713838187,2.6111014184,-0.0541002834675,-8.90254813238
off_to_on,2.8041482572,4.51851129268,2.8587461894,-2.71960741299,0.24081704464,-0.0388117450857,6.27545271599,3.73249059674,-2.47817341914,1.44843452845,-1.4635428659,2.83651376653,-0.527357416591,34.9763844052
off_to_on,1.64458595011,2.12916571471,0.971012526779,-2.2747966152,-0.159138346194,-1.43811198206,7.51068449179,4.06459430955,-2.33609299631,1.28700847252,-1.35630965528,1.47216929793,-1.63090988215,63.7511482671
off_to_on,-0.402575884413,-1.23319558514,-1.65089532058,-1.57409907269,-0.680242127172,-2.07063318712,6.61102654714,3.22544898706,-1.90528125286,0.379453395355,-1.27531659655,-0.649809492396,-2.61538434136,71.8205211881
off_to_on,-2.40089968239,-4.11375613362,-3.78477198033,-0.81383409317,-1.00137975888,-1.3212878487,4.31640348434,2.01895667225,-1.30356407451,-0.437063224045,-1.05714113928,-2.38449826836,-2.70439149751,60.2926535963
off_to_on,-3.40179617882,-5.23205894739,-4.35274160045,-0.132251768923,-0.852430374815,0.868190939243,1.7128660872,1.266213464,-0.628359862881,-0.383580250393,-0.535459581854,-2.73490519748,-1.43711908863,35.829696178
off_to_on,-2.81532272935,-3.96284125889,-2.8483258225,0.418349376838,-0.137631604829,3.9125368415,-0.217711756331,1.44445267338,0.0598367821108,0.90037027994,0.36245696601,-1.26373527156,1.10120221249,7.85149179215
off_to_on,-0.656609102516,-0.583028190516,0.437396084902,0.858937015553,1.00179641408,6.73937147436,-0.970529294745,2.47690693804,0.729650088937,3.16198954569,1.54928430232,1.70008219351,4.25427089428,-14.8365053627
off_to_on,2.4270787586,3.80504971016,4.47924275146,1.24045563123,2.21449384676,8.14818850144,-0.671858058418,3.75747584313,1.35467576221,5.58857629084,2.77165391701,5.14325429561,6.99271405012,-26.8112570005
off_to_on,5.36449268289,7.64900203895,7.85575448617,1.59180309947,3.05110480511,7.25386467044,0.0375620915989,4.40324925125,1.88805280007,7.0973318123,3.6730052944,7.7166025179,8.26928950899,-27.3129930802
off_to_on,7.03358947488,9.4891099055,9.24623079008,1.88369824761,3.12485319417,3.85805392722,0.33365394956,3.63908279055,2.25112486499,6.75828654504,3.9075018495,8.22956902831,7.40520471739,-19.7403058538
off_to_on,6.66815149314,8.47813779056,7.91225576649,2.02573294683,2.26348277674,-1.39190577825,-0.385558474167,1.16500229564,2.34503543027,4.1925567575,3.26664121688,6.11352782372,4.36676910117,-9.71378129932
off_to_on,4.15201583637,4.69621397265,3.99154549449,1.89950022296,0.59572918621,-7.1291728742,-2.18890175288,-2.64044590257,2.08347719382,-0.208287064126,1.77295591195,1.68332596489,-0.171827124486,-2.54901530979
off_to_on,0.0933878205753,-0.849146128011,-1.50397405898,1.41499439632,-1.46331715278,-11.6542563351,-4.5264743069,-6.76999637289,1.43452082104,-5.3347878202,-0.295651960003,-3.90520076461,-5.00902414152,-1.13420710093
off_to_on,-4.35121937364,-6.53808502446,-6.99110244249,0.566774697203,-3.328644946,-13.4654708582,-6.41172500532,-9.88729409613,0.453815856317,-9.68007391683,-2.46474760004,-8.99783711859,-8.78307739932,-4.98964534897
off_to_on,-7.84574967263,-10.6603646669,-10.8194851302,-0.534985552484,-4.42788646421,-11.7606603196,-6.80740745744,-10.7796026333,-0.70701093978,-11.8262314867,-4.1908127528,-11.9743593471,-10.4029837118,-10.7924807558
off_to_on,-9.31069455453,-11.9667892898,-11.8069196435,-1.67476776313,-4.38966077542,-6.74054072743,-5.06907253429,-8.80655389329,-1.82458638451,-10.9312768199,-5.01859623684,-11.7913286859,-9.39727441548,-14.07351387
off_to_on,-8.27769961331,-10.0655536421,-9.6250088046,-2.58399808732,-3.17337013703,0.394920809447,-1.27215964304,-4.18301627953,-2.65640287072,-7.04602818823,-4.71824877099,-8.34905599717,-6.06310454103,-11.3505058818
off_to_on,-5.04253451434,-5.53499637864,-4.90603422752,-3.01965195586,-1.09459678565,7.7663195515,3.7130255321,2.01291796088,-3.00639993253,-1.14518235165,-3.35758134389,-2.55431899856,-1.36707715086,-1.81569911249
off_to_on,-0.566275320553,0.277678565672,0.9625901785,-2.84249073508,1.26504770727,13.356056576,8.44378308002,8.12328292325,-2.78222788984,5.14669624368,-1.28536732788,3.94705120304,3.36588960733,12.1091787378
off_to_on,3.83919116854,5.69684495912,6.28437738061,-2.06703467303,3.2357885287,15.6029986836,11.3607587903,12.401395286,-2.02472171361,10.0493957634,0.969641214604,9.28190613221,6.86859495862,25.5808250367
off_to_on,6.93293589358,9.24670206142,9.58929898005,-0.864565032226,4.26764521336,13.8647143957,11.3241843065,13.5545321468,-0.899101519861,12.1808971206,2.85211348565,11.9376458531,8.31308773086,33.1960371087
off_to_on,7.93189397441,10.0929998179,10.0814545893,0.483270557994,4.10049253964,8.60453081895,8.04267394863,11.161373561,0.349679236197,10.9890534784,3.93754700438,11.2329087358,7.53448767111,31.1810866864
off_to_on,6.73615618191,8.25986115617,7.85557170432,1.66531141586,2.84078135568,1.24935136482,2.23806405798,5.82615033463,1.46294430753,6.91961093974,4.04478314627,7.51789074493,5.03141063182,19.0457683031
off_to_on,3.92367707271,4.56335544322,3.81996900951,2.42923997976,0.920532794891,-6.2318553077,-4.52281428033,-0.98398393276,2.2343529373,1.26659198112,3.27020126133,2.04201095185,1.75480500667,0.0330058863418
off_to_on,0.524604256578,0.298684123008,-0.637446369625,2.64822805225,-1.04685263884,-11.8942410572,-10.2855528623,-7.36988014326,2.55554615407,-4.24426847361,1.9361607661,-3.46304129172,-1.23300106881,-19.8536751236
off_to_on,-2.34153113048,-3.2041655089,-4.12052326819,2.34490484733,-2.4657652761,-14.3544919681,-13.3115054717,-11.5655355882,2.42894807724,-8.00181179747,0.473980151676,-7.34437702886,-3.10840410404,-33.9230119912
off_to_on,-3.83997106442,-5.00537458321,-5.67383582165,1.66723929087,-2.94705039632,-13.1433921886,-12.6321099337,-12.4616662321,1.94731994061,-9.00822255852,-0.717975176521,-8.54834339902,-3.52918476442,-37.2220151519
off_to_on,-3.68141526885,-4.82505313147,-5.06385056633,0.827935746224,-2.42520008205,-8.78211732894,-8.3726916913,-9.92664558464,1.25110565621,-7.17163675447,-1.39412458993,-6.93297919951,-2.69634697039,-28.4165960523
off_to_on,-2.18679416794,-3.08012711998,-2.80825784505,0.0310896393852,-1.16748176163,-2.57901310274,-1.73785441982,-4.82883534915,0.481228754123,-3.30358480944,-1.52162129447,-3.27680780225,-1.22717090976,-10.4098070552
off_to_on,-0.141692272035,-0.690162808066,0.0445709036911,-0.587213476213,0.325784419077,3.77429299959,5.34066932337,1.24209452689,-0.25545034487,1.17117130874,-1.26387904784,1.01084508058,0.104477725895,10.5687740709
off_to_on,1.5038574775,1.27212757247,2.30278748858,-0.984726440026,1.49527690428,8.67763256733,10.7850171121,6.46522041641,-0.897782955262,4.69331332027,-0.897165158937,4.37648114048,0.663530175368,27.1124758953
off_to_on,1.98515961513,1.96463042466,3.05129256767,-1.19969580374,1.91310934308,11.0307758988,13.0003658897,9.33795183739,-1.41928830916,6.07965567531,-0.691882968566,5.64367600838,0.182005044224,33.2759648589
off_to_on,1.0037276984,1.06819389271,1.96624713509,-1.30815446896,1.42738321963,10.4720854329,11.3576988392,9.118818098,-1.80419466643,4.90306691305,-0.80126678903,4.39965971199,-1.15360848653,26.7584272217
off_to_on,-1.15404618488,-1.10336663239,-0.575555009095,-1.37248817172,0.21423157116,7.40275395601,6.38277131333,6.03294017911,-2.02521439504,1.62377745703,-1.19690382146,1.12515867213,-2.77825143114,9.83157107796
off_to_on,-3.69944698523,-3.70610291261,-3.62306665493,-1.40411191336,-1.27912117067,2.81522130416,-0.40428556456,1.18323544745,-2.03601753175,-2.56552436003,-1.67413311804,-2.97009587338,-3.95468644095,-11.3527568585
off_to_on,-5.59905108184,-5.64566118724,-5.96848605808,-1.35607647545,-2.48191655962,-2.00735267121,-6.94744382521,-3.80134197821,-1.78397478222,-6.12888746161,-1.92645653618,-6.34990555904,-4.03700977944,-28.8682041171
off_to_on,-5.92563234509,-5.94539637823,-6.55295409824,-1.14822092106,-2.89106557949,-5.83130118668,-11.2712157944,-7.27243837899,-1.23881212727,-7.68745432665,-1.66443928505,-7.66212752075,-2.70374222796,-35.8183360474
off_to_on,-4.19112615696,-4.08971262187,-4.83275404658,-0.71349472444,-2.24531244769,-7.76742189896,-12.0701377733,-8.07203418864,-0.424559739543,-6.47564778333,-0.738794038677,-6.1954095162,-0.0872673936906,-28.8634854923
off_to_on,-0.555067279616,-0.237801354727,-0.992479628084,-0.0449146687643,-0.626721775036,-7.45941318422,-9.09735467229,-5.89422263632,0.560876235413,-2.61278916305,0.775495920335,-2.13885930796,3.23802813571,-9.57157303426
off_to_on,4.16159417333,4.7598315644,4.06148399365,0.778071378409,1.54417735873,-5.13642395574,-3.23985528505,-1.39172704433,1.55059965061,2.89417702826,2.56603548327,3.43721415715,6.40266697491,15.9124335181
off_to_on,8.67026422274,9.55464578579,8.9291668065,1.59703538285,3.62113488207,-1.53093437138,3.73960273037,4.00642507994,2.34116109698,8.42141916206,4.15108821381,8.87662865547,8.4794017078,38.8099777696
off_to_on,11.567747032,12.6575680758,12.1051719,2.21557522678,4.92163452468,2.31293234725,9.71771066189,8.5166233786,2.7447132189,12.1968515542,5.01321268567,12.4233319939,8.74359880441,50.6396261511
off_to_on,11.7519151548,12.8683129578,12.4193744732,2.46004405995,4.93809581267,5.29913628892,12.8340940202,10.5427159589,2.64450388197,12.833036667,4.76076293727,12.7560860987,6.88648159536,46.1599767792
off_to_on,8.78129744624,9.66012361182,9.40656388211,2.23790961708,3.50786446563,6.55542856649,12.0443383645,9.18204112277,2.03462423567,9.77038287374,3.26821072673,9.41464189807,3.12609156036,25.3278657076
off_to_on,3.07036323372,3.40868112939,3.49820858927,1.57198572553,0.889209466392,5.66751926368,7.44395406313,4.54481025831,1.02932290543,3.49918847762,0.749473902034,2.98986041631,-1.81226396167,-6.41133595118
off_to_on,-4.14676769143,-4.61174073322,-4.0253610201,0.597590415775,-2.28377255271,2.81553602597,0.268420933615,-2.21563747704,-0.162791399363,-4.5117283561,-2.264140649,-4.9841676629,-6.8431066952,-39.6404393351
off_to_on,-11.0900113538,-12.4848163758,-11.32182455,-0.476492861407,-5.16021269798,-1.23135688169,-7.43577839659,-9.18520258278,-1.29236399472,-12.1718793391,-5.0427377127,-12.414711571,-10.7637315451,-63.8400840764
off_to_on,-15.8838519485,-18.1141187706,-16.4481064184,-1.42897387303,-6.9049752959,-5.28035051316,-13.3824675196,-14.2180337535,-2.1339265556,-17.323399084,-6.84570355033,-17.2121707663,-12.5399477677,-70.7106647621
off_to_on,-17.0704883237,-19.7820873146,-17.8811258089,-2.08691848661,-6.94097875473,-8.01971390836,-15.7034195348,-15.5705493128,-2.54122025131,-18.3461100481,-7.12847787297,-17.8773807234,-11.5705761381,-56.8909306562
off_to_on,-14.0457752855,-16.6596724332,-14.9603906725,-2.36539599436,-5.13171591865,-8.39807344661,-13.5082212178,-12.4592202521,-2.47657167528,-14.6459326177,-5.70914139567,-13.9511134752,-7.86771599893,-25.2019423958
off_to_on,-7.28972658234,-9.11887946928,-8.12686533012,-2.27384963144,-1.84797334257,-5.97776819704,-7.18390858392,-5.3711504864,-2.00711512452,-6.88354243256,-2.84378671728,-6.19508578116,-2.10355202258,15.9942727628
off_to_on,1.68814705446,1.25929651087,1.1209057432,-1.89062709102,2.10690468973,-1.14995458407,1.660798138,3.98241927391,-1.27222573386,3.13471938268,0.816753477477,3.5567711973,4.49980412405,55.1450783297
off_to_on,10.6934997614,12.013184641,10.56084034,-1.31955940522,5.69949728552,4.87792734522,10.6053202979,13.0813947502,-0.435914454751,12.8912950281,4.38319694484,12.8492567026,10.4262865693,80.8636071989
off_to_on,17.4044344716,20.4028694415,17.7994579922,-0.648832862491,7.9451872639,10.3536924648,17.07914066,19.2833331205,0.358242284257,19.8126426117,6.95827562393,19.2467354051,14.2190483012,85.284243682
off_to_on,19.9976226764,24.138768448,20.9039957016,0.0699117840038,8.1871588446,13.4624073584,19.0969503592,20.5950203547,1.01496939355,21.9724567103,7.87900424256,20.9940929822,14.850908375,66.4174449863
off_to_on,17.6697155077,22.0375596891,18.9438419317,0.814324186461,6.29505940659,12.892880164,15.8581822189,16.3037023283,1.49146445832,18.6469036365,6.90210255871,17.5152051378,12.0169733978,28.8119803586
off_to_on,10.8993924365,14.4105710045,12.2843105846,1.56153672897,2.72202790665,8.31592042557,8.03067640667,7.26882581028,1.7813914953,10.5576289185,4.27765622346,9.60406214473,6.26313008998,-17.660298487
off_to_on,1.36136446307,3.05317250293,2.53609314874,2.25273974787,-1.60288854173,0.607209653779,-2.37900654015,-4.23563887907,1.89002201682,-0.280438616026,0.686722524254,-0.755819887542,-1.10098439916,-60.5330847227
off_to_on,-8.49946988343,-9.18711423167,-7.84299271817,2.77322579072,-5.52263817455,-8.28870317703,-12.5498230661,-15.1086472427,1.81442100204,-11.0791868879,-2.9423589045,-10.9054175065,-8.30082735584,-88.1954609782
off_to_on,-16.124938725,-19.1612485077,-16.1963659244,2.96378275073,-7.97353235569,-15.8495981713,-19.6287672813,-22.2870585719,1.53906591278,-19.0296614895,-5.68817896348,-18.2229514872,-13.5424412846,-93.0830495871
off_to_on,-19.5492023674,-24.2832245869,-20.3910774484,2.66637574573,-8.28854181086,-19.6998986499,-21.5520344747,-23.641725913,1.04932969799,-22.0772717114,-6.8883495748,-20.8389920195,-15.4900698703,-73.7269726978
off_to_on,-17.9486195056,-23.2583412583,-19.4080452993,1.79130974398,-6.39274563253,-18.3565239759,-17.6634524029,-18.6349897846,0.356280758162,-19.4959121399,-6.31629723729,-18.1506216204,-13.6415442734,-35.1178152379
off_to_on,-11.8709023796,-16.4550193973,-13.6248946839,0.380904392783,-2.8302501107,-11.7581530506,-8.93920689233,-8.52954859893,-0.479923277411,-12.0894085759,-4.23124660316,-10.9840244451,-8.48675765343,12.6797970954
off_to_on,-3.07048001038,-5.80054884021,-4.70231164818,-1.35848480196,1.38928901079,-1.39117376794,2.26090114115,3.93254266892,-1.34147262016,-1.95527646721,-1.28763542497,-1.35408308704,-1.39167946774,57.2488346676
off_to_on,6.00521670721,5.77633664957,4.89797615749,-3.07633326494,5.08212683445,10.0562835045,12.8546796715,15.301323091,-2.06738287708,8.12405078519,1.66734614212,8.1127542208,5.76997125465,87.1178149687
off_to_on,12.9265018519,15.1928211123,12.6229417384,-4.35295106467,7.23446396217,19.4315474083,19.9225814752,22.4186796754,-2.49006963582,15.4834376833,3.84548818126,14.9251929439,11.1371246818,94.7458852064
off_to_on,15.9750027356,20.0936383477,16.5534053875,-4.81258052604,7.29590740803,24.0336515862,21.5541540031,23.346223189,-2.48360926598,18.3305202524,4.74144715727,17.4238660495,13.3826108019,78.4174110178
off_to_on,14.6102046286,19.498580494,15.9259928709,-4.24136253523,5.33321215869,22.4284425513,17.3993985094,17.9356626051,-2.00733041855,16.2271070802,4.26139673141,15.2224808335,12.0787601803,42.5796407756
off_to_on,9.57023085048,14.0207911345,11.2963657854,-2.67123765914,1.99741293051,14.9040332561,8.75516073116,7.86195947204,-1.12848486304,10.1538743616,2.72009719371,9.26511239665,7.79547223275,-3.42252129322
off_to_on,2.58405271312,5.59767964314,4.30157549381,-0.398489742218,-1.68481132098,3.41572957903,-1.84109561339,-3.89459609509,-0.0140998706891,2.1465314639,0.712445459819,1.48938096649,1.90090673508,-47.8439905241
off_to_on,-4.20431790332,-3.16762668991,-2.89328506919,2.07520354914,-4.6297077501,-8.97030677505,-11.3842429562,-13.9577480108,1.10751435568,-5.37314449274,-1.09447675182,-5.79310619355,-3.87143681055,-79.5919922772
off_to_on,-8.90898194063,-9.83303803913,-8.27968610739,4.16674875786,-6.02469547533,-18.9653493668,-17.2999276192,-19.5717690605,2.00455930734,-10.3525931618,-2.17847316306,-10.6012606834,-7.9511879047,-91.0333215424
off_to_on,-10.455190367,-12.8421456378,-10.5991413149,5.36640432095,-5.56362848299,-24.0028703821,-18.1883666875,-19.4066804641,2.50097667649,-11.7075120589,-2.31727942705,-11.8531716683,-9.38739460527,-79.8415165171
off_to_on,-8.84027125846,-11.9181552537,-9.65942906105,5.3777242543,-3.5171382211,-22.9481518842,-14.1847784521,-13.9027158455,2.5187115546,-9.57830363664,-1.63339279732,-9.62623604172,-8.09055929181,-49.4351135921
off_to_on,-5.03248543788,-8.01632349351,-6.28534921799,4.20026521248,-0.620061462168,-16.3605757752,-6.83332785374,-5.05473218428,2.09055737785,-5.17508645095,-0.519200465102,-5.0395371182,-4.79112931478,-7.93286033136
off_to_on,-0.561234462973,-2.87686254384,-1.94151742365,2.12966550119,2.18264495587,-6.24419224793,1.46995091767,4.28063367655,1.34130982392,-0.281464904051,0.525959048269,0.18633538244,-0.740412710709,34.0625975966
off_to_on,3.04584196803,1.64536659832,1.82549318669,-0.324940350182,4.04499278925,4.61245498487,8.27108312349,11.318837257,0.445575604989,3.39966535749,1.08581517701,4.33305471872,2.73511054684,66.243862549
off_to_on,4.77759751512,4.22878932014,3.92252984215,-2.58086240362,4.48173453431,13.4795458088,11.8224467377,14.212611542,-0.422245186797,4.82665076078,0.97576716367,6.2444800325,4.66970356442,81.1996684573
off_to_on,4.43038600548,4.48429154027,4.03667172981,-4.13682645129,3.49907771289,18.4384263117,11.569091518,12.5694667853,-1.12905230583,3.92709919759,0.298309094807,5.65790019279,4.73774644032,76.1623760599
off_to_on,2.58665726047,2.9784976551,2.65010746885,-4.69739958345,1.55691692751,18.816907697,8.21038565791,7.46615066367,-1.6033525592,1.53640303446,-0.611638929249,3.20671661063,3.29031491599,53.4726038477
off_to_on,0.308357649637,0.896182078225,0.75730614707,-4.23253388903,-0.616928446433,15.2018947654,3.33959205655,0.97818605141,-1.83178180171,-0.995701112043,-1.32803434079,0.111717429483,1.15185283868,19.6894613528
off_to_on,-1.32500954596,-0.510490889792,-0.592092727238,-2.9594787306,-2.2905198866,9.07265160252,-1.19137198214,-4.59412499058,-1.83808596216,-2.37395171598,-1.50682202637,-2.31403323798,-0.73481077861,-16.3540951357
off_to_on,-1.65155714946,-0.463561391155,-0.740414113737,-1.25877389052,-2.97562765692,2.22115260294,-3.94515772027,-7.52481740267,-1.6568242469,-1.88423230749,-1.02496548512,-3.16065936246,-1.67603072513,-45.9713599133
off_to_on,-0.669839361461,1.02043663104,0.31566039316,0.444767772553,-2.57478672231,-3.8188648619,-4.36952887724,-7.20978089967,-1.31464203524,0.320475625498,-0.0327433732255,-2.23790795166,-1.47001612076,-62.8288168669
off_to_on,0.998043638458,3.15336740176,1.94663801192,1.79724352479,-1.38141927792,-8.14108784485,-2.90649056604,-4.28397057145,-0.827133100357,3.28162927691,1.10067496905,-0.103984694896,-0.439525397791,-64.3434439779
off_to_on,2.40049806385,4.72772535357,3.1821762961,2.59336867871,0.0593406799339,-10.5375307323,-0.718275354057,-0.287685355575,-0.211268777618,5.61988158652,1.92821999633,2.19327678761,0.74764265788,-51.9381204852
off_to_on,2.68511387051,4.6547788662,3.15301716592,2.79871965966,1.17197684551,-11.2987652791,0.849736610912,2.97756603897,0.494427081103,6.09658277357,2.09949105011,3.55663377325,1.39084444126,-30.1771097324
off_to_on,1.48732312916,2.4710467184,1.50221661345,2.51852912289,1.56936595947,-10.8738198484,0.854179029275,4.15623964141,1.21402331409,4.13731183407,1.50260180055,3.28933395909,1.07219763622,-5.13711421505
off_to_on,-0.880006348544,-1.39467605496,-1.40513299689,1.93223177915,1.18818687301,-9.56268908657,-0.84173535224,2.84625256019,1.83357406288,0.114089035921,0.318331659332,1.38204687348,-0.152827950576,17.4225760604
off_to_on,-3.5175250694,-5.71091775408,-4.56758816238,1.22163892963,0.293504557409,-7.38302944744,-3.500985172,-0.275843024778,2.22055107219,-4.72955707973,-1.03632340888,-1.47247024444,-1.76746097257,33.5092846377
off_to_on,-5.28220668992,-8.86933368552,-6.70712088226,0.518542573281,-0.644824672309,-4.16310826698,-5.80912964628,-3.74965316756,2.25942845812,-8.69436462631,-2.05693740962,-4.14247835026,-3.00490082904,41.5576459661
off_to_on,-5.25255363443,-9.49372722862,-6.77186488303,-0.113522280637,-1.15311617102,0.195899452344,-6.4203458978,-5.92702262608,1.89184843789,-10.2372550129,-2.3393895861,-5.49812628418,-3.17540247192,42.1963220012
off_to_on,-3.13436229648,-7.00252302854,-4.38885477957,-0.663810725491,-0.952943704008,5.42771832193,-4.54151013945,-5.64017933079,1.14632270581,-8.55756049673,-1.73721500921,-4.86213769101,-1.97785292112,37.3386452939
off_to_on,0.557799658349,-1.90425674694,-0.0847486668138,-1.13891558796,-0.0807540916728,10.7396775838,-0.324468890474,-2.68783454878,0.144762061118,-3.93910588011,-0.428722230128,-2.29736198638,0.332416504338,29.0439292017
off_to_on,4.62697042208,4.30070960181,4.82591008604,-1.52752402844,1.11871619184,14.8934612675,5.09477742425,2.04580095093,-0.919393680412,2.28642875833,1.13409390358,1.38182853593,2.99433074675,18.6480393563
off_to_on,7.59568307048,9.59471652048,8.662335962,-1.78329163541,2.12356199397,16.5376249126,9.94064525133,6.88715311923,-1.82676004647,8.15457933951,2.3798901378,4.88455818427,5.00101676111,6.51821251509
off_to_on,8.24385030393,12.1343016452,9.96757394497,-1.83420504236,2.44097563391,14.6891444339,12.4123532979,9.97840758825,-2.38798369218,11.7240266993,2.82222365089,6.90767318116,5.47711717503,-7.49764979505
off_to_on,6.08558426168,10.9133471787,8.05571022183,-1.61425054425,1.81006602726,9.18404456484,11.3492419259,9.9705368088,-2.49270697665,11.7460364908,2.24069614217,6.61975477206,4.03223930436,-23.1733725589
off_to_on,1.60293722195,6.15539635829,3.3118067636,-1.10284788554,0.322918391785,0.908591407081,6.70235383438,6.54939256072,-2.13618142426,8.11094162746,0.772541249719,3.9855999718,0.952847197064,-39.0270084882
off_to_on,-3.86170602729,-0.715095994802,-2.876789081,-0.353485328324,-1.58469465368,-8.31034665466,-0.368406813599,0.599397210334,-1.41567122759,1.91082781268,-1.12094628955,-0.191712341195,-2.84885002531,-51.9651419089
off_to_on,-8.53010880802,-7.52373714464,-8.54875766227,0.503187790378,-3.27336349005,-16.1571021923,-7.82076741225,-6.06015709794,-0.498933715134,-4.90861213781,-2.80444023792,-4.5317880624,-6.12170953764,-57.769032721
off_to_on,-10.788088929,-12.0686027383,-11.8171014729,1.28651706352,-4.12248686198,-20.4937987598,-13.3778024408,-11.2773148905,0.423849875119,-10.1898203722,-3.68447988295,-7.55095067705,-7.70242047355,-52.4032828184
off_to_on,-9.7515555119,-12.8639746775,-11.5147723074,1.81574430685,-3.75544240021,-20.0261185273,-15.2775452149,-13.297792306,1.18856364842,-12.2783300266,-3.41631472201,-8.1811076857,-6.93154231215,-33.7545064986
off_to_on,-5.59645100778,-9.64522657236,-7.610735135,1.96561715172,-2.18559665148,-14.7399754958,-12.865633498,-11.367487022,1.69109310777,-10.5653045136,-2.02894338482,-6.14802569189,-3.90779750215,-3.14794510923
off_to_on,0.469146129436,-3.45792093182,-1.24676142502,1.70757477762,0.170993649463,-5.95105237256,-6.82459885183,-5.99717738701,1.89812843615,-5.67338438596,0.0763197849896,-2.07374227975,0.515173602362,34.0397248559
off_to_on,6.58709479154,3.69918846139,5.62313921386,1.12097040059,2.62280569254,4.06143097891,1.04074540785,1.20061242681,1.83525984405,0.772864540884,2.25432663322,2.73312400456,4.9942864018,69.1151454154
off_to_on,10.8565717189,9.55055100904,10.869678247,0.369364722575,4.42667217258,12.7229771815,8.3882190225,8.04251733906,1.56088211591,6.70601571213,3.827804674,6.72378797896,8.13556091449,92.1500598368
off_to_on,11.9581308725,12.3021140195,12.8840117261,-0.350497305531,5.03067043414,17.9165917931,13.0924945608,12.486618217,1.1385681001,10.306345415,4.3095777915,8.63352122177,8.95431492771,94.9047231765
off_to_on,9.58025301855,11.2188598285,11.094892059,-0.869543799292,4.25233719685,18.5750612514,13.9119783683,13.2814270951,0.619377999126,10.5853705356,3.55939968674,7.89933993883,7.19762240704,73.7045310188
off_to_on,4.50458089979,6.82739268597,6.13382827997,-1.09608809392,2.33214904898,14.9260941593,10.8466059707,10.3355220173,0.0398078704601,7.6678173372,1.82298358666,4.82794033959,3.41883173466,31.2746923854
off_to_on,-1.67343508624,0.685412226963,-0.401100155052,-1.0375539216,-0.153217759329,8.32612786149,5.076346578,4.69470342013,-0.566691844749,2.68834949299,-0.357641684544,0.462352358869,-1.21791743021,-23.2255788474
off_to_on,-7.08481377109,-5.18666212938,-6.49279314567,-0.787563126893,-2.4843097937,0.760052656604,-1.48268071093,-1.84801820859,-1.15317766627,-2.64400412109,-2.32868050208,-3.79619846653,-5.33040043738,-76.1992361685
off_to_on,-10.1967437984,-9.00139245106,-10.3692068213,-0.484189669957,-4.029698127,-5.80665307651,-6.83783986151,-7.3604713386,-1.64868689107,-6.64775019395,-3.53840471005,-6.66995297891,-7.76829729265,-113.20750354
off_to_on,-10.2821464226,-9.78026726199,-11.0552677622,-0.255335585356,-4.4348088976,-9.99813414891,-9.56178212549,-10.382113357,-1.96221199257,-8.22119284771,-3.70663708525,-7.4172232462,-7.96480649857,-123.162984118
off_to_on,-7.5960555477,-7.61587686161,-8.63132011914,-0.171386999321,-3.70784987548,-11.3385474509,-9.20036189917,-10.3344310567,-2.00314364871,-7.15766860502,-2.89435644369,-6.03539550936,-6.07447150008,-101.836705755
off_to_on,-3.21451827626,-3.54693844814,-4.12617656966,-0.222149090736,-2.18106072671,-10.2261136182,-6.32324079603,-7.61001030967,-1.7123574104,-4.13017163379,-1.45498623742,-3.1954748738,-2.86194258298,-53.5246076395
off_to_on,1.38807169743,0.885181754292,0.896868819738,-0.325827429613,-0.37037520364,-7.62073106003,-2.22544084064,-3.33849194302,-1.09231797203,-0.374310719539,0.108817885368,0.0510122804205,0.603936008692,9.76148716235
off_to_on,4.85943396829,4.21901780052,4.89890367268,-0.365978583234,1.20942461526,-4.59422971055,1.59001811259,1.06091598947,-0.223279470662,2.79579974849,1.3269810343,2.67170517613,3.33019627273,71.4557115915
off_to_on,6.39900559544,5.57510352667,6.86587767417,-0.242216780439,2.20574252531,-1.9284977628,3.94959728039,4.36638325676,0.743385742705,4.4529483828,1.91583597129,4.00686874679,4.71428583777,115.07587734
off_to_on,5.9526516469,4.9006775691,6.58116604838,0.0843631726101,2.51150642376,0.0904367015505,4.37482212125,5.90867987531,1.61583912498,4.33719907221,1.85120920581,3.95049220677,4.6864205418,128.960203012
off_to_on,4.12317104552,2.88609933773,4.59353943413,0.567997559479,2.25022158853,1.62637396298,3.15987909149,5.6876018795,2.20868503198,2.86429043902,1.34042010101,2.90565291748,3.64388991684,109.654973769
off_to_on,1.85486392707,0.609335932934,1.9190830572,1.08615022609,1.68069202961,3.04697010397,1.15872909331,4.2398468447,2.39198748529,0.882064325616,0.711241201909,1.5501790569,2.22184002302,62.8985711887
off_to_on,0.0301789236512,-0.935440263321,-0.390300425252,1.47624259807,1.06817473844,4.60995914301,-0.613448655651,2.34049153025,2.12674622179,-0.711922013212,0.265825861643,0.519834136415,1.00415242231,1.88684439756
off_to_on,-0.860301722133,-1.23367824759,-1.63998031903,1.58883994074,0.57726792472,6.23476891638,-1.39821133737,0.672672576266,1.47528405099,-1.33346134451,0.158271915271,0.142406514964,0.294087533028,-56.646269805
off_to_on,-0.852784728788,-0.419079163637,-1.70294357626,1.33926757376,0.227896578956,7.46822508093,-0.969869643116,-0.403735505645,0.583254322727,-0.915211986098,0.342518071892,0.328579969186,0.0328369554157,-97.3171647727
off_to_on,-0.412684191572,0.839597689066,-0.983395369974,0.740274151408,-0.0739370550339,7.66320416836,0.325897764877,-0.907805256424,-0.360619575702,0.118565559232,0.607909556512,0.656764325555,-0.110936456771,-110.44310253
off_to_on,-0.161833058501,1.67358520592,-0.169543823245,-0.095137924837,-0.451719648353,6.29229678399,1.76782224476,-1.12039143091,-1.17383725844,1.08093817709,0.684686640129,0.607501284424,-0.529351644545,-94.541803847
off_to_on,-0.555538574065,1.42405642708,0.10827620821,-0.981657972668,-0.963705418974,3.25549322326,2.59462883008,-1.3681674271,-1.72290524968,1.3497117354,0.374395021442,-0.15853400957,-1.43998491205,-56.2789389613
off_to_on,-1.64964988142,-0.0460634227742,-0.432439210278,-1.7114393858,-1.54431071007,-0.961886147348,2.33626370191,-1.81780894318,-1.94727886957,0.653088976162,-0.348928584962,-1.60212690999,-2.7338698986,-7.98663033742
off_to_on,-3.05591857168,-2.26783605824,-1.60589249225,-2.11018118665,-2.01093870733,-5.36575787981,1.00637526742,-2.37577976452,-1.8594763193,-0.804490549098,-1.30879741137,-3.27624359591,-3.97764466606,36.3615978424
off_to_on,-4.10319905307,-4.34436591716,-2.84998898212,-2.08272510819,-2.13583978831,-8.75221455794,-0.915709411143,-2.73557287993,-1.52497928983,-2.42555653323,-2.18110861549,-4.48471348328,-4.5751624908,65.3830054329
off_to_on,-4.13557415937,-5.31858924867,-3.48488285352,-1.63546825818,-1.75290134208,-10.1218365667,-2.6967452311,-2.54496590432,-1.03213037836,-3.47419782898,-2.61376264129,-4.5685633471,-4.02555204766,73.3891445582
off_to_on,-2.82111433283,-4.58089600663,-3.02474288366,-0.870648909101,-0.852131056025,-9.04897977215,-3.66009983318,-1.61091654843,-0.464460003052,-3.39447525679,-2.36532215453,-3.20408329806,-2.17127531209,61.4622475314
off_to_on,-0.339463599043,-2.14977239838,-1.40988078205,0.0437906609994,0.382534357346,-5.85673967807,-3.46315626698,-0.0423467436107,0.114866448313,-2.05978577717,-1.40890315244,-0.587368249196,0.670935604018,36.3183710556
off_to_on,2.63529698433,1.29156172746,0.938661442438,0.918346541349,1.6143989875,-1.52085690481,-2.22760107597,1.74183428775,0.663128303508,0.150976092876,0.0398898099686,2.57851969276,3.76032202484,7.50833661479
off_to_on,5.15753288953,4.62305748006,3.26574545719,1.58682059772,2.46395826675,2.66833611253,-0.472619365988,3.15248263315,1.14649839081,2.48400467261,1.58376744883,5.30115079911,6.15720780591,-15.9806907394
off_to_on,6.35597528794,6.69585152703,4.77078437503,1.94008565819,2.64772941209,5.56000919751,1.11596636099,3.66423996535,1.52576458077,4.09758213794,2.77274360718,6.64670367401,7.04639790476,-28.5376162192
off_to_on,5.76849596728,6.76387076663,4.92120291953,1.94169886267,2.09155120296,6.53870226044,1.97979702518,3.0455060054,1.74910979384,4.3916146817,3.25511472632,6.08915911147,6.03990711372,-29.258508249
off_to_on,3.53304083817,4.77161044536,3.66352129593,1.62446867572,0.971129947224,5.70840245455,1.91949337139,1.48260584832,1.75814497125,3.24791172759,2.89591943198,3.72594492999,3.34279948024,-21.4826624898
off_to_on,0.35621632422,1.3852394266,1.44648552408,1.07247983676,-0.340646513432,3.79405768198,1.16535884875,-0.463206684544,1.50688159872,1.08415713603,1.82036765434,0.272085155145,-0.286309402746,-10.8748683483
off_to_on,-2.73313410916,-2.24708598424,-0.95326815496,0.396145434884,-1.40391520824,1.80241014149,0.257556020146,-2.05892560368,0.986671586107,-1.30193285569,0.367381014761,-3.17297062763,-3.77328324339,-2.8882364037
off_to_on,-4.75412630469,-4.91540995183,-2.73285598863,-0.291977247596,-1.87243064015,0.581577734453,-0.212867758077,-2.68780753298,0.24618561138,-3.03860214359,-1.02879461997,-5.50533025877,-6.08387069283,-0.605262162312
off_to_on,-5.12756322905,-5.78888103649,-3.37078212851,-0.895104966304,-1.62347834472,0.461397895722,0.109425551067,-2.10714187604,-0.603968838119,-3.51668192077,-1.98523535066,-6.00557517559,-6.57022683549,-3.74526152909
off_to_on,-3.87823417377,-4.70991487679,-2.81715763271,-1.34179228641,-0.805734585163,1.125657221,1.15550269154,-0.567134145052,-1.40738525426,-2.62450911027,-2.2924087029,-4.59277672994,-5.18389174823,-9.13722975135
off_to_on,-1.60860978921,-2.23113816539,-1.49085257326,-1.58823651609,0.216053412611,1.77373562957,2.42887582367,1.26605769786,-1.99649911445,-0.78816332562,-1.96929276472,-1.84823639516,-2.47866710835,-12.3801904654
off_to_on,0.745250317511,0.61599453203,-0.0863049258914,-1.61630827176,1.00115590207,1.50935053818,3.19870045928,2.56266842047,-2.236124724,1.19975518578,-1.23495402619,1.20135507595,0.596413924365,-9.96555106863
off_to_on,2.28070249366,2.72887458602,0.729861635536,-1.43048873732,1.20572198549,-0.203880553542,2.81745421472,2.66401385732,-2.06211978652,2.49643445393,-0.411147022661,3.46189198487,3.03715790189,-0.980724799418
off_to_on,2.47613564249,3.35866935274,0.607043647018,-1.05570442046,0.722097712059,-3.21568489033,1.03471989386,1.36837222396,-1.50216620812,2.54641919952,0.204718202634,4.17104141753,4.13259040872,12.2997126082
off_to_on,1.38462348097,2.38837372104,-0.336223699947,-0.536251630066,-0.270645032728,-6.64277180852,-1.82698041445,-0.950066417502,-0.671190666846,1.30748845841,0.447566909616,3.17057479689,3.69564904628,25.1785235299
off_to_on,-0.400976441753,0.358302351879,-1.55981363648,0.0655209426081,-1.3673740652,-9.1457301546,-4.9193302335,-3.44642848964,0.257701237028,-0.725137854126,0.334124021718,0.951243926491,2.09570476724,32.3607483744
off_to_on,-1.99701991698,-1.76762770211,-2.33404173535,0.67271500042,-2.08872641011,-9.43998480678,-7.13751056756,-5.10554436619,1.09777987711,-2.70778540474,0.0380920143625,-1.54508183686,0.0872417151221,30.1233134911
off_to_on,-2.59414152394,-3.00047320149,-2.06351438925,1.2010270703,-2.06822630067,-6.84853658073,-7.5211794488,-5.13006628401,1.69480073411,-3.77859150113,-0.195820948961,-3.29028275084,-1.49523531233,17.9697480649
off_to_on,-1.79473905898,-2.73158770348,-0.569857623481,1.5696732395,-1.20356682696,-1.67302635302,-5.63879984404,-3.26948717688,1.96073317811,-3.40126225695,-0.162899127332,-3.56373921762,-2.05781017654,-0.902991881558
off_to_on,0.210629361355,-0.984674567041,1.78676132843,1.71464519451,0.287361226723,4.78356176148,-1.80484404729,0.0404061634756,1.88600223938,-1.58810953045,0.210192605511,-2.22659161706,-1.46216747267,-20.5523449855
off_to_on,2.69930514742,1.58496075409,4.20556000609,1.60159981338,1.93033028572,10.5826376831,2.96416993757,3.79055111424,1.52888808071,1.08610165278,0.829448580906,0.22621760035,-0.056788605847,-34.3411369231
off_to_on,4.68621098665,3.94429055747,5.73364533098,1.23521241669,3.15814383835,13.7942921076,7.25380407873,6.73285108838,0.988459114025,3.68760627756,1.46646305731,2.85467019816,1.48216162624,-37.3520866988
off_to_on,5.30489564308,5.09063959939,5.63808764742,0.662273955983,3.51487138673,13.1945542422,9.71672704853,7.81917932873,0.372285696619,5.26855507244,1.84673562039,4.63089871871,2.43386586383,-28.2694143522
off_to_on,4.15335143915,4.45427973624,3.71671464873,-0.0329606938975,2.82553717901,8.75536725232,9.53543255801,6.58533007361,-0.229461537748,5.22250187452,1.75856358793,4.82947648099,2.32714181731,-10.0069912129
off_to_on,1.47006358921,2.13726897374,0.421247467885,-0.741006187182,1.26732209308,1.73060061892,6.71499929415,3.33617242136,-0.755944890068,3.51478072082,1.1402581225,3.30352677804,1.13097518769,11.1905714207
off_to_on,-1.93024158251,-1.10670615321,-3.26467801414,-1.34511418843,-0.68584638864,-5.7167631802,2.09632996463,-0.941079576399,-1.1726146848,0.699527832636,0.112244707901,0.543162625393,-0.731815992108,27.8911197605
off_to_on,-4.94016592266,-4.14643951323,-6.15649253718,-1.74179692848,-2.42651219681,-11.2319052875,-2.91973109033,-4.90906421692,-1.45855347823,-2.28343660951,-1.05798838043,-2.50472114909,-2.55134951936,34.1166865479
off_to_on,-6.55759296159,-5.89749308208,-7.29031877555,-1.86001496021,-3.42550186283,-13.0821280599,-6.84195282464,-7.34029146123,-1.59318540931,-4.45452064173,-2.04459263299,-4.78637040364,-3.61125836386,27.5385631108
off_to_on,-6.24892465591,-5.73395629365,-6.27822841632,-1.6751814652,-3.41458804037,-10.7739220171,-8.5855123495,-7.53886847227,-1.55079363823,-5.15131268651,-2.57236131699,-5.528527101,-3.4726462126,10.420312077
off_to_on,-4.14109300954,-3.72872461318,-3.46101411611,-1.21495694608,-2.47284614894,-5.2417640433,-7.81941226958,-5.57080122195,-1.30696357673,-4.26107669023,-2.50592431922,-4.51786840997,-2.15020121919,-11.0639816837
off_to_on,-0.970425495283,-0.628522464708,0.204000779026,-0.555302566842,-0.985475683232,1.47232635837,-5.04264887436,-2.21983830876,-0.854858884501,-2.24162872251,-1.88758827545,-2.16896908794,-0.111512551432,-28.9351542147
off_to_on,2.19163650333,2.42844518721,3.48348243536,0.192807745814,0.508282465252,6.94436900535,-1.36678323709,1.31289781622,-0.223818230519,0.0748050998022,-0.912452912399,0.642293489484,1.90056916996,-36.2253819169
off_to_on,4.33179682554,4.34521161001,5.31324491903,0.903611506988,1.51977998821,9.2433076157,1.91008344079,3.85262023952,0.509508173757,1.81649057029,0.146810840991,2.91445283446,3.15396001442,-29.5255699995
off_to_on,4.85861213336,4.48368037498,5.18281849,1.45968895051,1.79009375291,7.6382720105,3.77766199526,4.67257474902,1.22530138449,2.4142931156,1.03499538164,3.89674223749,3.21098710756,-10.3575294372
off_to_on,3.80035814233,2.90650843784,3.31472101698,1.773176195,1.37556025244,2.87571381759,3.86058999209,3.73776833244,1.78226567358,1.81708335482,1.59292182554,3.36333638147,2.0993766086,15.1430203798
off_to_on,1.76475143368,0.349030607939,0.569377218685,1.80057185955,0.607633785857,-3.08369586406,2.51283151902,1.68252315112,2.05212952166,0.496097170657,1.79167716513,1.68280575071,0.303300041472,38.1699769833
off_to_on,-0.320608554428,-2.07004521642,-1.89058880908,1.5481426561,-0.0564844325527,-7.78239265631,0.630304879744,-0.465731515284,1.95652240988,-0.763620972194,1.71351426553,-0.341552808324,-1.42379000461,50.1915007304
off_to_on,-1.5847020193,-3.29016463807,-3.05167188691,1.06725762925,-0.233420527237,-9.18303184316,-0.740879489929,-1.70838659464,1.49374923896,-1.20290220244,1.49197470526,-1.79775310843,-2.3541199627,45.9150108691
off_to_on,-1.56001627768,-2.73426609625,-2.44626089596,0.441501828383,0.215873993327,-6.45265907896,-0.846641995307,-1.48057551673,0.745545691044,-0.424908507473,1.23950753088,-2.03185446479,-2.07578616096,25.2660951602
off_to_on,-0.365530779454,-0.55376469232,-0.343266320572,-0.230626416073,1.11385755135,-0.323251353787,0.454415029014,0.116837517584,-0.139743252319,1.40698352691,0.994640249911,-0.914517123305,-0.666096849023,-6.31126723554
off_to_on,1.34527408423,2.40440232615,2.34311051078,-0.852881386269,2.02445183057,7.11326319366,2.61707058999,2.34846300307,-0.983244644512,3.59377647565,0.711368553205,1.09555746355,1.32094365384,-39.3773435851
off_to_on,2.65195088378,4.9021610271,4.39691454134,-1.34445735244,2.42321258387,13.1146939917,4.61331221081,4.12920842613,-1.62007693349,5.14713832867,0.294862177899,3.11764926191,3.05247752327,-63.3861935374
off_to_on,2.74760883492,5.77699002399,4.77128944732,-1.64726574686,1.91688826708,15.2586381988,5.33904424747,4.45661502925,-1.93873764309,5.17059059322,-0.332576541604,4.18443871332,3.72946690425,-70.0328765525
off_to_on,1.28563455808,4.39906820066,3.01178805704,-1.72775053378,0.427956899363,12.3308782086,4.07066992369,2.82755812994,-1.90377803999,3.2341268028,-1.16495983553,3.62274733084,2.8994735253,-55.9905477699
off_to_on,-1.44282538297,0.947722383497,-0.528088915078,-1.5755938806,-1.7303543607,4.81423758324,0.797366352878,-0.520075827899,-1.5561162069,-0.401541918122,-2.07663595167,1.33753800437,0.652832519765,-24.155419171
off_to_on,-4.57340938208,-3.60000661487,-4.76522125839,-1.20229399179,-3.92455656996,-5.20210603643,-3.70146711167,-4.63692311379,-0.992973258709,-4.80340184769,-2.83674567421,-2.10849578992,-2.37345182932,17.0153895165
off_to_on,-6.95753055713,-7.77212611777,-8.23855904937,-0.641650718006,-5.39956236887,-14.6703011591,-8.0717529614,-8.1598759177,-0.335928008442,-8.63271668698,-3.17416720486,-5.65365355668,-5.19078104783,55.8919990347
off_to_on,-7.57395064678,-10.0937769953,-9.61363012889,0.0479567649066,-5.5396019592,-20.5710256602,-10.8243922811,-9.77643110862,0.3013468398,-10.5749295521,-2.87237015315,-8.08227094182,-6.78800703173,81.0697570604
off_to_on,-5.91422073692,-9.59784406953,-8.16240680553,0.782016166099,-4.09971217571,-20.9046933145,-10.8475851802,-8.69226908209,0.835424266329,-9.78716104558,-1.86019375206,-8.43731200163,-6.48101306744,84.7529924781
off_to_on,-2.20101741167,-6.17577116305,-4.04792860834,1.45302456521,-1.32315135734,-15.3511795101,-7.81217848759,-4.93598051566,1.22024930541,-6.20832939563,-0.263714133217,-6.35781218924,-4.16145118306,65.1101570323
off_to_on,2.64242285309,-0.646075664991,1.68900590009,1.94187660427,2.10203707497,-5.37932745056,-2.32643329643,0.608235279271,1.44023436305,-0.62258010965,1.60335641354,-2.22515385358,-0.358159028033,26.9026204853
off_to_on,7.2650213846,5.48360635002,7.43960993971,2.1385153154,5.23860874742,6.22195369945,4.21665330258,6.45374287406,1.49587815436,5.54930477188,3.31227123179,2.93115283435,3.91050087121,-19.7912747602
off_to_on,10.3105325368,10.4799031658,11.5290667947,1.96890336415,7.18578831281,16.2231670363,10.0503991873,10.9653002954,1.39065961617,10.6636590821,4.43427156105,7.73536971786,7.44395579114,-62.3749445669
off_to_on,10.8463796557,12.9166060064,12.7414284423,1.42143211166,7.36080479957,21.9436860998,13.5674032758,12.8608521929,1.12624730829,13.3380771956,4.6622814735,10.8739019583,9.22432540906,-89.2390142815
off_to_on,8.65486808123,12.101960201,10.6932635832,0.563680632073,5.68261802944,22.0255263261,13.799371213,11.595743982,0.708320992119,12.8506394346,3.90073222059,11.4774458792,8.72039588031,-92.9719095973
off_to_on,4.29326363696,8.26640298385,5.9371698932,-0.458718840328,2.59720650778,16.7532327332,10.6910004249,7.50840311712,0.159624966063,9.33140176883,2.29540709493,9.35874311844,6.03618191342,-72.3808197008
off_to_on,-1.08966586083,2.46157578734,-0.229406314781,-1.44514722974,-1.06245247341,7.84640549982,5.08839435592,1.69077251905,-0.467277715559,3.69565673761,0.194941298709,5.04077769386,1.86407528209,-32.7844412551
off_to_on,-6.11091282098,-3.78158296938,-6.17561187894,-2.18243775286,-4.33313612859,-2.16801095472,-1.54066993537,-4.36051991403,-1.08588593929,-2.64602140289,-1.94246953267,-0.418819315121,-2.73262380171,15.4673015773
off_to_on,-9.56036697948,-8.91276328945,-10.4254901243,-2.49719338424,-6.40853987341,-10.7643709172,-7.55137015351,-9.18788073081,-1.58563262636,-8.19722760063,-3.66714409719,-5.73800417927,-6.63046620665,59.8040943364
off_to_on,-10.7252705335,-11.7885709487,-12.0633131132,-2.30370481957,-6.86326000342,-16.1286729288,-11.5820675974,-11.7653274392,-1.85546696771,-11.7714874236,-4.64512936546,-9.75111540643,-8.9492312718,88.7872142708
off_to_on,-9.53676847801,-11.9377275448,-10.9350009881,-1.63259343167,-5.74495328857,-17.5519761605,-12.8880046187,-11.723448254,-1.81481769887,-12.7581900701,-4.72532351919,-11.6788906623,-9.25871358931,95.0939020978
off_to_on,-6.51050138544,-9.60240800886,-7.60189561937,-0.629647791549,-3.51349667267,-15.4206744677,-11.4604829467,-9.35692489806,-1.44162876241,-11.1964938881,-3.95262399499,-11.2618500605,-7.63911713457,77.3540867266
off_to_on,-2.52431976854,-5.57222164551,-3.08904362473,0.477336635765,-0.858550820679,-10.8683197413,-7.92224585624,-5.44205774937,-0.7869666282,-7.66386771346,-2.53142417401,-8.74334128589,-4.59660735042,40.3893717189
off_to_on,1.47429365094,-0.892281189718,1.46613198448,1.43603988851,1.53403679245,-5.26612942752,-3.26354434717,-0.95120826447,0.0304413975252,-3.04420236768,-0.758245121024,-4.7370242175,-0.880177998102,-6.16142582441
off_to_on,4.72652723988,3.44390678471,5.13809176349,2.03560183654,3.18426021983,0.235740325039,1.47329601443,3.2269314176,0.849782855298,1.73137027666,1.0516544618,-0.0417284305143,2.73061741796,-50.4251462152
off_to_on,6.80819977345,6.71884036918,7.40952731898,2.16177081366,3.92326272094,4.95385135484,5.45247962953,6.47208921162,1.50696840323,5.88638174055,2.6223187145,4.53262555582,5.60075025437,-81.3812496848
off_to_on,7.6369113528,8.5802835052,8.19782144266,1.82449191783,3.8764770303,8.650435839,8.17621085242,8.4828560024,1.87510753412,8.89683636286,3.74884949147,8.28673118307,7.33640390179,-91.6420065115
off_to_on,7.36893383944,9.00042770431,7.73681966693,1.14941593279,3.34552841229,11.3121592742,9.47709267126,9.21128667577,1.89439897972,10.4871337989,4.3043638402,10.6926464325,7.79688316909,-79.2205410754
off_to_on,6.25156351046,8.15643646628,6.38872398683,0.336094434837,2.64558858488,12.8772485216,9.41398507768,8.74257034585,1.58275320387,10.5660487271,4.23280556011,11.4127136741,7.04566141595,-47.8642549222
off_to_on,4.5032977259,6.30282156289,4.47579352285,-0.403715715283,1.967269244,13.0713509202,8.14374476883,7.19235743767,1.02496641372,9.1601289571,3.54075187121,10.3070200233,5.27947477691,-5.91373637258
off_to_on,2.27048189319,3.69347454929,2.19914035526,-0.907827261537,1.31754450764,11.451685174,5.83717014286,4.67325650543,0.345300597177,6.38903608634,2.29685735991,7.45153851361,2.77057871704,35.9708743073
off_to_on,-0.332829840444,0.575766860861,-0.335626525823,-1.10583250488,0.559126283714,7.65322653428,2.67416649149,1.33962730231,-0.326657808486,2.49430999432,0.638821673536,3.16748181548,-0.160872948488,67.5909124638
off_to_on,-3.13649525687,-2.76183124099,-3.01764441988,-1.02889202741,-0.473794920508,1.7258193231,-1.09312677777,-2.52433489872,-0.885719527036,-2.10407739678,-1.22075563469,-1.960501717,-3.15005993325,81.7592554428
off_to_on,-5.83566087938,-5.9355329288,-5.62066433137,-0.785404726344,-1.837370847,-5.60718410158,-5.05906357076,-6.43467853901,-1.26800925394,-6.77293437624,-3.00227518242,-7.11132734499,-5.78853514389,75.9646600402
off_to_on,-7.97661095201,-8.45644200921,-7.75254348643,-0.512557437334,-3.38140070644,-12.9231934235,-8.62907238461,-9.71473994523,-1.45222202494,-10.7018510218,-4.39066718217,-11.3267405355,-7.64828276994,52.7511532549
off_to_on,-9.03328273372,-9.79520830577,-8.90566327188,-0.321893816633,-4.74243770576,-18.3768984489,-11.0777867156,-11.6071696969,-1.44841174703,-13.0333047418,-5.09161356623,-13.685360513,-8.3426558803,18.7701092938
off_to_on,-8.55946744952,-9.51483632756,-8.60323497806,-0.258737042034,-5.43975130493,-20.2252475116,-11.7082403246,-11.4727254443,-1.28171445333,-13.0693116057,-4.90210714352,-13.5210497374,-7.61777193608,-17.1776531987
off_to_on,-6.36507839671,-7.42966853057,-6.59100231843,-0.289916969225,-5.04562319625,-17.4346856651,-10.0720484276,-9.01501382767,-0.979243235322,-10.4977011262,-3.77572493111,-10.6274710763,-5.44796955161,-46.5297041404
off_to_on,-2.64787207183,-3.72891360712,-2.99804479839,-0.32368532146,-3.36931767273,-10.1491230263,-6.17515986835,-4.44917264317,-0.565715284004,-5.55991241438,-1.86004395324,-5.38086066346,-2.09836390327,-63.1071040973
off_to_on,1.97820768645,0.991887334762,1.60511772006,-0.253734301096,-0.58372215758,0.175486797759,-0.585837235653,1.45782426822,-0.0684686656414,0.910703158623,0.511118644894,1.27263713246,1.87837827969,-64.4461366098
off_to_on,6.58371903955,5.81974732668,6.28951341562,-0.0101948392668,2.76045701788,11.0595528437,5.61423003045,7.50942513074,0.472443601778,7.61624165032,2.87570345029,7.98298881283,5.72584770933,-52.0099900088
off_to_on,10.1348496661,9.72072463064,9.98045463439,0.402302241531,5.85101236832,19.6547529665,11.0457787301,12.3452252632,0.996285187079,13.0718628861,4.74134735723,13.2874219378,8.63721703571,-30.3179658612
off_to_on,11.7573273115,11.792881408,11.7412422616,0.894879745938,7.83370363535,23.5740072384,14.3679872295,14.7816011252,1.42254605135,15.9674922614,5.69969134648,15.9573214016,9.94258790562,-5.34770118776
off_to_on,10.9755752888,11.5029467862,11.0414037162,1.31805901142,8.06961274225,21.6315733245,14.6430829334,14.1305591068,1.66382458426,15.5151623526,5.52689590591,15.309487937,9.28064217559,17.2411655612
off_to_on,7.85549630738,8.8366273057,7.92497924459,1.51149980411,6.34819843191,14.2453109861,11.62135472,10.4029997006,1.64839127164,11.6812910506,4.24266638403,11.395463944,6.70592835947,33.5040918908
off_to_on,3.00822680057,4.31806871542,3.02478550756,1.36258553615,2.98421512651,3.35736973526,5.85629195536,4.33523999573,1.34526044872,5.23236969802,2.11094698666,5.01375149448,2.69918732631,41.8443381994
off_to_on,-2.54638628401,-1.10707195276,-2.5837082214,0.85273946809,-1.23870902535,-8.11388873714,-1.39328418772,-2.7712782732,0.782302992881,-2.42582964357,-0.418705128038,-2.46260755931,-1.9259861591,42.7882026944
off_to_on,-7.61804407706,-6.29160270755,-7.64688935256,0.0740826856576,-5.26733041191,-17.123041042,-8.45572560757,-9.35446399086,0.0493228614259,-9.57738896874,-2.81410036759,-9.40096088421,-6.19920481322,38.1176854729
off_to_on,-11.1215914455,-10.1499986892,-11.0406930534,-0.790875113467,-8.06513820279,-21.3806950603,-13.6586681377,-13.9594924902,-0.717258735409,-14.6087786442,-4.58144362462,-14.2872429949,-9.20979232686,29.7900015691
off_to_on,-12.3200982694,-11.8978769121,-12.037759351,-1.52093305472,-8.90192757759,-19.9936338027,-15.7510403894,-15.5761286133,-1.36510349748,-16.397735315,-5.37439080922,-16.0736100582,-10.3119200159,19.1178077165
off_to_on,-10.9796412929,-11.2127847478,-10.467007108,-1.92260199105,-7.56069166049,-13.6676696511,-14.2223054671,-13.8644699392,-1.76340518586,-14.5793741779,-5.06556170413,-14.4122914693,-9.27045387905,6.54305269857
off_to_on,-7.40671252681,-8.2861404165,-6.73266499248,-1.8891903262,-4.40042458625,-4.4242118809,-9.43483184084,-9.22092805082,-1.83571524254,-9.6246973162,-3.76563201448,-9.72354339852,-6.31471207169,-7.93548895717
off_to_on,-2.36902167788,-3.76454481158,-1.69897952463,-1.43290042278,-0.256510938523,5.06100995321,-2.53602104369,-2.6774791682,-1.57801346353,-2.71635241102,-1.78862301279,-3.08738729623,-2.08901567106,-23.9207046723
off_to_on,3.07495762628,1.39769061642,3.52097019112,-0.679475699725,3.79154136287,12.2726398247,4.82525071418,4.33486921682,-1.05670643904,4.54255476727,0.425462717445,4.01007117406,2.48827417943,-39.8088665318
off_to_on,7.79767807449,6.13879820232,7.81642959127,0.172269150234,6.71692918588,15.5623788609,10.9039827744,10.3012118237,-0.387874104333,10.5116628983,2.41088226697,10.0140823316,6.42631759837,-52.488256122
off_to_on,10.831011819,9.5022568111,10.3130399635,0.911876654692,7.82152047018,14.5371044859,14.2837333793,13.9481083345,0.294879540054,13.8949595678,3.77620746936,13.645778761,8.88063911229,-57.8409781442
off_to_on,11.560346899,10.8243817275,10.5443338821,1.37878051306,6.91370065807,10.034867509,14.2161720307,14.5135981784,0.873355949429,14.0315744772,4.28308037618,14.1791339802,9.34205099034,-52.0191174823
off_to_on,9.85072579532,9.86569168165,8.53317310653,1.5038085113,4.34115881411,3.73491388679,10.7943520166,11.9096004932,1.26847100007,11.0310347672,3.88851063316,11.5924059142,7.75355964804,-33.1122049866
off_to_on,6.08159331549,6.86306421804,4.77431168399,1.31823825984,0.874397861381,-2.43849242901,4.92017742679,6.74461893222,1.44885027926,5.72587207026,2.74380104695,6.56313432597,4.52673736144,-2.57988786476
off_to_on,1.0793486608,2.48966475306,0.125339845207,0.929794789672,-2.52101089728,-6.90781506884,-1.92396141288,0.199122525557,1.42432898718,-0.543569406786,1.15204659873,0.307964556605,0.449491426248,34.1987805121
off_to_on,-4.04704378264,-2.27707622117,-4.37372405882,0.47653259361,-4.95573861019,-8.84322875211,-8.0432953399,-6.22717100331,1.22976869052,-6.25970444232,-0.505759057991,-5.6992749976,-3.49855849167,68.6755292829
off_to_on,-8.14272617701,-6.36183993941,-7.72106547155,0.076691987372,-5.85459034546,-8.27116822073,-11.9495992574,-11.0500646999,0.907438461665,-10.0954209429,-1.85976887211,-10.0709589897,-6.38344686943,91.1712472963
off_to_on,-10.2712793721,-8.83514289609,-9.17383687647,-0.207097570066,-5.09666394973,-5.89891128979,-12.7293873326,-13.1491827519,0.49551346106,-11.2317894424,-2.63587543989,-11.8338901433,-7.55058107499,93.7088319178
off_to_on,-9.94730928979,-9.14111075554,-8.42367494114,-0.377364838162,-3.02343854446,-2.75825988065,-10.270434457,-12.0493973013,0.0264788220622,-9.54893472824,-2.71655562752,-10.6645125582,-6.79407594715,72.7834063439
off_to_on,-7.27530199456,-7.24992399372,-5.68360902842,-0.483818271023,-0.318543235788,0.181480329033,-5.28795055623,-8.06020804667,-0.465927775152,-5.64165642908,-2.16313366074,-6.96984246486,-4.41258904595,31.1150437581
off_to_on,-2.94758887351,-3.68564336215,-1.65591269333,-0.587263176716,2.2017317657,2.29321954706,0.860491013726,-2.22398912853,-0.936931069284,-0.652930516457,-1.19300168486,-1.78632628849,-1.12959978831,-22.3400432399
off_to_on,1.9133577864,0.592166388692,2.62482085162,-0.72157590691,3.82510884754,3.38709311783,6.52911336351,3.93115421451,-1.32544161631,4.03559052887,-0.116288016349,3.48651187893,2.10704555754,-74.334739181
off_to_on,6.03979548901,4.43443724057,6.0463761226,-0.870200176543,4.14009786748,3.62447258922,10.2193713873,8.78404868404,-1.55888040018,7.17770590631,0.752466536108,7.45533993176,4.39477956862,-110.814003483
off_to_on,8.36056713709,6.81641035044,7.71237049765,-0.967480228783,3.13937290652,3.32338419833,10.9830710937,11.0606944574,-1.56920446274,8.00173743176,1.18401820558,9.10965909347,5.13876954997,-120.968846828
off_to_on,8.30433898771,7.13141944965,7.19543033488,-0.924963503522,1.20404542622,2.75888288551,8.68256154993,10.1990120669,-1.31583715092,6.41945459033,1.09979820428,8.10093881686,4.22745987088,-100.627268536
off_to_on,5.97086902181,5.37400130782,4.6727177277,-0.672525299286,-1.02286055667,2.04727597322,4.03120070025,6.52509731726,-0.807166917038,3.0418421704,0.592625403731,4.84011844069,2.06329741709,-53.8724062977
off_to_on,2.11004233959,2.14872201648,0.89346864912,-0.197747585839,-2.83458947761,1.15319180289,-1.60463918134,1.17532170545,-0.111379141013,-1.00831717439,-0.105365270218,0.377502853122,-0.566795223663,7.72328599828
off_to_on,-2.09524082764,-1.50774735046,-3.02451120244,0.433080351668,-3.67201426723,-0.00283134541459,-6.59311161354,-4.22758475365,0.649793345781,-4.43719002833,-0.699747005129,-3.90751623367,-2.74574413595,68.1324470774
off_to_on,-5.38355897213,-4.44378458566,-5.91840157985,1.08257899371,-3.28698744326,-1.40460548038,-9.50721257848,-8.05777000975,1.32515804065,-6.17530252238,-0.933091474963,-6.71966726327,-3.72718772551,111.336763105
off_to_on,-6.80014679639,-5.75302630862,-6.93016819223,1.57823202402,-1.81101978674,-2.84890762124,-9.54156686657,-9.1849734735,1.77029171227,-5.70765863355,-0.675171806743,-7.24029544485,-3.18523600791,125.900529119
off_to_on,-5.99071531019,-5.06217403281,-5.77345117685,1.76563650388,0.289692557109,-3.95773958345,-6.74964567156,-7.33078501908,1.8853896395,-3.23397156351,0.0262118025332,-5.37649962008,-1.32801062078,108.26277536
off_to_on,-3.3068311569,-2.64996705632,-2.82860108536,1.56102194999,2.35876101731,-4.29938001805,-2.0252566599,-3.16215932342,1.64290731157,0.395779535085,0.952759095684,-1.78513790378,1.16777455957,63.7305431351
off_to_on,0.31508270779,0.645972175627,0.971257254914,0.984433364803,3.75031924619,-3.57081614252,3.17146465107,1.91752411749,1.09598929694,3.95499431777,1.78199139574,2.3402783667,3.38452747043,4.86157501312
off_to_on,3.66446255357,3.70727759841,4.43256878143,0.161109723317,4.02589972539,-1.76211528715,7.26333242487,6.22076011388,0.364718595428,6.23918551879,2.19290864108,5.65485955382,4.4804823338,-52.2630052563
off_to_on,5.65566438112,5.50711150668,6.4806886002,-0.710703950133,3.08818460819,0.774329060144,9.04262991055,8.32850067264,-0.395638453605,6.46184015714,1.97706776992,7.09651463463,3.98833677929,-92.7204447834
off_to_on,5.68228082734,5.45157194147,6.502597777,-1.4157958271,1.21082134758,3.3907235719,8.04142323235,7.56086938125,-1.03450139934,4.51659643279,1.11755586269,6.22686173432,1.99106234802,-106.943127667
off_to_on,3.80721480269,3.57385053593,4.53860121819,-1.78398434365,-1.04539226737,5.33319388667,4.66635645707,4.20571382896,-1.44178598257,1.01610862021,-0.192520736415,3.36540235253,-0.890538896574,-93.1695427211
off_to_on,0.724450192096,0.514381642201,1.25781312721,-1.73816682446,-3.00496559086,5.98871534568,0.0531097692282,-0.577206574341,-1.56937397089,-2.90893363241,-1.60099792266,-0.528345538481,-3.6998798095,-57.4672639269
off_to_on,-2.49285356834,-2.7057800785,-2.27456096505,-1.31331529562,-4.0860951743,5.09878121634,-4.31286176982,-5.14923036459,-1.43324374167,-5.98607613865,-2.70264536849,-4.18482912481,-5.47057526293,-11.4295502569
off_to_on,-4.7688909887,-5.03871230027,-4.95822323793,-0.641163627854,-3.98027771136,2.85867932619,-7.08463929575,-7.95245777227,-1.09794299486,-7.22689115732,-3.1664354134,-6.45364889629,-5.56466484463,31.6245827986
off_to_on,-5.39379392863,-5.76608938768,-6.02223863653,0.0932841669259,-2.74651186897,-0.136766136349,-7.48887117511,-8.0448691042,-0.650721578588,-6.25725941968,-2.84202073906,-6.68429617839,-3.90363648259,60.6820714355
off_to_on,-4.25510752852,-4.73332392564,-5.26692750822,0.708335243665,-0.789610259533,-3.08249912598,-5.56199712147,-5.42464982016,-0.175265477004,-3.43791953398,-1.80937820926,-4.92741195097,-1.0075915799,70.0276290205
off_to_on,-1.85260764675,-2.3806158349,-3.10091667351,1.07665519162,1.27133688432,-5.21864351503,-2.10902450256,-1.02823655049,0.266194333327,0.267460261113,-0.354275516862,-1.88863566481,2.17589596337,60.3326338955
off_to_on,0.904833567886,0.436403631003,-0.364577249035,1.15504886948,2.80285654444,-6.05965914322,1.59884297252,3.60023141262,0.637910953954,3.63150685497,1.12266290056,1.34509642944,4.59690952269,37.6499226898
off_to_on,3.04296348637,2.76769844228,1.99203138853,0.985276136295,3.36102605205,-5.51740381025,4.28095643298,6.85413897295,0.92388820597,5.590987826,2.2327072529,3.70567586667,5.46944698091,10.8219611787
off_to_on,3.87870840104,3.91199889049,3.2564204644,0.668354759781,2.83278310075,-3.88124368316,5.09742501795,7.63262725325,1.11513598917,5.61213743184,2.71864100216,4.52401812515,4.54862932339,-11.7021127928
off_to_on,3.25835058906,3.65584306836,3.19781971347,0.323448944734,1.46751316949,-1.67421002934,3.93376721894,5.72959897759,1.19860148799,3.86342558592,2.52692707364,3.75176644895,2.21796435731,-24.5237898561
off_to_on,1.59095257707,2.32214864973,2.11938176297,0.0466769280609,-0.212531259881,0.54956962134,1.4193148899,1.90304395354,1.15403522647,1.13389809381,1.80897270306,1.94460603096,-0.647754507696,-26.5787214094
off_to_on,-0.332537817034,0.613916289372,0.702323486548,-0.11619761997,-1.59408642678,2.38264129719,-1.32645238799,-2.40255665452,0.960964630334,-1.47327998506,0.853242292863,0.0159395670709,-2.9978771638,-20.743561621
off_to_on,-1.66367966289,-0.684087701216,-0.29505348796,-0.175341269702,-2.18648659841,3.65004637011,-3.12736970395,-5.58329773759,0.61295549184,-2.96036576198,-0.0255203418768,-1.14406868156,-3.98809657561,-12.0792401968
off_to_on,-1.83954884764,-1.02915426451,-0.364761601579,-0.181220024702,-1.79451933659,4.37958204796,-3.20545448259,-6.46365795875,0.132531843137,-2.81336293358,-0.598751116141,-1.03733076306,-3.29146952263,-5.48867073713
off_to_on,-0.812110825293,-0.34364798544,0.526864817577,-0.195792628568,-0.590328385555,4.68492209767,-1.4890505315,-4.73203282977,-0.420908878492,-1.19804100258,-0.797102317445,0.229478997262,-1.22353195475,-3.7218163522
off_to_on,0.92587721663,0.950996816162,1.9099366275,-0.262580683075,0.942679605402,4.62838995616,1.3426866006,-1.06354489125,-0.955632083792,1.10216071198,-0.718146120113,1.975171333,1.36774609224,-6.46510072667
off_to_on,2.53149723298,2.10542996125,2.99368163057,-0.387027836123,2.17764260909,4.13834721069,4.10116178691,3.11879379586,-1.36536072664,2.98769286941,-0.567604609478,3.21248841633,3.41163626414,-10.7932373625
off_to_on,3.149208062,2.35556840857,2.99555685793,-0.533841498255,2.56848570249,3.03015447213,5.53299652359,6.16260039212,-1.55587011539,3.47569023975,-0.558209087332,3.05779119604,4.01478365768,-12.7203238303
off_to_on,2.2680050366,1.25809983542,1.49160148013,-0.641231356659,1.85413300836,1.12995881058,4.80841846768,6.79931336567,-1.47209630171,2.10408799999,-0.806619464631,1.12675932724,2.8071263671,-9.16832128818
off_to_on,-0.0397496446445,-1.08360645538,-1.35078101697,-0.645735801179,0.170651957502,-1.55188884624,1.87319886352,4.62964042892,-1.11660474519,-0.846796786229,-1.27004044473,-2.24054342248,0.105252506754,0.471987756085
off_to_on,-3.09473230193,-3.99750460706,-4.75745793917,-0.507874972442,-1.97140170341,-4.68314603624,-2.47159495533,0.301547772082,-0.552757322838,-4.40614545862,-1.74957089462,-6.0241205227,-3.17192666201,13.8333196779
off_to_on,-5.82090274919,-6.44483239753,-7.57104489534,-0.229217265229,-3.84227235237,-7.58933398584,-6.80283324505,-4.69048818211,0.109114848182,-7.23077421917,-1.96209307035,-8.83955945657,-5.8121583664,26.3369290311
off_to_on,-7.12108986077,-7.38204790457,-8.64497330513,0.144848645639,-4.73316560829,-9.39130775885,-9.55006492644,-8.5204403563,0.738591575058,-8.0839666373,-1.65586764421,-9.42411447287,-6.73875088848,32.942617742
off_to_on,-6.2855948716,-6.15600912744,-7.27206708036,0.536916841101,-4.20277716014,-9.27715099549,-9.55070431158,-9.68090290732,1.21690777262,-6.30666559783,-0.726873859023,-7.12370334291,-5.40893028721,30.2021208172
off_to_on,-3.28485526921,-2.78781357347,-3.49141323638,0.859193779888,-2.24668221545,-6.82235169966,-6.49038467083,-7.53784410857,1.46402004947,-2.10911631438,0.709690283042,-2.20150693008,-2.0384231394,17.8032471133
off_to_on,1.16534274168,1.9647028557,1.84622286605,1.03734789252,0.670788673517,-2.23754665408,-1.06778528516,-2.58976381244,1.45340605915,3.43063009841,2.32402242114,4.1557336422,2.43254331655,-1.02650972963
off_to_on,5.79887088233,6.80028959849,7.29274279569,1.02907687834,3.73841086152,3.5668267885,5.18428179749,3.66651067449,1.21144451481,8.67429392788,3.65721944665,10.1551286777,6.62715157772,-20.4624470066
off_to_on,9.19512250112,10.2679462856,11.2369682309,0.832562710548,6.03911950225,9.15438510686,10.3710685728,9.22283757964,0.803440887757,11.9420674039,4.2630568565,13.9460716191,9.17998727256,-34.0661459534
off_to_on,10.2438390329,11.2330378672,12.4189734446,0.483914012275,6.83525192721,12.947380029,12.8475207201,12.233928054,0.312438535989,12.0705484185,3.85971399462,14.22183812,9.193966578,-37.1008142205
off_to_on,8.52020736736,9.25912370619,10.3518672966,0.0462590615851,5.80657212005,13.7125294468,11.7639768796,11.6457408768,-0.181516161118,8.81977628656,2.43909724689,10.6713177497,6.54996884242,-28.3241172955
off_to_on,4.4403390256,4.77417002573,5.50534650291,-0.404914414042,3.16319817469,10.9895219757,7.35966582252,7.55982939649,-0.615374736906,2.98695127873,0.293668500131,4.12292398075,1.96214178301,-10.5749294261
off_to_on,-0.858291144826,-1.03897957833,-0.81646342597,-0.795714093543,-0.405076184004,5.30818031101,0.901505916353,1.20688260406,-0.947619928363,-3.81783269961,-2.05265151039,-3.67638092803,-3.24173888068,10.102062411
off_to_on,-5.87287106596,-6.59555486269,-6.86765080283,-1.06437065828,-3.92913121367,-1.89902162373,-5.7144521329,-5.46130127781,-1.15475199707,-9.66431299459,-3.99087203245,-10.5816395523,-7.54192205135,26.5197821261
off_to_on,-9.20858335128,-10.3911598907,-10.996733901,-1.16787058282,-6.44831684087,-8.68361194224,-10.5670622945,-10.4197912779,-1.22421125084,-12.9025181364,-5.00552935838,-14.7031067239,-9.70917567606,32.8859221196
off_to_on,-10.0109407129,-11.4563595855,-12.1507229225,-1.08584426105,-7.29526261864,-13.1577181759,-12.3181092532,-12.2346899277,-1.14901778725,-12.6735418097,-4.82873975366,-14.9796012011,-9.18743836565,26.910733272
off_to_on,-8.21436947924,-9.63668589646,-10.182260512,-0.823142512669,-6.28844385945,-14.0794507155,-10.6221611906,-10.5163917674,-0.927746891194,-9.16353611698,-3.52019382236,-11.4858472074,-6.25140696725,10.7164260607
off_to_on,-4.52851383276,-5.61056659113,-5.86192157119,-0.411533986423,-3.77335452208,-11.2530941682,-6.20441734945,-6.01080484617,-0.570165677253,-3.52049099748,-1.44736799243,-5.37689647035,-1.89140175026,-9.80813740695
off_to_on,-0.173764034958,-0.64542661356,-0.597266358244,0.0905893458565,-0.502160918812,-5.6039371398,-0.586215538719,-0.305170508439,-0.10542680654,2.53364165963,0.827430674149,1.50592979689,2.52973157596,-27.0168314985
off_to_on,3.53811251087,3.82175657904,4.04189677953,0.602655447028,2.60656691055,1.10779162486,4.44278326096,4.74081490349,0.412318125142,7.262320475,2.71654859469,7.23136905486,5.7275478837,-34.2009787001
do_nothing,5.63254022095,6.63773511024,6.82975929287,1.03237283108,4.74900113932,6.84836141362,7.42254081722,7.63466956867,0.905716982938,9.45786945154,3.7786563894,10.3764160511,6.9016816245,-28.0345677087
do_nothing,5.7653008352,7.27144725807,7.25313224013,1.29227028815,5.46794147726,9.96587986061,7.6870442008,7.73748342186,1.28564856178,8.79126665813,3.83861375516,10.4305616255,5.96294569792,-9.90342393729
do_nothing,4.28613273431,5.93158943555,5.62384113707,1.31965173929,4.76378616983,9.72140120702,5.54096738841,5.4316298047,1.4705971127,5.85957854839,3.01953957296,7.88081181479,3.51286566303,14.3766441036
do_nothing,2.05990178365,3.4338384413,2.90602870819,1.09482595644,3.05439378483,6.51489986096,2.09593495574,1.92029100994,1.40863930128,1.92619566347,1.68046376514,3.96342788679,0.592487864072,36.3994452911
do_nothing,0.116056037936,0.872381372336,0.327168091236,0.651488723961,1.00397086216,1.72562957812,-1.16823363673,-1.25960724425,1.09485534207,-1.54817348344,0.283719329214,0.181333619113,-1.70521237921,47.9754381508
do_nothing,-0.745665003058,-0.786080125324,-1.08614187665,0.0744066966371,-0.71648936273,-2.78298361252,-2.95814380464,-2.8293931942,0.577747213534,-3.41860112622,-0.761753049475,-2.23768234637,-2.62190965586,43.9740549441
do_nothing,-0.253187874019,-1.0451982795,-0.883697064765,-0.517036612914,-1.654132808,-5.32730363813,-2.64049225983,-2.24966702463,-0.0485191214925,-3.23802050684,-1.22879117205,-2.75262191454,-1.98692903333,24.2396261758
do_nothing,1.2403176334,-0.0428291230326,0.651968975914,-0.996350675916,-1.70912234471,-5.00800560216,-0.468589972584,0.082944697328,-0.664659341703,-1.38220896167,-1.13087336103,-1.65250160598,-0.253708089343,-6.0872097302
do_nothing,2.89245613459,1.51747058022,2.62157411867,-1.26139023551,-1.13685667764,-2.04262723903,2.5168831063,2.99314331878,-1.15396519301,1.11842903959,-0.694667171494,0.109921108585,1.6870744824,-37.9919054082
do_nothing,3.69342610569,2.64171542156,3.85609584458,-1.26066462421,-0.421428302122,2.29669204251,4.87762169286,4.98110687507,-1.42913258303,2.97660696667,-0.258758076231,1.32601738972,2.84826143716,-61.3298007842
do_nothing,2.86196388151,2.43268212883,3.3738441892,-1.00641546873,-0.068611095875,6.12864040072,5.321569804,4.81003321719,-1.45056506627,3.13557304739,-0.135464746822,1.02969323103,2.5206507688,-68.0325952112
do_nothing,0.177823267181,0.456655189895,0.788193750271,-0.570191074229,-0.394038545282,7.64563724017,3.21050127389,2.01545106496,-1.23142457728,1.17823647168,-0.4843409987,-1.09426093873,0.551634191201,-54.7595179705
do_nothing,-3.86691811602,-3.03702367016,-3.47845258819,-0.0620759101966,-1.38352641117,5.80106518348,-1.1482317907,-2.84948987495,-0.829099840006,-2.48210345241,-1.24143793754,-4.53947111982,-2.56745083562,-24.1425215302
do_nothing,-8.15698758679,-7.12406416788,-8.2559668332,0.400075796955,-2.6774318562,0.758109231765,-6.53361548727,-8.32817999305,-0.327013683444,-6.69631355651,-2.12947320651,-8.10943379866,-5.83612138212,15.7879721602
do_nothing,-11.2650642249,-10.4494372043,-11.9545871047,0.72192535512,-3.68802261874,-6.06882150053,-11.1662129415,-12.5061904403,0.186711963496,-9.93241411229,-2.74709454827,-10.3113941037,-8.05930522152,53.8449483542
do_nothing,-11.8944377868,-11.6407848856,-13.0634478518,0.85502317454,-3.81244367887,-12.4150133615,-13.2778200877,-13.6461829642,0.637098721543,-10.7763289852,-2.70916952615,-9.88280282306,-8.24117914176,78.928300545
do_nothing,-9.31851989961,-9.7683594964,-10.6653487221,0.804037890861,-2.66952090551,-15.8930660994,-11.7133736368,-10.8032082621,0.972252230622,-8.42198668193,-1.79277225885,-6.27415662102,-5.9328113635,83.2995646314
do_nothing,-3.67947821144,-4.7092976054,-4.80369861936,0.617801136862,-0.277872978673,-14.8150906057,-6.3686421252,-4.21421584516,1.16453618732,-2.99455148799,-0.0405696826173,0.0760809026575,-1.42283175253,64.9119788141
do_nothing,3.95327714007,2.70335231622,3.42149780812,0.36845442281,2.89054769687,-8.8352367364,1.68387558257,4.67392765823,1.20551199227,4.39933910551,2.21456606697,7.7734997078,4.29123288017,28.1078857611
do_nothing,11.7958076532,10.8078981761,12.0727151084,0.126571769504,6.0083782972,0.813258137752,10.4323573821,13.559157183,1.09909604496,11.9188533674,4.41645313105,14.8089249419,9.74713234152,-17.51745203
do_nothing,17.7866188933,17.5004357124,18.8598690568,-0.0592120249906,8.12014449472,11.5869681288,17.4652978246,19.9219348827,0.857166453548,17.4701910488,5.92905553097,19.1138250925,13.4101363494,-59.7508455717
do_nothing,20.1353322393,20.7871784841,21.7620320497,-0.171896770217,8.433509189,20.3448881959,20.6583841547,21.7572800217,0.499732737467,19.2893518324,6.21782076623,19.1677255527,14.1032567627,-87.134554596
do_nothing,17.8353932426,19.3566094081,19.6132815261,-0.223316937633,6.58531919599,24.2951540575,18.8069725212,18.1826160825,0.0587897594017,16.4635074103,5.01736939628,14.477880947,11.3548949075,-92.121483495
do_nothing,10.998009984,13.0111350775,12.4853411838,-0.241661651534,2.7970696098,21.8829147785,12.0166420215,9.74007446844,-0.41752130795,9.24324327195,2.43577884812,5.78768190722,5.56656503752,-73.1364645922
do_nothing,0.90801062071,2.82749316505,1.75209215518,-0.255320169342,-2.13498783919,13.3355933241,1.73393931815,-1.69730408595,-0.864684521312,-0.946512553703,-1.03828726154,-5.05200083289,-2.04760093934,-34.9917076185
do_nothing,-10.2268780342,-9.01773510813,-10.1940456238,-0.279718652736,-7.02142918248,0.682341164232,-9.59704113196,-13.3905524412,-1.20853576449,-11.8090522489,-4.63342383322,-15.5189597563,-9.73712181841,12.4293582947
do_nothing,-19.7818777091,-19.7330072376,-20.5096905049,-0.311886523811,-10.5875712653,-12.7743896263,-19.1600715732,-22.4408721246,-1.37911286697,-20.7212058253,-7.47728495546,-23.0484411656,-15.6385611088,56.8319082592
do_nothing,-25.3560189132,-26.5962209695,-26.6098803663,-0.33392022602,-11.823048859,-23.3863010985,-24.5032177785,-26.5420017222,-1.32846057627,-25.3862396895,-8.81738913155,-25.6879973376,-18.2397549161,86.7733808318
do_nothing,-25.3882676301,-27.6666753272,-26.8361870246,-0.322827508272,-10.2734915262,-28.2104704468,-24.1858133831,-24.5761699457,-1.04680387243,-24.4292154643,-8.22351036054,-22.6063847641,-16.7681259209,94.6503255396
do_nothing,-19.5893603408,-22.3349028883,-20.9076352182,-0.261914384858,-6.18896088035,-25.8676344117,-18.1621652341,-16.8991663837,-0.571087290042,-17.7813547913,-5.71684180945,-14.3248462902,-11.4047812877,78.6260599065
do_nothing,-9.07097780848,-11.55374177,-10.032119795,-0.148755489967,-0.483213751309,-16.9478422345,-7.80178067278,-5.24777240936,0.0182182009004,-6.7502104021,-1.78849370874,-2.61259435958,-3.26839516425,43.0177200721
do_nothing,3.87292717977,2.32813141774,3.35753584647,0.00325040387599,5.48895917504,-3.84145065928,4.45526121312,7.69627090575,0.612508178877,6.25087967704,2.70216507491,9.92554140671,5.8312470296,-2.9221545072
do_nothing,16.2900773975,16.10512432,16.1817021357,0.169674512989,10.2775463157,9.95154663366,15.7127514261,18.9651585365,1.09903587683,18.2559020869,6.72738839945,20.4648993151,13.8138477812,-47.4746363753
do_nothing,25.2761801457,26.4984944006,25.462664114,0.323369075031,12.7125490417,20.8233843374,23.3392556043,26.0157666516,1.3868879079,26.4515563479,9.34056629965,26.6276202623,18.8235887092,-79.5043054289
do_nothing,28.6890154218,30.9849630425,29.0543556761,0.442197745536,12.2065213292,26.070086404,25.6089300925,27.3169895498,1.42750458898,28.8630778075,9.91216061899,27.0381798009,19.6784873242,-91.287400546
do_nothing,25.687708423,28.4500596607,26.1665612343,0.512824309268,8.90273034252,24.6140832262,22.101878705,22.6777639648,1.22398943251,24.8489267279,8.29060700708,21.6359935158,16.1626092163,-80.393191818
do_nothing,16.9544886309,19.4866520523,17.5490997543,0.529519680025,3.63041402092,17.2335153074,13.7703885808,13.2496277552,0.827046726413,15.2763421209,4.84495339107,11.6742666222,9.08593244245,-50.1563815458
do_nothing,4.53559487473,6.25167922202,5.28954146504,0.48971140839,-2.31802757177,6.24837426612,2.66565969356,1.21851285052,0.319592863306,2.3273055745,0.376328065434,-0.589297380894,0.0929877586293,-8.65504427757
do_nothing,-8.66298497666,-8.0857993401,-7.72099191409,0.389850719652,-7.52476337284,-5.2210451059,-8.59416573495,-10.7275954079,-0.204591269322,-11.0225228002,-4.08012298301,-12.4308557237,-8.73551292796,33.5000016021
do_nothing,-19.5969408592,-20.1583064104,-18.5124924495,0.225150032124,-10.8063122688,-14.1834663462,-17.4718061264,-20.0214836671,-0.661494175607,-21.7244521016,-7.51177787456,-21.2955738993,-15.3899148392,65.9544627319
do_nothing,-25.83454086,-27.2543853973,-24.7607509531,-0.00526006587333,-11.4992802714,-18.6077117891,-22.1085660269,-24.783105511,-0.991180081987,-27.3956045274,-9.17650570317,-25.3766275007,-18.4194503706,81.2308833372
do_nothing,-26.1400686456,-27.9812169303,-25.324301365,-0.289357500399,-9.59942076801,-17.9134605442,-21.7263069912,-24.2036624094,-1.16303297243,-26.8872696244,-8.77718703819,-24.0016207713,-17.2753111402,76.4964366089
do_nothing,-20.7380943328,-22.5584854036,-20.4597399782,-0.593888052043,-5.7240842821,-12.9964659839,-16.7444627945,-18.6698136264,-1.17270438416,-20.5371200918,-6.51802096855,-17.7394211717,-12.4203352828,54.0418768833
do_nothing,-11.1948461201,-12.673633729,-11.6715563698,-0.862187205968,-0.91735970203,-5.81320788665,-8.59952494222,-9.61365877692,-1.03428472367,-10.0427923607,-3.03044315887,-8.2105753457,-5.17845659431,20.3971930378
do_nothing,0.0410577827057,-0.95529647468,-1.25317620264,-1.02220639062,3.64115433427,1.31526879829,0.669494595015,0.86268058638,-0.772223430959,2.00446647892,0.807634744823,2.34212235812,2.63257113391,-15.6151869099
do_nothing,10.3029444101,9.77042034425,8.34182584023,-1.00500170516,6.94039440956,6.44319222024,8.95036140808,10.4900629941,-0.416527144374,12.7962590271,4.10670417953,11.6082809145,9.18253043187,-45.3061290877
do_nothing,17.3867305376,17.219841905,15.1189606148,-0.76920265106,8.37303365503,8.54840524911,14.5606850858,17.3408307902,-0.0023357318959,20.0088347376,6.18866894626,17.7473923559,13.0910512372,-62.3314602873
do_nothing,20.0616503832,20.1787491156,17.9855527928,-0.323217520067,7.84475606385,7.73092042888,16.6002038299,20.2259094865,0.427749846228,22.3428288651,6.73783532819,19.7764739478,13.7454200369,-64.0905954499
do_nothing,18.2816950155,18.6825170039,16.9103104146,0.264076877659,5.73947745849,5.02679969876,15.0760836102,18.8960795466,0.822009398053,19.7641296595,5.84288233682,17.7196018187,11.3924804414,-51.980257493
do_nothing,13.0613885279,13.8283137125,12.7817483975,0.870822904539,2.76367165531,1.93012979609,10.7905732784,14.0142333288,1.12209117072,13.397755612,3.92604214906,12.4977292196,6.99067199555,-30.5279913693
do_nothing,6.07935353987,7.31204017646,7.03658294677,1.34884171351,-0.275488280019,-0.194041582527,5.0442432022,6.92238063195,1.27137387802,5.12668644583,1.58875268359,5.60736035783,1.87863505406,-5.76431755221
do_nothing,-0.851272984488,0.860543936065,1.19130445852,1.56353594613,-2.69012761518,-0.598149559931,-0.747342468777,-0.724542534295,1.22809725639,-2.97118686336,-0.574224903654,-1.30947964156,-2.63152381379,16.6009634473
do_nothing,-6.27784713284,-4.2523286258,-3.57297163303,1.43544605794,-4.06919206128,0.620122065887,-5.41168205022,-7.35841062334,0.979436478386,-9.17659833426,-2.13451101724,-6.87901183504,-5.61111197899,32.6173945997
do_nothing,-9.42624622177,-7.46236735099,-6.65372252869,0.969765341454,-4.33726635845,2.61515858423,-8.2589645015,-11.8310857577,0.55129306839,-12.5166790599,-2.91839505618,-10.2826972697,-6.71896461223,40.7427773828
do_nothing,-10.2680946063,-8.89089307805,-8.04674288205,0.262726631856,-3.71115506641,4.16535016776,-9.15385964493,-13.6066357556,0.00919444506128,-12.8925508324,-3.00445548081,-11.3528079905,-6.20362661985,41.6013601157
do_nothing,-9.35058918939,-9.08848007251,-8.16955229694,-0.519415999767,-2.58115557867,4.17625592204,-8.42422546155,-12.7818539527,-0.551752476906,-10.9394295517,-2.64183586902,-10.4740812287,-4.72154858155,37.0729056886
do_nothing,-7.47830535677,-8.6729221094,-7.57904379662,-1.1841871805,-1.36313244369,2.13097775132,-6.6590683003,-9.95288649187,-1.02628972432,-7.69534789348,-2.12548035254,-8.34755047431,-3.04746056242,29.1605864077
do_nothing,-5.3762190565,-8.01511493838,-6.7012179592,-1.56689302059,-0.370538914572,-1.67283579493,-4.47504617236,-5.9851380544,-1.32289602478,-4.20758308499,-1.67600513115,-5.70943923973,-1.7834757032,19.1343666883
do_nothing,-3.45545618322,-7.09559684952,-5.67453768665,-1.57812628809,0.256998752948,-6.18247886745,-2.33031273636,-1.76300017997,-1.38538470567,-1.2127074135,-1.36644450205,-3.10230830952,-1.1667946314,7.30053923562
do_nothing,-1.75351612055,-5.57898616249,-4.35655622106,-1.22945774209,0.554579150512,-9.92556847679,-0.438820635747,2.00897791156,-1.20589544637,1.0127681127,-1.11844350751,-0.767726957239,-1.03563235146,-6.53723287412
do_nothing,-0.0489738687291,-3.06301195352,-2.4763556982,-0.628669324332,0.673035394136,-11.5063117428,1.20243336558,4.90769009061,-0.825551399636,2.60306582722,-0.763933834768,1.31945534377,-0.954043310522,-22.1748702213
do_nothing,1.91604169651,0.612311934761,0.141884225961,0.0542711602549,0.789075598142,-10.0939081199,2.70180720603,6.78703196602,-0.322893701954,3.90043583455,-0.144419897901,3.30787283901,-0.43961816515,-38.1316774839
do_nothing,4.20988602675,5.13493162513,3.38539182863,0.639602659641,1.02036975185,-5.73805140239,4.13329249583,7.69394249358,0.206061452229,5.19642509944,0.792983954869,5.28793736767,0.796789359273,-51.3001651817
do_nothing,6.58217204295,9.67995816847,6.77738524392,0.991477774575,1.37548986553,0.595082977919,5.43055374813,7.75370446345,0.669976505508,6.52789168942,1.94144093782,7.15250551494,2.69154879623,-57.4378445061
do_nothing,8.48896403545,13.0938805655,9.56060328107,1.05551714628,1.75319913079,7.28057318975,6.35958292437,7.07607732708,1.00024122778,7.61043981034,3.04471944064,8.56093827921,4.80964149523,-52.4781905421
do_nothing,9.26641898115,14.2508182605,10.9178453507,0.868311779526,1.98677548135,12.5052071103,6.58228367639,5.71783954861,1.16056685482,7.93438859885,3.7704195522,9.02562035083,6.4751493535,-34.2673113618
do_nothing,8.38679988021,12.4570690355,10.2528762627,0.536642337487,1.91355621982,14.8026539576,5.78744048454,3.70966900536,1.14702562303,6.98353976207,3.82131982232,8.09161937253,7.00469382632,-4.07661530059
do_nothing,5.6969409346,7.75465856287,7.42893498037,0.194595741186,1.44269087121,13.487250132,3.839188605,1.12683206017,0.980699977832,4.48890942682,3.04586630187,5.54297462479,5.9607066281,32.785541858
do_nothing,1.54397890373,1.00444732908,2.87420320335,-0.0457446291849,0.596887617999,8.85520421645,0.885301394318,-1.83555392871,0.697178677418,0.61541016818,1.50850807567,1.55638375873,3.33441855835,67.7021867202
do_nothing,-3.26593071653,-6.29579805367,-2.49067707269,-0.132429545523,-0.485165428459,2.09684792434,-2.61941326722,-4.82433522015,0.33733651726,-3.99645875542,-0.505998059842,-3.26089373545,-0.40687507808,90.8133978276
do_nothing,-7.66902556119,-12.4101892932,-7.48558336456,-0.0873115088859,-1.58455891469,-5.0469165359,-5.9906127632,-7.35464461811,-0.0577516853659,-8.35919839911,-2.55797588137,-7.97326954936,-4.42684340023,93.9164392872
do_nothing,-10.6403025752,-15.8551889182,-10.9908398246,0.00900618724052,-2.46226689052,-10.7752142207,-8.47466707483,-8.90303577541,-0.447488953494,-11.4009374277,-4.16841367963,-11.5358499631,-7.74785563946,73.3191765665
do_nothing,-11.4858149014,-15.8232758297,-12.2509698829,0.0546933332746,-2.92304910419,-13.7170823464,-9.44563583492,-9.04319710342,-0.790158602256,-12.2777869783,-4.94906261242,-13.0670201267,-9.52650376606,31.6614046547
do_nothing,-10.0343926641,-12.4034736259,-11.0662786435,-0.0277583434672,-2.86353179873,-13.2804104877,-8.58047829079,-7.58179566561,-1.04237401604,-10.6337499134,-4.70738194117,-12.0927958994,-9.29037895116,-22.0457824471
do_nothing,-6.66924740517,-6.53166477976,-7.81662405929,-0.255357014249,-2.29220348505,-9.76859572302,-5.96042786756,-4.64856450209,-1.16236561483,-6.72376749666,-3.49569951054,-8.68960513687,-7.06505615317,-74.3889175393
do_nothing,-2.19667807404,0.305349852477,-3.31980501631,-0.571816809729,-1.31946938682,-4.24627114963,-2.06887602982,-0.707138947413,-1.11787579908,-1.36142446403,-1.59236793509,-3.48386848635,-3.35800520312,-111.103064645
do_nothing,2.39585840294,6.50794235017,1.41871621954,-0.86364774439,-0.125295061352,1.79155868373,2.31343543954,3.52311831092,-0.896806686767,4.29006954892,0.576124086569,2.48974396035,0.987857073699,-121.213440887
do_nothing,6.20673789571,10.7984856944,5.47683609265,-1.00003033796,1.08284210078,6.84109783471,6.28654666343,7.21716011303,-0.516693127083,9.01678869988,2.54628388315,8.02892937551,5.0199003176,-100.500797343
do_nothing,8.62608364744,12.5181143041,8.22151502564,-0.882498226038,2.10916178382,9.77940742946,9.03514321855,9.62777359983,-0.0285195144372,11.85245826,3.92878977975,12.0358398288,7.91099003167,-53.151365412
do_nothing,9.42480661657,11.7069792962,9.39525617785,-0.486498568361,2.7979212709,10.1191608513,10.0070332272,10.255014834,0.488269349857,12.2929612088,4.49004439562,13.7503325936,9.1394361988,9.03473034969
do_nothing,8.71872957046,8.96913795182,9.07789604959,0.120675811312,3.04905086307,8.07237970359,9.02562041405,8.95896854063,0.939890850339,10.3764442774,4.18658105064,12.8917047382,8.57341971419,69.7554099177
do_nothing,6.84548363808,5.19598856622,7.56355019462,0.79310100336,2.82417856619,4.42473773594,6.31546469537,5.98975924167,1.23851433614,6.62343588621,3.15055966865,9.68628751486,6.45291784142,112.774478895
do_nothing,4.21800546246,1.26209757749,5.2175499117,1.34734014659,2.14781688983,0.273064596103,2.4421789067,1.93092443864,1.32324011678,1.87215974971,1.63836978648,4.7896447172,3.29192826968,126.588677254
do_nothing,1.21617611164,-2.19806657525,2.37460120177,1.61845700828,1.10666865243,-3.29039905266,-1.81366961615,-2.42673224812,1.17556056874,-2.93219134576,-0.0380029551693,-0.864973493377,-0.259272979809,107.767503469
do_nothing,-1.84947949267,-4.86925910345,-0.689253592636,1.5125638331,-0.153799921867,-5.45863274522,-5.61804186824,-6.24932833513,0.824502290175,-6.93431712214,-1.57709293921,-6.25092941038,-3.55128133609,61.9271703042
do_nothing,-4.70771506422,-6.69212796696,-3.71840747298,1.0384606039,-1.43969943026,-5.88616975015,-8.24690701989,-8.82552732451,0.339747455587,-9.50962724447,-2.73773287015,-10.4277841111,-6.04362054164,2.02822336232
do_nothing,-7.06951647968,-7.71681167562,-6.41447674808,0.307777211801,-2.53074886588,-4.72677249948,-9.2220192775,-9.70060090366,-0.185252353191,-10.3334623614,-3.36720033674,-12.6899047194,-7.37258848993,-55.4780822974
do_nothing,-8.59649811011,-7.96067914888,-8.40207317046,-0.49656840676,-3.21570271817,-2.53736153673,-8.39677842847,-8.75554906373,-0.655134037159,-9.38705298843,-3.40981351193,-12.6699897631,-7.38228784464,-95.4586520734
do_nothing,-8.93376828516,-7.34571990264,-9.26364422765,-1.1734162605,-3.33702358131,-0.0863201856577,-5.97902727033,-6.22012056492,-0.993134631919,-6.92127761846,-2.90178106101,-10.3915624298,-6.12861135363,-108.380124891
do_nothing,-7.81239677182,-5.74664822054,-8.64895772525,-1.5609137526,-2.83444946587,1.87577952315,-2.48723704139,-2.62060779902,-1.15479432083,-3.39873458056,-1.95778850262,-6.26743616931,-3.86377775741,-92.7711454454
do_nothing,-5.18721666865,-3.12369460951,-6.42464851409,-1.58051991416,-1.77354268989,2.82118734904,1.35343353199,1.32639387461,-1.13199064958,0.574890092963,-0.751999837544,-1.04154118144,-1.00234421245,-55.1749856
do_nothing,-1.34867361863,0.330703211635,-2.80128886423,-1.2543434098,-0.346624070843,2.57497194829,4.75830168216,4.85492946344,-0.947777668972,4.32972776362,0.50659921373,4.32616485427,1.93546525192,-7.71263906603
do_nothing,3.05395526185,4.11495112134,1.6269942751,-0.691759603464,1.15987448005,1.3411118353,7.04684189485,7.30016378321,-0.645329734417,7.22459961903,1.60515365975,8.82417151544,4.40595015819,35.8737975982
do_nothing,7.11356206079,7.46952043885,5.96916465887,-0.0512729404502,2.42741108415,-0.377189251663,7.78934746255,8.2302634035,-0.275620558676,8.75206223772,2.3625432431,11.5823932229,5.94375893116,64.3838569555
do_nothing,9.87960604342,9.56132343818,9.24300371915,0.50882545452,3.18212196972,-1.93854296873,6.90230120169,7.53264987564,0.112063038619,8.64138600418,2.66401890655,12.058012357,6.26492823071,72.2139266182
do_nothing,10.6272276401,9.74645647438,10.6444280438,0.874736259106,3.26521698738,-2.76120012326,4.66605380015,5.43410162113,0.474694774141,6.93305881278,2.48596781978,10.1693498536,5.34295930376,60.4206407504
do_nothing,9.09272915707,7.81559414692,9.79373249739,1.00291148701,2.67574798622,-2.50338064622,1.65511654646,2.44653464096,0.775667095346,3.99478933525,1.90171614765,6.33597112408,3.42927999683,35.6078572656
do_nothing,5.58908093084,4.12239069903,6.8717026063,0.920939499317,1.5716381153,-1.1751877789,-1.40614160338,-0.752972473864,0.983049231166,0.458994136343,1.06333969903,1.40151153673,1.00132630907,7.17723208446
do_nothing,0.950409197537,-0.468069336693,2.5910861738,0.705939431904,0.227185943056,0.85221749568,-3.82745131226,-3.48192248831,1.06908925058,-2.91568482417,0.161902317542,-3.55375018754,-1.35661847371,-16.0139707467
do_nothing,-3.68842581501,-4.8092012358,-1.99623192835,0.450161476505,-1.04119328102,2.94753109801,-5.12692835765,-5.2130281169,1.01312137195,-5.42866901499,-0.623327005558,-7.46950586824,-3.11018778614,-28.4227108582
do_nothing,-7.21257375699,-7.81173319388,-5.79855668044,0.22696533661,-1.95907046438,4.40632030235,-5.14581858122,-5.69349247885,0.807913897543,-6.61590652472,-1.17081348687,-9.56449093482,-3.92237095712,-29.1363752052
do_nothing,-8.8458244263,-8.77723294117,-7.99379458319,0.0690352580613,-2.36285396702,4.67274079975,-4.06919921785,-4.98966064405,0.46718504345,-6.36578978344,-1.44224945266,-9.52453364892,-3.74278503459,-21.4247362409
do_nothing,-8.36241024311,-7.60910752259,-8.24766326462,-0.0346570219665,-2.23332385878,3.52969743539,-2.34599422782,-3.44388683095,0.0305778537777,-4.93167642814,-1.47850608964,-7.56303512806,-2.80619262731,-10.8604363922
do_nothing,-6.12251589839,-4.82495854622,-6.77082567107,-0.123897598932,-1.6853896587,1.19511197279,-0.53363191743,-1.55644166801,-0.437467965328,-2.83326888423,-1.36774208236,-4.33442037655,-1.53776753404,-2.82600589642
do_nothing,-2.92269641271,-1.36495339275,-4.20168851439,-0.241566671238,-0.919841784029,-1.71406457744,0.88205416884,0.17105281135,-0.856713388139,-0.678158409309,-1.19841594756,-0.726957219303,-0.396143840572,-0.387299800024
do_nothing,0.283394819395,1.73504245966,-1.3627129545,-0.408078748926,-0.154837804637,-4.34955461472,1.63192299793,1.38115970076,-1.14692753124,1.03502768977,-1.01668022696,2.39960149026,0.290473537398,-3.3090450481
do_nothing,2.69436501544,3.68756713511,1.0188867562,-0.606187798013,0.439495590955,-5.88770885369,1.72515522781,1.94864221959,-1.2466662777,2.06179808637,-0.806830695873,4.44801749185,0.435029715225,-8.50902269599
do_nothing,3.89302420886,4.19149035144,2.52611573437,-0.782181518749,0.782463373162,-5.79715852721,1.40783387782,1.98354815161,-1.12955853996,2.45300007513,-0.50477400199,5.21590675785,0.20687841227,-11.6810351799
do_nothing,3.92463753013,3.48124689636,3.13089518665,-0.86323094378,0.888873319224,-4.03070181343,1.03582186206,1.75130662745,-0.812874056642,2.47866659945,-0.0407702600022,4.88896503575,-0.0557169428715,-9.37649489795
do_nothing,3.20376313855,2.17671309733,3.11865580256,-0.784668132161,0.84147571322,-1.07148305933,0.911074835397,1.5413870912,-0.355262206108,2.46698674235,0.605723943563,3.90683135185,-0.00352307998971,-0.680363387764
do_nothing,2.29575299004,0.998542354282,2.90040512428,-0.51732180869,0.743247933963,2.19345278927,1.14512882363,1.53514178579,0.156150405861,2.62583217033,1.36377759669,2.7582496135,0.55665188346,12.2011128964
do_nothing,1.66405690869,0.463936661099,2.79574608402,-0.0849283979932,0.669350624735,4.7428479093,1.60460368235,1.72443093612,0.62578759145,2.92367671752,2.06373763602,1.78616995074,1.55379169191,24.6824939078
do_nothing,1.48398046719,0.683319516754,2.87872742945,0.435025900161,0.637388644574,5.7534559903,1.9633700571,1.91426795439,0.971080089615,3.08530546174,2.47546280797,1.07721622134,2.6514685839,31.5844441786
do_nothing,1.59426848159,1.33699030488,2.95030311667,0.928131223987,0.606548264479,4.88615676437,1.84493930334,1.810972636,1.13938213686,2.71219235139,2.38454711647,0.475411011256,3.36182546477,29.2618300439
do_nothing,1.60140384327,1.83853310528,2.64774731994,1.27281923754,0.504424578238,2.42470643774,1.00177946097,1.16352900645,1.11607452903,1.48472024944,1.68185083851,-0.290103232728,3.23741061565,17.2311583142
do_nothing,1.08981409574,1.61660801493,1.643722507,1.37415011544,0.26936799047,-0.790860565245,-0.5399937986,-0.0972289088437,0.922588416756,-0.635579963958,0.432264530512,-1.42032977334,2.06977192837,-1.36512290778
do_nothing,-0.151753450556,0.398206497734,-0.151268864938,1.19144543963,-0.109927147222,-3.62717412005,-2.43365371177,-1.77992185367,0.606291854019,-3.29406149726,-1.10833199311,-2.88662901102,0.0155954239824,-20.6834196883
do_nothing,-1.98481869095,-1.62612110869,-2.47380641527,0.751538465991,-0.574851067616,-5.03875426547,-4.09218294593,-3.45324544943,0.226445861474,-5.78369620705,-2.54331111289,-4.37055277022,-2.40662855528,-34.1906968983
do_nothing,-3.9226031181,-3.82948326058,-4.73815477986,0.143810648808,-1.00686261624,-4.44253008203,-4.8780376367,-4.56887991343,-0.158984451003,-7.24500270803,-3.44461523473,-5.34006291686,-4.46065792627,-37.0391915261
do_nothing,-5.28615451227,-5.366903913,-6.2134827143,-0.50144143995,-1.26504641013,-1.95412346012,-4.34042810478,-4.65007861533,-0.502060487102,-6.96759290071,-3.4898411161,-5.24395467929,-5.43533221051,-27.9237377637
do_nothing,-5.46048444255,-5.50581313511,-6.28838616565,-1.04508270427,-1.23824524168,1.6064603025,-2.41433363453,-3.48076119131,-0.767885934781,-4.68818127322,-2.58174612504,-3.75517178362,-4.90349084684,-9.71101084209
do_nothing,-4.15335070506,-3.94132000333,-4.72397477626,-1.37278199383,-0.892386415127,4.95773216525,0.497855146271,-1.22384778526,-0.933149671613,-0.768793432359,-0.906062676365,-0.966723786742,-2.90209421932,11.4332896702
do_nothing,-1.55345109447,-0.968694023651,-1.79437807777,-1.42134810637,-0.294319343187,6.7803940376,3.60448493564,1.58235290183,-0.983071973085,3.82839144268,1.09909274467,2.54687131643,0.0387845856339,28.1472671012
do_nothing,1.6811364675,2.56470670732,1.74953276203,-1.1913456708,0.398846129987,6.18612128709,5.94999418408,4.16047859261,-0.909783560902,7.78555944267,2.86037120881,5.84555350302,3.03971330238,34.4769622134
do_nothing,4.61153598246,5.52389197214,4.89388054461,-0.743600940192,0.983891502664,3.07088779138,6.72064791538,5.72684507948,-0.713858807607,9.82949107027,3.84080297613,7.89564034636,5.1485047666,28.0532824319
do_nothing,6.32411046464,6.87941685249,6.68679428865,-0.181554023216,1.27596374952,-1.77824980557,5.53012815788,5.74722536686,-0.408587349586,9.16098430888,3.71252308017,7.91477373488,5.65958880262,11.0457898616
do_nothing,6.24774199434,6.08840918187,6.56351027699,0.375119919422,1.17221482312,-6.87712878474,2.58455877073,4.12927272717,-0.0245800814904,5.76530280116,2.47315159967,5.67174327286,4.36603566854,-10.4813789454
do_nothing,4.36762515853,3.32072033672,4.55481598454,0.818447738538,0.692533715003,-10.4931932844,-1.337890935,1.28192840717,0.388617122732,0.485710738039,0.463847285736,1.62883483308,1.65273208027,-28.6238426485
do_nothing,1.25441710603,-0.560909067077,1.29926893434,1.07473295966,-0.0180459370676,-11.212759066,-5.09762382854,-1.98592682502,0.766609273777,-5.18346331846,-1.72223786562,-3.13845146462,-1.60880177212,-36.4091065979
do_nothing,-2.10834227127,-4.27059968925,-2.15296271297,1.11683436356,-0.728527333857,-8.44224206448,-7.53478707513,-4.70197251489,1.04065005807,-9.53342622695,-3.41635361713,-7.23564485561,-4.33561567439,-30.3259944148
do_nothing,-4.64400316067,-6.53171902262,-4.68302567307,0.964255818475,-1.19228036024,-2.67082930575,-7.83473310892,-6.02992725939,1.15264594902,-11.1745356051,-4.0814829371,-9.37349580241,-5.59017920914,-11.7161413705
do_nothing,-5.54194342872,-6.52292079869,-5.47795415087,0.672379356408,-1.22731553223,4.60672868324,-5.79939950317,-5.5363394174,1.0705660019,-9.49438925579,-3.48459937665,-8.78796312277,-4.89970682324,13.4890592198
do_nothing,-4.53262996458,-4.17981129574,-4.30812566848,0.314757350092,-0.781046522287,11.2999293633,-1.9336228453,-3.33719327986,0.79930951777,-4.88555710054,-1.77741855325,-5.51568603076,-2.42866126558,36.6398109387
do_nothing,-1.98299951458,-0.241928384783,-1.61045423128,-0.0362656131185,0.0421536184609,15.3470447906,2.6862882,-0.0744319673942,0.383016485008,1.34068663675,0.542260242229,-0.426346572014,1.05709619342,49.2472673432
do_nothing,1.22198844067,3.97736164731,1.65376052067,-0.325445041801,1.00155501653,15.3611108732,6.72443153666,3.27285680205,-0.102725087705,7.33656396368,2.77829975158,5.00984112463,4.42652009108,45.9152280237
do_nothing,3.9724559937,7.02353651191,4.32004101439,-0.523337091076,1.78527262185,11.0904205388,8.98207604289,5.68441083295,-0.56715449452,11.2797297244,4.24747226559,9.15460776849,6.54453921545,26.3335465169
do_nothing,5.3027623777,7.79027080276,5.41316495139,-0.626433889707,2.10260605001,3.54072733102,8.75650669187,6.40932405242,-0.924735815215,11.9376546793,4.48806779437,10.7018286434,6.64054219366,-4.35940226683
do_nothing,4.71303808989,5.89904448211,4.47867424561,-0.649918203612,1.77697707579,-5.28814499006,6.05168791853,5.1943926935,-1.11398723108,9.05422845878,3.40067126226,9.08819487989,4.56393583442,-37.0064950453
do_nothing,2.33679024794,1.83991731254,1.74234848442,-0.616303365845,0.811458958325,-12.9758657882,1.57809835353,2.36056697804,-1.10960523436,3.43492571632,1.27791770685,4.68326431542,0.844011607625,-61.2272604547
do_nothing,-1.09882703768,-3.17398521544,-1.95489033483,-0.544254045638,-0.594379026673,-17.3902506499,-3.45450943598,-1.29349109676,-0.924969451267,-3.29596833651,-1.28440238967,-1.30325186876,-3.46422394893,-68.7016903316
do_nothing,-4.50403534197,-7.58880638946,-5.42376475033,-0.441566756701,-2.0844354312,-17.312251027,-7.68451672079,-4.72778673397,-0.605190944303,-9.18744729423,-3.56526957222,-7.17006293773,-7.09736701778,-55.898379126
do_nothing,-6.77072776065,-10.0012539013,-7.5060311016,-0.304707583033,-3.2349939527,-12.7852468778,-9.97933239498,-6.9627140862,-0.213695947936,-12.5464197738,-4.92900617486,-11.2218740513,-8.96232251854,-25.3716099494
do_nothing,-7.11799086923,-9.59763864995,-7.44248254358,-0.124919532026,-3.67035444874,-5.08471649849,-9.73822809286,-7.35495105316,0.183054910094,-12.4322759358,-5.00413304569,-12.2640099118,-8.45833086913,14.8012114131
do_nothing,-5.33074019545,-6.40112705038,-5.11263816139,0.101542156162,-3.17418553294,3.6754337042,-7.03510236664,-5.7687236208,0.528208154577,-8.9124002051,-3.7787828585,-9.94567701457,-5.64643031924,53.2909147791
do_nothing,-1.82189573742,-1.25496532773,-1.07416028508,0.363205523047,-1.76506858601,11.1708547119,-2.57141034526,-2.59917829572,0.781645738088,-3.00983033871,-1.58909533352,-4.85315238625,-1.22197896725,78.8179342781
do_nothing,2.49309595483,4.44248919069,3.6037587771,0.627719780389,0.287184855468,15.5311918902,2.53370564904,1.34952489221,0.921153871314,3.62702283824,0.989226677338,1.66734331567,3.69175096017,83.4918233234
do_nothing,6.46270297696,9.15698384897,7.65428477575,0.844009513079,2.51295138972,15.8393127806,7.04575192547,5.08768033665,0.939418008949,9.21846489955,3.30784751771,7.89602132294,7.85850662238,65.1905990854
do_nothing,9.02117434875,11.6553277939,9.97344352967,0.952982188168,4.35246746768,12.3240008758,9.92144091426,7.69713949603,0.83980922246,12.3541610449,4.8188507804,12.2154760105,10.2557405082,28.2762519686
do_nothing,9.47106063605,11.3283048756,9.9191940385,0.904451437279,5.29787565691,6.20719870952,10.5410245853,8.5522243336,0.633668683588,12.3524742582,5.20495158179,13.5374315442,10.3219384813,-17.5585070303
do_nothing,7.65178604135,8.31440327055,7.46767853609,0.675345201067,5.03143758411,-0.723771744881,8.81852782522,7.45267454796,0.340321729468,9.3857823707,4.43594079193,11.5650051186,8.06600896181,-59.9691125681
do_nothing,3.9594551256,3.40847743238,3.19423956384,0.283104918008,3.52254551181,-6.66822015791,5.1806855455,4.64646850012,-0.0109183033766,4.35840884323,2.74571913296,6.83071609725,4.0260105917,-87.3860511931
do_nothing,-0.772397682871,-2.19401834823,-1.89975525531,-0.21100646008,1.05501504994,-10.3107145871,0.438991056866,0.75083799794,-0.379050313317,-1.40055353097,0.547799737136,0.518236338896,-0.892634798539,-92.2137263943
do_nothing,-5.48636410213,-7.22461448461,-6.65262570207,-0.711271488739,-1.82678204762,-11.1208260002,-4.40118464531,-3.39786898397,-0.712695032864,-6.51952782604,-1.67845454043,-5.86573775701,-5.64247548462,-72.9105134289
do_nothing,-9.14749027085,-10.6420181117,-10.0220671941,-1.10830360479,-4.44320372808,-9.38491630073,-8.34719273954,-6.92511627093,-0.956152212759,-9.92452070405,-3.49664041619,-10.8704070758,-9.26074856254,-34.392461977
do_nothing,-10.9635297216,-11.8315065094,-11.3085643096,-1.30620862464,-6.14652837053,-5.99301031255,-10.603241097,-9.09171187911,-1.05995304026,-11.0501437208,-4.59195592919,-13.4307438157,-11.0488972188,13.3199111258
do_nothing,-10.5370480255,-10.6742005684,-10.278744396,-1.24861944142,-6.48768165414,-2.07961447668,-10.7077855383,-9.43129427057,-0.993449017751,-9.88785068833,-4.80927865596,-13.0751223085,-10.6796889852,57.8101108182
do_nothing,-7.92952759846,-7.50058525929,-7.17768783679,-0.935874012042,-5.33816168957,1.34724728056,-8.611814015,-7.83444293124,-0.755493196776,-6.89217498424,-4.15448977175,-9.97922337189,-8.22934305564,87.5725620726
do_nothing,-3.63738720194,-2.97041881746,-2.64683656542,-0.427825194191,-2.9329313509,3.66791441685,-4.6923185452,-4.57124531747,-0.379192160003,-2.80289568582,-2.77136815371,-4.87667645622,-4.14619478573,95.0228176026
do_nothing,1.50708633568,2.0736361224,2.42042360469,0.169162704568,0.179914245939,4.73603574728,0.302032727441,-0.250296235484,0.0718106946597,1.54899087221,-0.907309416888,1.13283663442,0.828979958924,78.4215335982
do_nothing,6.49029492924,6.74499821501,7.0509330841,0.727803804845,3.27203726211,4.78902746468,5.37281036622,4.2828660101,0.515477399988,5.39911245123,1.12386829001,6.82423538841,5.77920487118,42.2328730709
do_nothing,10.304501171,10.2324573728,10.3631025001,1.13105141844,5.61675906865,4.24750756573,9.45298908221,8.09812410226,0.869123218532,8.14872079062,2.98061426041,11.0853737242,9.75603080691,-4.13747346055
do_nothing,12.1414361521,11.9036821945,11.7168503316,1.30014510377,6.67214687685,3.49795126454,11.6246928227,10.3642268933,1.06799100089,9.41111746235,4.33670877332,13.1142400245,11.942998929,-48.8555702414
do_nothing,11.5617874951,11.3996580016,10.8266091613,1.2118657679,6.21620903149,2.74519023523,11.3337971908,10.5319520786,1.07946348711,9.02765465783,4.93069193526,12.5507501243,11.8194588661,-80.7405998055
do_nothing,8.60683548367,8.71603179319,7.82294939758,0.900675889468,4.39772296463,1.98202046575,8.5493422622,8.47678541405,0.909035104187,7.07374629432,4.61792515227,9.53068529743,9.29449875001,-92.1031254656
do_nothing,3.82102593489,4.25088089514,3.24844114147,0.44601999128,1.6894123659,1.07002182929,3.81638515066,4.56059062395,0.596737355415,3.86037156535,3.41412415297,4.65743375529,4.77310655324,-80.6138468671
do_nothing,-1.83345209632,-1.21204467328,-2.02264855038,-0.0506084864492,-1.24255812944,-0.119599559757,-1.83042796258,-0.415970454274,0.205634540199,-0.0810962811494,1.51451783217,-1.10604481309,-0.87915911857,-49.74619127
do_nothing,-7.16628905564,-6.6103513735,-6.93971896723,-0.491556937504,-3.71544315176,-1.57679783635,-7.0902910771,-5.37374824736,-0.193743077417,-4.05184259501,-0.725515776805,-6.61380222579,-6.48716691034,-7.71724110873
do_nothing,-11.0202794248,-10.8026984529,-10.4864944298,-0.804369660193,-5.20330847562,-3.0962895022,-10.7120811482,-9.1998869512,-0.538333214699,-7.29094791519,-2.85341986182,-10.7583488969,-10.8151920053,34.7562276077
do_nothing,-12.5454880142,-12.8288164833,-11.9066004414,-0.953299450773,-5.45929356758,-4.32016545306,-11.8224985935,-11.0198257482,-0.78294513061,-9.12702113712,-4.41709161216,-12.69918367,-12.8616023638,67.2682723972
do_nothing,-11.4147036206,-12.1651840033,-10.8895144996,-0.939352991959,-4.5552492903,-4.86182466774,-10.1718473736,-10.4237938414,-0.904258200758,-9.14407710825,-5.07431610117,-12.0502688075,-12.1226842038,82.3494895827
do_nothing,-7.91619392818,-8.89706532848,-7.66270492545,-0.791081153343,-2.8324299959,-4.45899074816,-6.21784136362,-7.58076421245,-0.898954919491,-7.31106649347,-4.68312130902,-8.9782229765,-8.74642018486,77.2255030722
do_nothing,-2.88920069649,-3.74062462481,-2.95445869175,-0.550958217093,-0.783281320639,-3.09185418895,-1.01123862855,-3.2007165112,-0.778401143322,-4.02409588173,-3.34415547537,-4.17751849942,-3.52083737764,54.2768085362
