label,COUNTER,INTERPOLATED,AF3,F7,F3,FC5,T7,P7,O1,O2,P8,T8,FC6,F4,F8,AF4,RAW_CQ,GYROX,GYROY,MARKER,SYNC,TIME_STAMP_s,TIME_STAMP_ms,CQ_AF3,CQ_F7,CQ_F3,CQ_FC5,CQ_T7,CQ_P7,CQ_O1,CQ_O2,CQ_P8,CQ_T8,CQ_FC6,CQ_F4,CQ_F8,CQ_AF4,CQ_CMS,CQ_DRL
off_to_on,4133.65132901,4157.54372069,4179.4850619,4134.28824294,4148.63990861,4136.68834281,4136.10734764,4135.28250838,4136.97260871,4136.51892828,4126.28905576,4135.32835377,4109.76006515,685.008874813
off_to_on,4134.20290044,4158.34118521,4181.83788395,4133.98404035,4147.62814386,4136.74126174,4137.63239166,4136.74694858,4136.97078881,4138.27148644,4126.45725696,4137.55755647,4110.95837961,673.852828612
off_to_on,4134.68919817,4158.99949333,4184.0073753,4133.67564154,4146.46747976,4136.70906966,4138.99855428,4138.19670536,4136.96754237,4139.93639458,4126.62174691,4139.6167904,4112.12351866,662.249519647
off_to_on,4135.08154732,4159.48188307,4185.91927953,4133.36993317,4145.17683943,4136.59118431,4140.18577123,4139.60855231,4136.96281435,4141.47159756,4126.7781672,4141.42171827,4113.2196055,650.70926931
off_to_on,4135.35036319,4159.75111421,4187.50254024,4133.07358851,4143.7776711,4136.38811334,4141.17743615,4140.95867953,4136.9565999,4142.8344304,4126.92156006,4142.88905382,4114.20963049,639.702912966
off_to_on,4135.46620532,4159.77083602,4188.69185136,4132.79286462,4142.29342057,4136.10140993,4141.9609289,4142.22345967,4136.94894537,4143.98308463,4127.04657063,4143.93964217,4115.05680232,629.639091474
off_to_on,4135.40090228,4159.5070265,4189.43006118,4132.53341483,4140.74894185,4135.73362119,4142.5280418,4143.38023537,4136.93994775,4144.87812736,4127.1476741,4144.50153044,4115.72595635,620.844217183
off_to_on,4135.12870976,4158.92945263,4189.67034606,4132.300123,4139.16986499,4135.28823372,4142.87528889,4144.40810136,4136.92975238,4145.48402042,4127.21941966,4144.51291987,4116.18497103,613.545955291
off_to_on,4134.62746098,4158.01309774,4189.3780777,4132.09696538,4137.58194234,4134.76961989,4143.00408707,4145.2886538,4136.9185493,4145.77058457,4127.25668188,4143.92489218,4116.40614159,607.860925853
off_to_on,4133.87966678,4156.73950119,4188.53231785,4131.92690479,4136.01039499,4134.182988,4142.9208017,4146.00668011,4136.90656802,4145.71435438,4127.25491029,4142.70380716,4116.36745981,603.787166498
off_to_on,4132.87352203,4155.09795575,4187.12688624,4131.79182052,4134.47928156,4133.53433777,4142.63665331,4146.55076445,4136.89407112,4145.29977069,4127.21036718,4140.83327678,4116.05374996,601.201707347
off_to_on,4131.60377605,4153.08651098,4185.17096199,4131.69247596,4133.01091073,4132.83042189,4142.16748635,4146.91378588,4136.88134675,4144.5201619,4127.1203442,4138.31563319,4115.45761424,599.863405392
off_to_on,4130.07242771,4150.71273594,4182.68919378,4131.62852476,4131.62531746,4132.07871266,4141.5334057,4147.09329038,4136.86870028,4143.37847136,4126.98334872,4135.17282294,4114.58014659,599.420973723
off_to_on,4128.28921055,4147.99420138,4179.72131078,4131.59855467,4130.33982008,4131.28737178,4140.75829084,4147.09172141,4136.8564454,4141.88769602,4126.7992517,4131.44667819,4113.43138078,599.425930202
off_to_on,4126.27183895,4144.95865068,4176.32124309,4131.60016705,4129.16867216,4130.46522013,4139.8692015,4146.9164981,4136.84489486,4140.07101037,4126.56939029,4127.19853566,4112.03044721,599.349988966
off_to_on,4124.04599416,4141.64383832,4172.55577653,4131.63008859,4128.1228189,4129.62170277,4138.89569104,4146.57993431,4136.83435121,4137.96155947,4126.29661946,4122.50819507,4110.40542218,598.606234815
off_to_on,4121.64503691,4138.09702583,4168.50278247,4131.68431059,4127.20976304,4128.76684379,4137.86904576,4146.09899583,4136.82509776,4135.60191497,4125.985309,4117.47223082,4108.592863,596.573262577
off_to_on,4119.10944279,4134.37413688,4164.24907735,4131.75825045,4126.43354092,4127.91118482,4136.82146943,4145.49489743,4136.81739015,4133.04319919,4125.64128406,4112.20169251,4106.63703348,592.621337486
off_to_on,4116.48596621,4130.53858526,4159.88797924,4131.84692882,4125.79480489,4127.06570105,4135.78523372,4144.79254644,4136.81144861,4130.34389341,4125.27170929,4106.8192518,4104.58883448,586.139543737
off_to_on,4113.82654851,4126.65980183,4155.51663857,4131.9451558,4125.29100461,4126.24168961,4134.79181591,4144.01984474,4136.80745128,4127.56835798,4124.88491918,4101.45587311,4102.50446586,576.562840277
off_to_on,4111.18699532,4122.81149765,4151.23322795,4132.04771924,4124.91665657,4125.45062623,4133.87104589,4143.20686646,4136.80552878,4124.78510291,4124.49019862,4096.24710473,4100.44385601,563.397937817
off_to_on,4108.62545792,4119.06971204,4147.13408064,4132.14956806,4124.66368844,4124.70398777,4133.05028458,4142.38493393,4136.80576005,4122.06485777,4124.09752042,4091.3291024,4098.46890507,546.246949145
off_to_on,4106.20076194,4115.51070336,4143.31086987,4132.24598434,4124.52184297,4124.01304115,4132.35365629,4141.58561919,4136.80816954,4119.47849929,4123.71724754,4086.83451102,4096.64159672,524.827844766
off_to_on,4103.97063484,4112.2087491,4139.84792043,4132.33273785,4124.47912472,4123.38860122,4131.80135776,4140.83970295,4136.81272581,4117.09490252,4123.35980996,4082.88833865,4095.02203986,498.990864542
off_to_on,4101.98988963,4109.23392715,4136.81974058,4132.40621805,4124.52227256,4122.84076386,4131.40906567,4140.17612557,4136.8193413,4114.9787871,4123.03536705,4079.60396176,4093.66650666,468.730188658
off_to_on,4100.3086263,4106.64995356,4134.28885497,4132.46353909,4124.63724112,4122.37862289,4131.18746326,4139.62096719,4136.82787327,4113.18863238,4122.75346735,4077.0793992,4092.62553477,434.190351898
off_to_on,4098.97051366,4104.51215151,4132.30400936,4132.50261482,4124.80967509,4122.00998144,4131.14190366,4139.19649423,4136.83812575,4111.77473474,4122.52271823,4075.39398602,4091.9421614,395.667086676
off_to_on,4098.01121318,4102.86562381,4130.89880501,4132.52220174,4125.02536211,4121.74107045,4131.27222397,4138.92030834,4136.84985228,4110.77747657,4122.35047751,4074.60556653,4091.650353,353.602494609
off_to_on,4097.45700317,4101.74369498,4130.09080542,4132.52190924,4125.27065096,4121.57628685,4131.57271953,4138.80463123,4136.86275941,4110.22587036,4122.242579,4074.74830984,4091.77368926,308.574665158
off_to_on,4097.32365612,4101.1666815,4129.88114224,4132.50217773,4125.53282405,4121.51796458,4132.03228257,4138.85575379,4136.87651082,4110.13643285,4122.20310264,4075.83123163,4092.32435215,261.282074315
off_to_on,4097.61561431,4101.14103815,4130.25462973,4132.46422645,4125.80041468,4121.56619064,4132.63470388,4139.0736729,4136.89073208,4110.51243407,4122.23419852,4077.83748267,4093.3024619,212.523298216
off_to_on,4098.3254999,4101.65891612,4131.18037989,4132.4099738,4126.06346141,4121.71867729,4133.35913052,4139.45193238,4136.90501597,4111.34355382,4122.33597221,4080.72443958,4094.69579035,163.172757781
off_to_on,4099.43398419,4102.69815513,4132.61289358,4132.34193384,4126.31369397,4121.97070018,4134.18066746,4139.9776781,4136.91892865,4112.60596524,4122.50643643,4084.42460619,4096.47986974,114.153364241
off_to_on,4100.91002935,4104.22271652,4134.49358667,4132.26309366,4126.54464758,4122.31510982,4135.07110585,4140.63192946,4136.93201658,4114.26285009,4122.74153173,4088.84730627,4098.61850114,66.4070555387
off_to_on,4102.71150252,4106.18354938,4136.75269594,4132.17677669,4126.75170455,4122.74242149,4135.99975579,4141.39006173,4136.94381443,4116.26533576,4123.03521652,4093.88112065,4101.06465235,20.8642956483
off_to_on,4104.78614933,4108.51986614,4139.31149703,4132.08649751,4126.93206516,4123.240985,4136.93435742,4142.22248584,4136.95385405,4118.55382871,4123.379624,4099.39699584,4103.76172075,-21.58635025
off_to_on,4107.0729013,4111.16079015,4142.0847568,4131.99581401,4127.08465163,4123.79723232,4137.84204084,4143.09550469,4136.96167458,4121.05970512,4123.76528126,4105.25192732,4106.6451231,-60.1274535418
off_to_on,4109.50347954,4114.02732422,4144.98333569,4131.90818247,4127.20995168,4124.3959976,4138.69030329,4143.97231852,4136.96683357,4123.70730632,4124.18138323,4111.29310008,4109.64416201,-94.0397057954
off_to_on,4112.00424706,4117.0345784,4147.91685244,4131.82682117,4127.30981001,4125.02090041,4139.44797126,4144.81414622,4136.96891913,4126.41617554,4124.61611232,4117.36235286,4112.68410826,-122.725665754
off_to_on,4114.49825316,4120.09418545,4150.79632276,4131.7545873,4127.38717776,4125.65478046,4140.08611569,4145.58142504,4136.96756273,4129.10346347,4125.05699258,4123.3008202,4115.68842956,-145.729408639
off_to_on,4116.9074062,4123.11682637,4153.53668687,4131.69387172,4127.44583153,4126.28016911,4140.57888983,4146.23504811,4136.96245252,4131.68642348,4125.49126589,4128.95360013,4118.58109064,-162.751368264
off_to_on,4119.1547068,4126.01478368,4156.05914627,4131.64651482,4127.49007435,4126.87978122,4140.9042626,4146.73759744,4136.95334662,4134.0849138,4125.90627687,4134.17429352,4121.28884584,-173.657834377
off_to_on,4121.16647042,4128.70443938,4158.29323869,4131.61374654,4127.52443111,4127.43700964,4141.04462394,4147.05453044,4136.94008596,4136.22382286,4126.28985247,4138.82926506,4123.74344547,-178.484749599
off_to_on,4122.87446899,4131.10863661,4160.17859093,4131.59615207,4127.55335105,4127.93640429,4140.98724405,4147.1552801,4136.92260614,4138.03533634,4126.63066299,4142.8014856,4125.88367967,-177.435636735
off_to_on,4124.2179234,4133.15882862,4161.66630201,4131.59366406,4127.580929,4128.36411838,4140.72457354,4147.01423186,4136.90094765,4139.46096976,4126.91855134,4145.99382999,4127.65718988,-170.873679065
off_to_on,4125.14528341,4134.79694669,4162.71992285,4131.60558119,4127.61065625,4128.70830565,4140.25437727,4146.61154506,4136.87526391,4140.45329858,4127.14481949,4148.331724,4129.02198589,-159.308176654
off_to_on,4125.6157387,4135.97692794,4163.31601373,4131.63061164,4127.64520995,4128.95945411,4139.57969951,4145.9337914,4136.8458264,4140.97732826,4127.30246225,4149.76505704,4129.9476176,-143.375807437
off_to_on,4125.6004133,4136.66585645,4163.44427576,4131.66693943,4127.68628876,4129.11064454,4138.70866334,4144.97438901,4136.81302649,4141.01145945,4127.38634121,4150.26930339,4130.41596333,-123.817320807
off_to_on,4125.0832067,4136.84468459,4163.1072677,4131.71231016,4127.73449975,4129.15772475,4137.65411263,4143.7338177,4136.77737328,4140.54801824,4127.39329376,4149.84582313,4130.42161073,-101.450468642
off_to_on,4124.06125666,4136.50851656,4162.31973389,4131.76413247,4127.78930001,4129.09939397,4136.43311045,4142.21960909,4136.7394873,4139.59333682,4127.32217526,4148.52134313,4129.97182165,-77.1401255204
off_to_on,4122.54501118,4135.66645129,4161.10758158,4131.81959052,4127.84899406,4128.93719499,4135.06631328,4140.44611413,4136.7000897,4138.16738633,4127.17383458,4146.3466473,4129.08608728,-51.7666651963
off_to_on,4120.55791018,4134.34099733,4159.50655717,4131.87576274,4127.91078586,4128.6754156,4133.57724581,4138.43405918,4136.65998701,4136.30297941,4126.95102614,4143.3945332,4127.79529468,-26.193743191
off_to_on,4118.13568975,4132.56708651,4157.56067958,4131.92974149,4127.97088257,4128.32090409,4131.99150531,4136.20991036,4136.62005153,4134.04457521,4126.6582641,4139.75711707,4126.1405396,-1.23667905358
off_to_on,4115.32533404,4130.39072646,4155.320495,4131.97874892,4128.02464517,4127.882807,4130.3359275,4133.80507284,4136.58119796,4131.44673324,4126.30162635,4135.54259119,4124.17163264,22.3673713428
off_to_on,4112.18371065,4127.86734339,4152.84122099,4132.02024397,4128.06677943,4127.37224023,4128.63774739,4131.25495769,4136.54435676,4128.57227394,4125.88851783,4130.87155458,4121.94535613,43.9863147757
off_to_on,4108.77593492,4125.05987602,4150.18084861,4132.05201636,4128.09155944,4126.80190684,4126.92378736,4128.59795219,4136.51044518,4125.49021327,4125.4274039,4125.87305013,4119.52353697,63.1160488423
off_to_on,4105.17351597,4122.03668824,4147.39826937,4132.07226408,4128.09307452,4126.18567733,4125.21970259,4125.87433178,4136.4803369,4122.27354441,4124.92752507,4120.68044821,4116.97100583,79.3985158852
off_to_on,4101.45234319,4118.86937289,4144.55148958,4132.0796517,4128.06548985,4125.53814937,4123.54930952,4123.12515138,4136.45483145,4118.99694393,4124.39860415,4115.4273181,4114.35351554,92.634157346
off_to_on,4097.69057556,4115.63052064,4141.6959882,4132.07334771,4128.00331023,4124.87420516,4121.93401806,4120.39115272,4136.43462438,4115.73448014,4123.85055687,4110.24342497,4111.73569146,102.788253639
off_to_on,4093.96649758,4112.39152697,4138.88326589,4132.05304027,4127.90163666,4124.2085846,4120.39238303,4117.71172147,4136.42027947,4112.55739944,4123.29321564,4105.25098143,4109.17908324,109.990866554
off_to_on,4090.35640476,4109.22050636,4136.15962291,4132.01893161,4127.75640549,4123.55549106,4118.93978375,4115.12392409,4136.41220403,4109.53206122,4122.7360752,4100.56126871,4106.74038158,114.530345762
off_to_on,4086.93257892,4106.18037674,4133.56519264,4131.97171199,4127.5646007,4122.92824448,4117.5882348,4112.66164935,4136.41062827,4106.71808449,4122.18806698,4096.27172551,4104.46985509,116.840610929
off_to_on,4083.76140923,4103.32716926,4131.13324617,4131.91251538,4127.32443085,4122.33899325,4116.34632503,4110.35487434,4136.41558974,4104.16675998,4121.65736743,4092.46358273,4102.41005281,117.482665853
off_to_on,4080.90170971,4100.70860983,4128.88977266,4131.84285928,4127.03546356,4121.79849284,4115.21927663,4108.22907069,4136.42692364,4101.91977148,4121.15124393,4089.20010115,4100.5948073,117.121028339
off_to_on,4078.40327762,4098.36300975,4126.85333023,4131.76457182,4126.69871163,4121.31595526,4114.20911284,4106.30476232,4136.44425938,4100.00825936,4120.67594036,4086.52544805,4099.04856286,116.495960318
off_to_on,4076.30573064,4096.31849243,4125.03515347,4131.67970985,4126.3166669,4120.89896945,4113.31491983,4104.59724231,4136.46702404,4098.45224811,4120.23660323,4084.46422666,4097.7860423,116.392551389
off_to_on,4074.63765286,4094.59257297,4123.43949615,4131.59047152,4125.89327949,4120.55348963,4112.5331867,4103.11645208,4136.49445265,4097.26044796,4119.83724763,4083.02165135,4096.81225466,117.607838186
off_to_on,4073.41607118,4093.19209644,4122.06418127,4131.49910734,4125.43388239,4120.28388516,4111.85820607,4101.86702114,4136.52560528,4096.43042875,4119.48076118,4082.18434046,4096.12283487,120.917223864
off_to_on,4072.64627437,4092.1135289,4120.90132596,4131.40783337,4124.94506336,4120.09304307,4111.28251709,4100.84846084,4136.55939048,4095.94915224,4119.16894285,4081.92167935,4095.70469548,127.041493512
off_to_on,4072.32197711,4091.34358432,4119.93820432,4131.3187499,4124.43448799,4119.98251236,4110.79737207,4100.05550031,4136.59459464,4095.79383743,4118.90257237,4082.18768881,4095.53695969,136.615703586
off_to_on,4072.42582028,4090.86015877,4119.15820874,4131.23376872,4123.91067999,4119.95267777,4110.39320823,4099.47854839,4136.62991622,4095.93312229,4118.68150552,4082.92331844,4095.5921355,150.161156773
off_to_on,4072.93018874,4090.63353358,4118.5418688,4131.15455134,4123.38276563,4120.00294955,4110.06010652,4099.10426106,4136.66400393,4096.32847553,4118.5047894,4084.05907269,4095.83748206,168.061558141
off_to_on,4073.79831682,4090.62779985,4118.06788658,4131.0824603,4122.86019118,4120.13195623,4109.78822093,4098.91619078,4136.69549769,4096.93580383,4118.37079186,4085.51786835,4096.23651313,190.544288711
off_to_on,4074.98564302,4090.80245007,4117.71414887,4131.01852495,4122.35242293,4120.3377273,4109.5681638,4098.89549229,4136.72307088,4097.70719399,4118.27733832,4087.21801725,4096.75057812,217.667537781
off_to_on,4076.44136726,4091.11407706,4117.45867942,4130.96342243,4121.86864039,4120.61785486,4109.39133528,4099.02165881,4136.74547264,4098.59272588,4118.22184975,4089.07622756,4097.34045949,249.313812646
off_to_on,4078.110158,4091.51811821,4117.28049902,4130.91747433,4121.41743416,4120.96962473,4109.25018861,4099.27326262,4136.76156868,4099.54229145,4118.20147542,4091.01051964,4097.96792589,285.190100031
off_to_on,4079.93395261,4091.97058205,4117.16036624,4130.88065846,4121.00651997,4121.39011054,4109.13842591,4099.62867598,4136.77037912,4100.50735607,4118.21321511,4092.94295982,4098.59718371,324.834697609
off_to_on,4081.85379248,4092.42969648,4117.08137844,4130.85263481,4120.64247996,4121.87622694,4109.05112266,4100.06674973,4136.7711122,4101.44260269,4118.25402579,4094.80212504,4099.19617482,367.630478946
off_to_on,4083.81163434,4092.85742182,4117.02941899,4130.83278433,4120.33054166,4122.424741,4108.98478153,4100.56742969,4136.76319242,4102.30740475,4118.32090934,4096.52522431,4099.73767576,412.824110828
off_to_on,4085.75208105,4093.22077801,4116.99344403,4130.82025818,4120.0744032,4123.03224359,4108.93731933,4101.11229373,4136.74628223,4103.06708097,4118.41097866,4098.05981701,4100.20016197,459.550514969
off_to_on,4087.62397892,4093.49294268,4116.96560826,4130.81403539,4119.87611199,4123.69508474,4108.90799248,4101.68499573,4136.72029632,4103.69389365,4118.52150097,4099.36508419,4100.56841071,506.861665904
off_to_on,4089.38183312,4093.65408594,4116.94123587,4130.81298567,4119.73600138,4124.40927924,4108.89726846,4102.27160572,4136.68540806,4104.16776194,4118.64991867,4100.41262577,4100.83382647,553.758653441
off_to_on,4090.98699951,4093.69191716,4116.91864792,4130.81593458,4119.65268816,4125.17039086,4108.90665132,4102.86083916,4136.64204755,4104.47667188,4118.79384921,4101.18677321,4100.99448387,599.225817457
off_to_on,4092.40861876,4093.60193015,4116.89886265,4130.8217275,4119.62313105,4125.97340465,4108.93847043,4103.44417159,4136.5908916,4104.61677581,4118.95106673,4101.68442493,4101.05489348,642.265686783
off_to_on,4093.62426758,4093.38734349,4116.88518905,4130.82928928,4119.64274801,4126.81259846,4108.99564168,4104.01583883,4136.53284546,4104.59218545,4119.11946899,4101.91442761,4101.02550693,681.933425604
off_to_on,4094.62031174,4093.05874425,4116.8827377,4130.83767659,4119.70558825,4127.68142482,4109.0814111,4104.57272662,4136.4690173,4104.41447322,4119.2970336,4101.89654237,4100.92198729,717.369513518
off_to_on,4095.3919556,4092.6334538,4116.89787441,4130.84612048,4119.80455234,4128.57241452,4109.19909101,4105.11415716,4136.40068587,4104.1019073,4119.48176807,4101.66004857,4100.7642796,747.82945762
off_to_on,4095.94299312,4092.13464398,4116.93764367,4130.85405707,4119.93165239,4129.47711219,4109.35179868,4105.64158387,4136.32926267,4103.67845479,4119.67165825,4101.24204934,4100.57552366,772.709451112
off_to_on,4096.28527527,4091.59024088,4117.00918839,4130.86114542,4120.0783024,4130.38605309,4109.54220751,4106.15820903,4136.25624963,4103.17259529,4119.86461968,4100.68555169,4100.38085659,791.567048372
off_to_on,4096.4379181,4091.03166067,4117.11919132,4130.86727171,4120.2356285,4131.28878796,4109.77231996,4106.66854215,4136.18319394,4102.61599323,4120.0584563,4100.03740003,4100.20615667,804.136117648
off_to_on,4096.42628443,4090.49242748,4117.27336174,4130.87254038,4120.39478756,4132.17396139,4110.04327111,4107.17791933,4136.11164138,4102.04208188,4120.25083038,4099.34614486,4100.07678134,810.335551434
off_to_on,4096.2807794,4090.00672764,4117.47598781,4130.87725279,4120.54728286,4133.02944654,4110.35517082,4107.69200552,4136.04308975,4101.48461454,4120.4392472,4098.65992897,4100.01635257,810.271450084
off_to_on,4096.03550639,4089.6079559,4117.72957201,4130.881875,4120.68526588,4133.84253704,4110.7069916,4108.21630198,4135.978944,4100.97623892,4120.62105701,4098.02447065,4100.04564003,804.232737414
off_to_on,4095.72683411,4089.32730959,4118.03456307,4130.88699666,4120.80181375,4134.60019439,4111.09650786,4108.75568047,4135.92047451,4100.54714943,4120.79347576,4097.48121804,4100.18158821,792.680411138
off_to_on,4095.39192863,4089.19248393,4118.38919393,4130.89328296,4120.89117334,4135.28934659,4111.52029065,4109.31396452,4135.86877993,4100.22386845,4120.95362508,4097.06574056,4100.4365274,776.23086641
off_to_on,4095.06730473,4089.22651745,4118.78943081,4130.90142244,4120.9489641,4135.89723049,4111.97375988,4109.89357504,4135.8247558,4100.02820233,4121.09859062,4096.80641281,4100.81759989,755.633945864
off_to_on,4094.78744947,4089.44683035,4119.2290343,4130.91207309,4120.97233345,4136.41176823,4112.45129352,4110.49525501,4135.78906999,4099.97641076,4121.22549692,4096.723434,4101.32642381,731.746556896
off_to_on,4094.58356742,4089.86449057,4119.69972855,4130.9258097,4120.96006005,4136.82196496,4112.94639113,4111.1178841,4135.76214565,4100.07861897,4121.33159593,4096.82821167,4101.95900625,705.502852089
off_to_on,4094.48249108,4090.48373334,4120.19147014,4130.94307507,4120.91260188,4137.11831314,4113.45188557,4111.75838986,4135.74415236,4100.33849212,4121.41436535,4097.12312364,4102.70590638,677.882085922
off_to_on,4094.50579298,4091.30174945,4120.6928044,4130.96413773,4120.83208763,4137.29318694,4113.96019441,4112.41175825,4135.73500542,4100.75318017,4121.47161219,4097.60165629,4103.55263869,649.8753335
off_to_on,4094.66912698,4092.30874693,4121.1912928,4130.98905848,4120.72225105,4137.34120895,4114.46359998,4113.07114156,4135.73437354,4101.31353001,4121.50157632,4098.24890274,4104.48029595,622.452283253
off_to_on,4094.98181696,4093.48828039,4121.67399236,4131.0176676,4120.58831019,4137.2595715,4114.95454613,4113.72805889,4135.74169431,4102.00455131,4121.50302876,4099.04239045,4105.46636294,596.529297446
off_to_on,4095.44670102,4094.81783213,4122.12796612,4131.04955421,4120.43679467,4137.04829527,4115.42593893,4114.37268077,4135.75619699,4102.80611227,4121.47535922,4099.95319551,4106.4856844,572.939872859
off_to_on,4096.06022932,4096.26962044,4122.54080269,4131.08406878,4120.27532653,4136.71041015,4115.8714392,4114.99418683,4135.77693165,4103.6938332,4121.4186481,4100.94729125,4107.51154517,552.40852948
off_to_on,4096.81280453,4097.81160249,4122.90112305,4131.12033884,4120.11236159,4136.25204569,4116.28573422,4115.58118271,4135.80280361,4104.64013842,4121.33371889,4101.98707073,4108.51681674,535.529012692
off_to_on,4097.68934498,4099.40863309,4123.19905427,4131.15729757,4119.95690009,4135.68242238,4116.66477689,4116.12216005,4135.83261201,4105.61542238,4121.22216767,4103.0329785,4109.47512228,522.747524143
off_to_on,4098.67004315,4101.0237352,4123.42665164,4131.19372401,4119.8181765,4135.01373861,4117.00598101,4116.60598126,4135.86509097,4106.58928209,4121.08636775,4104.04518464,4110.36197266,514.351506692
off_to_on,4099.73128608,4102.61943551,4123.57825346,4131.22829323,4119.70533952,4134.26095313,4117.30836298,4117.02236972,4135.89895197,4107.53176709,4120.92944851,4104.98523489,4111.15582724,510.464304099
off_to_on,4100.84669909,4104.15911632,4123.65075594,4131.25963403,4119.62713402,4133.44146714,4117.57262207,4117.36238586,4135.93292605,4108.41459805,4120.75524855,4105.81761363,4111.83903708,511.045800044
off_to_on,4101.98827078,4105.60833529,4123.64379935,4131.28639157,4119.5915968,4132.57471491,4117.80115476,4117.61886989,4135.96580424,4109.21230761,4120.56824419,4106.51116119,4112.39863293,515.89891907
off_to_on,4103.12751543,4106.93606627,4123.5598596,4131.30729211,4119.60577773,4131.68167592,4117.99800129,4117.78683397,4135.99647496,4109.90326032,4120.37345538,4107.04029443,4112.82692696,524.681650999
off_to_on,4104.23662785,4108.11581729,4123.40424358,4131.32120677,4119.67549711,4130.78432474,4118.16872648,4117.86378831,4136.02395716,4110.47051462,4120.17633162,4107.38598818,4113.12190448,536.924050087
off_to_on,4105.28958747,4109.12658649,4123.18498909,4131.32721154,4119.80514843,4129.90503746,4118.32023975,4117.84998878,4136.04742812,4110.90249611,4119.9826216,4107.5364855,4113.28739054,552.049473998
off_to_on,4106.2631703,4109.95362236,4122.91267359,4131.32464056,4119.99755444,4129.06597504,4118.46056229,4117.74859646,4136.06624504,4111.19345941,4119.79823057,4107.48771615,4113.33298517,569.399178563
off_to_on,4107.13783182,4110.58896153,4122.60013855,4131.31313044,4120.25388161,4128.28846486,4118.59855124,4117.56574266,4136.07995993,4111.34372423,4119.62906992,4107.24341395,4113.27377003,588.259277659
off_to_on,4107.89842945,4111.03172537,4122.26213876,4131.292653,4120.5736164,4127.59240159,4118.74359288,4117.31049634,4136.08832726,4111.35967971,4119.48090366,4106.81493589,4113.12979844,607.889010711
off_to_on,4108.53475938,4111.28816529,4121.9149286,4131.26353489,4120.95460346,4126.99568786,4118.90527711,4116.99473378,4136.09130446,4111.25355959,4119.35919658,4106.22079663,4112.92538882,627.549230139
off_to_on,4109.04189063,4111.3714557,4121.57579895,4131.22646262,4121.39314384,4126.51373383,4119.09306643,4116.63291344,4136.08904534,4111.04299921,4119.2689687,4105.48594276,4112.68824927,646.530030074
off_to_on,4109.42028694,4111.30124252,4121.26258077,4131.18247238,4121.88414866,4126.1590327,4119.31597167,4116.2417619,4136.08188684,4110.75039276,4119.21466045,4104.64080072,4112.44846728,664.176489335
off_to_on,4109.67571566,4111.1029641,4120.99313229,4131.13292465,4122.42134115,4125.94082647,4119.58224642,4115.83987947,4136.07032977,4110.40207685,4119.2000127,4103.72013981,4112.2374036,679.91159416
off_to_on,4109.81895065,4110.80696902,4120.78482839,4131.07946437,4122.99749846,4125.86487364,4119.89911106,4115.44727669,4136.0550145,4110.02737185,4119.22796508,4102.76179815,4112.08653236,693.255532246
off_to_on,4109.86528408,4110.44746263,4120.6540703,4131.02396783,4123.60472262,4125.93332617,4120.27251652,4115.08485519,4136.03669231,4109.65751757,4119.30057558,4101.80532257,4112.02627146,703.840702549
off_to_on,4109.83386838,4110.06131936,4120.61583374,4130.96847825,4124.23472903,4126.14471978,4120.7069559,4114.77384798,4136.01619397,4109.32454261,4119.4189637,4100.89057543,4112.08484667,711.421958189
off_to_on,4109.74691583,4109.68680253,4120.68327118,4130.91513235,4124.87914008,4126.49407653,4121.20533043,4114.53523553,4135.99439631,4109.06010851,4119.58327856,4100.05636036,4112.28723114,715.881783418
off_to_on,4109.62878763,4109.36223557,4120.86738179,4130.8660808,4125.52977112,4126.9731151,4121.76887347,4114.38915457,4135.97218842,4108.89436983,4119.79269284,4099.33911693,4112.65419906,717.230290708
off_to_on,4109.50500832,4109.12467027,4121.17675881,4130.82340554,4126.17889616,4127.57055929,4122.39713361,4114.35431666,4135.95043847,4108.85489025,4120.0454225,4098.77173048,4113.2015272,715.60010658
off_to_on,4109.40124361,4109.00859709,4121.61742087,4130.78903748,4126.81948176,4128.27253225,4123.08801565,4114.44745325,4135.92996245,4108.96565225,4120.33877165,4098.38249785,4113.93937286,711.236394691
off_to_on,4109.34228073,4109.04474146,4122.1927294,4130.7646779,4127.44537866,4129.06302073,4123.83787549,4114.68280332,4135.91149588,4109.24619422,4120.66920104,4098.19428334,4114.87185006,704.482440116
off_to_on,4109.35105003,4109.25898656,4122.9033911,4130.75172693,4128.05146307,4129.92439164,4124.64166301,4115.07165809,4135.89566941,4109.71090365,4121.03241821,4098.22389118,4115.99681831,695.761384171
off_to_on,4109.44772473,4109.67145895,4123.74754024,4130.75122203,4128.63372186,4130.83794163,4125.4931056,4115.62197616,4135.88298916,4110.36848951,4121.4234866,4098.48167217,4117.30589065,685.554847068
off_to_on,4109.64893251,4110.29580764,4124.72089294,4130.76378912,4129.18927884,4131.78445987,4126.38492328,4116.33808048,4135.8738223,4111.22165032,4121.83695032,4098.97137323,4118.78465992,674.379298983
off_to_on,4109.96710831,4111.13870015,4125.81696256,4130.78960859,4129.71636256,4132.74478413,4127.30906631,4117.2204467,4135.86838831,4112.26694735,4122.26697091,4099.69022907,4120.41313389,662.761132614
off_to_on,4110.41001214,4112.19955184,4127.02732378,4130.82839766,4130.21421889,4133.70033122,4128.25696559,4118.26559029,4135.86675602,4113.49488538,4122.7074719,4100.62928642,4122.16636289,651.211447196
off_to_on,4110.98042942,4113.47049636,4128.34191146,4130.87941016,4130.68297442,4134.63358433,4129.21978654,4119.4660569,4135.86884637,4114.89019601,4123.15228707,4101.77394247,4124.0152361,640.201571929
off_to_on,4111.67606429,4114.9365969,4129.74934,4130.94145397,4131.12345909,4135.52852236,4130.188677,4120.81051759,4135.87444066,4116.4323115,4123.59530778,4103.10467146,4125.92741714,630.140334276
off_to_on,4112.489629,4116.5762898,4131.2372289,4131.01292566,4131.53699834,4136.37097839,4131.15500033,4122.28396695,4135.88319379,4118.09601051,4124.03062543,4104.59790634,4127.86838436,621.354015702
off_to_on,4113.40912544,4118.36204439,4132.79252146,4131.09186123,4131.92518633,4137.14891784,4132.11054475,4123.86801849,4135.89465174,4119.85221087,4124.45266478,4106.22703708,4129.80253795,614.069836141
off_to_on,4114.4183073,4120.26121578,4134.40178457,4131.17600121,4132.28965236,4137.85262955,4133.04770036,4125.5412885,4135.90827274,4121.66887942,4124.85630459,4107.96348295,4131.69433399,608.403672343
off_to_on,4115.49730513,4122.23706116,4136.05148005,4131.26286771,4132.63183224,4138.47482591,4133.95959602,4127.27985583,4135.92345094,4123.5120251,4125.23698209,4109.77779402,4133.50940499,604.35254947
off_to_on,4116.62339025,4124.24988483,4137.72819974,4131.34985057,4132.95275579,4139.01065174,4134.84018915,4129.05778266,4135.93954182,4125.3467389,4125.59077879,4111.64073715,4135.21562773,601.792256258
off_to_on,4117.77184874,4126.25827323,4139.41885944,4131.43429928,4133.25285982,4139.45760405,4135.68430436,4130.84768017,4135.95588821,4127.13824367,4125.91448549,4113.52432363,4136.78410208,600.480229357
off_to_on,4118.91693255,4128.22037894,4141.11084933,4131.51361691,4133.53183502,4139.81536899,4136.48761935,4132.6213021,4135.97184601,4128.8529178,4126.20564519,4115.40273959,4138.19000881,600.063640211
off_to_on,4120.03285271,4130.09521155,4142.79214136,4131.58535251,4133.78851283,4140.08558491,4137.24660018,4134.35015008,4135.98680848,4130.45925956,4126.46257355,4117.25314626,4139.41331967,600.092406753
off_to_on,4121.09477819,4131.84389412,4144.45135721,4131.64728811,4134.02079749,4140.27154421,4137.95839143,4136.00607534,4136.00022846,4131.92876271,4126.68435719,4119.05632392,4140.43933983,600.03665075
off_to_on,4122.07980454,4133.43084588,4146.07780264,4131.69751736,4134.22564637,4140.37784936,4138.6206693,4137.56186272,4136.01163746,4133.23667913,4126.87083099,4120.79714177,4141.25906915,599.307938212
off_to_on,4122.96785754,4134.82485492,4147.66147617,4131.7345126,4134.39910064,4140.41004047,4139.2314688,4138.99178489,4136.02066125,4134.36264913,4127.02253621,4122.46484326,4141.86937604,597.283482319
off_to_on,4123.74249965,4136.00000901,4149.19306121,4131.75717821,4134.53636632,4140.37421339,4139.78899801,4140.27211653,4136.02703121,4135.291186,4127.14066205,4124.05314492,4142.27298404,593.332362369
off_to_on,4124.39161045,4136.93645722,4150.66391105,4131.76488824,4134.63194439,4140.27664747,4140.29145415,4141.38160073,4136.03059136,4136.01200669,4127.22697342,4125.56015366,4142.47827787,586.842723555
off_to_on,4124.90791601,4137.62098073,4152.06603522,4131.75750728,4134.6798065,4140.12346129,4140.73685655,4142.30186195,4136.03130078,4136.52020595,4127.28372827,4126.98811457,4142.49894098,577.248874638
off_to_on,4125.2893472,4138.04735679,4153.3920948,4131.73539376,4134.67361161,4139.92031282,4141.1229109,4143.01776145,4136.02923156,4136.81627581,4127.31358767,4128.34300661,4142.35344149,564.057195814
off_to_on,4125.53921182,4138.21650569,4154.63541131,4131.69938596,4134.60695654,4139.67215756,4141.44691756,4143.51769211,4136.02456253,4136.90597619,4127.31952186,4129.63400803,4142.06438662,546.869807661
off_to_on,4125.66617119,4138.13641645,4155.78999168,4131.65077122,4134.47365249,4139.38307438,4141.70573349,4143.79380977,4136.01756911,4136.80006519,4127.30471521,4130.87285582,4141.65776862,525.405032445
off_to_on,4125.68401746,4137.82185269,4156.85056858,4131.59123952,4134.268018,4139.05616496,4141.89579419,4143.84219814,4136.00860996,4136.51389957,4127.27247263,4132.07312493,4141.16212626,499.513798259
off_to_on,4125.61125458,4137.29384658,4157.81265292,4131.52282324,4133.98517807,4138.69352876,4142.01319741,4143.66296403,4135.99811109,4136.06691809,4127.22612977,4133.24945398,4140.60764732,469.191289607
off_to_on,4125.47049283,4136.57899511,4158.67259352,4131.4478252,4133.62135869,4138.29631143,4142.05384707,4143.26026024,4135.98654826,4135.4820228,4127.16896885,4134.41674456,4140.02523815,434.583329215
off_to_on,4125.28767426,4135.70858011,4159.42763815,4131.36873765,4133.17416564,4137.86482152,4142.01365222,4142.6422346,4135.97442844,4134.78487592,4127.10414197,4135.58936227,4139.44558731,395.987177783
off_to_on,4125.09115409,4134.71753991,4160.07598995,4131.2881551,4132.64283665,4137.39870762,4141.88877323,4141.82090543,4135.96227128,4134.00313325,4127.03460323,4136.78036771,4138.89825033,353.846653144
off_to_on,4124.9106695,4133.64332677,4160.61685384,4131.20868409,4132.02845648,4136.89718565,4141.67590506,4140.81196542,4135.9505912,4133.16563713,4126.96305075,4138.00080532,4138.41078274,308.741689367
off_to_on,4124.77623338,4132.52468856,4161.05046828,4131.13285323,4131.33412529,4136.35930432,4141.37258537,4139.63451723,4135.93988083,4132.30159397,4126.89187949,4139.25907674,4138.00794726,261.372671082
off_to_on,4124.71699427,4131.40041688,4161.37811878,4131.0630266,4130.56507205,4135.78423541,4140.97751366,4138.31074616,4135.9305962,4131.43976202,4126.82314529,4140.56042261,4137.71101897,212.540080331
off_to_on,4124.76010664,4130.30810518,4161.60213066,4131.00132372,4129.72870624,4135.17157455,4140.49086686,4136.86553589,4135.92314415,4130.6076748,4126.75854026,4141.90653357,4137.53720977,163.120174621
off_to_on,4124.9296559,4129.28296061,4161.72583991,4130.94954902,4128.834603,4134.52163801,4139.9145958,4135.32603474,4135.91787211,4129.83092422,4126.69937976,4143.2953064,4137.49922951,114.0375685
off_to_on,4125.24568132,4128.35671123,4161.75354197,4130.90913306,4127.89441924,4133.83574079,4139.25268751,4133.72118027,4135.91506049,4129.13252468,4126.64660048,4144.72075641,4137.60499704,66.2357110527
off_to_on,4125.72333654,4127.55664702,4161.69041948,4130.88108774,4126.92174043,4133.11644226,4138.51137801,4132.08119019,4135.9149177,4128.53237669,4126.60076951,4146.17309126,4137.85750959,20.6463335272
off_to_on,4126.3722224,4126.90482767,4161.54245072,4130.86597671,4125.93185987,4132.36774629,4137.69930136,4130.43702833,4135.91757769,4128.04684402,4126.56210359,4147.6389455,4138.25487356,-21.8410180933
off_to_on,4127.19592001,4126.41748389,4161.31630114,4130.86390205,4124.94149493,4131.59524455,4136.82756229,4128.8198537,4135.92310028,4127.68845474,4126.53049788,4149.10176866,4138.79049424,-60.408252856
off_to_on,4128.19174403,4126.10463077,4161.01920066,4130.87450739,4123.96844631,4130.80619379,4135.9097217,4127.26046163,4135.93147384,4127.46573096,4126.50556286,4150.54235383,4139.45341593,-94.3357387396
off_to_on,4129.35072688,4125.96990366,4160.65880926,4130.89699743,4123.03120865,4130.00952004,4134.96168744,4125.78872537,4135.94262037,4127.38314755,4126.48666817,4151.93948706,4140.2287985,-123.026057573
off_to_on,4130.6578354,4126.01061775,4160.24307358,4130.930173,4122.14854258,4129.21574572,4134.00150576,4124.43304716,4135.95640269,4127.44121522,4126.47299119,4153.27069328,4141.09851087,-146.023649736
off_to_on,4132.09241187,4126.21804428,4159.78007704,4130.97248032,4121.33901963,4128.43683863,4133.04905307,4123.21982816,4135.97263339,4127.63667879,4126.46356854,4154.51304985,4142.04181801,-163.02963954
off_to_on,4133.62882265,4126.57788814,4159.27788601,4131.02207271,4120.62055287,4127.68598479,4132.12563146,4122.17296685,4135.99108522,4127.96281784,4126.45734794,4155.64403593,4143.0361345,-173.911304865
off_to_on,4135.23728948,4127.07094426,4158.74439501,4131.07688214,4120.00992663,4126.97729058,4131.25347602,4121.31339595,4136.01150245,4128.40983393,4126.4532384,4156.64238423,4144.05781586,-178.705837604
off_to_on,4136.88487168,4127.67390456,4158.18717371,4131.13469813,4119.52233906,4126.3254225,4130.45518628,4120.65866749,4136.03361282,4128.965306,4126.45015662,4157.48890171,4145.08295827,-177.61822895
off_to_on,4138.5365618,4128.36028225,4157.61331911,4131.19325084,4119.17097122,4125.74519563,4129.75309771,4120.22259536,4136.05713947,4129.61469467,4126.44706789,4158.16722701,4146.08817787,-171.013306156
off_to_on,4140.15645326,4129.10141716,4157.02931608,4131.25029536,4118.96659585,4125.25112434,4129.16861266,4120.01496353,4136.08181257,4130.34187521,4126.4430201,4158.66449527,4147.05134253,-159.402147787
off_to_on,4141.70893606,4129.86752399,4156.44090979,4131.30369421,4118.91723802,4124.8569504,4128.72151249,4120.04130697,4136.10737994,4131.12967948,4126.43717012,4158.97188464,4147.9522316,-143.423309451
off_to_on,4143.15987605,4130.62874491,4155.85299337,4131.35149491,4119.02789829,4124.57516517,4128.42927436,4120.30277102,4136.13361651,4131.96042805,4126.42880204,4159.08502344,4148.77310274,-123.819489702
off_to_on,4144.47773471,4131.35616919,4155.26951425,4131.39199993,4119.3003472,4124.41654305,4128.30641717,4120.79605357,4136.16033202,4132.81643512,4126.4173375,4159.00424203,4149.49914857,-101.410441803
off_to_on,4145.63458883,4132.02278455,4154.69340218,4131.42382629,4119.73299743,4124.38970348,4128.363901,4121.51343264,4136.18737679,4133.68047069,4126.40233824,4158.73465914,4150.11883084,-77.063082962
off_to_on,4146.6070143,4132.604329,4154.12652183,4131.44595274,4120.32085819,4124.50071858,4128.60860369,4122.44288043,4136.21464534,4134.53616721,4126.38350189,4158.28609829,4150.62408422,-51.6598672053
off_to_on,4147.37680373,4133.08001653,4153.56965225,4131.45775264,4121.05557377,4124.75278208,4129.04289633,4123.56826283,4136.24207766,4135.36836038,4126.36065157,4157.67283636,4151.01038759,-26.066570057
off_to_on,4147.93149444,4133.43311546,4153.02249519,4131.45901143,4121.92554634,4125.14595409,4129.66433719,4124.86962226,4136.26965817,4136.16335753,4126.33372076,4156.91319268,4151.27670525,-1.10067593501
off_to_on,4148.26469102,4133.65136466,4152.48371338,4131.44992796,4122.91614127,4125.67699351,4130.46550053,4126.32353993,4136.29741239,4136.90913041,4126.30273443,4156.02897343,4151.42530618,22.4984448709
off_to_on,4148.37617468,4133.72721895,4151.95099936,4131.43109983,4124.00997045,4126.3392874,4131.43395338,4127.90357297,4136.32540156,4137.59543285,4126.26778812,4155.04479188,4151.46147342,44.0964349971
off_to_on,4148.27179956,4133.65792154,4151.42117457,4131.40349329,4125.18724788,4127.1228835,4132.55238888,4129.58076072,4136.35371533,4138.21384732,4126.22902633,4153.98729013,4151.39312052,63.1868866661
off_to_on,4147.96318419,4133.44540767,4150.89031736,4131.3683992,4126.42620918,4128.01462836,4133.79892009,4131.32419345,4136.382463,4138.75776773,4126.18662168,4152.8842922,4151.23033458,79.4094165964
off_to_on,4147.46721352,4133.09604943,4150.35391776,4131.3273769,4127.70358534,4128.99841036,4135.14753293,4133.1016352,4136.41176361,4139.22232831,4126.14075622,4151.76392112,4150.98486865,92.5621569353
off_to_on,4146.80537325,4132.62025712,4149.80705519,4131.28218855,4128.99511921,4130.05550303,4136.56869075,4134.88019101,4136.44173532,4139.60429008,4126.09160583,4150.65371348,4150.66960698,102.608149339
off_to_on,4146.00294406,4132.03195692,4149.24459481,4131.23472669,4130.27611183,4131.16500048,4138.03007734,4136.62700649,4136.47248458,4139.90189754,4126.03932853,4149.57976513,4150.29802718,109.675359932
off_to_on,4145.08808755,4131.34796832,4148.66139636,4131.18693792,4131.52198484,4132.30433347,4139.49745907,4138.30998621,4136.50409557,4140.11471803,4125.98405693,4148.56593918,4149.88368215,114.050275955
off_to_on,4144.09085894,4130.58730752,4148.0525292,4131.14074578,4132.70884476,4133.44985138,4140.93564138,4139.89851553,4136.53662019,4140.24347565,4125.92589502,4147.63316512,4149.43972275,116.165293346
off_to_on,4143.0421835,4129.77044473,4147.41348622,4131.09797549,4133.81403479,4134.57745279,4142.30949017,4141.36416922,4136.57006927,4140.28989057,4125.86491904,4146.79885395,4148.97847935,116.580347874
off_to_on,4141.97283464,4128.91854412,4146.74038938,4131.06028345,4134.81666029,4135.66324522,4143.58498535,4142.6813897,4136.60440507,4140.25653291,4125.80118227,4146.07644929,4148.51111693,115.95946846
off_to_on,4140.91245063,4128.05271553,4146.03017976,4131.02909382,4135.69807479,4136.68421329,4144.73027144,4143.82811691,4136.6395356,4140.14669851,4125.73472331,4145.47512967,4148.04737495,115.043130969
off_to_on,4139.88862538,4127.19330565,4145.28078595,4131.00554443,4136.44231443,4137.61887386,4145.71666924,4144.78635186,4136.67531088,4139.96431205,4125.66557767,4144.99967098,4147.59539901,114.617458663
off_to_on,4138.92610493,4126.35925466,4144.49126499,4130.99044395,4137.03646958,4138.44789656,4146.51961237,4145.54263595,4136.71152149,4139.7138601,4125.59379215,4144.65047189,4147.1616671,115.481444277
off_to_on,4138.04611717,4125.56754102,4143.6619116,4130.9842419,4137.47098389,4139.15466916,4147.11947371,4146.08842901,4136.74789951,4139.40035464,4125.51944172,4144.42373871,4146.75100915,118.413450584
off_to_on,4137.26585603,4124.83273299,4142.79433214,4130.9870126,4137.739872,4139.72578839,4147.50224975,4146.42037075,4136.78412192,4139.02932463,4125.4426482,4144.31181973,4146.36671413,124.138278211
off_to_on,4136.59813544,4124.16666057,4141.89148095,4130.99845367,4137.8408493,4140.15145925,4147.66007515,4146.54041267,4136.8198166,4138.60683121,4125.36360021,4144.3036733,4146.01071504,133.296072573
off_to_on,4136.05122059,4123.57821604,4140.95765774,4131.01789932,4137.77536879,4140.42578826,4147.59154559,4146.45581099,4136.85457065,4138.13949997,4125.28257345,4144.38544854,4145.68383876,146.414276356
off_to_on,4135.6288367,4123.0732847,4139.99846532,4131.0443479,4137.54856239,4140.54695969,4147.30183368,4146.17897503,4136.88794094,4137.63456153,4125.19995033,4144.54115281,4145.38610413,163.883719887
off_to_on,4135.33034777,4122.6548016,4139.02072778,4131.07650256,4137.16908699,4140.51728715,4146.8025899,4145.72716962,4136.91946662,4137.09989029,4125.11623776,4144.75337644,4145.11704952,185.939783933
off_to_on,4135.15109124,4122.322924,4138.03236991,4131.11282361,4136.64887775,4140.34313734,4146.11162854,4145.12207492,4136.94868308,4136.54403056,4125.03208188,4145.00404318,4144.8760696,212.649376558
off_to_on,4135.08284832,4122.07530486,4137.0422599,4131.15159039,4136.00281455,4140.0347267,4145.25240628,4144.38921209,4136.97513703,4135.97619942,4124.94827855,4145.27515449,4144.66274083,243.904245152
off_to_on,4135.11442507,4121.90744842,4136.06001837,4131.19097008,4135.24831026,4139.60579662,4144.25330898,4143.5572482,4136.99840211,4135.40625738,4124.86577824,4145.54949703,4144.47711651,279.420902473
off_to_on,4135.23231572,4121.81312668,4135.09579784,4131.22909096,4134.4048326,4139.07317701,4143.14676958,4142.65719841,4137.01809454,4134.84463944,4124.7856846,4145.81128511,4144.31997373,318.747191593
off_to_on,4135.42141732,4121.78483362,4134.160038,4131.26411687,4133.4933735,4138.45625236,4141.96824678,4141.72154797,4137.03388814,4134.30224164,4124.70924566,4146.04671369,4144.19299747,361.275261377
off_to_on,4135.66576412,4121.81425364,4133.26320262,4131.29432017,4132.5358821,4137.77634816,4140.75509932,4140.78331995,4137.04552817,4133.79026067,4124.63783728,4146.24440174,4144.09889025,406.260481225
off_to_on,4135.94925078,4121.89272131,4132.41550546,4131.31815018,4131.55467862,4137.0560584,4139.54539513,4139.87511727,4137.05284353,4133.31998725,4124.57293862,4146.39571193,4144.04140002,452.845597997
off_to_on,4136.25631532,4122.01165183,4131.626633,4131.33429441,4130.57186683,4136.31853727,4138.37669685,4139.02816933,4137.05575657,4132.90255723,4124.5161,4146.4949381,4144.02526335,500.089238462
off_to_on,4136.57255567,4122.16292375,4130.9054725,4131.34173031,4129.60876257,4135.58677927,4137.28486628,4138.271414,4137.05429031,4132.54866724,4124.46890365,4146.53935874,4144.05606591,546.997697462
off_to_on,4136.88525776,4122.3391996,4130.25985432,4131.33976545,4128.68535502,4134.88291212,4136.30292941,4137.63064482,4137.04857261,4132.26826458,4124.4329189,4146.5291603,4144.14002662,592.558831054
off_to_on,4137.18381706,4122.53417321,4129.69631706,4131.32806469,4127.8198164,4134.22752656,4135.4600416,4137.12775138,4137.03883689,4132.07022311,4124.40965313,4146.46724022,4144.28371605,635.776797091
off_to_on,4137.46004099,4122.74273664,4129.21990357,4131.30666337,4127.02807353,4133.63906531,4134.78058842,4136.78007796,4137.02541954,4131.96201864,4124.40050047,4146.3589045,4144.49372303,675.706356116
off_to_on,4137.70832442,4122.96106361,4128.83399514,4131.27596593,4126.32345311,4133.13329123,4134.28345305,4136.59992193,4137.00875374,4131.94941796,4124.40669014,4146.21147892,4144.77628623,711.485466441
off_to_on,4137.92569667,4123.18661007,4128.54019009,4131.23673037,4125.71640953,4132.7228517,4133.98147473,4136.59418867,4136.98935995,4132.03619614,4124.42923637,4146.03385604,4145.13690909,742.364977507
off_to_on,4138.11174345,4123.4180365,4128.33823124,4131.19003892,4125.21434192,4132.41695231,4133.8811157,4136.76421506,4136.96783325,4132.22389588,4124.46889151,4145.83600201,4145.57997728,767.734339298
off_to_on,4138.26841282,4123.65506015,4128.2259854,4131.13725651,4124.82150389,4132.22114894,4133.98234581,4137.10576738,4136.94482787,4132.51164166,4124.52610393,4145.62844775,4146.10839774,787.142398574
off_to_on,4138.3997191,4123.89824819,4128.19947595,4131.07997846,4124.53900655,4132.13726311,4134.27874607,4137.6092136,4136.92103943,4132.89602019,4124.60098228,4145.42178877,4146.72327734,800.312541162
off_to_on,4138.51136242,4124.14876554,4128.25296789,4131.01996983,4124.36491276,4132.16342108,4134.75782423,4138.25986399,4136.89718543,4133.37103639,4124.69326723,4145.2262167,4147.42365778,807.151655874
off_to_on,4138.61028508,4124.40809269,4128.37910262,4130.95909868,4124.29441759,4132.29421275,4135.40152832,4139.03846824,4136.87398459,4133.92815185,4124.80231228,4145.05110286,4148.20632058,807.752628566
off_to_on,4138.70418737,4124.67772947,4128.56907787,4130.8992661,4124.32010796,4132.52096306,4136.18693736,4139.92185247,4136.85213578,4134.55640945,4124.92707455,4144.90465066,4149.06567266,802.390315732
off_to_on,4138.80102612,4124.95890095,4128.81286633,4130.8423358,4124.43229261,4132.83210434,4137.08710249,4140.88367462,4136.83229722,4135.24264437,4125.06611662,4144.79362925,4149.99371946,791.511189187
off_to_on,4138.90851927,4125.25228105,4129.0994652,4130.79006604,4124.61939162,4133.21363535,4138.07200694,4141.89527304,4136.81506667,4135.97177814,4125.21761997,4144.72319621,4150.98012836,775.717077203
off_to_on,4139.0336784,4125.55774866,4129.41716878,4130.74404664,4124.8683734,4133.64965027,4139.1096088,4142.92657996,4136.80096333,4136.72718892,4125.37941022,4144.69681246,4152.01238176,755.743641491
off_to_on,4139.18239014,4125.8741896,4129.75385541,4130.70564343,4125.16522564,4134.12291856,4140.16692846,4143.94706935,4136.79041207,4137.49114808,4125.54899422,4144.71624888,4153.0760156,732.434416193
off_to_on,4139.35906454,4126.19935633,4130.09728122,4130.67595241,4125.49544557,4134.61549569,4141.21114129,4144.92670782,4136.7837305,4138.24531015,4125.72360815,4144.78167971,4154.15493591,706.711390156
off_to_on,4139.56636542,4126.52979431,4130.43537271,4130.65576524,4125.84453453,4135.10934373,4142.21063665,4145.8368773,4136.78111942,4138.97124046,4125.90027581,4144.89185495,4155.23180292,679.54323151
off_to_on,4139.8050337,4126.86084102,4130.7565108,4130.64554731,4126.1984816,4135.58694079,4143.13600631,4146.65123957,4136.78265702,4139.6509631,4126.07587554,4145.04434082,4156.28846975,651.912327251
off_to_on,4140.07381021,4127.18669968,4131.04979925,4130.64542924,4126.54422146,4136.03185885,4143.96092837,4147.34651472,4136.78829693,4140.26751008,4126.24721398,4145.23581469,4157.30646036,624.78183825
off_to_on,4140.36945971,4127.50058595,4131.30531069,4130.65521188,4126.8700527,4136.42929097,4144.66291762,4147.90314893,4136.79787029,4140.80545211,4126.41110453,4145.46239889,4158.26746958,599.063954053
off_to_on,4140.68689313,4127.79494179,4131.51430393,4130.6743846,4127.16600399,4136.76651077,4145.2239192,4148.30585136,4136.8110918,4141.25139127,4126.56444776,4145.72001581,4159.15386693,575.59047268
off_to_on,4141.01938028,4128.06170751,4131.66940672,4130.70215601,4127.42413757,4137.03324972,4145.63072924,4148.54398495,4136.82756951,4141.59439691,4126.70431125,4146.00474584,4159.94918487,555.086728808
off_to_on,4141.35884149,4128.29263939,4131.76475909,4130.73749565,4127.63878111,4137.22198111,4145.87523369,4148.61180176,4136.84681792,4141.82636773,4126.82800559,4146.31316899,4160.63857286,538.149754146
off_to_on,4141.6962027,4128.479658,4131.79611348,4130.77918481,4127.80668132,4137.32810312,4145.95446351,4148.50851888,4136.86827408,4141.94230551,4126.93315412,4146.64267208,4161.2091996,525.231386371
off_to_on,4142.02179659,4128.61521066,4131.76088918,4130.82587434,4127.92707519,4137.3500169,4145.87047039,4148.2382363,4136.89131587,4141.94048902,4127.01775334,4146.99170404,4161.65058829,516.626855836
off_to_on,4142.32579013,4128.69263002,4131.65818006,4130.87614682,4128.0016767,4137.28909972,4145.63003334,4147.80970285,4136.91528184,4141.82253998,4127.08022191,4147.35996443,4161.95487295,512.469176774
off_to_on,4142.59861834,4128.70647093,4131.48871608,4130.92858048,4128.03458019,4137.14957648,4145.24421133,4147.23594108,4136.93949179,4141.59337638,4127.119436,4147.74851231,4162.11696732,512.72945566
off_to_on,4142.83140399,4128.65280817,4131.25478008,4130.98181216,4128.03208383,4136.93829678,4144.72776234,4146.53374612,4136.9632674,4141.26105255,4127.13474963,4148.15978607,4162.13464174,517.22300923
off_to_on,4143.01634352,4128.52947887,4130.96008301,4131.03459638,4128.00243937,4136.66442738,4144.09845363,4145.72307731,4136.98595205,4140.83648879,4127.12599887,4148.5975284,4162.00850698,525.620965587
off_to_on,4143.14704181,4128.3362563,4130.6096017,4131.08585814,4127.95553665,4136.33907303,4143.37629174,4144.82636453,4137.00692935,4140.33309784,4127.09348946,4149.06661449,4161.74190763,537.466813423
off_to_on,4143.21878086,4128.07494464,4130.20938463,4131.13473688,4127.90253331,4135.97484085,4142.58270327,4143.86775331,4137.02563966,4139.76631916,4127.03796803,4149.57278632,4161.340731,552.197179845
off_to_on,4143.22871082,4127.74938829,4129.7663325,4131.18061966,4127.85544183,4135.58536513,4141.73969879,4142.87231429,4137.04159436,4139.15307584,4126.96057765,4150.12230028,4160.81314072,569.165969174
off_to_on,4143.17595575,4127.36539354,4129.28796075,4131.22316193,4127.82668747,4135.18481073,4140.8690521,4141.86524253,4137.0543874,4138.51117233,4126.86279926,4150.7214998,4160.16924671,587.670888692
off_to_on,4143.06163038,4126.93056451,4128.78215204,4131.26229484,4127.82865133,4134.78737325,4139.99152529,4140.87107219,4137.06370394,4137.85865376,4126.74638118,4151.37632906,4159.42072548,606.981319935
off_to_on,4142.88876786,4126.4540597,4128.25690685,4131.29821873,4127.87321359,4134.40679375,4139.12616796,4139.91293091,4137.06932609,4137.21314953,4126.61325959,4152.09180725,4158.58040584,626.366462861
off_to_on,4142.6621632,4125.946279,4127.72010021,4131.33138295,4127.9713119,4134.05590457,4138.28971466,4139.01185633,4137.07113559,4136.59122449,4126.46547324,4152.87148576,4157.66183598,645.122687478
off_to_on,4142.38814048,4125.4184946,4127.17925262,4131.36245307,4128.13252976,4133.74622094,4137.49609999,4138.18619506,4137.06911375,4136.00776141,4126.30507598,4153.71691303,4156.67884773,662.599077041
off_to_on,4142.07425611,4124.88244182,4126.64132274,4131.39226686,4128.36472873,4133.48759102,4136.75610489,4137.45110066,4137.06333852,4135.47539756,4126.13405054,4154.62713303,4155.64513369,678.220236643
off_to_on,4141.72895277,4124.34988759,4126.11252861,4131.42178116,4128.67373697,4133.2879142,4136.07714173,4136.81814398,4137.05397926,4135.00403726,4125.95422719,4155.598244,4154.57385163,691.505563965
off_to_on,4141.36118133,4123.83219556,4125.59820327,4131.45201225,4129.06310465,4133.15293463,4135.46317976,4136.29504474,4137.04128931,4134.60045986,4125.76721042,4156.62304313,4153.47726978,702.084328345
off_to_on,4140.98000896,4123.33990686,4125.10268937,4131.48397267,4129.53393411,4133.08611398,4134.91480735,4135.88552957,4137.02559669,4134.26803993,4125.57431696,4157.69078117,4152.36646414,709.706073612
off_to_on,4140.59423225,4122.88235474,4124.62927572,4131.51860767,4130.08479038,4133.08858397,4134.42942247,4135.5893176,4137.00729349,4134.00659244,4125.37652783,4158.78704695,4151.25107729,714.246040097
off_to_on,4140.21201345,4122.46733016,4124.18017737,4131.55673459,4130.7116947,4133.1591773,4134.00153932,4135.40223134,4136.98682401,4133.81235185,4125.1744572,4159.89379765,4150.13914525,715.705482888
off_to_on,4139.84055687,4122.10081285,4123.75655912,4131.59898813,4131.40820107,4133.2945325,4133.6231955,4135.31642734,4136.96467234,4133.67808857,4124.96834008,4160.98954443,4149.03699614,714.206942823
off_to_on,4139.4858397,4121.78677962,4123.35860057,4131.64577442,4132.16555343,4133.48926678,4133.28444211,4135.32073817,4136.94134949,4133.59336134,4124.75804034,4162.04969679,4147.94922122,709.984703903
off_to_on,4139.15240933,4121.52709808,4122.98559918,4131.69723612,4132.9729182,4133.73620879,4132.97389629,4135.40111427,4136.9173806,4133.54489869,4124.54307962,4163.04706186,4146.87871585,703.370844138
off_to_on,4138.84325504,4121.32151044,4122.63610632,4131.75323026,4133.81768495,4134.02668157,4132.67933448,4135.5411514,4136.89329234,4133.51709692,4124.32268667,4163.95248787,4145.82678507,694.777450822
off_to_on,4138.55975835,4121.1677075,4122.30808941,4131.81331994,4134.68582565,4134.35082445,4132.38830255,4135.72268666,4136.869601,4133.49261735,4124.09586593,4164.735634,4144.79330573,684.675718454
off_to_on,4138.30172213,4121.06148916,4121.99911222,4131.87678019,4135.56230091,4134.69794154,4132.08871843,4135.92644297,4136.84680132,4133.45306046,4123.86148321,4165.3658423,4143.77693502,673.572770906
off_to_on,4138.06747401,4120.99700338,4121.70652385,4131.94261762,4136.43150054,4135.05686358,4131.76944242,4136.13269948,4136.82535636,4133.37969069,4123.61836574,4165.81308159,4142.77535343,661.987142792
off_to_on,4137.85403689,4120.9670525,4121.42764719,4132.00960298,4137.27770395,4135.41631007,4131.42079137,4136.32196373,4136.80568852,4133.25418316,4123.36541335,4166.04892887,4141.7855297,650.423913452
off_to_on,4137.65735604,4120.9634531,4121.15995752,4132.07631512,4138.08554569,4135.765239,4131.03497567,4136.47562155,4136.78817191,4133.05936263,4123.10171648,4166.04755142,4140.80399549,639.350507252
off_to_on,4137.4725712,4120.97743439,4120.9012436,4132.14119459,4138.840471,4136.09317282,4130.6064419,4136.57654258,4136.77312602,4132.77990607,4122.82667679,4165.78665267,4139.82711932,629.174154235
off_to_on,4137.29432079,4121.00005905,4120.64974517,4132.20260439,4139.52916661,4136.39049096,4130.13210956,4136.60962243,4136.76081087,4132.40298278,4122.5401249,4165.24834592,4138.85137054,620.221945627
off_to_on,4137.11706457,4121.02265047,4120.40426243,4132.25889568,4140.13995291,4136.64868112,4129.61149563,4136.56224623,4136.75142357,4131.91880891,4122.24243004,4164.41992315,4137.87356614,612.724321083
off_to_on,4136.9354113,4121.03721019,4120.16423513,4132.30847561,4140.66312497,4136.86054381,4129.04672687,4136.42466202,4136.74509633,4131.32109746,4121.9345961,4163.29448929,4136.89109469,606.802692248
off_to_on,4136.74443782,4121.0368102,4119.92979029,4132.3498748,4141.09123154,4137.02034659,4128.44244422,4136.19025648,4136.74189586,4130.60738872,4121.61833847,4161.87143696,4135.90211289,602.461745359
off_to_on,4136.53998694,4121.0159457,4119.70175924,4132.38181153,4141.41928326,4137.12392661,4127.80560897,4135.85572903,4136.74182407,4129.77925105,4121.29613677,4160.15674246,4134.90571154,599.586780273
off_to_on,4136.31893272,4120.97083552,4119.48166607,4132.40325027,4141.64488363,4137.16874185,4127.14522348,4135.42116409,4136.74482008,4128.84234678,4120.97125912,4158.16306951,4133.90204878,597.946242093
off_to_on,4136.07940335,4120.89965953,4119.27169059,4132.41345193,4141.76827905,4137.15387343,4126.47198219,4134.89000389,4136.75076333,4127.80636266,4120.64775472,4155.90967468,4132.89244952,597.199392402
off_to_on,4135.82095364,4120.8027245,4119.07460966,4132.41201367,4141.79232692,4137.07998248,4125.79787068,4134.26892737,4136.75947787,4126.68480944,4120.33041255,4153.42211511,4131.87947081,596.908858452
off_to_on,4135.54468113,4120.68255236,4118.89372118,4132.39889644,4141.72238354,4136.94922669,4125.13573122,4133.56764233,4136.77073744,4125.4946989,4120.02468557,4150.73176632,4130.8669333,596.557599212
off_to_on,4135.25328178,4120.54388723,4118.73275482,4132.37443896,4141.56611636,4136.76514207,4124.49881381,4132.79860012,4136.78427152,4124.25611066,4119.73658089,4147.8751638,4129.85991946,595.569644788
off_to_on,4134.95104309,4120.39362022,4118.59577335,4132.33935727,4141.33324744,4136.53249642,4123.90033075,4131.97664338,4136.79977197,4122.9916637,4119.47251765,4144.89318801,4128.86473896,593.333808243
off_to_on,4134.64377439,4120.24063327,4118.48706793,4132.29472962,4141.0352377,4136.25712121,4123.35303211,4131.11859814,4136.81690029,4121.72591002,4119.23915608,4141.8301168,4127.88886164,589.229442487
off_to_on,4134.3386759,4120.09556609,4118.41104993,4132.24196716,4140.68492313,4135.94572882,4122.86881735,4130.24282229,4136.83529531,4120.48466933,4119.04320197,4138.73257316,4126.94081827,582.65322507
off_to_on,4134.04414999,4119.97051232,4118.37214143,4132.1827713,4140.29611602,4135.60572228,4122.45839647,4129.36872292,4136.85458104,4119.29432468,4118.8911925,4135.64839911,4126.03006939,573.04590414
off_to_on,4133.76956012,4119.87865381,4118.37466615,4132.11907944,4139.88318522,4135.24500398,4122.1310112,4128.51625522,4136.87437481,4118.18110018,4118.78927036,4132.62548875,4125.16684292,559.91793158
off_to_on,4133.52494437,4119.83384359,4118.42274213,4132.05300106,4139.4606295,4134.8717893,4121.89422388,4127.70541583,4136.89429523,4117.17034202,4118.7429539,4129.71061495,4124.36194173,542.87294491
off_to_on,4133.32069263,4119.85015028,4118.5201772,4131.9867468,4139.04265827,4134.4944296,4121.75377767,4126.95574331,4136.91397008,4116.28582377,4118.75691211,4126.94828395,4123.62652336,521.628136569
off_to_on,4133.16719707,4119.94137821,4118.67036811,4131.92255301,4138.64279271,4134.12124803,4121.71352855,4126.28583774,4136.93304383,4115.54909634,4118.83475318,4124.37965185,4122.97185471,496.030664611
off_to_on,4133.0744873,4120.1205785,4118.87620374,4131.86260493,4138.27349909,4133.76038987,4121.77544584,4125.71291059,4136.95118469,4114.97890099,4118.97883571,4122.04153425,4122.40904569,466.069408292
off_to_on,4133.05186165,4120.39956698,4119.13997283,4131.80896094,4137.94586451,4133.41968837,4121.93967471,4125.25237448,4136.96809105,4114.59066212,4119.19011098,4119.96553817,4121.94876685,431.881549303
off_to_on,4133.10752684,4120.78846503,4119.46327645,4131.76348082,4137.66932341,4133.10654581,4122.20465215,4124.91748131,4136.98349725,4114.3960737,4119.46800398,4118.17734079,4121.60095687,393.753657823
off_to_on,4133.24825807,4121.29527854,4119.84694584,4131.7277605,4137.45144121,4132.82782923,4122.56726568,4124.71901522,4136.99717842,4114.40279062,4119.8103395,4116.69613537,4121.3745272,352.117173937
off_to_on,4133.47909115,4121.92552926,4120.2909662,4131.70307542,4137.29775957,4132.58977947,4123.02304345,4124.66504519,4137.00895441,4114.61423238,4120.21331805,4115.53425874,4121.27707123,307.538391235
off_to_on,4133.80305742,4122.68195111,4120.79440755,4131.69033467,4137.21170544,4132.39793209,4123.56636354,4124.76074033,4137.01869269,4115.02950301,4120.67154409,4114.69700872,4121.31458649,260.703261833
off_to_on,4134.22097063,4123.56426181,4121.35536374,4131.69004721,4137.19456422,4132.25704822,4124.19067033,4125.00824904,4137.02631015,4115.64342677,4121.17810726,4114.18265353,4121.49121772,212.397542385
off_to_on,4134.73127384,4124.56901776,4121.97090116,4131.70230163,4137.24551521,4132.17105319,4124.88868641,4125.40664198,4137.0317738,4116.4466956,4121.72471479,4113.98262883,4121.80902944,163.482981077
off_to_on,4135.32995239,4125.68955791,4122.63701939,4131.72675993,4137.36172613,4132.14298131,4125.65261011,4125.95191827,4137.03510031,4117.42612058,4122.30187155,4114.08191214,4122.26781566,114.870398969
off_to_on,4136.01051774,4126.91603945,4123.3486261,4131.76266583,4137.53850177,4132.17492568,4126.47429038,4126.63707336,4137.03635434,4118.56497695,4122.89910235,4114.45955903,4122.86495448,67.4906396076
off_to_on,4136.76406505,4128.23556586,4124.09952994,4131.80886733,4137.7694809,4132.26799268,4127.34537377,4127.45222679,4137.03564579,4119.84343015,4123.50520949,4115.08938114,4123.5953147,22.2644438242
off_to_on,4137.57940561,4129.63240551,4124.88245485,4131.86385286,4138.04687422,4132.42226185,4128.25742028,4128.38480786,4137.03312567,4121.23902916,4124.10855753,4115.94074297,4124.45122097,-19.9276509338
off_to_on,4138.44327296,4131.08829628,4125.68907963,4131.92579981,4138.36173548,4132.63675268,4129.20198803,4129.41979657,4137.02898093,4122.72725272,4124.69737642,4116.97945209,4125.42248337,-58.2742870836
off_to_on,4139.34059941,4132.58282938,4126.5101064,4131.99263385,4138.70425701,4132.90940049,4130.17068893,4130.54001736,4137.02342798,4124.28209358,4125.26007366,4118.1687161,4126.49649589,-92.0600811842
off_to_on,4140.2548572,4134.09390323,4127.33536066,4132.06209713,4139.06408052,4133.23704409,4131.15521976,4131.72648206,4137.01670521,4125.87666618,4125.78554591,4119.47013897,4127.65840676,-120.689259841
off_to_on,4141.16845642,4135.59823589,4128.15392507,4132.13182293,4139.4306138,4133.61542858,4132.1473745,4132.95877759,4137.0090643,4127.48382342,4126.26348046,4120.84472901,4128.89136089,-143.705279486
off_to_on,4142.06318948,4137.07192259,4128.95430748,4132.19941456,4139.79334366,4134.03922625,4133.13904458,4134.21549221,4137.00076086,4129.07676803,4126.68463746,4122.25389138,4130.17681227,-160.80572078
off_to_on,4142.92070982,4138.49102285,4129.72464253,4132.26252574,4140.14213612,4134.50207889,4134.12221399,4135.47467271,4136.99204415,4130.62964487,4127.04110404,4123.66037868,4131.49490103,-171.851917335
off_to_on,4143.72303111,4139.83216084,4130.45292443,4132.3189402,4140.46751468,4134.99666381,4135.08895633,4136.71430362,4136.98314665,4132.11810098,4127.32651262,4125.02917524,4132.82488678,-176.872957609
off_to_on,4144.45303183,4141.07312164,4131.127267,4132.3666476,4140.76090913,4135.51478582,4136.03144061,4137.91279798,4136.97427331,4133.51980149,4127.53621634,4126.32829297,4134.14562789,-176.063882732
off_to_on,4145.09494989,4142.19342644,4131.73618594,4132.40391333,4141.01486748,4136.04749609,4136.941952,4139.04948902,4136.96559136,4134.81489053,4127.6674165,4127.52946003,4135.43609365,-169.778092645
off_to_on,4145.63485157,4143.1748701,4132.2688966,4132.42933969,4141.22322599,4136.58523833,4137.81293291,4140.10511053,4136.9572206,4135.98638838,4127.71923762,4128.60868722,4136.67589477,-158.514171411
off_to_on,4146.06105949,4144.00200553,4132.7156194,4132.44191602,4141.38123301,4137.1180214,4138.63704794,4141.06225417,4136.94922511,4137.02051723,4127.69274822,4129.54670098,4137.84581648,-142.897546716
off_to_on,4146.36452516,4144.66256093,4133.06788385,4132.44105589,4141.48562447,4137.63561661,4139.40727509,4141.90579174,4136.94160631,4137.90695033,4127.59092622,4130.32923642,4138.92833737,-123.657596434
off_to_on,4146.53913295,4145.14777755,4133.3188213,4132.42661977,4141.53465072,4138.12777686,4140.11702308,4142.62325125,4136.93429827,4138.63898077,4127.41857032,4130.9471876,4139.9081171,-101.600991777
off_to_on,4146.58192451,4145.45265825,4133.463436,4132.39892227,4141.52805582,4138.58447388,4140.76027352,4143.20513654,4136.92716514,4139.21360807,4127.1821597,4131.39661698,4140.77243618,-77.582213481
off_to_on,4146.49323472,4145.5761196,4133.49884401,4132.35872324,4141.46701237,4138.99614925,4141.33174396,4143.64518116,4136.92000145,4139.63154243,4126.8896663,4131.67862892,4141.51157211,-52.4722935128
off_to_on,4146.27673351,4145.52104295,4133.42446978,4132.30720312,4141.35401648,4139.35397395,4141.82706652,4143.94052802,4136.91253512,4139.89712776,4126.55032551,4131.79911631,4142.1190976,-27.1269188117
off_to_on,4145.93937036,4145.29422305,4133.24219096,4132.24592308,4141.19274855,4139.65011008,4142.24297471,4144.0918279,4136.90443342,4140.01818639,4126.17437196,4131.76839171,4142.59208863,-2.3550789961
off_to_on,4145.49122159,4144.90621499,4132.95642262,4132.17677138,4140.98790689,4139.87796754,4142.5774897,4144.10325166,4136.89531193,4140.00578899,4125.77274838,4131.6007172,4142.93123261,21.110561089
off_to_on,4144.94524304,4144.37108289,4132.57413345,4132.10189781,4140.74502166,4140.0324471,4142.83009632,4143.9824131,4136.88474613,4139.87395455,4125.35679645,4131.31374858,4143.1408296,42.6404322856
off_to_on,4144.31693392,4143.70605586,4132.1047879,4132.02363846,4140.47025681,4140.11016047,4143.00189782,4143.74020184,4136.87228559,4139.63928557,4124.93793847,4130.92791109,4143.22868271,61.7309376342
off_to_on,4143.62392058,4142.93109937,4131.56021076,4131.94443353,4140.17020762,4140.10961735,4143.0957377,4143.3905277,4136.85747014,4139.320545,4124.52735962,4130.46572419,4143.20587742,78.0225323121
off_to_on,4142.88547208,4142.06841233,4130.95437344,4131.866741,4139.85170064,4140.03136945,4143.116277,4142.94998071,4136.83984769,4138.9381824,4124.13570003,4129.95109428,4143.08645366,91.312279937
off_to_on,4142.12196242,4141.14186288,4130.30310466,4131.79294949,4139.52160234,4139.87810216,4143.07001582,4142.43741293,4136.81899293,4138.51381866,4123.77276583,4129.40859412,4142.88697869,101.560365675
off_to_on,4141.3542962,4140.17637775,4129.62373122,4131.72529338,4139.18664151,4139.65466605,4142.9652506,4141.87345149,4136.79452641,4138.06970019,4123.44726776,4128.86274863,4142.6260333,108.89027578
off_to_on,4140.60331596,4139.19730195,4128.93465798,4131.66577365,4138.85324975,4139.36804221,4142.81196151,4141.27995419,4136.7661331,4137.62813482,4123.16659493,4128.33734585,4142.32362702,113.582595312
off_to_on,4139.88920987,4138.22974631,4128.25489806,4131.61608742,4138.52742318,4139.02723837,4142.621628,4140.67942164,4136.73357985,4137.21092278,4122.93663038,4127.85479126,4142.00056128,116.06262372
off_to_on,4139.23093789,4137.29794127,4127.60356672,4131.57756916,4138.2146073,4138.64311508,4142.40697467,4140.09438129,4136.69673087,4136.83879652,4122.76161337,4127.43552198,4141.67776155,116.882251283
off_to_on,4138.64569415,4136.42461491,4126.99935355,4131.55114572,4137.91960614,4138.22814437,4142.18165331,4139.5467604,4136.65556066,4136.53088382,4122.644052,4127.09749574,4141.37560104,116.69676574
off_to_on,4138.14842182,4135.63041359,4126.4599897,4131.53730715,4137.64651589,4137.79610636,4141.95987139,4139.05726637,4136.61016371,4136.30420905,4122.58468843,4126.8557676,4141.11323978,116.237458745
off_to_on,4137.75139628,4134.93338257,4126.00172749,4131.53609426,4137.39868254,4137.36173208,4141.75598017,4138.64479341,4136.56076049,4136.17324766,4122.58251733,4126.72216569,4140.90800324,116.281070651
off_to_on,4137.46389006,4134.34852328,4125.63885082,4131.54710313,4137.17868233,4136.94030288,4141.58403825,4138.32587472,4136.50769931,4136.1495483,4122.6348567,4126.70507415,4140.77482351,117.617242023
off_to_on,4137.29193119,4133.88744186,4125.38323419,4131.56950604,4136.98832342,4136.54721913,4141.45736717,4138.11419854,4136.45145376,4136.24143532,4122.73746884,4126.8093285,4140.72576426,121.015223509
off_to_on,4137.23816372,4133.55810108,4125.24396704,4131.6020876,4136.82866645,4136.19755201,4141.38811618,4138.02020443,4136.39261583,4136.45380224,4122.8847274,4127.03622484,4140.76964724,127.191128902
off_to_on,4137.30181556,4133.36468422,4125.2270583,4131.64329419,4136.70006142,4135.90559316,4141.38685219,4138.05077369,4136.3318845,4136.78800382,4123.06982502,4127.38364049,4140.9117941,136.777000725
off_to_on,4137.47877557,4133.30757576,4125.33523321,4131.69129446,4136.60219811,4135.6844173,4141.46218974,4138.20902453,4136.27005031,4137.24185098,4123.28501441,4127.84625992,4141.15389284,150.292893507
off_to_on,4137.76177761,4133.38345901,4125.56783147,4131.74404849,4136.53416697,4135.54547278,4141.62047405,4138.49421859,4136.20797616,4137.80970933,4123.52187474,4128.41589602,4141.49399273,168.123067008
off_to_on,4138.14068531,4133.58552652,4125.92081183,4131.79938281,4136.49452754,4135.4982144,4141.86552839,4138.90178256,4136.14657494,4138.48269847,4123.77159397,4129.08189375,4141.9266268,190.497224857
off_to_on,4138.60286752,4133.90379435,4126.38686442,4131.85506867,4136.48138145,4135.54979133,4142.19847547,4139.42344454,4136.08678475,4139.24898542,4124.02525751,4129.83159994,4142.44305537,217.477542019
off_to_on,4139.13365048,4134.3255076,4126.95562755,4131.90890065,4136.49244721,4135.70480144,4142.61764042,4140.04748172,4136.02954236,4140.09416245,4124.27413306,4130.65088077,4143.03161972,248.952004579
off_to_on,4139.71682984,4134.83562086,4127.6140018,4131.95877319,4136.52513417,4135.96512069,4143.11854075,4140.75907186,4135.97575599,4141.00169601,4124.50994188,4131.52466638,4143.67819016,284.634343489
off_to_on,4140.33522303,4135.41733494,4128.3465504,4132.00275246,4136.5766133,4136.32981335,4143.69396585,4141.54073789,4135.92627816,4141.95343117,4124.72510716,4132.43750095,4144.36668947,324.07059016
off_to_on,4140.97124161,4136.05266934,4129.1359716,4132.03914116,4136.6438831,4136.79512668,4144.33414585,4142.37287101,4135.88187965,4142.9301336,4124.91297128,4133.37407622,4145.07966985,366.652028556
off_to_on,4141.60746249,4136.72304935,4129.96362683,4132.06653426,4136.72382931,4137.35457013,4145.02700608,4143.23431532,4135.84322549,4143.91205033,4125.06797519,4134.31972796,4145.79892032,411.634075338
off_to_on,4142.22717788,4137.4098868,4130.81010646,4132.08386367,4136.81327773,4137.99907696,4145.75849975,4144.10299458,4135.81085377,4144.87946993,4125.18579495,4135.26087639,4146.50608094,458.160393535
off_to_on,4142.81490513,4138.09513452,4131.65581427,4132.09043028,4136.90903951,4138.71724269,4146.5130078,4144.95656007,4135.78515817,4145.81326336,4125.26343208,4136.1853946,4147.18324117,505.291345194
off_to_on,4143.3568394,4138.76179625,4132.48155108,4132.08592225,4137.00794882,4139.4956323,4147.27379141,4145.77303808,4135.76637472,4146.69538772,4125.29925653,4137.08289214,4147.81350074,552.03572489
off_to_on,4143.8412346,4139.39437588,4133.26907825,4132.07041888,4137.10689254,4140.31914543,4148.02348005,4146.53145541,4135.75457346,4147.5093372,4125.29300266,4137.94490516,4148.38147425,597.384594484
off_to_on,4144.25870066,4139.97925292,4134.00164254,4132.04437993,4137.20283241,4141.17142699,4148.74457678,4147.21242224,4135.74965515,4148.24052814,4125.2457206,4138.76498866,4148.87372341,640.345962293
off_to_on,4144.60240847,4140.50497414,4134.66444533,4132.00862091,4137.29282042,4142.03530966,4149.41996218,4147.79865376,4135.75135336,4148.87660843,4125.15968659,4139.53871153,4149.27910474,679.979019767
off_to_on,4144.86819726,4140.96245498,4135.24504102,4131.96427534,4137.37400887,4142.89327405,4150.03337952,4148.27541458,4135.75924187,4149.40768468,4125.03827756,4140.26355901,4149.58902451,715.42666942
off_to_on,4145.05458291,4141.34508748,4135.73365233,4131.91274549,4137.44365698,4143.72791273,4150.56988528,4148.630873,4135.77274708,4149.82646396,4124.88581588,4140.9387517,4149.79759615,745.945147721
off_to_on,4145.16266899,4141.64875511,4136.12339281,4131.85564352,4137.49913617,4144.52238453,4151.01625131,4148.85635568,4135.79116513,4150.12831011,4124.70739093,4141.56499311,4149.90169955,770.929660183
off_to_on,4145.19596628,4141.8717585,4136.4103906,4131.79472554,4137.53793604,4145.26084607,4151.36130733,4148.94649705,4135.81368322,4150.31121713,4124.50866469,4142.14416085,4149.90094495,789.935098824
off_to_on,4145.16012949,4142.01465927,4136.59381067,4131.73182126,4137.55767334,4145.92884851,4151.59621487,4148.89928185,4135.83940421,4150.37570548,4124.29566849,4142.67895857,4149.79754763,802.691100802
off_to_on,4145.06262349,4142.08005272,4136.67577682,4131.6687621,4137.55610549,4146.51368857,4151.71466689,4148.71598325,4135.86737391,4150.3246493,4124.07459819,4143.17254731,4149.59612322,809.110923508
off_to_on,4144.91233392,4142.07228283,4136.66119847,4131.60731068,4137.53115046,4147.00470442,4151.71301004,4148.40100305,4135.89661003,4150.1630448,4123.85161478,4143.62817576,4149.30341569,809.293844688
off_to_on,4144.71913949,4141.99711526,4136.55751054,4131.54909446,4137.480914,4147.39350907,4151.59028928,4147.96162406,4135.92613174,4149.89773216,4123.63265677,4144.0488286,4148.92797272,803.521037438
off_to_on,4144.49346423,4141.86138532,4136.37433819,4131.49554619,4137.4037247,4147.67415547,4151.34821698,4147.40768715,4135.95498904,4149.53708371,4123.42327007,4144.43691105,4148.47978386,792.245112504
off_to_on,4144.24582845,4141.67263767,4136.1231,4131.44785335,4137.29817632,4147.8432299,4150.99107006,4146.75120731,4135.98229072,4149.09067192,4123.22846011,4144.79398528,4147.96989732,776.0737546
off_to_on,4143.98641612,4141.43877365,4135.81656514,4131.40691851,4137.16317589,4147.8998715,4150.52552012,4146.0059441,4136.00723019,4148.56892974,4123.05256991,4145.12057138,4147.41003055,755.748093964
off_to_on,4143.72467493,4141.16772022,4135.46838047,4131.37333216,4136.99799483,4147.84571783,4149.96040259,4145.18694212,4136.0291081,4147.98281486,4122.89918681,4145.41602156,4146.81218863,732.116641528
off_to_on,4143.46896314,4140.86713238,4135.09258391,4131.34735886,4136.80231942,4147.68477819,4149.30643247,4144.31005753,4136.04735131,4147.34348849,4122.77107918,4145.67847273,4146.18830297,706.105771583
off_to_on,4143.22625488,4140.54413831,4134.70312026,4131.32893707,4136.57629664,4147.42323886,4148.57587541,4143.391486,4136.06152726,4146.66201781,4122.6701635,4145.90487899,4145.5499014,678.687853811
off_to_on,4143.00191301,4140.20513422,4134.31337491,4131.31769283,4136.32057157,4147.06920679,4147.78218434,4142.44730702,4136.07135359,4145.94911002,4122.59750108,4146.0911216,4144.90781888,650.848210352
off_to_on,4142.7995356,4139.85563307,4133.93574014,4131.31296639,4136.0363128,4146.63240104,4146.93961309,4141.49305771,4136.07670263,4145.21488431,4122.55332237,4146.23219105,4144.2719562,623.552101379
off_to_on,4142.62087916,4139.50016863,4133.58122743,4131.31385085,4135.72522298,4146.12380298,4146.062819,4140.54334826,4136.07760066,4144.46868595,4122.5370762,4146.32243212,4143.65109205,597.71292639
off_to_on,4142.46585854,4139.14225365,4133.2591372,4131.31924116,4135.38953232,4145.55527788,4145.1664671,4139.61152852,4136.0742221,4143.71894468,4122.54750022,4146.35583962,4143.05275144,574.162769046
off_to_on,4142.33262057,4138.78438874,4132.97679547,4131.32789129,4135.03197322,4144.93918102,4144.26484799,4138.70941351,4136.06687885,4142.97307705,4122.58270837,4146.32639019,4142.48313066,553.626311137
off_to_on,4142.2176856,4138.42811609,4132.73936427,4131.33847713,4134.65573506,4144.28796166,4143.37152058,4137.84707263,4136.05600533,4142.23743082,4122.64029077,4146.22839323,4141.94707718,536.699001128
off_to_on,4142.11614857,4138.07411109,4132.54973018,4131.34966233,4134.26439892,4143.61377808,4142.49898929,4137.03268438,4136.0421397,4141.51726772,4122.7174211,4146.05684341,4141.44812011,523.830194736
off_to_on,4142.02192954,4137.72230379,4132.40847231,4131.36016408,4133.86185272,4142.92813592,4141.6584234,4136.27245587,4136.02590208,4140.81678003,4122.81096713,4145.80775696,4140.98854608,515.311797239
off_to_on,4141.92806155,4137.37202148,4132.31390886,4131.36881597,4133.45218846,4142.24156118,4140.85942438,4135.57060389,4136.00797053,4140.13913582,4122.91759977,4145.47847495,4140.56951332,511.272734337
off_to_on,4141.82700334,4137.02214383,4132.26221836,4131.37462492,4133.03958416,4141.56331768,4140.10984565,4134.92939275,4135.98905568,4139.4865472,4123.03389717,4145.06791851,4140.19119636,511.679363836
off_to_on,4141.71096388,4136.67126195,4132.24762992,4131.37681976,4132.62817421,4140.90117713,4139.41566748,4134.34922281,4135.96987493,4138.8603558,4123.15644051,4144.57678337,4139.85295285,516.341719641
off_to_on,4141.57222594,4136.31783379,4132.26267449,4131.37488932,4132.22191272,4140.26124815,4138.78092903,4133.8287631,4135.95112722,4138.26113045,4123.28189927,4144.00766426,4139.55350397,524.92525949
off_to_on,4141.40345675,4135.96032903,4132.29848774,4131.36860839,4131.82443518,4139.64786877,4138.20771778,4133.36512086,4135.93346903,4137.68877247,4123.40710424,4143.36510361,4139.29112028,536.967578184
off_to_on,4141.19799477,4135.59735827,4132.34515372,4131.35805054,4131.43892417,4139.06356458,4137.69621554,4132.95404068,4135.91749274,4137.14262477,4123.52910781,4142.65556272,4139.0638051,551.899362218
off_to_on,4140.95010283,4135.22778244,4132.39207764,4131.34358726,4131.06798494,4138.50907247,4137.24479817,4132.59012561,4135.90370772,4136.6215817,4123.64523128,4141.88731741,4138.8694687,569.068712491
off_to_on,4140.6551797,4134.85080006,4132.42837519,4131.32587343,4130.71353681,4137.98342798,4136.85018518,4132.26707254,4135.89252505,4136.12419668,4123.75310004,4141.07028322,4138.70608659,587.767854561
off_to_on,4140.30992403,4134.46601075,4132.44326565,4131.3058196,4130.37672589,4137.48411177,4136.50763352,4131.97791426,4135.88424614,4135.64878477,4123.85066758,4140.21577804,4138.57183654,607.261188082
off_to_on,4139.91244634,4134.07345487,4132.4264559,4131.28455213,4130.05786416,4137.00724916,4136.21116951,4131.71526132,4135.87905568,4135.19351742,4123.93622976,4139.33623191,4138.4652092,626.813595643
off_to_on,4139.46232687,4133.67362955,4132.36850285,4131.26336289,4129.75639899,4136.5478546,4135.9538511,4131.4715369,4135.87701888,4134.75650671,4124.00843103,4138.44485572,4138.38508814,645.717938634
off_to_on,4138.96061901,4133.26748213,4132.26114249,4131.24365044,4129.47091619,4136.10011132,4135.72805212,4131.2391992,4135.87808328,4134.33587634,4124.06626385,4137.55528084,4138.33079622,663.320717713
off_to_on,4138.4097999,4132.8563829,4132.09757533,4131.22685558,4129.19917851,4135.65767507,4135.52575898,4131.01094631,4135.88208462,4133.92981742,4124.109063,4136.68118289,4138.3021066,679.044966008
off_to_on,4137.81367227,4132.44207976,4131.87269951,4131.21439395,4128.93820006,4135.21399065,4135.33887,4130.77989988,4135.88875669,4133.53662795,4124.13649575,4135.83590326,4138.29921863,692.409567238
off_to_on,4137.17722342,4132.0266386,4131.58328515,4131.2075887,4128.6843561,4134.76260948,4135.15948755,4130.53976453,4135.89774456,4133.15473625,4124.14854899,4135.03208217,4138.32270079,703.044341774
off_to_on,4136.50644919,4131.61237359,4131.22808601,4131.2076064,4128.43352584,4134.29749717,4134.98019342,4130.2849611,4135.90862068,4132.7827097,4124.1455143,4134.28131685,4138.37340502,710.700414551
off_to_on,4135.80815178,4131.20177229,4130.80788659,4131.21539894,4128.18126417,4133.81332048,4134.79429863,4130.01073217,4135.92090318,4132.41925124,4124.12797141,4133.59385764,4138.45235793,715.255560511
off_to_on,4135.08972096,4130.79741977,4130.32548474,4131.23165433,4127.92299657,4133.30570394,4134.59605969,4129.71321912,4135.93407549,4132.06318619,4124.09677058,4132.97835255,4138.56063547,716.714406683
off_to_on,4134.35890762,4130.40192555,4129.78561173,4131.25675847,4127.65422982,4132.77144734,4134.38085503,4129.38951032,4135.94760683,4131.71344213,4124.05301404,4132.44164885,4138.69922808,715.20355124
do_nothing,4133.62359845,4130.01785605,4129.19479296,4131.29076981,4127.37077003,4132.20869705,4134.14531689,4129.0376606,4135.96097243,4131.36902446,4123.99803629,4131.98865722,4138.86890298,710.961838686
do_nothing,4132.89159933,4129.647674,4128.56115409,4131.3334079,4127.06893866,4131.61706567,4133.88741634,4128.65668342,4135.973673,4131.02899024,4123.93338285,4131.62228173,4139.07007065,704.326205116
do_nothing,4132.17043448,4129.2936858,4127.89417886,4131.38405627,4126.74577712,4130.99769616,4133.60650042,4128.24651756,4135.9852526,4130.69242288,4123.86078675,4131.34341617,4139.30266181,695.713672609
do_nothing,4131.46716712,4128.95799665,4127.20442622,4131.44177932,4126.39923046,4130.35326841,4133.30328207,4127.80797138,4135.99531441,4130.35841032,4123.78214209,4131.15100532,4139.56602106,685.600219903
do_nothing,4130.78824633,4128.6424731,4126.50321585,4131.50535243,4126.02830137,4129.68794763,4132.9797843,4127.3426481,4136.00353368,4130.02602919,4123.69947394,4131.04216742,4139.85882288,674.497380324
do_nothing,4130.13938351,4128.34871233,4125.80229172,4131.57330375,4125.63316661,4129.00727586,4132.6392409,4126.85285566,4136.0096677,4129.69433678,4123.61490432,4131.01237197,4140.17901442,662.927511331
do_nothing,4129.5254605,4128.07801695,4125.11347438,4131.64396603,4125.21524933,4128.31800983,4132.28595655,4126.34150524,4136.0135623,4129.36237207,4123.53061373,4131.05566482,4140.5237889,651.398738185
do_nothing,4128.95047027,4127.83137493,4124.44831304,4131.71553611,4124.77724273,4127.62791011,4131.92513061,4125.81200198,4136.01515489,4129.02916652,4123.44879831,4131.16493135,4140.88959176,640.380593747
do_nothing,4128.41748996,4127.60944412,4123.81774882,4131.78613974,4124.32308264,4126.9454892,4131.56264985,4125.26813207,4136.01447396,4128.69376488,4123.37162259,4131.33218706,4141.27216106,630.281355661
do_nothing,4127.92868531,4127.4125419,4123.23180037,4131.85389922,4123.85786926,4126.27972738,4131.20485731,4124.71395004,4136.0116354,4128.35525612,4123.30116836,4131.54888536,4141.66660178,621.428021183
do_nothing,4127.48534401,4127.24064068,4122.69928238,4131.91700127,4123.38774061,4125.63976749,4130.85830606,4124.15367031,4136.00683582,4128.01281444,4123.23938064,4131.80623164,4142.06749257,614.0497606
do_nothing,4127.08793503,4127.09337017,4122.22756587,4131.97376261,4122.91970314,4125.03460065,4130.52950801,4123.5915673,4136.00034349,4127.66574946,4123.18801235,4132.09549328,4142.46902156,608.265556016
do_nothing,4126.73618949,4126.9700271,4121.82238775,4132.02269089,4122.46142637,4124.47275539,4130.22468814,4123.03188737,4135.99248733,4127.31356434,4123.14856953,4132.40829569,4142.8651465,604.076568355
do_nothing,4126.42919843,4126.86959295,4121.48771498,4132.06253873,4122.02101059,4123.9620028,4129.94955485,4122.47877571,4135.98364467,4126.95601957,4123.12225931,4132.7368947,4143.24977244,601.363588147
do_nothing,4126.16552178,4126.79075923,4121.22566662,4132.09234887,4121.60673697,4123.50908898,4129.70909532,4121.93621961,4135.97422833,4126.59319917,4123.10994299,4133.07441654,4143.61693933,599.88972241
do_nothing,4125.94330286,4126.73196006,4121.03649483,4132.11148871,4121.22681007,4123.11950488,4129.50740344,4121.40800814,4135.96467358,4126.22557561,4123.11209633,4133.41505765,4143.96101056,599.308258974
do_nothing,4125.76038265,4126.69141062,4120.91862379,4132.11967298,4120.88910241,4122.79730162,4129.34754536,4120.89770674,4135.95542561,4125.85406867,4123.12877923,4133.7542378,4144.27685356,599.175439337
do_nothing,4125.6144081,4126.6671506,4120.86874326,4132.11697347,4120.60091032,4122.54495744,4129.2314656,4120.40864398,4135.94692786,4125.48009361,4123.15961672,4134.0887014,4144.56000324,598.967670336
do_nothing,4125.50292948,4126.65709075,4120.88195171,4132.10381573,4120.36872963,4122.36329995,4129.15993509,4119.943907,4135.93961161,4125.10559336,4123.20379275,4134.41656332,4144.80679998,598.102521589
do_nothing,4125.42348215,4126.65906094,4120.95194207,4132.08096279,4120.19805895,4122.25148521,4129.13254063,4119.50634219,4135.93388709,4124.73305023,4123.26005784,4134.73729772,4145.01449491,595.962697551
do_nothing,4125.37364919,4126.67085746,4121.07122215,4132.04948692,4120.093237,4122.20703327,4129.14771469,4119.09855757,4135.93013621,4124.36547309,4123.32675079,4135.05166985,4145.18131652,591.922046504
do_nothing,4125.35110238,4126.69028795,4121.23136097,4132.01073065,4120.05731949,4122.22591801,4129.20280319,4118.72292351,4135.92870703,4124.00635687,4123.40183436,4135.36161335,4145.30649463,585.372579195
do_nothing,4125.35362043,4126.71521203,4121.42325197,4131.96625886,4120.09199906,4122.30270773,4129.29416829,4118.38156919,4135.9299098,4123.65961267,4123.48294366,4135.67005713,4145.39023959,575.751420908
do_nothing,4125.37908484,4126.74357683,4121.63738417,4131.91780401,4120.19757102,4122.43075133,4129.41732234,4118.07637257,4135.93401443,4123.32946858,4123.56744596,4135.98070837,4145.43367745,562.566614534
do_nothing,4125.4254557,4126.77344714,4121.86411297,4131.86720638,4120.37294514,4122.6024034,4129.56708734,4117.80894292,4135.94124935,4123.0203429,4123.65250984,4136.29780004,4145.43874387,545.420729166
do_nothing,4125.49073106,4126.80303055,4122.0939228,4131.81635178,4120.61570273,4122.80928014,4129.73777375,4117.58059551,4135.95180115,4122.73669371,4123.73518139,4136.62581296,4145.40804227,524.031307388
do_nothing,4125.57289528,4126.83069882,4122.3176752,4131.76710858,4120.92219594,4123.042537,4129.92337077,4117.39231904,4135.96581511,4122.48284986,4123.81246491,4136.96918353,4145.34467372,498.247301808
do_nothing,4125.66986216,4126.85500663,4122.5268365,4131.7212662,4121.28768483,4123.29315757,4130.1177402,4117.24473718,4135.98339603,4122.26283027,4123.88140537,4137.33200915,4145.25204732,468.060802744
do_nothing,4125.7794191,4126.87470905,4122.71368022,4131.68047692,4121.70650593,4123.5522429,4130.31480546,4117.1380658,4136.00460916,4122.08015868,4123.93917028,4137.71776295,4145.13368119,433.613538443
do_nothing,4125.8991778,4126.88877797,4122.8714601,4131.64620255,4122.17226539,4123.8112893,4130.5087276,4117.07206791,4136.02948113,4121.93768148,4123.98312816,4138.12902905,4144.99300412,395.19782962
do_nothing,4126.02653588,4126.89641699,4122.99454933,4131.61966767,4122.67804834,4124.06244298,4130.6940601,4117.0460075,4136.05800044,4121.83739584,4124.01092126,4138.56726805,4144.83316739,353.251893484
do_nothing,4126.1586521,4126.89707289,4123.07854259,4131.60182056,4123.21663632,4124.29872082,4130.86587477,4117.0586029,4136.09011765,4121.78029416,4124.02052987,4139.03262008,4144.65687518,308.349610462
do_nothing,4126.29243645,4126.89044123,4123.12031748,4131.59330294,4123.78072404,4124.51418785,4131.01985204,4117.10797963,4136.12574501,4121.76623024,4124.01032602,4139.523751,4144.4662402,261.185080774
do_nothing,4126.42455524,4126.8764636,4123.11805349,4131.59442959,4124.36312711,4124.70408457,4131.15233101,4117.19162328,4136.16475562,4121.79381168,4123.97911431,4140.03774545,4144.26267042,212.5524996
do_nothing,4126.55145087,4126.8553144,4123.07120827,4131.60517838,4124.95697301,4124.86489993,4131.2603173,4117.30633427,4136.20698225,4121.86032284,4123.92615849,4140.57004898,4144.04679105,163.322060815
do_nothing,4126.66937564,4126.82737649,4122.98045288,4131.62519112,4125.55586859,4124.99438849,4131.34145025,4117.44818807,4136.25221595,4121.96168282,4123.85119286,4141.11446103,4143.81840571,114.412753184
do_nothing,4126.77443894,4126.79320563,4122.84756952,4131.6537852,4126.15403857,4125.09153355,4131.39393485,4117.61250688,4136.30020459,4122.09244257,4123.75441851,4141.66317986,4143.576499,66.7630334642
do_nothing,4126.86266707,4126.7534851,4122.67531698,4131.68997581,4126.74643118,4125.15646031,4131.41644634,4117.79384962,4136.35065164,4122.24582576,4123.63648541,4142.20690041,4143.31928185,21.300443568
do_nothing,4126.93007448,4126.70897265,4122.46727051,4131.73250783,4127.3287883,4125.19030564,4131.40801808,4117.98602806,4136.40321554,4122.41381673,4123.49846187,4142.73496541,4143.0442794,-21.0887193786
do_nothing,4126.97274509,4126.66044245,4122.22764329,4131.77989669,4127.89767882,4125.19505225,4131.36792378,4118.18215584,4136.45750973,4122.58729845,4123.34179384,4143.23556897,4142.74845957,-59.5885720409
do_nothing,4126.9869218,4126.60862513,4121.96109747,4131.83047681,4128.45049516,4125.17333652,4131.29556509,4118.37473595,4136.51310383,4122.75624085,4123.16825642,4143.69601008,4142.42839859,-93.4805879371
do_nothing,4126.96910181,4126.55414934,4121.67255252,4131.88245621,4128.98541359,4125.12823975,4131.19037438,4118.55578964,4136.56952606,4122.9099384,4122.97990006,4144.10299142,4142.08047797,-122.167333074
do_nothing,4126.91613502,4126.49748772,4121.36699796,4131.93397553,4129.50132058,4125.06307295,4131.05174045,4118.71702695,4136.62626716,4123.03729275,4122.77899398,4144.44295693,4141.70110558,-145.19213295
do_nothing,4126.82532229,4126.43891041,4121.04931718,4131.98316952,4129.9977082,4124.98116517,4130.8789632,4118.85005631,4136.68278588,4123.12713419,4122.56796857,4144.70245934,4141.28695191,-162.253960192
do_nothing,4126.69451016,4126.37844841,4120.72412785,4132.02822899,4130.4745433,4124.88566531,4130.67124061,4118.94662748,4136.73851615,4123.1685727,4122.34935855,4144.86854721,4140.83519134,-173.217003
do_nothing,4126.52217848,4126.31586893,4120.39564314,4132.06746107,4130.93211648,4124.77936628,4130.4276893,4118.99889989,4136.79287591,4123.15136741,4122.125748,4144.92915967,4140.34373716,-178.114555683
do_nothing,4126.3075173,4126.25066401,4120.06755749,4132.09934568,4131.37087817,4124.66455974,4130.14739751,4118.99972605,4136.84527734,4123.06630164,4121.89971824,4144.87351596,4139.81145931,-177.14705819
do_nothing,4126.05048992,4126.18205344,4119.7429589,4132.12258625,4131.79127037,4124.54292831,4129.8295076,4118.94293848,4136.89513855,4122.90554911,4121.67379925,4144.69248692,4139.23837371,-170.674302851
do_nothing,4125.75187888,4126.10900199,4119.42426933,4132.13615296,4132.1935631,4124.41548032,4129.47332298,4118.82362786,4136.94189613,4122.66301685,4121.45042506,4144.37893557,4138.62579348,-159.202026435
do_nothing,4125.41331267,4126.03025067,4119.11321362,4132.13931681,4132.57770525,4124.2825305,4129.07843303,4118.63839956,4136.9850185,4122.33464984,4121.23189336,4143.92801497,4137.97643358,-143.363311108
do_nothing,4125.03727101,4125.94436095,4118.81081647,4132.13167363,4132.94319855,4124.14372739,4128.64484832,4118.38559671,4137.02401943,4121.91868332,4121.02032934,4143.33741246,4137.29446204,-123.895416661
do_nothing,4124.6270675,4125.84977014,4118.51742624,4132.11315703,4133.28900309,4123.9981257,4128.17313799,4118.06547837,4137.05847136,4121.41583055,4120.81765384,4142.60753158,4136.58549353,-101.612843738
do_nothing,4124.18680878,4125.74485597,4118.2327635,4132.08403984,4133.61348042,4123.84429935,4127.66456069,4117.68034306,4137.08801805,4120.82939536,4120.62555552,4141.74160434,4135.8565228,-77.3775749344
do_nothing,4123.72132998,4125.62800723,4117.95599139,4132.04492425,4133.91437852,4123.68048851,4127.12118023,4117.23458887,4137.11238601,4120.16530164,4120.44546691,4140.74572878,4135.11579829,-52.0675564528
do_nothing,4123.23610667,4125.49769703,4117.68580403,4131.99672069,4134.18886034,4123.50477176,4126.54595695,4116.73470341,4137.13139425,4119.432034,4120.27854423,4139.62882793,4134.37263773,-26.5445665154
do_nothing,4122.73714398,4125.35255434,4117.42052843,4131.94061636,4134.43357526,4123.31525341,4125.94280641,4116.18917895,4137.14496196,4118.64048624,4120.12565067,4138.40252807,4133.63719005,-1.62266109468
do_nothing,4122.23084377,4125.19142905,4117.15823453,4131.87803445,4134.64477047,4123.1102546,4125.31661803,4115.60835087,4137.1531137,4117.80371773,4119.98734313,4137.08095593,4132.92014946,21.9616147942
do_nothing,4121.72385169,4125.01344575,4116.89684773,4131.81058534,4134.81843739,4122.88849736,4124.67322805,4115.00416091,4137.15598175,4116.93662114,4119.86386241,4135.68045672,4132.23242978,43.5761127994
do_nothing,4121.22288667,4124.81804187,4116.63425812,4131.74001178,4134.95048613,4122.64927057,4124.01934367,4114.38984947,4137.1538055,4116.05550883,4119.75512697,4134.21923766,4131.58480918,62.7160221562
do_nothing,4120.73455645,4124.60498685,4116.36842096,4131.66812987,4135.03694007,4122.39256854,4123.36241733,4113.77958491,4137.14692772,4115.17762975,4119.6607306,4132.71694446,4130.98755716,79.0219617151
do_nothing,4120.265164,4124.37438038,4116.0974437,4131.59676792,4135.0741415,4122.1191939,4122.71047342,4113.18804056,4137.13578765,4114.32063187,4119.57994457,4131.19418171,4130.45005771,92.2924961201
do_nothing,4119.82051117,4124.12662956,4115.81965627,4131.52770563,4135.05895873,4121.83081905,4122.07189191,4112.62993363,4137.12091119,4113.50198964,4119.51172478,4129.67199084,4129.98044377,102.490558706
do_nothing,4119.40570689,4123.86240651,4115.53366273,4131.46261546,4134.9889857,4121.53000213,4121.4551564,4112.11954294,4137.10289819,4112.73841783,4119.45472477,4128.17130252,4129.58525889,109.743494802
do_nothing,4119.02498816,4123.58258946,4115.23837384,4131.4030087,4134.86272471,4121.22015606,4120.86857622,4111.67022423,4137.08240742,4112.04529564,4119.40731543,4126.71238158,4129.26916174,114.336683009
do_nothing,4118.68156218,4123.28819153,4114.93302163,4131.35018795,4134.67974437,4120.90547166,4120.31999431,4111.29394347,4137.06013938,4111.43612512,4119.36761243,4125.31428432,4129.03468798,116.700941446
do_nothing,4118.37747778,4122.98028231,4114.61715777,4131.30520798,4134.44080499,4120.59079808,4119.81649369,4111.00084817,4137.03681778,4110.92204739,4119.33351253,4123.9943476,4128.88208229,117.394170513
do_nothing,4118.11353379,4122.65990813,4114.29063906,4131.26884607,4134.14794563,4120.28148617,4119.36411667,4110.79889599,4137.01316995,4110.51143877,4119.30273955,4122.76772916,4128.80921076,117.077910844
do_nothing,4117.8892307,4122.32801715,4113.95360365,4131.24158296,4133.80452827,4119.98320241,4118.96761103,4110.69355831,4136.9899071,4110.20960578,4119.2729007,4121.64701671,4128.81156125,116.489695999
do_nothing,4117.70277076,4121.9853957,4113.60644258,4131.22359479,4133.41523652,4119.7017231,4118.63021754,4110.68761384,4136.96770477,4110.01859455,4119.24155347,4120.64192104,4128.88233544,116.4122483
do_nothing,4117.55110978,4121.63262144,4113.24977124,4131.21475616,4132.98602826,4119.44271886,4118.35351174,4110.78104345,4136.94718444,4109.93712521,4119.20628237,4119.75906536,4129.01263292,117.640695881
do_nothing,4117.4300615,4121.2700384,4112.88440505,4131.21465402,4132.5240432,4119.21154051,4118.13731038,4110.97103332,4136.92889662,4109.96065656,4119.16478453,4119.00187899,4129.19172331,120.949071495
do_nothing,4117.3344532,4120.89775721,4112.51134279,4131.22261167,4132.03746777,4119.01301651,4117.97964962,4111.25208797,4136.91330623,4110.08157995,4119.11496174,4118.37059938,4129.40739865,127.057385863
do_nothing,4117.25832867,4120.51568265,4112.13176048,4131.23772192,4131.53536134,4118.85127134,4117.87683788,4111.61624941,4136.90078057,4110.28953587,4119.05501616,4117.86238183,4129.64639434,136.600551463
do_nothing,4117.19519207,4120.1235686,4111.74701712,4131.25888801,4131.02744869,4118.72957285,4117.82358236,4112.0534138,4136.89158041,4110.5718405,4118.98354551,4117.47151195,4129.89486388,150.100366935
do_nothing,4117.13828429,4119.72109903,4111.35867301,4131.28487077,4130.52388482,4118.65021479,4117.81318407,4112.55173155,4136.88585449,4110.91400472,4118.8996333,4117.18971145,4130.13888939,167.941657639
do_nothing,4117.08088124,4119.30799143,4110.96851955,4131.31434019,4130.03499858,4118.61443911,4117.83779315,4113.09807348,4136.88363753,4111.30032352,4118.80292906,4117.00652401,4130.36500835,190.353509216
do_nothing,4117.01660262,4118.88411807,4110.57861884,4131.34592927,4129.57102271,4118.62240029,4117.88871315,4113.67854204,4136.88485193,4111.71451076,4118.69371394,4116.90976479,4130.5607355,217.396337096
do_nothing,4116.93971859,4118.44963876,4110.19134981,4131.37828815,4129.1418179,4118.67317228,4117.95674111,4114.27900509,4136.88931297,4112.14035194,4118.57294729,4116.88601476,4130.71505887,248.955313099
do_nothing,4116.84544188,4118.0051382,4109.80945726,4131.41013612,4128.75659909,4118.76479635,4118.03252837,4114.88562859,4136.89673744,4112.5623473,4118.44229065,4116.92114001,4130.8188897,284.740426732
do_nothing,4116.73019286,4117.55176067,4109.43609909,4131.44030941,4128.42367206,4118.89436658,4118.10694611,4115.48538475,4136.90675526,4112.96631799,4118.3041063,4117.00081534,4130.86544784,324.293203468
do_nothing,4116.59182568,4117.09133414,4109.07488687,4131.46780281,4128.15018777,4119.05814793,4118.17143922,4116.06651336,4136.91892382,4113.33995,4118.16142834,4117.11103215,4130.85056655,366.999847751
do_nothing,4116.42980444,4116.62647652,4108.72991421,4131.49180327,4127.94192141,4119.25172071,4118.21835254,4116.61891604,4136.93274435,4113.67325344,4118.01790537,4117.23857156,4130.77290341,412.110334375
do_nothing,4116.24531997,4116.16067653,4108.40576782,4131.51171441,4127.80308216,4119.47014394,4118.24121507,4117.13446676,4136.94767996,4113.95891828,4117.87771496,4117.37142557,4130.63404794,458.762745107
do_nothing,4116.04133963,4115.69834284,4108.10751598,4131.52717087,4127.7361594,4119.70812988,4118.23497005,4117.60722631,4136.96317449,4114.19255306,4117.74545141,4117.49915167,4130.43852003,506.011947097
do_nothing,4115.82258518,4115.24481599,4107.84067071,4131.53804238,4127.74181009,4119.96022199,4118.19614214,4118.03355337,4136.97867172,4114.37279773,4117.62598981,4117.61314984,4130.19365772,552.861546002
do_nothing,4115.59543655,4114.80633885,4107.61112032,4131.54442752,4127.81879204,4120.22096864,4118.12293545,4118.41211017,4136.99363412,4114.50130795,4117.5243302,4117.70685406,4129.9093972,598.297925697
do_nothing,4115.36776242,4114.38998315,4107.42503105,4131.54663797,4127.96394671,4120.48508603,4118.01525991,4118.74376511,4137.00756065,4114.58261307,4117.44542726,4117.7758342,4129.59795142,641.325109873
do_nothing,4115.14868163,4114.00353086,4107.28871765,4131.54517401,4128.17223451,4120.74760423,4117.87468564,4119.03139978,4137.0200028,4114.62385509,4117.39401104,4117.81780741,4129.27339797,680.99915176
do_nothing,4114.94826231,4113.65531135,4107.20848462,4131.54069281,4128.43682447,4121.00399184,4117.7043281,4119.27963102,4137.03057867,4114.63442067,4117.37440557,4117.83256153,4128.95118972,716.460780145
do_nothing,4114.77716885,4113.35399722,4107.19044188,4131.53397092,4128.74923849,4121.25025561,4117.5086694,4119.49446281,4137.03898425,4114.62548218,4117.39035214,4117.82179652,4128.64760537,746.965101209
do_nothing,4114.64626966,4113.10836399,4107.2403005,4131.52586289,4129.09954873,4121.48301327,4117.29332377,4119.68288485,4137.04500173,4114.60946753,4117.44484453,4117.78889315,4128.37915928,771.907270883
do_nothing,4114.566221,4112.92702114,4107.36315642,4131.51725783,4129.4766245,4121.69953897,4117.06475797,4119.85243716,4137.04850457,4114.59948104,4117.53998306,4117.73862103,4128.16199199,790.843207011
do_nothing,4114.54704408,4112.81812397,4107.56327106,4131.50903607,4129.86842346,4121.89778225,4116.82997907,4120.01076088,4137.04945903,4114.60869973,4117.67685407,4117.67680019,4128.01126415,803.504600887
do_nothing,4114.59771305,4112.78907727,4107.84385876,4131.50202774,4130.26232001,4122.07636287,4116.59620391,4120.16515602,4137.04792234,4114.64976979,4117.85544031,4117.60993195,4127.94057644,809.807705885
do_nothing,4114.72577127,4112.84624242,4108.20689101,4131.49697516,4130.64546226,4122.23454496,4116.37052508,4120.32216639,4137.04403753,4114.73422796,4118.07456729,4117.54481566,4127.96143792,809.85561564
do_nothing,4114.93699194,4112.9946601,4108.65292669,4131.49450055,4131.00514781,4122.3721944,4116.15958869,4120.48721064,4137.03802517,4114.87197113,4118.33188847,4117.48816801,4128.08280328,803.933986864
do_nothing,4115.23509735,4113.23780021,4109.18097683,4131.49508024,4131.32920698,4122.48972392,4115.96929845,4120.66427638,4137.0301725,4115.07079557,4118.62391156,4117.44626124,4128.3106976,792.500405561
do_nothing,4115.6215481,4113.57734985,4109.78841116,4131.49902657,4131.60638141,4122.58803012,4115.80455949,4120.8556912,4137.02082023,4115.33602392,4118.94606585,4117.42459532,4128.64794323,776.167830513
do_nothing,4116.0954108,4114.01304856,4110.47091169,4131.50647783,4131.82668492,4122.66842634,4115.6690731,4121.06198082,4137.01034785,4115.67023452,4119.29280948,4117.42761739,4129.09399986,755.682762961
do_nothing,4116.65330927,4114.54257822,4111.22247693,4131.5173966,4131.98173395,4122.73257425,4115.56519084,4121.28182018,4136.99915778,4116.07310287,4119.65777369,4117.45849909,4129.64492338,731.8989788
do_nothing,4117.28946094,4115.1615129,4112.03547836,4131.53157636,4132.06503485,4122.7824166,4115.4938332,4121.51207883,4136.98765921,4116.54136028,4120.03394001,4117.51897956,4130.29344464,705.747815008
do_nothing,4117.99579717,4115.86333145,4112.90076842,4131.54865569,4132.07221685,4122.82011232,4115.45447504,4121.74795738,4136.97625215,4117.06886975,4120.41384466,4117.60927865,4131.02916404,678.206119655
do_nothing,4118.76216289,4116.63949381,4113.80783817,4131.56813928,4132.00120088,4122.84797505,4115.44519691,4121.98320824,4136.96531245,4117.64681437,4120.78980335,4117.72808169,4131.83885369,650.263047949
do_nothing,4119.57658857,4117.47957944,4114.74502028,4131.58942451,4131.85229653,4122.86841535,4115.462799,4122.21042981,4136.95517817,4118.26398958,4121.15414847,4117.87259461,4132.70685482,622.886913663
do_nothing,4120.42562423,4118.37148434,4115.69973211,4131.61183216,4131.6282216,4122.88388679,4115.50297218,4122.42142072,4136.94613799,4118.90718654,4121.49946975,4118.03866503,4133.61555514,596.993287874
do_nothing,4121.29472351,4119.30167126,4116.6587516,4131.63463975,4131.33404157,4122.89683575,4115.56051841,4122.607578,4136.93842198,4119.56165116,4121.8188491,4118.22096282,4134.54592828,573.415476292
do_nothing,4122.16866346,4120.255466,4117.60851802,4131.65711593,4130.97702907,4122.90965472,4115.6296113,4122.76032138,4136.93219497,4120.21160066,4122.1060806,4118.41321112,4135.47811576,552.878402747
do_nothing,4123.03198488,4121.21739171,4118.53544831,4131.67855425,4130.56644661,4122.92463901,4115.70408607,4122.8715252,4136.92755289,4120.8407785,4122.35586721,4118.60845745,4136.39203126,535.97678486
do_nothing,4123.86943784,4122.17153237,4119.42625967,4131.69830493,4130.1132592,4122.94394723,4115.77774807,4122.93393958,4136.92452194,4121.43302729,4122.56398672,4118.79937302,4137.26796671,523.158318422
do_nothing,4124.666417,4123.1019163,4120.26828878,4131.71580328,4129.62978648,4122.96956659,4115.84468825,4122.94158354,4136.92306068,4121.97285986,4122.72742104,4118.97856806,4138.08718068,514.712397893
do_nothing,4125.4093728,4123.99291049,4121.04979895,4131.73059361,4129.12930694,4123.00328443,4115.89959477,4122.89009456,4136.92306487,4122.44600945,4122.84444438,4119.13891083,4138.8324506,510.764696254
do_nothing,4126.08618588,4124.82961666,4121.76026705,4131.74234782,4128.62562903,4123.04666778,4115.93804996,4122.77702207,4136.92437461,4122.83994135,4122.91466764,4119.27383879,4139.48857269,511.277711835
do_nothing,4126.68649441,4125.59825976,4122.39064346,4131.75087792,4128.13264521,4123.10105317,4115.95680221,4122.60205441,4136.92678368,4123.14431058,4122.93903806,4119.37765114,4140.04279522,516.057168051
do_nothing,4127.20196597,4126.28655988,4122.93357935,4131.75614227,4127.66388625,4123.16754812,4115.95400297,4122.36717182,4136.93005041,4123.35135174,4122.9197949,4119.44577284,4140.48517366,524.763931256
do_nothing,4127.62650778,4126.88407825,4123.38361634,4131.75824543,4127.23209248,4123.24704568,4115.92939913,4122.0767204,4136.93390973,4123.45618974,4122.86038361,4119.47498131,4140.80883853,536.930901821
do_nothing,4127.95641146,4127.3825287,4123.73733515,4131.75743176,4126.84881852,4123.34025257,4115.88447227,4121.73740452,4136.93808572,4123.45706223,4122.76533202,4119.46358804,4141.01016979,551.984147459
do_nothing,4128.19043051,4127.77604623,4123.99346002,4131.7540734,4126.52408663,4123.4477308,4115.82251836,4121.35819845,4136.94230429,4123.35544719,4122.64009376,4119.41156889,4141.08887446,569.26739864
do_nothing,4128.32979075,4128.06140526,4124.15291724,4131.74865323,4126.26610196,4123.56995198,4115.74866345,4120.95018059,4136.94630523,4123.15609209,4122.49086479,4119.32063819,4141.04796709,588.068919032
do_nothing,4128.37813618,4128.23818109,4124.21884653,4131.74174364,4126.0810407,4123.70736269,4115.66981379,4120.52629672,4136.9498534,4122.86694361,4122.32437997,4119.1942636,4140.89365566,607.649696645
do_nothing,4128.34141406,4128.30884885,4124.196565,4131.73398224,4125.97291855,4123.8604581,4115.59454109,4120.10106057,4136.95274833,4122.49898015,4122.14769703,4119.03762025,4140.6351382,627.271870713
do_nothing,4128.22770489,4128.27881569,4124.09348421,4131.72604564,4125.94354363,4124.02986071,4115.53290598,4119.69020159,4136.95483211,4122.06595187,4121.96797557,4118.857485,4140.28431817,646.226317737
do_nothing,4128.04700388,4128.15638301,4123.91898183,4131.71862251,4125.99255397,4124.21640007,4115.49622447,4119.31027099,4136.95599498,4121.58403624,4121.79225861,4118.66207378,4139.85544905,663.858371246
do_nothing,4127.81096112,4127.95263696,4123.68422967,4131.71238714,4126.11753619,4124.42118931,4115.4967836,4118.97821744,4136.9561786,4121.07141918,4121.627264,4118.46082706,4139.36472023,679.590741571
do_nothing,4127.53258821,4127.68126669,4123.40198089,4131.70797456,4126.31421828,4124.64569368,4115.5475135,4118.71094436,4136.95537669,4120.5478139,4121.47919206,4118.26415028,4138.82979789,692.942827354
do_nothing,4127.22593867,4127.35831112,4123.08631911,4131.70595817,4126.57672692,4124.89178675,4115.66162389,4118.52486023,4136.95363303,4120.03393118,4121.3535552,4118.08311767,4138.26933493,703.545762592
do_nothing,4126.90576994,4127.00183637,4122.75237282,4131.70683075,4126.89789655,4125.16178938,4115.8522138,4118.43543357,4136.95103691,4119.55091607,4121.2550338,4117.92914879,4137.70246463,711.152715211
do_nothing,4126.58719423,4126.63154801,4122.41599911,4131.71098944,4127.26961617,4125.45848743,4116.13186442,4118.45676377,4136.94771614,4119.11976671,4121.18736189,4117.81366845,4137.14829224,715.644136043
do_nothing,4126.2853259,4126.26834366,4122.09344165,4131.7187251,4127.68319787,4125.78512443,4116.51222573,4118.60117882,4136.94382801,4118.76075171,4121.1532451,4117.74776055,4136.62539845,717.027841579
do_nothing,4126.01493264,4125.93381386,4121.80096875,4131.73021604,4128.12975085,4126.14536643,4117.0036085,4118.87887024,4136.93954835,4118.4928423,4121.15431209,4117.74182701,4136.15136764,715.433995847
do_nothing,4125.79009768,4125.64970085,4121.5544985,4131.74552626,4128.60054438,4126.54323668,4117.61459308,4119.29757445,4136.93505929,4118.33317524,4121.19110011,4117.80526218,4135.74235258,711.105236292
do_nothing,4125.62389942,4125.43732646,4121.36921846,4131.76460749,4129.08734394,4126.98301897,4118.35166626,4119.86230865,4136.93053587,4118.29656116,4121.26307394,4117.94615264,4135.41268602,704.382363632
do_nothing,4125.5281146,4125.31700214,4121.25920866,4131.78730491,4129.58270591,4127.4691294,4119.21889701,4120.5751676,4136.92613209,4118.39505172,4121.36867687,4118.17101094,4135.17454739,695.686180952
do_nothing,4125.51295035,4125.30743539,4121.23707682,4131.81336551,4130.08021805,4128.00595753,4120.21766163,4121.4351867,4136.92196679,4118.63757752,4121.50541099,4118.48455107,4135.03769172,685.496215303
do_nothing,4125.58680938,4125.42514792,4121.31361513,4131.84244863,4130.57467541,4128.59767942,4121.34642795,4122.43827495,4136.91810996,4119.02966653,4121.66994399,4118.8895116,4135.00924516,674.327178487
do_nothing,4125.75609198,4125.68392139,4121.49748752,4131.87413798,4131.06218428,4129.24804638,4122.60060702,4123.57722002,4136.91456989,4119.57325076,4121.85823804,4119.38653138,4135.09357013,662.704116607
do_nothing,4126.02503698,4126.09428673,4121.79495584,4131.90795442,4131.54018994,4129.96015511,4123.97247922,4124.84176537,4136.91128187,4120.26656629,4122.06569654,4119.97408077,4135.29220025,651.137255279
do_nothing,4126.39560336,4126.66307287,4122.20965249,4131.94336922,4132.00742786,4130.73620594,4125.45119959,4126.21875831,4136.90809898,4121.10414929,4122.28732325,4120.64844946,4135.6038439,640.097566036
do_nothing,4126.86739362,4127.3930301,4122.74240633,4131.97981726,4132.46380125,4131.57725809,4127.02288587,4127.69236585,4136.90478544,4122.07692767,4122.51788859,4121.40379078,4136.02445315,629.994057605
do_nothing,4127.43761998,4128.28254305,4123.39112823,4132.01670998,4132.91019196,4132.48299123,4128.6707902,4129.24435455,4136.90101312,4123.17240623,4122.7520973,4122.23222065,4136.54735372,621.153733667
do_nothing,4128.10111484,4129.32544686,4124.15076192,4132.05344792,4133.3482147,4133.45148463,4130.37555341,4130.85442887,4136.89636156,4124.37494067,4122.9847521,4123.12396885,4137.16343099,613.805058204
do_nothing,4128.8503868,4130.51095899,4125.01330474,4132.08943246,4133.77992805,4134.47902469,4132.11553828,4132.50062177,4136.89032182,4125.66609386,4123.21090801,4124.06757882,4137.86136608,608.065634233
do_nothing,4129.67572392,4131.82373645,4125.96790228,4132.12407699,4134.20751723,4135.55995261,4133.86723607,4134.15973018,4136.88230442,4127.02506601,4123.42601277,4125.05015191,4138.62791618,603.934636734
do_nothing,4130.56534538,4133.24406558,4127.00101886,4132.15681708,4134.63296576,4136.68656261,4135.6057385,4135.80778675,4136.87165131,4128.42918827,4123.62602904,4126.05763044,4139.44823247,601.290352262
do_nothing,4131.50560205,4134.74818725,4128.09668429,4132.18711985,4135.05773297,4137.84906025,4137.30526527,4137.42055833,4136.85765175,4129.85446729,4123.80753509,4127.07511292,4140.30620894,599.892973701
do_nothing,4132.48122599,4136.30875659,4129.23681522,4132.21449245,4135.48245461,4139.03558857,4138.9397355,4138.97406034,4136.83956192,4131.27616644,4123.96780109,4128.08719354,4141.18485435,599.392586888
do_nothing,4133.47562717,4137.89543121,4130.40160691,4132.2384896,4135.90668283,4140.2323276,4140.48336949,4140.44507526,4136.8166277,4132.66940816,4124.1048392,4129.07831687,4142.06667999,599.342075177
do_nothing,4134.47123489,4139.47557751,4131.56998909,4132.25872025,4136.32868037,4141.42367052,4141.91130581,4141.8116629,4136.78810995,4134.00978139,4124.21742634,4130.03313877,4142.93409519,599.214466824
do_nothing,4135.4498795,4141.01507987,4132.72013687,4132.27485328,4136.74528188,4142.59247737,4143.20021724,4143.0536501,4136.75331166,4135.27393781,4124.30509977,4130.9368845,4143.76980345,598.424066805
do_nothing,4136.39320871,4142.47923329,4133.83002587,4132.28662226,4137.15183213,4143.7204042,4144.32890885,4144.15308778,4136.71160599,4136.44016175,4124.36812605,4131.77569597,4144.55719223,596.350556593
do_nothing,4137.28313119,4143.83369615,4134.87801848,4132.29382936,4137.54220743,4144.78830308,4145.27888055,4145.09466398,4136.66246415,4137.48889909,4124.40744533,4132.53696057,4145.28070986,592.365119327
do_nothing,4138.10227861,4145.04547656,4135.8434664,4132.29634842,4137.90892237,4145.77668499,4146.03483743,4145.86606237,4136.60548226,4138.40323204,4124.42459317,4133.20961466,4145.92622311,585.857558734
do_nothing,4138.83447585,4146.08392355,4136.70731358,4132.2941271,4138.24331955,4146.66623497,4146.58513159,4146.4582573,4136.54040589,4139.1692877,4124.42160348,4133.78441518,4146.481349,576.26333188
do_nothing,4139.46520778,4146.92169236,4137.45268205,4132.28718839,4138.53583579,4147.43836556,4146.92212101,4146.86573796,4136.46715147,4139.77656997,4124.40089662,4134.25417329,4146.93575444,563.089410533
do_nothing,4139.9820697,4147.53565308,4138.06542277,4132.27563115,4138.77633453,4148.07579203,4147.04243281,4147.0866559,4136.38582343,4140.21820604,4124.36515764,4134.61394405,4147.28141702,545.937923718
do_nothing,4140.37518802,4147.90771185,4138.53461364,4132.25962981,4138.95449031,4148.56311015,4146.9471209,4147.12289209,4136.29672625,4140.49110093,4124.31721017,4134.86116667,4147.51284064,524.526613743
do_nothing,4140.63759703,4148.02551565,4138.85298703,4132.23943309,4139.060209,4148.8873556,4146.64171025,4146.98004125,4136.20037081,4140.59599555,4124.25989139,4134.99575079,4147.62721988,498.70525633
do_nothing,4140.76555809,4147.88301411,4139.01727051,4132.21536175,4139.0840651,4149.03852323,4146.13612375,4146.66731308,4136.09747431,4140.53742705,4124.19593387,4135.02010514,4147.62454799,468.467347828
do_nothing,4140.75880848,4147.48085567,4139.02842664,4132.18780539,4139.01773665,4149.01002436,4145.44449039,4146.19735237,4135.98895361,4140.32359287,4124.12785935,4134.93910684,4147.50766439,433.956542898
do_nothing,4140.62072838,4146.82660006,4138.89178024,4132.15721836,4138.85441808,4148.79906175,4144.58483792,4145.58598147,4135.87591189,4139.96612351,4124.05788926,4134.76001132,4147.28223947,395.467527274
do_nothing,4140.35841687,4145.93473463,4138.61702474,4132.12411486,4138.58919224,4148.40690403,4143.57867641,4144.85187107,4135.75961861,4139.47977157,4123.98787582,4134.4923051,4146.95669585,353.441224304
do_nothing,4139.98267001,4144.82648825,4138.21810298,4132.08906315,4138.21934427,4147.83904441,4142.45048331,4144.01614641,4135.64148344,4138.8820276,4123.91925671,4134.14750533,4146.54206721,308.454452552
do_nothing,4139.50785701,4143.52944254,4137.71296156,4132.05267888,4137.74460298,4147.10523253,4141.2271037,4143.10193749,4135.52302454,4138.19267451,4123.85303495,4133.73891144,4146.05179686,261.204366087
do_nothing,4138.9516932,4142.07694677,4137.12318168,4132.01561761,4137.16729805,4146.21937269,4139.93708267,4142.1338832,4135.40583224,4137.43329411,4123.78978438,4133.28131525,4145.50147999,212.488210844
do_nothing,4138.33491204,4140.50734936,4136.47349399,4131.97856632,4136.49242506,4145.19928635,4138.60994918,4141.13760015,4135.29152917,4136.62673997,4123.72967978,4132.79067704,4144.90855459,163.179111723
do_nothing,4137.68084128,4138.86306492,4135.79118851,4131.94223415,4135.72761455,4144.06634228,4137.27547254,4140.13912839,4135.18172824,4135.7965915,4123.67254959,4132.28377582,4144.2919476,114.198758794
do_nothing,4137.01489212,4137.18950207,4135.10543492,4131.90734225,4134.88300468,4142.84496252,4135.96291433,4139.16436679,4135.07798989,4134.96660457,4123.61794781,4131.77784283,4143.67168415,66.4879812353
do_nothing,4136.36397257,4135.53388166,4134.44653128,4131.87461296,4133.97102149,4141.56201715,4134.70029851,4138.23851147,4134.98178039,4134.16017358,4123.56524105,4131.29018781,4143.06846854,20.9762797968
do_nothing,4135.75583859,4133.94397877,4133.84510141,4131.84475818,4133.00607432,4140.24612565,4133.51372246,4137.38551004,4134.8944327,4133.39981884,4123.51370587,4130.83782686,4142.50324581,-21.448570347
do_nothing,4135.2183977,4132.46682384,4133.33126247,4131.81846713,4132.00417764,4138.92688577,4132.42672947,4136.6275438,4134.81711157,4132.70671094,4123.46263084,4130.43711955,4141.99675223,-59.9697360337
do_nothing,4134.77898125,4131.14739985,4132.93378486,4131.7963934,4130.98251362,4137.63405471,4131.45976153,4135.98454878,4134.75078427,4132.10024157,4123.41141776,4130.10342156,4141.56906255,-93.8682953662
do_nothing,4134.46360244,4130.02737287,4132.67926711,4131.77914147,4129.95895205,4136.39670932,4130.62970814,4135.47378584,4134.69619795,4131.59764768,4123.35967622,4129.85075756,4141.23914153,-122.546977689
do_nothing,4134.29621901,4129.14389348,4132.59134907,4131.76725285,4128.95154592,4135.24241383,4129.94956386,4135.10946929,4134.65386481,4131.2136946,4123.30730617,4129.69151867,4141.02440737,-145.549813334
do_nothing,4134.29802055,4128.52850537,4132.6899861,4131.76119197,4127.97802111,4134.19642401,4129.42820415,4134.90246294,4134.62405525,4130.96042174,4123.25456368,4129.63618853,4140.9403153,-162.576983493
do_nothing,4134.48676115,4128.20619546,4132.99080646,4131.76133214,4127.05527914,4133.28095547,4129.0702844,4134.86005132,4134.60679945,4130.84695359,4123.20210595,4129.69310199,4140.99996936,-173.49433223
do_nothing,4134.87615823,4128.19461597,4133.50457236,4131.76794203,4126.19893037,4132.5145421,4128.87626351,4134.98579224,4134.60189698,4130.879377,4123.15101262,4129.86823999,4141.21377058,-178.337184431
do_nothing,4135.47537731,4128.50350432,4134.23676239,4131.78117298,4125.42287412,4131.91150736,4128.84254881,4135.27945521,4134.60893402,4131.06068404,4123.10278166,4130.16506399,4141.58910947,-177.308299644
do_nothing,4136.28862127,4129.13432069,4135.1872902,4131.80104776,4124.73893992,4131.48156718,4128.96175568,4135.7370486,4134.62730704,4131.3907789,4123.0592994,4130.58439289,4142.13011021,-170.76998346
do_nothing,4137.31484015,4130.08011696,4136.35037059,4131.82745124,4124.15660188,4131.22957896,4129.22307214,4136.35093653,4134.65625184,4131.86654609,4123.02278551,4131.12432549,4142.8374341,-159.230578303
do_nothing,4138.54757479,4131.3256434,4137.71454027,4131.86012358,4123.68277533,4131.15544596,4129.61271594,4137.11004493,4134.69487649,4132.48197688,4122.99571527,4131.78021189,4143.70814909,-143.325761193
do_nothing,4139.97494426,4132.84769267,4139.26283612,4131.89865668,4123.32170164,4131.25418104,4130.11446892,4138.00015349,4134.74219642,4133.22835004,4122.98072227,4132.54467657,4144.73567168,-123.795275197
do_nothing,4141.57978243,4134.61567263,4140.97312927,4131.94249432,4123.07492394,4131.51612784,4130.71027117,4139.00426797,4134.79717022,4134.09446181,4122.98048591,4133.40769553,4145.90978587,-101.455899003
do_nothing,4143.33992465,4136.59239237,4142.81860831,4131.99093683,4122.94135287,4131.92733203,4131.38085528,4140.10306436,4134.85873464,4135.06689885,4122.99760861,4134.35672796,4147.21674228,-77.1716065293
do_nothing,4145.22864052,4138.73503859,4144.76840021,4132.04315063,4122.91741835,4132.47004945,4132.10640012,4141.27539455,4134.92583717,4136.13034717,4123.03448793,4135.37690251,4148.63943861,-51.8219841427
do_nothing,4147.2152036,4140.99631362,4146.78831282,4132.09818303,4122.99730017,4133.12337352,4132.86718237,4142.4988406,4134.9974652,4137.26792948,4123.09318948,4136.45125657,4150.15768059,-26.270055604
do_nothing,4149.26558499,4143.32570094,4148.8416791,4132.15498237,4123.17322745,4133.86395995,4133.6442044,4143.75030294,4135.07267072,4138.46156314,4123.17532583,4137.56102626,4151.74852101,-1.33070779512
do_nothing,4151.34325309,4145.67082003,4150.8902799,4132.21242314,4123.43583424,4134.66682348,4134.41977773,4145.00660595,4135.15058976,4139.69233082,4123.28194701,4138.68598352,4153.38667222,22.2590938698
do_nothing,4153.41005862,4147.97882988,4152.8953192,4132.26933566,4123.77455647,4135.50617877,4135.17804279,4146.24510299,4135.23045617,4140.94085616,4123.41344717,4139.80481543,4155.04498562,43.8671639802
do_nothing,4155.42718084,4150.19783845,4154.81842416,4132.32453943,4124.17805387,4136.35629591,4135.905408,4147.44426225,4135.31160957,4142.18767642,4123.56949166,4140.89553926,4156.69498952,62.9889904755
do_nothing,4157.35610818,4152.27827524,4156.62264064,4132.37687915,4124.63463953,4137.19234045,4136.59089392,4148.58421463,4135.39349752,4143.41360448,4123.74896753,4141.9359446,4158.30747398,79.2657626248
do_nothing,4159.15962466,4154.17418487,4158.27339428,4132.42526224,4125.1326998,4137.99116814,4137.2263717,4149.64724536,4135.47567226,4144.60007219,4123.94996011,4142.90405267,4159.85310961,92.4968115916
do_nothing,4160.80277233,4155.84440197,4159.73938788,4132.46869632,4125.66108769,4138.73204628,4137.80668882,4150.61821218,4135.55778252,4145.72944769,4124.16975704,4143.77858134,4161.30308487,102.645951675
do_nothing,4162.25376006,4157.25357176,4160.99340702,4132.50632536,4126.20947419,4139.3972762,4138.32967913,4151.484875,4135.63956108,4146.78531985,4124.40488048,4144.5394036,4162.62974569,109.841441682
do_nothing,4163.48478998,4158.37298555,4162.01300854,4132.53746289,4126.76864446,4139.97269527,4138.79605827,4152.23812429,4135.72080898,4147.75274375,4124.65114734,4145.16798713,4163.80722006,114.369529641
do_nothing,4164.47277509,4159.18120727,4162.78106978,4132.56162079,4127.3307279,4140.44804127,4139.20920941,4152.87209886,4135.80137725,4148.61844233,4124.90375621,4145.64780208,4164.81201051,116.661793054
do_nothing,4165.19992485,4159.66447429,4163.28618114,4132.57853233,4127.88935505,4140.81716801,4139.57486829,4153.38418794,4135.88114727,4149.37096074,4125.15739879,4145.96468537,4165.62353776,117.276730618
do_nothing,4165.65417981,4159.81686395,4163.52286983,4132.58816803,4128.43973721,4141.07810682,4139.90072051,4153.77491686,4135.96001087,4150.0007716,4125.40639265,4146.1071504,4166.22462022,116.876287557
do_nothing,4165.82948153,4159.64022528,4163.49164845,4132.59074347,4128.9786687,4141.23297511,4140.19592714,4154.04772085,4136.0378511,4150.5003312,4125.64483115,4146.06663283,4166.6018754,116.198196262
