label,COUNTER,INTERPOLATED,AF3,F7,F3,FC5,T7,P7,O1,O2,P8,T8,FC6,F4,F8,AF4,RAW_CQ,GYROX,GYROY,MARKER,SYNC,TIME_STAMP_s,TIME_STAMP_ms,CQ_AF3,CQ_F7,CQ_F3,CQ_FC5,CQ_T7,CQ_P7,CQ_O1,CQ_O2,CQ_P8,CQ_T8,CQ_FC6,CQ_F4,CQ_F8,CQ_AF4,CQ_CMS,CQ_DRL
off_to_on,-63.3691448344,-40.4035159641,-51.5955467603,1.47800416253,-69.7697571033,-92.4215626626,-96.9674113381,-94.6445007241,-0.775648576539,-91.8300509068,-46.2165622472,-93.1380940219,-68.3604010027,117.378469829
off_to_on,-60.5384643681,-37.7442639625,-49.1695776964,3.30332354278,-67.0234881161,-88.2538686386,-93.2444221845,-91.1742233431,0.829777922782,-88.8103207457,-42.2778254028,-90.2537175308,-62.7015733902,119.339079094
off_to_on,-52.8593071954,-31.9861385822,-42.8008232886,5.02937385139,-58.7795459194,-77.4509443384,-82.822838157,-81.1320473206,2.49379908077,-78.9938385497,-34.8144809197,-80.5229172758,-51.800474403,112.714156761
off_to_on,-40.9398780895,-23.5566099443,-32.9841582846,6.56246874572,-45.6986045411,-60.8864334776,-66.5273367557,-65.3005016272,4.12886441481,-63.1615369984,-24.4062836129,-64.6985199642,-36.5539804947,98.2705282338
off_to_on,-25.7715363091,-13.1337221352,-20.5279179268,7.81145681334,-28.8826885859,-39.9246406351,-45.6653099141,-44.9439258106,5.63845305369,-42.6229823943,-11.9082926568,-44.0694538453,-18.2612232769,77.3935039012
off_to_on,-8.62990314061,-1.57932871986,-6.47313471289,8.69623934479,-9.76449081458,-16.283625975,-21.899280036,-21.6859754858,6.92589051,-19.0851378732,1.63369884526,-20.3339106658,1.50792251086,51.9569330968
off_to_on,9.05195476989,10.1465860838,8.01023935329,9.15616580676,10.0357345625,8.13348736834,2.91187944526,2.64553418211,7.90391907999,5.51698873571,15.0869601665,4.56730671179,21.0709188788,24.1534395929
off_to_on,25.8242839534,21.0809317686,21.7385872357,9.15714099985,28.8699285919,31.4204525119,26.8859156067,26.1898518625,8.50376897104,29.209115559,27.3433085394,28.6390797347,38.7996236924,-3.69999716245
off_to_on,40.3599230427,30.3512881536,33.6286364772,8.6963894738,45.2211648074,51.8435339392,48.2862277996,47.222511005,8.68251678859,50.1652635669,37.425965776,50.0214927767,53.2779065664,-29.3641034193
off_to_on,51.5770548598,37.258090732,42.7978290833,7.80409842065,57.8446483383,67.9925424595,65.6697496997,64.3050604434,8.42773532404,66.8740266991,44.5801570551,67.1602785432,63.432741699,-50.8695358819
off_to_on,58.7325226534,41.336372792,48.6404482938,6.54156210519,65.8760047753,78.8923045946,77.9993044686,76.4003702895,7.75880242386,78.2662601955,48.3378920623,78.9403702927,68.6250445562,-66.6827141605
off_to_on,61.4764352332,42.3907553071,50.8719259166,4.99592108851,68.8961322071,84.0645685558,84.7104343329,82.9427846111,6.72469374733,83.7917253176,48.5505521773,84.7692632856,68.6914491885,-75.8309473534
off_to_on,59.8634607785,40.5006458419,49.5376328475,3.27205892396,66.9471280352,83.5363214185,85.7280856738,83.8577334469,5.39856702775,83.4384118571,45.3868004193,84.6028983148,63.934118955,-77.9759498726
off_to_on,54.3213426415,35.9961894928,44.9866972776,1.48261768069,60.4995810794,77.7967256562,81.4342563665,79.5312425038,3.86988272679,77.695042746,39.2974413816,78.9135390922,55.0618111544,-73.4291889186
off_to_on,45.5821256362,29.4089551095,37.8154688078,-0.262638593327,50.3771245557,67.7106173316,72.5930988232,70.7353865634,2.23513324775,67.4638103971,30.9526714624,68.605794401,43.0910175107,-63.107492613
off_to_on,34.5857487334,21.4042076678,28.7886477826,-1.86678767535,37.6488909823,54.4010617618,60.2443905355,58.5204546647,0.588422248182,53.9359043966,21.1602044701,54.8927228531,29.2203930773,-48.4326107777
off_to_on,22.3685361289,12.7035600602,18.7484150086,-3.25380760631,23.5038265784,39.1163182097,45.5792367853,44.087882397,-0.986877062175,38.4462078597,10.7746683216,39.1481590494,14.6943421664,-31.1835470819
off_to_on,9.95036971359,4.00758630104,8.52285980697,-4.37376496859,9.12232960418,23.0974324734,29.8130522839,28.6594962859,-2.42434719253,22.3252315797,0.60923097867,22.7535273829,0.672254732958,-13.315031684
off_to_on,-1.76616944112,-4.07246195142,-1.15547532517,-5.20457329605,-4.43977015443,7.4615232992,14.0702008005,13.3581744965,-3.67793790607,6.7657640035,-8.64040807513,6.95724306413,-11.8815529392,3.24095839043
off_to_on,-12.0735403584,-11.0662761262,-9.71193842332,-5.75024521583,-16.3421670165,-6.88711951095,-0.707693070703,-0.887231723643,-4.72230323952,-7.28102253673,-16.4515863705,-7.2375882272,-22.2754114176,16.771590077
off_to_on,-20.5061765875,-16.6743793749,-16.7669000824,-6.03605259565,-26.0170427693,-19.3103036272,-13.8214480436,-13.4036121991,-5.55026954913,-19.1697447452,-22.5047315253,-19.1457167374,-30.1282437762,25.958008866
off_to_on,-26.8532406731,-20.7742615629,-22.1451337209,-6.10143493666,-33.187878831,-29.4507867025,-24.8382567642,-23.797547344,-6.16806549453,-28.5805866284,-26.686340708,-28.4266235171,-35.3661185845,30.0106002679
off_to_on,-31.1383972192,-23.4039279133,-25.8586433126,-5.99179501376,-37.8510528761,-37.2110313556,-33.5807921969,-31.9421298848,-6.58926511538,-35.4959612668,-29.0668871058,-35.0658855437,-38.1810410782,28.7499867488
off_to_on,-33.5720343143,-24.726931917,-28.0675577469,-5.75044878574,-40.2259021804,-42.7026794044,-40.0867819525,-37.9320097678,-6.82856238772,-40.1408639136,-29.8587839485,-39.3170177653,-38.9603250345,22.6240716246
off_to_on,-34.4847038782,-24.9852020287,-29.0263666731,-5.41193583782,-40.6827219439,-46.1768953828,-44.5477494221,-42.0158060784,-6.89648550934,-42.8981218017,-29.3618371137,-41.6146021322,-38.1983159977,12.6577248687
off_to_on,-34.2525838515,-24.4472653416,-29.0243320942,-4.99765724539,-39.6605217683,-47.9475096421,-47.2376902857,-44.5174383773,-6.79597447927,-44.2124677793,-27.9048099304,-42.4727344649,-36.4039646274,0.338694276975
off_to_on,-33.2262549566,-23.3596735221,-28.3291966795,-4.51442660167,-37.587019333,-48.3189514082,-48.4429731922,-45.7586848753,-6.52141583849,-44.4981021502,-25.7916874113,-42.3840600652,-34.0175958823,-12.5496889813
off_to_on,-31.6730104325,-21.9085524027,-27.1423242132,-3.9560550022,-34.8122741146,-47.5293714691,-48.4037227668,-45.994332555,-6.0603054374,-44.0631229974,-23.2600110974,-41.7338196471,-31.3482599876,-24.1322297721
off_to_on,-29.7404691704,-20.1963808117,-25.5713238228,-3.30761240572,-31.5647577907,-45.7164024143,-47.2745657102,-45.3688279476,-5.39725978571,-43.0611344447,-20.4564692135,-40.7405593447,-28.5396004834,-32.6605431093
off_to_on,-27.4458143115,-18.2366350253,-23.6233483656,-2.5515882041,-27.9349271964,-42.9091558552,-45.1092736252,-43.8997481556,-4.51968913577,-41.4759543169,-17.4321068001,-39.4308953531,-25.567743591,-36.7226772392
off_to_on,-24.6910329235,-15.9661750611,-21.2190392633,-1.67487622095,-23.8870601203,-39.0458814982,-41.870014224,-41.4892143919,-3.4241446824,-39.1402741408,-14.1564821351,-37.6505797665,-22.2699343961,-35.4197265787
off_to_on,-21.3006483777,-13.2725925205,-18.2239760242,-0.675378404508,-19.2958500509,-34.0128083774,-37.4581689363,-37.960159028,-2.12220565506,-35.7840899573,-10.5472734731,-35.1088097454,-18.3981858848,-28.4882572486
off_to_on,-17.0751564915,-10.0315583666,-14.491915233,0.432923331051,-14.0006299778,-27.6965929073,-31.7605067126,-33.1107142004,-0.644803683456,-31.1044160849,-6.50962665549,-31.4479846674,-13.6886764366,-16.3527216734
off_to_on,-11.8511466538,-6.14780019226,-9.91242297349,1.61734494468,-7.86760288118,-20.0409210127,-24.702342535,-26.7774068705,0.955911500718,-24.8447953695,-1.97822672273,-26.3275814573,-7.93550012305,-0.099479853295
off_to_on,-5.55820328133,-1.59288519114,-4.45493653326,2.82687075681,-0.849424803104,-11.0973791567,-16.2984259442,-18.8966572676,2.60770911987,-16.8718167948,3.045162476,-19.5089469833,-1.05691058623,18.62719524
off_to_on,1.73675784798,3.56646756999,1.79810465083,3.99559935494,6.96796814404,-1.06173941821,-6.69278724699,-9.55442111757,4.22251648934,-7.23639186424,8.46511020155,-10.9278229389,6.8565633794,37.7976485345
off_to_on,9.80516185245,9.15437017508,8.63474913213,5.04887179571,15.3393817202,9.7108911108,3.81948675692,0.984386973853,5.70338857462,3.79018455807,14.081535071,-0.743285618254,15.5200168662,55.2200608293
off_to_on,18.2569426526,14.8887344324,15.7168547964,5.9112694174,23.8601530744,20.7153884651,14.7928457962,12.2720788774,6.95341022584,15.7117017768,19.5965558541,10.6447895273,24.4621420706,68.7899116355
off_to_on,26.5661143901,20.401413418,22.6035262281,6.51536886872,31.992763483,31.3300796676,25.655227031,23.7016641707,7.88541701286,27.8358250642,24.6386906529,22.6131393962,33.0629690168,76.7373070291
off_to_on,34.1189648864,25.2731926061,28.7920050762,6.81000761883,39.1173378838,40.8704904456,35.7529422971,34.5553625148,8.43126272085,39.3332757514,28.8013047514,34.365886275,40.6167793906,77.8431038162
off_to_on,40.2788111307,29.0791439311,33.7707993006,6.76686489076,44.5995432374,48.6565508987,44.4110491778,44.072332566,8.5493874249,49.3201759145,31.6900710379,45.012499651,46.4119874082,71.5975385445
off_to_on,44.4588453616,31.4383409748,37.0780398049,6.3843933632,47.8667862248,54.0844905965,51.0015200808,51.527049438,8.22964755462,56.9530769158,32.972846922,53.6630092339,49.8173406377,58.2811081995
off_to_on,46.1933847829,32.0612708219,38.3572545743,5.68851198848,48.4822995789,56.6939671956,55.010385823,56.3082262031,7.49472930673,61.5243989773,32.4249711187,59.5281629562,50.362848052,38.956127923
off_to_on,45.1979753692,30.7885491067,37.4030516393,4.72993405676,46.206867817,56.2216146675,56.0951272545,57.9880419812,6.39792720742,62.5459067528,29.9635854788,62.0115535602,47.8045046675,15.3677341571
off_to_on,41.4102563503,27.6156981423,34.190546983,3.57848807593,41.0395402705,52.6340498225,54.1248843634,56.37270847,5.01756356722,59.8094217413,25.6660905383,60.7818297027,42.1640396766,-10.2361110357
off_to_on,35.0060488689,22.7006097894,28.8845596355,2.31522008195,33.2314738472,46.1361526702,49.1983449909,51.527882401,3.44877994826,53.4169840041,19.7700213929,55.8157834324,33.7382503604,-35.3461453235
off_to_on,26.3884216588,16.3526150614,21.8273060826,1.02338046721,23.2706369136,37.1537280924,41.6371281922,43.7757534559,1.79378220245,43.7766879077,12.6541638004,47.4069728325,23.076521739,-57.4676033982
off_to_on,16.151043561,9.00449553847,13.5061736796,-0.220450379753,11.8389803912,26.292992316,31.9556692358,33.6643347743,0.151815326362,31.5648656778,4.80325546399,36.1390486115,10.9293072211,-74.3983855991
off_to_on,5.02046277457,1.17096269075,4.50573926693,-1.35387763301,-0.25269849635,14.2822432337,20.8115993407,21.9130422361,-1.38984438655,17.6595664293,-3.23922118287,22.8274818451,-1.82591524553,-84.4768526955
off_to_on,-6.21539838388,-6.60119622044,-4.54983002332,-2.33384309106,-12.1441073536,1.9031765094,8.94298779139,9.34158452771,-2.76276514904,3.05380266272,-10.9241473032,8.43732364404,-14.2718965299,-86.7696451775
off_to_on,-16.7836276778,-13.7851699754,-13.0567627359,-3.13876792037,-23.0092009508,-10.0796665234,-2.89973331573,-3.20888929915,-3.92131871202,-11.2406469512,-17.7491255247,-6.01255105304,-25.5412654387,-81.1767469121
off_to_on,-25.9982958933,-19.9221447988,-20.4867395006,-3.76749828517,-32.1341137233,-20.9829933991,-14.0189841902,-14.9527631142,-4.84337538989,-24.2872609582,-23.3037189569,-19.5469057223,-34.8977381685,-68.440729969
off_to_on,-33.3195993313,-24.6598073161,-26.430613625,-4.2353449757,-38.9800824448,-30.2553505579,-23.82496808,-25.2260596964,-5.52786735042,-35.3057349209,-27.3023503683,-31.3217477933,-41.7994749231,-50.0585647444
off_to_on,-38.3937266679,-27.7772857166,-30.6261410563,-4.56794104653,-43.2243698567,-37.5093366555,-31.8746155691,-33.5345075606,-5.98980269084,-43.7311239901,-29.6014673848,-40.6922821533,-45.9378041443,-28.1061518231
off_to_on,-41.0697780971,-29.1944118476,-32.9673878812,-4.79396261095,-44.7752859338,-42.5332943237,-37.8912570856,-39.5791072857,-6.25366738016,-49.2456204191,-30.1998086045,-47.2544125584,-47.2479844836,-4.99636042974
off_to_on,-41.3932279421,-28.9653105934,-33.4960334917,-4.93791934495,-43.7609146535,-45.2832050833,-41.7644844845,-43.2579339052,-6.34635931062,-51.781216974,-29.2229090666,-50.8567597536,-45.8924415105,16.8005010173
off_to_on,-39.578521854,-27.2583416335,-32.3771962656,-5.01419891555,-40.4945916546,-45.858107221,-43.5323373002,-44.6461324802,-6.29082915123,-51.4953547361,-26.8950318928,-51.5841595097,-42.2204703149,35.0402470594
off_to_on,-35.9660038916,-24.3260552914,-29.8643378765,-5.02334693792,-35.4230658536,-44.4643155591,-43.3501740584,-43.958852292,-6.10145377868,-48.7250169686,-23.5032222978,-49.7172617519,-36.7112512363,47.9584000256
off_to_on,-30.970127296,-20.4698656502,-26.2589922318,-4.95121161135,-29.0652299559,-41.3747898007,-41.4520621544,-41.5038411867,-5.78186404991,-43.927162569,-19.3589526792,-45.6756774981,-29.9088107513,54.463528834
off_to_on,-25.0265967754,-16.0044704157,-21.8713700274,-4.77113269922,-21.9500781704,-36.8900598842,-38.1110582831,-37.6313333795,-5.32553701533,-37.6145934146,-14.7627780949,-39.9537522211,-22.3580623881,54.2475739871
off_to_on,-18.5456603128,-11.2266456119,-16.9872976452,-4.44887532003,-14.5620765441,-31.3062115565,-33.6043149684,-32.6886209844,-4.719006729,-30.2962056347,-9.97658766267,-33.0583039258,-14.550261313,47.8007119995
off_to_on,-11.8773202452,-6.39200756715,-11.8455794193,-3.94957189929,-7.30052500652,-24.8937457413,-28.1876424764,-26.9853822851,-3.94711732803,-22.4291682466,-5.20657105638,-25.4565762698,-6.88426594484,36.3301501955
off_to_on,-5.29201751579,-1.70184726935,-6.62795673901,-3.24560619618,-0.457023471548,-17.8889462242,-22.0822110643,-20.7736845125,-2.99940262074,-14.3881654946,-0.598161349471,-17.54044007,0.352755653334,21.5940974268
off_to_on,1.02228394899,2.69955507256,-1.46168293178,-2.32420124659,5.78778291908,-10.4970817535,-15.4738174698,-14.2439395015,-1.87647965454,-6.45382951539,3.75774142942,-9.60990603431,6.98467590018,5.67252594916
off_to_on,6.94831641586,6.71837077922,3.56732546471,-1.19348477891,11.3499647597,-2.90469998323,-8.52292303502,-7.53538386202,-0.595319557931,1.18065027435,7.80971791669,-1.87576097697,12.9283633446,-9.29608427927
off_to_on,12.4169719621,10.2979980308,8.39444958785,0.113999552987,16.2149063896,4.7032364087,-1.38184510046,-0.757297968889,0.807588813763,8.38855020284,11.5256939417,5.52189158497,18.1633017408,-21.3789907903
off_to_on,17.3794671239,13.4026036697,12.9541254961,1.54101661562,20.4028375202,12.126340316,5.78567248845,5.98447531425,2.27586103458,15.08011951,14.8721135882,12.4847667796,22.6955451333,-29.0817575528
off_to_on,21.7802478535,16.0011147794,17.1602840631,3.00882644453,23.9341417239,19.1367198942,12.7875988613,12.5618604605,3.73589006467,21.1714304239,17.7967274767,18.9241442639,26.5231888448,-31.5209597032
off_to_on,25.5362584072,18.0549792723,20.8937521148,4.42356576405,26.8009315421,25.4756211659,19.3939909616,18.8055493984,5.10237570394,26.5582833626,20.2185176538,24.732331329,29.6098936733,-28.5168153392
off_to_on,28.5268720457,19.5121163647,23.9995844696,5.68509588944,28.9500124026,30.8609131937,25.3377864446,24.4972004719,6.28608010666,31.1006397389,22.0269321738,29.7639490274,31.8713390813,-20.5959557676
off_to_on,30.5967718989,20.308207131,26.2955017827,6.69722679794,30.2802130371,35.0054761671,30.3272967672,29.3753223756,7.20283131578,34.6209478776,23.090913098,33.8311617993,33.1770823734,-8.90604113058
off_to_on,31.571705338,20.3750482973,27.5906171549,7.37801701684,30.654488823,37.6444483286,34.0695320568,33.1548690468,7.78258978207,36.9171075961,23.2764428896,36.7143375663,33.3675525685,4.94498983226
off_to_on,31.2846941061,19.6543447457,27.7117626937,7.66882046877,29.9246151561,38.5674845542,36.3014361584,35.5580878538,7.97735752754,37.7881127516,22.4697856318,38.186774232,32.2832440392,19.1029958272
off_to_on,29.6083376636,18.114266394,26.5332732883,7.54090822701,27.9640855485,37.6509765922,36.8244878743,36.3520530143,7.76685149114,37.0680518527,20.6025060105,38.0495184011,29.8010108517,31.7067340223
off_to_on,26.4876074804,15.7655110416,24.005281471,6.99881225899,24.703353855,34.8847876116,35.5372011284,35.3869176513,7.16116085466,34.6625087271,17.6738836944,36.1703489852,25.8710315876,41.1211694909
off_to_on,21.9671938506,12.6735881964,20.1755568826,6.07997352325,20.1610367291,30.3885412711,32.45999437,32.6284603405,6.20001888709,30.5807467401,13.7665791467,32.5200130139,20.5477192208,46.1356616696
off_to_on,16.2080927076,8.96457214636,15.2006987698,4.85076584962,14.4651979322,24.4138190867,27.747727687,28.1790698996,4.9487827095,24.9574858884,9.05231588689,27.1989423572,14.0086345572,46.1029133198
off_to_on,9.48961776106,4.82257901262,9.34395014549,3.39944047024,7.86028896472,17.3305705754,21.6868168996,22.2828322856,3.491661616,18.0595283628,3.78578750161,20.4489319865,6.55720309832,41.0027658596
off_to_on,2.19516821345,0.478540833626,2.95883209564,1.82692758241,0.697494497946,9.5983379891,14.6759968831,15.3126352979,1.92310115286,10.2747330993,-1.71324327935,12.6464346287,-1.39253317199,31.4249798911
off_to_on,-5.21745111265,-3.80873068463,-3.54009282523,0.236687286001,-6.59120942981,1.72519302575,7.1922022328,7.73985539159,0.338463387104,2.08353813929,-7.0878789424,4.27689211331,-9.34814718435,18.4757061734
off_to_on,-12.2579490493,-7.7769041125,-9.71604706919,-1.27511073217,-13.5324252927,-5.78077674614,-0.254698652822,0.0898368008852,-1.17478887084,-5.98403466503,-11.9787012177,-4.1075431549,-16.7844099107,3.62204568642
off_to_on,-18.4525137169,-11.1866646637,-15.1536406991,-2.62788990811,-19.6591220902,-12.4613136721,-7.17278819224,-7.11138762519,-2.54430244795,-13.4006083843,-16.0606025994,-11.9418940121,-23.1964495248,-11.5033233965
off_to_on,-23.3933826903,-13.8467089891,-19.5015807975,-3.76251411281,-24.5604124279,-17.9526389136,-13.1380424953,-13.3921997099,-3.71759932777,-19.6960320411,-19.0769087929,-18.7068953202,-28.1534007602,-25.3109467901
off_to_on,-26.7822640358,-15.6335805413,-22.5087783477,-4.64411373061,-27.9264227393,-22.018914921,-17.8366731373,-18.3848974625,-4.66393461977,-24.506843147,-20.8661224097,-23.9842760174,-31.3451866187,-36.4493603619
off_to_on,-28.4615410598,-16.5033913731,-24.0489367454,-5.26176136471,-29.5819230845,-24.5699615273,-21.0940812671,-21.862762956,-5.37321844756,-27.6136622358,-21.3775660055,-27.5010951743,-32.6158896315,-43.9610086717
off_to_on,-28.4287903654,-16.4936088201,-24.130227092,-5.62530533823,-29.5038964886,-25.660790664,-22.8863758952,-23.7594760329,-5.85239950187,-28.961138823,-20.6737074571,-29.1568045125,-31.9789587008,-47.3803257993
off_to_on,-26.8324245568,-15.714519036,-22.888689069,-5.7600444829,-27.8204712808,-25.4730437192,-23.3327756039,-24.1680608585,-6.12006313288,-28.6574635314,-18.9187953328,-29.029035611,-29.6120015269,-46.763144392
off_to_on,-23.9489080265,-14.3314979902,-20.566250018,-5.70018909307,-24.7912822483,-24.2809645646,-22.6698752354,-23.319413817,-6.20022901079,-26.9533359554,-16.3553474532,-27.3570650815,-25.8317663306,-42.6459626331
off_to_on,-20.144601202,-12.5405933576,-17.4764016376,-5.48216642429,-20.7719761834,-22.4067467512,-21.211332718,-21.5433625947,-6.11640984126,-24.2032109639,-13.2717417019,-24.505065866,-21.0527019138,-35.9429145811
off_to_on,-15.8274809751,-10.5409367547,-13.9622996314,-5.13878335448,-16.1678412741,-20.171627636,-19.2986387566,-19.2177223268,-5.88690449868,-20.8142043107,-9.96540361382,-20.9101446477,-15.7347932332,-27.7963382637
off_to_on,-11.3954365258,-8.50800617058,-10.3531026286,-4.69506612173,-11.3830812605,-17.8497322351,-17.2499581734,-16.7125716849,-5.52206229922,-17.1898405753,-6.70668653258,-17.0223663603,-10.3278614313,-19.4025947227
off_to_on,-7.18833090295,-6.57166099049,-6.92458607133,-4.16629102474,-6.77284475435,-15.6312923104,-15.3143698225,-14.3377030992,-5.02390834401,-13.6766003952,-3.70840756952,-13.2451476285,-5.21997319768,-11.8375606625
off_to_on,-3.45046999613,-4.80218402374,-3.86941873795,-3.55835003361,-2.60466906841,-13.6005248233,-13.6381166694,-12.3007876127,-4.38811760289,-10.5208470263,-1.10515401698,-9.88437990043,-0.69695695432,-5.90570479107
off_to_on,-0.308604808787,-3.20638286724,-1.28106493637,-2.87021887965,0.965428030692,-11.7313329261,-12.2477956777,-10.6822830295,-3.60793028375,-7.84223015013,1.05496696565,-7.11341330456,3.0816329541,-2.03300444724
off_to_on,2.23167429878,-1.7342984225,0.846721255091,-2.09796913949,3.89916590595,-9.90139220516,-11.052997317,-9.43071185418,-2.67927403123,-5.62728555434,2.80528794851,-4.95876393825,6.08718588357,-0.21770937774
off_to_on,4.27098436453,-0.295463187938,2.60512322648,-1.23953770197,6.26411724569,-7.92247769829,-9.86808606504,-8.37898283392,-1.60614977625,-3.74401340523,4.24334561884,-3.30842307514,8.40725541584,-0.0449803472767
off_to_on,5.98519526038,1.21781493073,4.14275621515,-0.299368339076,8.20599668303,-5.58246508578,-8.4499981826,-7.27935007168,-0.405279407618,-1.97514911359,5.50432277163,-1.94137542603,10.2140809344,-0.762789902649
off_to_on,7.58339086504,2.90377536441,5.62983383647,0.707917966068,9.90973602829,-2.69265634893,-6.54652851667,-5.85184266187,0.890886418056,-0.0650847397336,6.72939330926,-0.573847726579,11.7215775467,-1.40829817134
off_to_on,9.26130987879,4.8253454974,7.21962679981,1.75549518159,11.5556106022,0.866799358657,-3.94793771358,-3.83895947228,2.23345861357,2.226642214,8.03392650607,1.08464367166,13.137610541,-0.967248564042
off_to_on,11.1575196099,6.98926841263,9.01322617959,2.80434574051,13.2773972806,5.11045870476,-0.534083190952,-1.05841082503,3.55900711303,5.07340145208,9.48050960685,3.27383912674,14.6190117129,1.45540888192
off_to_on,13.3192017036,9.3337219408,11.0331342757,3.80538593235,15.129220515,9.92599288736,3.69023276706,2.55414163517,4.79397253931,8.53902835833,11.0610224626,6.13252391865,16.2363364864,6.47695420061
off_to_on,15.6830389611,11.7267352884,13.2099042801,4.70344112646,17.0664249129,15.0712802218,8.5774500539,6.91905634654,5.8611060411,12.5515519532,12.6906502502,9.66321299829,17.9538718304,14.3121929729
off_to_on,18.0744836935,13.9761482254,15.3841231685,5.4425230122,18.943695488,20.191376819,13.8403136606,11.8077767188,6.68712669195,16.8974797778,14.2149467144,13.7172834394,19.6281049688,24.7001679844
off_to_on,20.2259773064,15.850157393,17.3237591745,5.97166468515,20.531040869,24.8537166688,19.07621721,16.8603821114,7.21057929644,21.2380973362,15.4291188848,18.0031905733,21.0250893636,36.893416955
off_to_on,21.8118694744,17.1059013407,18.754605426,6.25049033259,21.5455440631,28.5972441572,23.8101831989,21.6237891008,7.38881847718,25.1460731671,16.1068770307,22.1170926304,21.8543034564,49.7131128293
off_to_on,22.4952628124,17.5222834228,19.3995774445,6.25374367657,21.6943690003,30.9891065525,27.5511076003,25.6057610554,7.2031465206,28.157709191,16.0347460079,25.5919746884,21.8141044711,61.6652302233
off_to_on,21.9801535908,16.9325051256,19.0212516522,5.97416277683,20.7227453824,31.6813299643,29.8538804778,28.3375324844,6.66137779806,29.8338617523,15.0468760569,27.9586681971,20.6420980686,71.1052805453
off_to_on,20.0613241741,15.2516924205,17.4614654201,5.42334024623,18.4598006508,30.4597460675,30.3789859596,29.4364991896,5.79745528393,29.821213452,13.0552469089,28.8103925042,18.1629345011,76.433046301
off_to_on,16.6646073632,12.4955640018,14.6721212425,4.63050649146,14.8552943135,27.2783571773,28.9413396948,28.6602670395,4.66815242008,27.9053934097,10.0707498232,27.8618524725,14.3263211236,76.294822939
off_to_on,11.8713705533,8.78723820392,10.7325049753,3.63947210607,10.0015128446,22.2742007978,25.5414318983,25.9444224818,3.34729592602,24.0484526908,6.21187302551,24.994596021,9.2293692813,69.7693739362
off_to_on,5.92318953707,4.35084679556,5.85027555757,2.50421805383,4.13663116562,15.7603437134,20.3741380896,21.418542989,1.91828277181,18.4052619183,1.69942880269,20.2821718446,3.11957830004,56.5152406603
off_to_on,-0.794600079714,-0.507600516497,0.345548224484,1.28379114422,-2.37155521802,8.19754422587,13.8135260809,15.3979067005,0.465888002431,11.3162206397,-3.16230009911,13.9913696572,-3.6225153422,36.8610292393
off_to_on,-7.7888556464,-5.42992605968,-5.380147928,0.0372238908999,-9.05984933975,0.147965783634,6.37521800629,8.35167590877,-0.931562684768,3.27685696146,-8.01572791767,6.55908439319,-10.5191227405,11.8263495634
off_to_on,-14.509739126,-10.0424503607,-10.8861401836,-1.18085404366,-15.4175945762,-7.78328797388,-1.33908840526,0.851552686654,-2.20866084375,-5.11199482332,-12.4876095755,-1.45233830237,-17.0449129615,-16.9314821564
off_to_on,-20.4105052349,-13.9950424583,-15.7406382781,-2.32339912644,-20.9421501736,-15.0114468536,-8.70789988109,-6.49241727309,-3.31725106643,-13.2071541631,-16.229292043,-9.41551088281,-22.6841722186,-47.2418677314
off_to_on,-25.0082395616,-16.9976510378,-19.5682358053,-3.35264570279,-25.1946219187,-21.0321914387,-15.1584864417,-13.1004620673,-4.22819266514,-20.3911811962,-18.9543562159,-16.7063089985,-26.9878842053,-76.6056701797
off_to_on,-27.9376451404,-18.849748973,-22.0906762794,-4.24028245588,-27.8485049307,-25.4711354623,-20.2288754392,-18.4871075153,-4.9304937879,-26.1369579985,-20.4688103926,-22.771221174,-29.6232169047,-102.422877904
off_to_on,-28.9908941366,-19.4590776473,-23.1556083602,-4.96634367283,-28.7248626286,-28.116687681,-23.6153261074,-22.3122602626,-5.42815215875,-30.0606894754,-20.6900418004,-27.1851259059,-30.4089696535,-122.240986485
off_to_on,-28.1384418544,-18.8475132887,-22.7497189691,-5.51724917185,-27.8095226413,-28.9325930898,-25.199307359,-24.412825725,-5.73536528252,-31.956897514,-19.6522909686,-29.6922951993,-29.3324984198,-133.99935216
off_to_on,-25.5282765738,-17.1435930462,-20.9947868222,-5.88354777507,-25.2502479285,-28.0492077915,-25.0507935651,-24.8110558823,-5.87099384264,-31.8114784209,-17.4982594552,-30.2258080853,-26.546209888,-136.244733238
off_to_on,-21.4639868743,-14.5629937792,-18.127534532,-6.05793885905,-21.3345834664,-25.7353998605,-23.4079114063,-23.6990519185,-5.85324307311,-29.7918799674,-14.4583304958,-28.9035627678,-22.3445237643,-128.295692704
off_to_on,-16.3648592533,-11.3798085426,-14.4663434323,-6.03406297271,-16.4516939515,-22.355496909,-20.636167685,-21.4021304549,-5.69545743471,-26.216508194,-10.8205105272,-26.0022705528,-17.1248449863,-110.338234686
off_to_on,-10.7135776374,-7.89260285186,-10.3696241244,-5.80638099662,-11.0436258882,-18.3175743603,-17.1732186502,-18.3266366225,-5.40371618939,-21.508169683,-6.89536107998,-21.9137466431,-11.3381885155,-83.4415260267
off_to_on,-4.99865717436,-4.38980429171,-6.19166778653,-5.37123152947,-5.55275264104,-14.0203470588,-13.4670272569,-14.8998493257,-4.97660458314,-16.1383234791,-2.98072905483,-17.0900742477,-5.43636640945,-49.4901860246
off_to_on,0.340702576813,-1.11891571549,-2.24200058303,-4.72890747024,-0.372514675891,-9.80587120795,-9.91603644697,-11.5105876024,-4.4071662452,-10.5698980546,0.669065730468,-11.9855031865,0.177089171653,-11.0376842333
off_to_on,4.96018069406,1.73663470741,1.24639118379,-3.88636773471,4.19208808479,-5.92420940325,-6.81956023191,-8.45886326413,-3.68667433771,-5.20630657917,3.86572853323,-7.003090488,5.18585459251,28.9068956943
off_to_on,8.64065672345,4.07037688212,4.13599935906,-2.86003769995,7.94935097984,-2.51432439851,-4.34502637869,-5.92148039782,-2.80954880567,-0.353110679228,6.49864191648,-2.45310217334,9.38484241801,67.1398206703
off_to_on,11.2999006331,5.85429935121,6.38886796295,-1.67808136192,10.8283858964,0.396972357056,-2.51622152019,-3.93807115136,-1.77854265671,3.80326871719,8.53478916346,1.47176111963,12.6868786726,100.547555788
off_to_on,12.9849352878,7.12947415213,8.05596422471,-0.381563663183,12.869183613,2.87882926017,-1.22364626634,-2.41903040361,-0.609253208342,7.19800238075,10.0077913696,4.70187417495,15.1121809857,126.388902993
off_to_on,13.8471106034,7.98781513575,9.25412937658,0.975939810806,14.1976076137,5.06619143511,-0.254916730263,-1.17360635004,0.666904605212,9.87245197491,10.9984514484,7.27738700942,16.7633027285,142.547579529
off_to_on,14.104313631,8.54815015933,10.1346410326,2.33050625835,14.9898233394,7.12087242064,0.659701501929,0.0465201746917,2.0019082824,11.9444482335,11.6103518048,9.31931017827,17.7902680579,147.730684248
off_to_on,13.9964398146,8.93046989155,10.848547908,3.61175047604,15.4320777351,9.19021204499,1.79366899272,1.49506014964,3.33284524536,13.5697288902,11.9446479776,10.9903743045,18.3519326546,141.593197289
off_to_on,13.7410353948,9.2323242394,11.5142911484,4.74809961236,15.682257842,11.3698767328,3.37060768812,3.37844813269,4.58608494412,14.9011040082,12.0781616703,12.4523882114,18.5799826507,124.775368319
off_to_on,13.4957916637,9.51087033384,12.1926633468,5.672883817,15.8392127533,13.6766095042,5.51888152194,5.81081287654,5.68347696274,16.0520016715,12.0482211675,13.827120082,18.5513869688,98.8479859621
off_to_on,13.3333777566,9.77311474653,12.8729540157,6.33050303472,15.9244996451,16.0351563596,8.24118608885,8.78356479834,6.5498284906,17.070140406,11.8465335782,15.1669668458,18.2736476518,66.1693476779
off_to_on,13.2321273434,9.97558754039,13.4723729377,6.68186997334,15.8792183509,18.2814226333,11.4038097085,12.1544139576,7.12070228894,17.925330286,11.4228835606,16.4399907031,17.6850786527,29.6664331349
off_to_on,13.0836430736,10.0332335491,13.8487933551,6.70838731492,15.5762325106,20.18146743,14.7473641292,15.6577718593,7.34950208858,18.513096331,10.6978649887,17.5315548695,16.6699092971,-7.43952683391
off_to_on,12.715813635,9.83592068049,13.8248183015,6.41388823365,14.8456918928,21.4635810528,17.9176657831,18.9353473608,7.21288786238,18.6732975405,9.58240516813,18.2621432901,15.0856226882,-41.9369912865
off_to_on,11.9274270512,9.26984572138,13.2194441636,5.82423037125,13.5097219973,21.8587475088,20.5125218034,21.5827734791,6.71377799855,18.2205604649,8.00075193839,18.418400719,12.7979606371,-70.9280012383
off_to_on,10.5288438416,8.24042216647,11.882426876,4.98454743729,11.4207327663,21.1435454265,22.1378543303,23.2057244327,5.88151779067,16.9815054506,5.91302346913,17.7923599321,9.71775189388,-92.1018743123
off_to_on,8.38230888331,6.69305460415,9.72601555684,3.95448357121,8.49722170353,19.179157266,22.4652100713,23.4775406288,4.76917667482,14.8326842577,3.33345156287,16.2225363854,5.83334034736,-103.951005876
off_to_on,5.43555148204,4.62855619766,6.74906630514,2.80201564839,4.75128692868,15.9406843198,21.2824443981,22.1900786434,3.4483242765,11.7330188154,0.341074721883,13.6302525043,1.23296190154,-105.90643674
off_to_on,1.74332970111,2.11078840009,3.04963074797,1.59666535157,0.303266873915,11.5323192942,18.5302747864,19.2903851801,2.00197112836,7.74534287785,-2.91923814939,10.0452439106,-3.88714097831,-98.3786608507
off_to_on,-2.52663765404,-0.734733159819,-1.17623093562,0.402985513358,-4.61919573721,6.18590844226,14.3193368699,14.8977316074,0.516595391641,3.04327291819,-6.24609757232,5.61618853135,-9.23098193076,-82.6986900674
off_to_on,-7.10460652544,-3.73119118767,-5.64967706611,-0.724839836864,-9.69808628988,0.242754303457,8.92507205473,9.29826221405,-0.925721298928,-2.09817496887,-9.40033277856,0.60404490359,-14.4271427905,-60.9647211442
off_to_on,-11.6453886772,-6.66840024039,-10.0365887227,-1.74660987169,-14.5560204912,-5.87916311835,2.76084695416,2.91761841298,-2.25407099925,-7.3273769043,-12.1308080234,-4.64134893806,-19.0663786744,-35.8097877528
off_to_on,-15.7670646496,-9.32585957546,-13.983812179,-2.63753031465,-18.7973192555,-11.7283622666,-3.66728112463,-3.72503781931,-3.41361554882,-12.2531500565,-14.2038499837,-9.71846167206,-22.7477038272,-10.1144349404
off_to_on,-19.0965388188,-11.497749948,-17.159330235,-3.38736650618,-22.0536645268,-16.8678400897,-9.81820476476,-10.0755968012,-4.36810089663,-16.4890615624,-15.4322069504,-14.2200150286,-25.1267676451,13.3052650322
off_to_on,-21.3156393417,-13.0164520591,-19.2909687776,-3.99758482742,-24.0281391286,-20.9216426319,-15.1781652066,-15.6084264287,-5.09984705126,-19.698886009,-15.6994390956,-17.7813310303,-25.9598353766,32.0008981375
off_to_on,-22.2013664515,-13.7714109786,-20.1984263052,-4.47704005402,-24.5316354048,-23.6140555036,-19.3196291938,-19.8862493572,-5.60743981595,-21.6368762588,-14.9762146664,-20.1243170219,-25.1371539894,44.153093919
off_to_on,-21.6547085556,-13.7208658163,-19.8143306884,-4.83698097343,-23.5066544413,-24.7965032901,-21.9488820532,-22.608584367,-5.9016749308,-22.1772087907,-13.3260775496,-21.0909080768,-22.7008485377,48.7622238694
off_to_on,-19.7140521381,-12.8949981222,-18.1915432808,-5.08624414941,-21.0352555018,-24.4589625988,-22.9361643849,-23.6424676591,-6.00053768209,-21.3284759916,-10.8997005301,-20.6612669728,-18.8445657616,45.746950118
off_to_on,-16.5513713516,-11.3902701831,-15.4958252972,-5.22747029034,-17.3301001015,-22.7248149033,-22.3246105081,-23.0316319508,-5.92410810807,-19.2312009257,-7.91823728013,-18.9542009151,-13.8945651873,35.9391541044
off_to_on,-12.4517821654,-9.35594669089,-11.9849827535,-5.25501333138,-12.7098514456,-19.8302901845,-20.3171732139,-20.9832908865,-5.69024954655,-16.1387376032,-4.64790496628,-16.2097743868,-8.27450000623,20.975271172
off_to_on,-7.77933896203,-6.97484469221,-7.97742957696,-5.1549425498,-7.56230703526,-16.0916695164,-17.2437286159,-17.8347337584,-5.31177357431,-12.3842453295,-1.36915066777,-12.7566111579,-2.45836875783,3.09578087399
off_to_on,-2.93381274738,-4.44109058521,-3.81449779976,-4.90720238493,-2.30026191454,-11.8649485202,-13.5132259926,-14.0046525685,-4.7955044995,-8.33835465624,1.65549567458,-8.96852138108,3.08226331072,-15.1247913597
off_to_on,1.6956401721,-1.93798189809,0.178411739755,-4.48964307445,2.68400079561,-7.50351198801,-9.55771071932,-9.9361237485,-4.14333434441,-4.36340023829,4.2106072821,-5.21655424543,7.9299054697,-31.086775217
off_to_on,5.7736894001,0.381079214379,3.72670413554,-3.88332070744,7.05963365375,-3.31943151547,-5.77603679282,-6.03917874664,-3.35501670126,-0.770507274776,6.1502398061,-1.82315619154,11.7649638839,-42.4777341332
off_to_on,9.05325343718,2.40616328958,6.63303413184,-3.07823595172,10.5883755399,0.446715922673,-2.4849717448,-2.64079148601,-2.43214818418,2.21466834068,7.41062429157,0.975267284219,14.3961749199,-47.5520921741
off_to_on,11.3968166438,4.07736137237,8.79215001051,-2.07857260363,13.1422219709,3.64397979435,0.115790235733,0.0510845148376,-1.38257581187,4.47305212234,8.0116584107,3.05236812688,15.7739537247,-45.3451911772
off_to_on,12.7822561287,5.38383168069,10.192672849,-0.906528772664,14.70587422,6.21540477586,1.96027189313,1.96489881571,-0.224380076094,5.99755128276,8.04724728082,4.39941718041,15.9853314729,-35.7962694471
off_to_on,13.2930257527,6.35597330162,10.9062165773,0.395996976228,15.3643901174,8.18891707915,3.11274935584,3.16247779747,1.01136949437,6.88244961315,7.6660916921,5.11577360058,15.2316812647,-19.7652676654
off_to_on,13.0947489803,7.05232548677,11.0660209149,1.76831715961,15.2785087408,9.65689626849,3.74529622283,3.81667412556,2.27971368654,7.2987850355,7.04582949493,5.38408323627,13.7927603789,1.05929730593
off_to_on,12.4021350086,7.54349469232,10.838682017,3.13455629736,14.6517664568,10.7481177591,4.10012809529,4.17348871489,3.52310732117,7.45966364154,6.36432246025,5.43419156971,11.9824005757,24.3513356782
off_to_on,11.4413926624,7.89575357786,10.3934293842,4.40964741371,13.6945367866,11.5966942086,4.44264268451,4.5045938595,4.67493873959,7.58083591077,5.77222464113,5.5013191359,10.1022111222,47.4152439242
off_to_on,10.4138043026,8.15689745495,9.87359956939,5.50707580804,12.5903800517,12.3128951712,5.01228754483,5.05744571221,5.6649296158,7.84244959826,5.37072563158,5.78478917691,8.39978584238,67.4999090416
off_to_on,9.46578196533,8.34650458112,9.37448206677,6.34745008002,11.4695614599,12.9602671989,5.97859465295,6.01039631775,6.42577670101,8.35762511101,5.19757304348,6.41342151448,7.03712048405,82.1218838793
off_to_on,8.66962504608,8.45200277779,8.93064302933,6.86683190936,10.3933816598,13.542395524,7.40888125911,7.43938334161,6.90018424579,9.15242272294,5.22325978571,7.42264988115,6.07337398382,89.3596479134
off_to_on,8.01750699484,8.43101425163,8.51433502258,7.02375393461,9.35125226863,14.0011144398,9.25236033012,9.30102175511,7.04734580582,10.1600516701,5.35778960026,8.74664566524,5.46398073022,88.0841102007
off_to_on,7.42919379956,8.21947547206,8.04490158911,6.80400157275,8.27049856317,14.2262174014,11.3429898919,11.4345063533,6.84798131557,11.2300639769,5.46691891851,10.2265041492,5.07574986576,78.097953928
off_to_on,6.77193929411,7.74415434088,7.40743481679,6.22251085567,7.0369695395,14.0749962469,13.4206668876,13.5820068777,6.30721362925,12.1510878524,5.39542830685,11.6331966537,4.71531139978,60.1671914945
off_to_on,5.88921098719,6.93753876774,6.47758162521,5.32210279306,5.52295604961,13.3984969255,15.167725707,15.4245872815,5.45485256861,12.6837009728,4.99398991512,12.7018540847,4.16640823264,35.9411044061
off_to_on,4.63363089359,5.75273846877,5.14851331995,4.16918455753,3.61788257551,12.0704159536,16.2555068031,16.6284793542,4.34300260406,12.5985992784,4.14570314499,13.1723290961,3.23034493731,7.77003161588
off_to_on,2.89894450488,4.17606581862,3.35579307948,2.84694202325,1.25688609495,10.0142037771,16.3943216135,16.8950918513,3.04127186812,11.7144813733,2.78843305214,12.8301110801,1.76354554547,-21.5573774829
off_to_on,0.646029223695,2.23532899317,1.09622806129,1.44687204108,-1.55723630334,7.22422567314,15.3796515123,16.007632527,1.63018260004,9.93013718412,0.929689749263,11.5416555683,-0.293319504483,-49.1263006626
off_to_on,-2.0811197045,0.00251856713065,-1.56228484569,0.0597113621053,-4.74220817864,3.77770334231,13.1279402087,13.8677194992,0.193619620301,7.24608090818,-1.34815833863,9.27902694015,-2.89888947937,-72.2203879631
off_to_on,-5.15197830684,-2.40960493024,-4.48156117119,-1.23311630929,-8.13656560518,-0.164515085758,9.69678816663,10.5167763127,-1.18872984863,3.77256996306,-3.89319141886,6.13030824477,-5.90973338811,-88.6207801278
off_to_on,-8.35934613906,-4.85663540077,-7.46464661692,-2.36650134083,-11.5122625757,-4.3687284143,5.28652283785,6.13913097848,-2.44801083317,-0.277219152166,-6.49915958864,2.29427127442,-9.09423503865,-96.8447413484
off_to_on,-11.4412054713,-7.17616663385,-10.276551479,-3.296290263,-14.5980065395,-8.54946131907,0.222691121936,1.0462670483,-3.53112650976,-4.60801004612,-8.9286492655,-1.93997485044,-12.1597700537,-96.2967111388
off_to_on,-14.1115890681,-9.20415393764,-12.6713699059,-4.00109511657,-17.1102046043,-12.3981972325,-5.07836087253,-4.35575212165,-4.40343151514,-8.87446294202,-10.9411458332,-6.22554730114,-14.7893405446,-87.3153742089
off_to_on,-16.0961662815,-10.7918452567,-14.4220416801,-4.48118846137,-18.7873282672,-15.6160866453,-10.1563538175,-9.61140255646,-5.04899743937,-12.7201372178,-12.3222914081,-10.1980938698,-16.6825417983,-71.1130142199
off_to_on,-17.1675941911,-11.8211055121,-15.3486504052,-4.75479833398,-19.4230376743,-17.9464442729,-14.5602485613,-14.2674336446,-5.46860408808,-15.8181955783,-12.910494668,-13.5183607118,-17.5951849866,-49.6163746204
off_to_on,-17.1757315442,-12.2162336037,-15.3413779155,-4.85246166572,-18.8935979667,-19.2029154628,-17.9007693791,-17.9244741644,-5.67592758027,-17.9085049553,-12.6174284535,-15.9113259557,-17.3721532329,-25.2298914308
off_to_on,-16.0685591552,-11.9509013547,-14.3750076801,-4.8103397723,-17.1759280329,-19.2898090669,-19.8954530086,-20.2818793793,-5.69263614715,-18.8263675351,-11.4397890964,-17.1967811114,-15.969073041,-0.551063964904
off_to_on,-13.9009727382,-11.0495414895,-12.5130693559,-4.66351258869,-14.3539176361,-18.212160961,-20.4004530956,-21.1701905972,-5.54323230876,-18.5193342467,-9.46086618902,-17.307521164,-13.4599817815,21.9271737391
off_to_on,-10.8303141488,-9.58327041615,-9.90116306495,-4.44023551283,-10.6122389132,-16.0744514325,-19.4251451294,-20.5673143852,-5.25047866801,-17.0502266624,-6.84181668662,-16.2930850356,-10.0301271376,40.0914960483
off_to_on,-7.09933607751,-7.66113981643,-6.75048446147,-4.15797104948,-6.21853360716,-13.068358699,-17.1278941611,-18.5967437539,-4.83211610134,-14.5863765295,-3.80386760043,-14.3090065032,-5.95506413177,52.4287214843
off_to_on,-3.0089916794,-5.41806995791,-3.31387886051,-3.82172352709,-1.49634736418,-9.45129163115,-13.7938430214,-15.5085249124,-4.29934885559,-11.3769174656,-0.603808841196,-11.5935005191,-1.56903430636,58.1674220406
off_to_on,1.11523231227,-3.00115506511,0.142296556357,-3.42485118442,3.20769249802,-5.51853059312,-9.79791134368,-11.6458935207,-3.65726786727,-7.72147917379,2.49406490038,-8.43514571649,2.77302812748,57.3265087917
off_to_on,4.95894112613,-0.556111111088,3.36675466433,-2.95215744296,7.55834010038,-1.57248431836,-5.55805425788,-7.40226837283,-2.90705841387,-3.93464078993,5.2460433031,-5.13621015381,6.73479316843,50.6684783051
off_to_on,8.25178245416,1.78453685227,6.1486229317,-2.38472563314,11.2636704796,2.10722801015,-1.48497491443,-3.17437449508,-2.04954083177,-0.310874841173,7.45370994132,-1.97666863677,10.0340564861,39.5667305275
off_to_on,10.7935972938,3.91031556454,8.33644520652,-1.70570650781,14.1008344557,5.28944004155,2.06521920552,0.682451520517,-1.0893687728,2.90557187966,8.98241034235,0.81635696924,12.4700935147,25.8065654149
off_to_on,12.4707098509,5.73802577816,9.84872371614,-0.906130753579,15.9329293817,7.81011676346,4.82949720653,3.89125269932,-0.0390922885386,5.54229405084,9.77151593924,3.08996756775,13.9397165961,11.3468898827
off_to_on,13.2607457108,7.21321677741,10.6751306693,0.0101827125094,16.7155515987,9.58232279766,6.66294090322,6.27845994227,1.07769944585,7.50960131777,9.83563783494,4.77535111476,14.4405475334,-1.92653725044
off_to_on,13.2259877377,8.30834345474,10.8688369199,1.02341931075,16.4929767684,10.5969169079,7.5476555389,7.78439463087,2.22480998842,8.79998175783,9.25712117984,5.88553843334,14.0617964548,-12.4256941411
off_to_on,12.4968343772,9.01845768825,10.531604079,2.09681308039,15.3852147366,10.9145681346,7.58506861486,8.45875655312,3.35386173531,9.47707158228,8.17122975831,6.50216761572,12.9644995752,-19.036129118
off_to_on,11.2481973901,9.35553338749,9.79419907746,3.17817099984,13.5682335796,10.6506959168,6.97331469717,8.44257647567,4.40683319506,9.65642192663,6.74627305071,6.75385557973,11.354486003,-21.2246808449
off_to_on,9.67249569503,9.3425732523,8.79519656642,4.20375321385,11.250316304,9.95567275755,5.97328765984,7.93980899629,5.32049897549,9.48133579521,5.16143498516,6.78981679056,9.45214758325,-19.0691167627
off_to_on,7.95317007425,9.00850326571,7.66127812559,5.10405286807,8.64773820803,8.99301924197,4.86828447219,7.18293076589,6.03226489232,9.09751939618,3.58518551455,6.75284076783,7.46328610609,-13.2099852284
off_to_on,6.2423441538,8.38456676954,6.49173094388,5.81075379889,5.96273549103,7.9183446365,3.92280781322,6.39745624642,6.48666260492,8.63021207189,2.15689832089,6.75560000265,5.55490883253,-4.73476638735
off_to_on,4.64545688941,7.50254472589,5.34907071755,6.26398168833,3.36614146145,6.86146930978,3.34598008799,5.77014669963,6.64164554207,8.16686840773,0.973716632196,6.86355715338,3.83892189539,4.9875176629
off_to_on,3.21452725521,6.39472494028,4.25669376159,6.41892531341,0.986210027159,5.91357760266,3.26419449061,5.42492237978,6.47382912744,7.74747661396,0.08390106545,7.08660343733,2.36538742138,14.4976817
off_to_on,1.9503668611,5.09519197612,3.20336211549,6.25099215722,-1.09582961345,5.12049030477,3.70622881995,5.40923034277,5.98194360638,7.3633720935,-0.513019915846,7.38017498244,1.12556431581,22.4380695822
off_to_on,0.812733544656,3.6417695844,2.15330880929,5.75886196216,-2.84388906968,4.48232606508,4.60228462392,5.6920679778,5.18799896341,6.96413253273,-0.859866933149,7.65517403362,0.0635581660176,27.7201606051
off_to_on,-0.263690301448,2.07785477148,1.05996530377,4.96508251653,-4.25999389949,3.95904851172,5.79653673445,6.17324147015,4.13596484251,6.47100551834,-1.0305155679,7.79477547722,-0.905741878942,29.6480502678
off_to_on,-1.35035494422,0.453445659654,-0.119134108197,3.91417315164,-5.37382665747,3.48076001278,7.07103864193,6.70197108315,2.88809994022,5.79447572767,-1.11553600108,7.67529835428,-1.87551234094,27.9845006416
off_to_on,-2.50608335558,-1.17513537877,-1.40877382718,2.66851764178,-6.23077330105,2.96116490971,8.17744895399,7.10182896127,1.51937708175,4.85312886119,-1.20685461394,7.18787922373,-2.9259736451,22.9543774881
off_to_on,-3.76145076992,-2.74702928509,-2.8059842954,1.3025960779,-6.88032378859,2.31241248744,8.87218582363,7.19833912822,0.110697414625,3.590952773,-1.38347974116,6.25773810418,-4.1066186599,15.1886738509
off_to_on,-5.10864292246,-4.20001721666,-4.27501714441,-0.1037103287,-7.36634109027,1.45953811572,8.95036438972,6.84543981847,-1.25826501469,1.99060621497,-1.70002912736,4.8583412965,-5.42416145625,5.61985419245
off_to_on,-6.49819918251,-5.47466640682,-5.74806771308,-1.47192883381,-7.7202059059,0.352918025425,8.27422687837,5.94738594736,-2.5157185998,0.0808981792257,-2.17929678236,3.01863562235,-6.83771528716,-4.65500561305
off_to_on,-7.84295139215,-6.51881030734,-7.13153423654,-2.73113982798,-7.95726862464,-1.0225110159,6.79265628557,4.47346751497,-3.60313300751,-2.06236936538,-2.80948620672,0.822605603406,-8.26159623683,-14.5235218763
off_to_on,-9.02838119749,-7.29163855939,-8.31676581168,-3.82281302484,-8.07649634537,-2.64209917904,4.54962866797,2.46400069925,-4.47876456685,-4.32208058969,-3.54610676012,-1.59848246818,-9.57505453919,-22.9994666558
off_to_on,-9.9276984669,-7.76672328771,-9.19361065201,-4.70390586629,-8.06277440505,-4.4407883958,1.68092154771,0.0272475975202,-5.11902610854,-6.55101947695,-4.31796493168,-4.07980305454,-10.6373147636,-29.3382729974
off_to_on,-10.419318404,-7.93348980267,-9.66472000837,-5.34805352127,-7.89106183572,-6.31684341517,-1.60014088465,-2.67192880982,-5.51770788527,-8.58696443959,-5.03624880168,-6.44059552514,-11.3056778316,-33.1128925031
off_to_on,-10.4041618368,-7.79691756484,-9.65853156544,-5.74494400893,-7.53152465552,-8.13960835441,-5.02584481551,-5.42991126379,-5.68335307332,-10.2696262963,-5.60544235277,-8.50325502929,-11.4541689738,-34.2423073258
off_to_on,-9.82033868697,-7.37557862139,-9.13913729992,-5.89820365406,-6.95485972531,-9.76058581937,-8.3031340313,-8.02625603005,-5.63533312278,-11.4573173823,-5.93472770473,-10.1114584485,-10.9903144653,-32.9716830436
off_to_on,-8.65325617622,-6.69842442078,-8.11177501537,-5.82228585163,-6.13722565771,-11.0269038433,-11.1450058341,-10.246978461,-5.39932057063,-12.0414520753,-5.94862173126,-11.1452355148,-9.86804895966,-29.8096127702
off_to_on,-6.93992848495,-5.80095915714,-6.62337395272,-5.53893943941,-5.06444943307,-11.7960695179,-13.3006377331,-11.9065251445,-5.00289946757,-11.9574152682,-5.59581145113,-11.5314909811,-8.09540320052,-25.4333125819
off_to_on,-4.76712797231,-4.72154304137,-4.7583172883,-5.07382480138,-3.73540909127,-11.9508004993,-14.5809750765,-12.8661226403,-4.47198268491,-11.1909046979,-4.85545007221,-11.2492169337,-5.73638148173,-20.5763354102
off_to_on,-2.26387262781,-3.49852845098,-2.63024191437,-4.45375308622,-2.16464747969,-11.412673365,-14.8772037753,-13.0467810022,-3.82853455653,-9.77945528101,-3.74049990918,-10.3293776565,-2.90718686796,-15.9149860404
off_to_on,0.410536587054,-2.1687488323,-0.371180881936,-3.70486592538,-0.384316736856,-10.1533349093,-14.1704590068,-12.4359444509,-3.08985492154,-7.80939651252,-2.29801340404,-8.85008707282,0.232417645472,-11.9690493479
off_to_on,3.08122849636,-0.767584565659,1.88039820736,-2.8518780215,1.55451445786,-8.20210030247,-12.5321512188,-11.087518774,-2.26940542006,-5.40890842281,-0.606496433345,-6.92814521366,3.49138829579,-9.02988084529
off_to_on,5.5733245831,0.669525745098,3.9911169043,-1.91830548497,3.58131068026,-5.64892703545,-10.1152987029,-9.11567595129,-1.37889404443,-2.73809114106,1.22931661599,-4.70821263677,6.66189019723,-7.12478992458
off_to_on,7.72654284854,2.10460966354,5.84247839529,-0.927430506935,5.60657985646,-2.64202175411,-7.13813408892,-6.68337657562,-0.431120501921,0.0229529632556,3.0858274565,-2.35088438506,9.53458250281,-6.0215788193
off_to_on,9.40737270062,3.49447685131,7.33806099287,0.096366137382,7.52389629877,0.620282780995,-3.86192292303,-3.98692560675,0.557044398241,2.68707633254,4.82956193596,-0.0207243828142,11.9134739383,-5.27177107305
off_to_on,10.5178589266,4.78872363251,8.40776027464,1.12632265208,9.21394046319,3.9032569315,-0.565353807643,-1.23808239623,1.56219788654,5.07326682959,6.327226626,2.12498623973,13.6294169122,-4.28614534241
off_to_on,11.0006088661,5.9292932647,9.00923516812,2.13245662072,10.5509642498,6.95441851989,2.48197639818,1.35469870972,2.55303424376,7.01938964021,7.4562472488,3.94635802978,14.551624662,-2.43225954692
off_to_on,10.8401774481,6.85224884546,9.1271223462,3.08146857166,11.4118305123,9.52580002309,5.04453119072,3.60438138036,3.49045989886,8.39394771662,8.11516164779,5.3296890762,14.596862294,0.858878282205
off_to_on,10.0614016419,7.49204878026,8.77082556715,3.93754694801,11.6873671342,11.3979784945,6.94207390095,5.3614364825,4.3293492532,9.10636820079,8.23318704734,6.19491076436,13.7361289099,5.99074520577
off_to_on,8.72549111347,7.78814416239,7.97172806566,4.66406597498,11.2952734564,12.4035535682,8.06540902298,6.52671420307,5.02182541602,9.11529527778,7.77822633147,6.50163053592,11.9986964229,13.1168750259
off_to_on,6.92471652521,7.69321921292,6.78052239098,5.2260046344,10.1933041847,12.4475001691,8.38536579375,7.06011671493,5.52169266833,8.4342877255,6.76254391859,6.25357168198,9.47331842516,22.0849177711
off_to_on,4.77639262517,7.18195707652,5.26504676002,5.59278182139,8.39103462724,11.5218310252,7.95432563869,6.98432254183,5.78944314724,7.13422948571,5.24535932594,5.50098711491,6.30631760915,32.4167245643
off_to_on,2.41658649052,6.25891764591,3.50863313844,5.74112081452,5.95828236024,9.71232619525,6.90017414735,6.38307927145,5.79714086064,5.34172637455,3.33170718807,4.34040661105,2.6961704406,43.3279629017
off_to_on,-0.00632889516117,4.96402803715,1.60859875251,5.65753763571,3.02830582095,7.19573200532,5.41313045991,5.39389475094,5.53247074491,3.23284464058,1.1671201193,2.91095589521,-1.11579512455,53.7864700159
off_to_on,-2.33842354167,3.37434631569,-0.325762467416,5.34009435058,-0.20573558786,4.22676452768,3.72645350318,4.19533237905,5.00133239262,1.02179521795,-1.07198635329,1.38654086701,-4.85883027229,62.604428874
off_to_on,-4.42756068354,1.60116349242,-2.17643862451,4.79916096531,-3.5018977152,1.11539094339,2.09252737769,2.98955614209,4.22854444564,-1.05540049235,-3.19192250064,-0.0365291536349,-8.25024678466,68.5558847516
off_to_on,-6.13163269214,-0.217884378674,-3.82185823237,4.05707057033,-6.58805097743,-1.80391739231,0.756265117746,1.9812591229,3.2564793847,-2.76163228264,-4.99853157127,-1.15639407485,-11.0163855126,70.5084078918
off_to_on,-7.32777509239,-1.93129146713,-5.14429127426,3.14670826809,-9.18679599046,-4.2081151945,-0.0718886872653,1.35460595201,2.14173232018,-3.88248294171,-6.31590118387,-1.78619110771,-12.9159058856,67.5560493055
off_to_on,-7.92231042423,-3.38959252824,-6.03936714087,2.10921988584,-11.0444616848,-5.82293121258,-0.24086771567,1.25026411028,0.950199621739,-4.25104379174,-7.00524972774,-1.77673353994,-13.7636018956,59.1402338294
off_to_on,-7.86074966456,-4.46290363409,-6.42703170818,0.991138547124,-11.961058085,-6.45732683493,0.320715985669,1.74491546107,-0.248836261825,-3.77115679267,-6.98196453781,-1.03901421957,-13.4524099826,45.1458988951
off_to_on,-7.136762839,-5.05784354345,-6.26273368222,-0.158711074386,-11.8174939107,-6.03070876546,1.59122343353,2.83574917852,-1.3888830489,-2.43613871639,-6.22868431857,0.436322390976,-11.9709444511,25.9619540538
off_to_on,-5.79872317107,-5.13143484865,-5.54722719673,-1.29216780428,-10.5962641418,-4.58903888877,3.45151202772,4.43227335765,-2.41191084591,-0.340055747942,-4.80249186458,2.56561584616,-9.41388278026,2.49787644015
off_to_on,-3.95232213495,-4.69977450586,-4.33319977318,-2.36423903398,-8.39223292468,-2.30702098497,5.69058295522,6.35730509672,-3.27283146335,2.32095324007,-2.83473118008,5.16779602826,-5.98289580065,-23.8482109304
off_to_on,-1.75790984522,-3.83979468387,-2.72704743401,-3.33494609451,-5.41107826271,0.524969353865,8.02171448015,8.35820785349,-3.94226921592,5.25894984707,-0.522663806789,7.97113155292,-1.97659129173,-51.2705366199
off_to_on,0.578342221112,-2.68325496855,-0.884542536215,-4.17042714483,-1.95434405048,3.52876405006,10.1083895983,10.1283885572,-4.4073521604,8.11648429103,1.88692927753,10.6321503047,2.23093482662,-77.6819271466
off_to_on,2.819659973,-1.40311718058,1.00015646909,-4.84334630141,1.60829300254,6.27877652598,11.5982039948,11.337842358,-4.67053245498,10.4998434592,4.1211085731,12.7662770459,6.2219806323,-100.877110709
off_to_on,4.71959376746,-0.193521240608,2.71180243249,-5.3327707608,4.87719922166,8.35083993905,12.1618699864,11.6702786158,-4.74671832002,12.0206604182,5.90905111037,13.988079511,9.57515622822,-118.72088709
off_to_on,6.04704588663,0.754445185661,4.03633603821,-5.62375265833,7.4674905388,9.37414939159,11.5335508286,10.8632426653,-4.65922798454,12.3418843691,7.01239335523,13.9574164132,11.9096267511,-129.345701585
off_to_on,6.61294248892,1.27825442898,4.78590764637,-5.70687668723,9.05518575585,9.08020397979,9.54820193034,8.74683374156,-4.43522511535,11.2230632677,7.25427991537,12.4264808547,12.9289842047,-131.34097757
off_to_on,6.29547986479,1.26741651593,4.82372498055,-5.57800441228,9.41914125727,7.34262226806,6.17147355006,5.27625973739,-4.10134452946,8.55938781395,6.54361718141,9.28195601486,12.4595723841,-123.915788479
off_to_on,5.06062026357,0.68167296411,4.08546934187,-5.23836775651,8.47323428145,4.20245258286,1.51811436931,0.553668892293,-3.68016039326,4.40911451446,4.89132108232,4.57641858762,10.4782374684,-107.017328685
off_to_on,2.97470014255,-0.438844364277,2.59411786409,-4.69505201546,6.28413826195,-0.124932989217,-4.14427954041,-5.16450361339,-3.18799625627,-0.995126353141,2.41606493494,-1.45617306558,7.12529677306,-81.3902950068
off_to_on,0.206665841226,-1.97333384453,0.465562991807,-3.96178391091,3.07158256659,-5.26323294878,-10.4079535437,-11.4770787356,-2.63435099487,-7.25407480712,-0.661882991055,-8.4046016442,2.69996174416,-48.5666749162
off_to_on,-2.98147756019,-3.73056272818,-2.09660759269,-3.05982631913,-0.809959072879,-10.7083915395,-16.754185154,-17.865173312,-2.02295147376,-13.8294953236,-4.03880558546,-15.705714603,-2.36262137862,-10.7813224151
off_to_on,-6.25604162904,-5.46890810891,-4.81752213368,-2.01870078532,-4.90690013306,-15.8786141883,-22.5971532981,-23.7352965892,-1.35418129474,-20.0902301666,-7.35630473348,-22.6900242342,-7.53135736912,29.1843423659
off_to_on,-9.24337576079,-6.92415949346,-7.3775383057,-0.876428978054,-8.7159754507,-20.1761036987,-27.3388251532,-28.4750092951,-0.628414683421,-25.3727708925,-10.2379730302,-28.6440403939,-12.2326726287,68.2207606038
off_to_on,-11.5690009923,-7.84192746866,-9.44636576957,0.320986215771,-11.7420399234,-23.0537601687,-30.4296436254,-31.515852737,0.15036170384,-29.0504060035,-12.3301528619,-32.8834107772,-15.9120395628,103.153917612
off_to_on,-12.9000359378,-8.01075708169,-10.7211331131,1.52103132244,-13.5574898497,-24.079220264,-31.4287399102,-32.3969638043,0.971306768006,-30.6035401956,-13.3422785615,-34.8291342643,-18.09679895,131.031391805
off_to_on,-12.9860567311,-7.29178138654,-10.963972045,2.66716102486,-13.8560767056,-22.9886515816,-30.0570032926,-30.8222093221,1.8144778338,-29.6831443747,-13.0821281456,-34.0781541604,-18.4529724384,149.40375483
off_to_on,-11.6933759044,-5.6410219625,-10.0344660274,3.7021794023,-12.4943067419,-19.7236900231,-26.2367106875,-26.7039234871,2.65004574312,-26.1596169228,-11.4817056862,-30.4597113893,-16.829093454,156.572731912
off_to_on,-9.02820674634,-3.12123006673,-7.91268122729,4.5722547503,-9.5149321217,-14.4467176748,-20.1125569031,-20.1874380435,3.43921882427,-20.1506276724,-8.61040770969,-24.0699963143,-13.2813118652,151.778934473
off_to_on,-5.14527293853,0.0986245554715,-4.70944478597,5.23116185137,-5.14909719239,-7.53212071809,-12.0507412682,-11.6524696997,4.13686163221,-12.0236620816,-4.67350071715,-15.2797935529,-8.07602981137,135.30647833
off_to_on,-0.340016213645,3.75661870185,-0.661959128769,5.64425906691,0.203740375495,0.466049571111,-2.61507379104,-1.6898822046,4.69553231762,-2.37175269584,0.00440454332714,-4.71274217827,-1.66887939164,108.48915911
off_to_on,4.97553754485,7.52271525898,3.88542723704,5.79168957456,6.01625982889,8.86680534582,7.47839133207,8.94490335998,5.07043804529,8.0360440393,5.00945098184,6.80480277304,5.33834806601,73.612463223
off_to_on,10.311206142,11.0325319861,8.51364855481,5.67035417817,11.6896849877,16.9296945005,17.4242037301,19.3978436539,5.22465431572,18.3248685002,9.87915628466,18.3179306155,12.2585155763,33.716611278
off_to_on,15.1475133261,13.9262354602,12.7712268072,5.29433335479,16.6196848943,23.9295862653,26.4017376554,28.7951749446,5.13389414435,27.5978685332,14.1492212206,28.8339892065,18.3911453061,-7.68311468638
off_to_on,18.9897294963,15.8880586693,16.221816652,4.69362298962,20.2640367399,29.2304360968,33.6531958264,36.3271963166,4.79015585025,35.0247207972,17.4013982093,37.4204840578,23.0975647482,-46.9326058813
off_to_on,21.4210463011,16.6817996634,18.4915879426,3.91126639559,22.2040130001,32.3497909987,38.5571632942,41.3280381547,4.20371771749,39.9252301049,19.3071036072,43.299382564,25.8706018704,-80.5980629732
off_to_on,22.1487770897,16.1780965239,19.3109350074,2.99918346929,22.1921564991,33.0068809163,40.68977562,43.3427305058,3.40316398665,41.8387535471,19.6618991915,45.9272907997,26.3907383833,-105.81030528
off_to_on,21.0381615639,14.3702374124,18.5455773019,2.01318349994,20.1807355245,31.1490806788,39.8667918912,42.1741180391,2.4333884454,40.5716815134,18.4069928065,45.0523861495,24.5621303471,-120.556584311
off_to_on,18.1297163712,11.3766314329,16.2133119743,1.00777206233,16.3275208045,26.9540765761,36.1618905373,37.9042941622,1.35179181573,36.2176311268,15.6353920226,40.741521875,20.5242284256,-123.886647561
off_to_on,13.6379516138,7.42966170131,12.4843496896,0.0314035784389,10.9782959511,20.807911958,29.8991043882,30.8880047903,0.223128753931,29.1480808062,11.5821066357,33.3742731129,14.6375921866,-116.008271748
off_to_on,7.93143544807,2.85226245092,7.66510181349,-0.877219825966,4.62834588005,13.2618626177,21.6201759902,21.7185759526,-0.886364183259,19.9745251333,6.59961962406,23.6044630836,7.44553782478,-98.259203197
off_to_on,1.49636564949,-1.97499853667,2.16724510529,-1.69134146992,-2.13230102725,4.97346255787,12.0304029203,11.1699784941,-1.9148410592,9.48644805364,1.12150856073,12.2934322506,-0.383895134765,-72.9561493606
off_to_on,-5.11227425189,-6.65247254276,-3.53437841802,-2.39658298829,-8.68319522376,-3.36132196021,1.92892014875,0.121290169475,-2.81001350237,-1.42789269638,-4.38160083486,0.422533625686,-8.12888219887,-43.1355933365
off_to_on,-11.3264752927,-10.8011715425,-8.95018171999,-2.9896159261,-14.4396291224,-11.0769801073,-7.86895381907,-10.5282671841,-3.53301509521,-11.8690312784,-9.44878385422,-11.0053411894,-15.0894319411,-12.2140613414
off_to_on,-16.6216316117,-14.0992231609,-13.6250448679,-3.47532837892,-18.9128624957,-17.6007847064,-16.6088982884,-19.9445771963,-4.06055502394,-21.0125902683,-13.6731226707,-21.064259804,-20.6590256214,16.3945458973
off_to_on,-20.5673990546,-16.311081414,-17.1827904118,-3.86296846867,-21.7575545583,-22.5020201589,-23.6660942271,-27.4351314827,-4.38519326735,-28.1850530595,-16.738853741,-28.9929961287,-24.3842480086,39.6611579576
off_to_on,-22.8675041722,-17.3065216795,-19.3610661072,-4.16190569637,-22.8013097716,-25.5233963088,-28.5980002429,-32.5088965391,-4.51382671415,-32.9212012819,-18.4476158013,-34.262699221,-26.0059737385,55.279121597
off_to_on,-23.3844240179,-17.0677632569,-20.0330278963,-4.37771865291,-22.0535997063,-26.5922520492,-31.176302852,-34.9136898779,-4.46471255978,-34.9977302208,-18.7314400823,-36.61768322,-25.4780184163,61.9175399929
off_to_on,-22.146711743,-15.6845288598,-19.2138710982,-4.50928042003,-19.6939505139,-25.8116495128,-31.3954433712,-34.6478722913,-4.2635389096,-34.4404524019,-17.6517322846,-36.085814481,-22.9619485196,59.3601301536
off_to_on,-19.3388106631,-13.3382755007,-17.0521000779,-4.54737357193,-16.0418349937,-23.4338131555,-29.4578569682,-31.9461212085,-3.93915779686,-31.5055988984,-15.3851233635,-32.9585797548,-18.799607799,48.5126009167
off_to_on,-15.2752173836,-10.2780356229,-13.8072184769,-4.47514248366,-11.5128493189,-19.8202862889,-25.7386881191,-27.2419425668,-3.51960969238,-26.6386433547,-12.1985121721,-27.7444057844,-13.4674968706,31.2770911118
off_to_on,-10.3625736361,-6.79114704974,-9.81703879809,-4.27041217794,-6.56722040697,-15.3944383902,-20.7349543016,-21.1120611666,-3.02899141346,-20.4164546594,-8.41671721245,-21.1017400101,-7.51911955657,10.308175684
off_to_on,-5.0544838104,-3.1725355407,-5.458870032,-3.90960960903,-1.6573125912,-10.5924341604,-15.0056607735,-14.2096186078,-2.48556469398,-13.4801602551,-4.38677893982,-13.7604491433,-1.52255390353,-11.3206214914
off_to_on,0.195560415374,0.303881109617,-1.10932920869,-3.37275785617,2.81946716541,-5.81845399985,-9.11006112635,-7.19401526766,-1.90129509084,-6.46671576487,-0.443055674625,-6.44102596106,3.9992970303,-30.4997933843
off_to_on,4.97785999916,3.40863376044,2.89259926515,-2.6488161503,6.55705397003,-1.40892675054,-3.55105964332,-0.665186194804,-1.28278209505,0.0532000979606,3.123147425,0.219157180765,8.61905654452,-44.469989056
off_to_on,8.96223032551,5.97283275165,6.27531895108,-1.74054025369,9.36281142416,2.39101928824,1.27027424221,4.89085054873,-0.633325431939,5.62461342208,6.08650380834,5.72466491466,12.0406457246,-51.1643682776
off_to_on,11.9224356667,7.89591917159,8.85438719987,-0.668056262232,11.1638279403,5.43751970245,5.08479587008,9.1400310869,0.0442988959673,9.94060175458,8.30135066707,9.76024097953,14.1173925647,-49.4653503547
off_to_on,13.7475638838,9.14509981322,10.5408966892,0.52952216351,11.9980971366,7.684840286,7.76780062954,11.9189232498,0.74488189138,12.8554979412,9.70558499877,12.2056293146,14.8517599777,-39.3442840937
off_to_on,14.4402321076,9.74755497387,11.338564551,1.79486336009,11.9931921271,9.17125620776,9.33402214857,13.2335013821,1.45819329219,14.3793055252,10.3154266745,13.1271035528,14.3782797321,-21.8668779938
off_to_on,14.1030653672,9.77729664745,11.3309862487,3.05569232882,11.3364942875,9.99723740735,9.91725115548,13.2397786589,2.16724700661,14.6558584154,10.2127158404,12.7486029013,12.9332290386,0.93625844464
off_to_on,12.9161392341,9.33901678404,10.6615844241,4.23034658103,10.2418284792,10.299851755,9.73838358492,12.2099875424,2.84776873838,13.9289385046,9.52711403903,11.4075952692,10.8159446153,26.3179607804
off_to_on,11.1088868161,8.55136449122,9.5094427449,5.23506384588,8.91741613404,10.2273120515,9.06678243871,10.4893470247,3.46902612209,12.5015723863,8.41590630406,9.50221757042,8.34729284492,51.1510469188
off_to_on,8.93027044566,7.53184506615,8.06440436194,5.99218977623,7.53942068735,9.91705540014,8.18022242198,8.44909921639,3.99597079149,10.6939887437,7.04404668151,7.43674911304,5.8306695511,72.3114697225
off_to_on,6.62081334057,6.38500893441,6.50454538914,6.43833231676,6.23416095169,9.47978223559,7.32838010061,6.44141421845,4.39243963794,8.80526390556,5.56669765463,5.5720575613,3.52006218622,87.0608252355
off_to_on,4.38944877256,5.19489719956,4.97848018274,6.53145397173,5.07051653179,8.99067887106,6.70392752768,4.76102230812,4.62499867916,7.08264145145,4.1158740156,4.18644121468,1.5983360833,93.3811909105
off_to_on,2.39719963865,4.02195330639,3.59403992643,6.25599177169,4.06239572855,8.48780591016,6.42394980975,3.61718607044,4.66691088946,5.70107944277,2.79203073789,3.45049779197,0.167233939803,90.2213867017
off_to_on,0.748607299608,2.90391710341,2.41383975085,5.62531683084,3.1796331927,7.97654939849,6.52284893597,3.11807450556,4.50168301657,4.7539895027,1.66065766831,3.41756172775,-0.751139494485,77.6249677427
off_to_on,-0.509250589922,1.85968896089,1.45726710352,4.68116333841,2.36454878912,7.43825693484,6.95634310817,3.26796979326,4.12569849443,4.2546195737,0.753275710697,4.02917080825,-1.20309178106,56.7251310284
off_to_on,-1.38123106143,0.894854519716,0.707621283697,3.49002938174,1.55078072878,6.84081061667,7.61482967283,3.97623774017,3.54956527299,4.14629699937,0.0717563474677,5.13322533766,-1.28523620435,29.6083447788
off_to_on,-1.91381032865,0.00751992161921,0.122609172635,2.13692989337,0.680968069905,6.14894363678,8.34341064799,5.07579830171,2.79798002674,4.31893025306,-0.405343410646,6.51120310514,-1.12295281288,-0.935234842377
off_to_on,-2.18202460531,-0.806695809645,-0.353796454362,0.717214724714,-0.279629836875,5.3325368035,8.96537654856,6.3480568211,1.90810812045,4.62882932403,-0.715721135367,7.91011700021,-0.848887860371,-31.7426728949
off_to_on,-2.27569646245,-1.55128709702,-0.780007482845,-0.672592426964,-1.33554122144,4.37182497503,9.30592568753,7.55094407301,0.926673201847,4.91903005598,-0.906607039953,9.07487514039,-0.584467127549,-59.6489518085
off_to_on,-2.28667870225,-2.22740813664,-1.20746289528,-1.94385863119,-2.46027577712,3.25925308537,9.21330953972,8.44683952677,-0.0938861327852,5.03781015303,-1.0290741773,9.77725595577,-0.42651021522,-81.8516174639
off_to_on,-2.29835371819,-2.83416373761,-1.67418302104,-3.02375354962,-3.60181169014,1.99848761941,8.57532915221,8.82763554457,-1.09972479189,4.85382756764,-1.13365253826,9.838695213,-0.43992760065,-96.2250755378
off_to_on,-2.3780438632,-3.37007989352,-2.20152929755,-3.86110805863,-4.69279526102,0.601669214246,7.33001548647,8.53491968869,-2.0398538041,4.26713558879,-1.267132101,9.14530176072,-0.656357467092,-101.54733336
off_to_on,-2.57242752454,-3.8349567722,-2.79388577185,-4.42959073143,-5.66312350687,-0.913716549969,5.47024977293,7.47407112516,-2.86987409269,3.21607853193,-1.47016457623,7.65476231697,-1.07764121735,-97.6136414334
off_to_on,-2.90560955621,-4.23126865418,-3.44054373467,-4.72792357177,-6.45228230185,-2.52701479996,3.04287528942,5.62185569562,-3.55479096656,1.68062429288,-1.77515868915,5.39587082433,-1.68239078133,-85.2261406646
off_to_on,-3.37922506276,-4.56443184311,-4.11883989327,-4.77724027727,-7.01899986844,-4.2146435858,0.143413045485,3.02775998599,-4.07066044116,-0.317027402549,-2.20402374248,2.46218107894,-2.4336508087,-66.0643313345
off_to_on,-3.97388402334,-4.84157644561,-4.79759146041,-4.61605240086,-7.34639931608,-5.9480134505,-3.09223461118,-0.190234598681,-4.40498689256,-2.71372197962,-2.76552904744,-0.998343541675,-3.28581525116,-42.4559082556
off_to_on,-4.65137188565,-5.06886539395,-5.44006628637,-4.29358275082,-7.44177338932,-7.68943772162,-6.49772553547,-3.85448785297,-4.5559615327,-5.40790934791,-3.45235919706,-4.79582374811,-4.18946005539,-17.0793794975
off_to_on,-5.35725463238,-5.2478208892,-6.00606429143,-3.86241255973,-7.33118728944,-9.38701591752,-9.88675078121,-7.74013432474,-4.53077826276,-8.26326300937,-4.23828245265,-8.71157817788,-5.09348302354,7.3625606032
off_to_on,-6.02382037644,-5.37145876308,-6.45308545009,-3.37144562561,-7.0501470542,-10.9699666234,-13.0633238853,-11.5901682023,-4.34336743261,-11.1135419975,-5.07612990488,-12.5108731515,-5.94474406323,28.4575675762
off_to_on,-6.57354143899,-5.42122213497,-6.73692871238,-2.86011313441,-6.63236778965,-12.3460932047,-15.8316049487,-15.1323554443,-4.01193587773,-13.7691887948,-5.89743298692,-15.9549197938,-6.68611196933,44.3477456179
off_to_on,-6.92338954597,-5.36570030831,-6.81232357212,-2.35454027586,-6.09909547368,-13.4029242545,-18.0053391354,-18.0972551407,-3.55668913474,-16.0262722896,-6.61453521167,-18.8122382045,-7.25430621663,53.9127696858
off_to_on,-6.99033526693,-5.16190520129,-6.63428343407,-1.86609985363,-5.45140034644,-14.0135818719,-19.4171928818,-20.236667966,-2.99804390777,-17.6782502255,-7.12576243456,-20.8698137531,-7.57907792145,56.8529565812
off_to_on,-6.6981982497,-4.75948178322,-6.16076398573,-1.39243108744,-4.66736915487,-14.0476603182,-19.928270982,-21.341770419,-2.35552870063,-18.5306385988,-7.32382412391,-21.9445074435,-7.58506886152,53.6667235076
off_to_on,-5.98571150042,-4.10771152824,-5.3569259656,-0.920652372507,-3.70525592254,-13.3864660348,-19.4378942712,-21.2600491403,-1.64743690285,-18.4180908821,-7.10708199915,-21.8949460805,-7.19715458736,45.5305978941
off_to_on,-4.81527849079,-3.16461444562,-4.20089207787,-0.432193180404,-2.51255028376,-11.9410343877,-17.8933577353,-19.9099622669,-0.891161155117,-17.2227109078,-6.39274634877,-20.6336651858,-6.3493125191,34.1020714551
off_to_on,-3.18151677147,-1.90696267252,-2.6904318348,0.0915462465908,-1.03977492645,-9.67056639625,-15.2989568021,-17.2920903076,-0.104021569415,-14.8917836859,-5.13054403915,-18.1387146837,-4.99619945129,21.2745845242
off_to_on,-1.11838464101,-0.339678895992,-0.849598706965,0.663599753322,0.743172464869,-6.59847009533,-11.7231709798,-13.4954724151,0.695679370637,-11.4526492743,-3.3150443284,-14.4634002332,-3.12583750129,8.91871184358
off_to_on,1.2964419248,1.49702270376,1.26592931439,1.28677050264,2.83098450002,-2.82315228329,-7.30263576615,-8.69792259956,1.48767461392,-7.02228795226,-0.994709821492,-9.74246118252,-0.771249032081,-1.35627465137
off_to_on,3.94118134746,3.52424895272,3.56612208834,1.9506142942,5.17027885433,1.47887014747,-2.24150311159,-3.15942803395,2.24910378429,-1.809409291,1.72409173247,-4.19289541803,1.98132870904,-8.39069543115
off_to_on,6.6544521274,5.6258848078,5.92762426788,2.63054176845,7.65306302605,6.05911531806,3.19496260706,2.79174445098,2.95445371704,3.89253816197,4.67941838495,1.89209907246,4.98981378536,-11.5909769742
off_to_on,9.24502559248,7.65536905598,8.1992667498,3.28920072416,10.1183024703,10.6129308563,8.69318160758,8.77990232078,3.57618465227,9.72204563422,7.66301947294,8.15697969279,8.06078331351,-10.9633931137
off_to_on,11.5064778478,9.44751575728,10.2121917458,3.87997184451,12.3623998944,14.8039811148,13.9103268714,14.4085998651,4.08604091679,15.2753104151,10.436248758,14.2055130868,10.9617068958,-7.06562350782
off_to_on,13.2356408952,10.8343403953,11.7940152494,4.35211091554,14.1580209848,18.2951515731,18.4986642701,19.2911794883,4.45692818932,20.139207633,12.7514092517,19.6291414892,13.4403521085,-0.887652904528
off_to_on,14.253067484,11.6631772973,12.7857496401,4.65683954915,15.2793328231,20.7825098069,22.1332925469,23.0825504059,4.66514162471,23.9284239968,14.3764669672,24.0398781972,15.2496259136,6.31763276934
off_to_on,14.4232227682,11.8149065487,13.0596284829,4.75355551869,15.530572558,22.0282884177,24.5406861148,25.509138095,4.69266486566,26.3228559637,15.1204358155,27.1046222467,16.1751026407,13.2281695521
off_to_on,13.6718954029,11.2199264186,12.5356195886,4.61531957054,14.7741247041,21.8887152611,25.5249988159,26.3938439292,4.52923834241,27.1009826583,14.8564190838,28.5771953841,16.0618143556,18.6429661179
off_to_on,11.9984410507,9.86965340422,11.1943560172,4.23287790298,12.9540870523,20.3329575977,24.9890201149,25.673154141,4.17391849107,26.1650880255,13.539360754,28.3242836099,14.8366707462,21.6431656802
off_to_on,9.48094273421,7.821800811,9.08448975191,3.61668207075,10.1116992133,17.4504313805,22.9470323939,23.4042277397,3.63591292904,23.5549434522,11.2160267395,26.3418722588,12.5231933762,21.7036855883
off_to_on,6.27315135881,5.19842417069,6.32306078177,2.79664090943,6.38995653043,13.4451342685,19.5275820668,19.7608123091,2.93456957173,19.4478028113,8.02555994317,22.7596800973,9.24607421515,18.7431653039
off_to_on,2.59306219621,2.17663181875,3.08830708005,1.8196430483,2.02611222583,8.61730380615,14.9652675686,15.0180690406,2.09850541917,14.144159358,4.19003916178,17.8324261487,5.22430250408,13.1091719295
off_to_on,-1.29594273481,-1.02718298386,-0.394690980916,0.745181080145,-2.66760932979,3.33435277438,9.58192912629,9.52767881937,1.16396686858,8.04046107406,-0.00431549239563,11.9183358164,0.753082603395,5.50474182818
off_to_on,-5.10945200034,-4.17786114761,-3.87417028074,-0.36035056116,-7.33313738302,-2.00554306571,3.75892786478,3.68577653129,0.172602438573,1.59163965155,-4.23346764845,5.44689721483,-3.82371925854,-3.12988831929
off_to_on,-8.56916097261,-7.04436324871,-7.09546073198,-1.42995441564,-11.6021687458,-7.0128410887,-2.09665683629,-2.1028449239,-0.831111460177,-4.73235656938,-8.16660918183,-1.12071375248,-8.14752972659,-11.7611001573
off_to_on,-11.4296201847,-9.42229017777,-9.82563035267,-2.40214128156,-15.1339620478,-11.3442423167,-7.58826894537,-7.46033944277,-1.80252771726,-10.491020217,-11.4984559106,-7.33411887895,-11.8814063809,-19.4095895797
off_to_on,-13.501400556,-11.1533271251,-11.8760522765,-3.22612268002,-17.6506278805,-14.733989626,-12.3645519135,-12.0673135422,-2.69931887043,-15.3135599467,-13.9790966542,-12.7942731013,-14.7443236563,-25.2810258922
off_to_on,-14.6678872099,-12.1392869974,-13.1201450219,-3.86550318691,-18.9655016901,-17.0151902898,-16.1486087152,-15.6868439879,-3.48359777252,-18.9303376731,-15.4379365226,-17.1873909067,-16.539158345,-28.8624053881
off_to_on,-14.8937105704,-12.3491351611,-13.5041183319,-4.30011454116,-19.0010722931,-18.1288646865,-18.7586549443,-18.1785807992,-4.12353586889,-21.1919563015,-15.7989597571,-20.3084352958,-17.1709038778,-29.9726858893
off_to_on,-14.2239061983,-11.8183039919,-13.0494466351,-4.52589653499,-17.7943172151,-18.1200969571,-20.1179572865,-19.5017900867,-4.59442691245,-22.0741048137,-15.0855840137,-22.0716955874,-16.6529092238,-28.7634011511
off_to_on,-12.7741145248,-10.6406232426,-11.8468700214,-4.55299467896,-15.4889714763,-17.1224065299,-20.2533112544,-19.7076156892,-4.87922122416,-21.6681394457,-13.4146525541,-22.5076753627,-15.1005197392,-25.6722450769
off_to_on,-10.7133158766,-8.9541568714,-10.0428378446,-4.40247442215,-12.3159896082,-15.3330208535,-19.2827648565,-18.9222085198,-4.96861733725,-20.1592437992,-10.980446784,-21.7473103466,-12.7131709577,-21.339043931
off_to_on,-8.24157427228,-6.92301195554,-7.82030369165,-4.10221532334,-8.56500349914,-12.9828844319,-17.3946365692,-17.3234949253,-4.86083509745,-17.7956041719,-8.03082258286,-19.9961824917,-9.74751362233,-16.4982435937
off_to_on,-5.56589205712,-4.71766105455,-5.37650884033,-3.68262538484,-4.55071105963,-10.3058219881,-14.8209187711,-15.1150711791,-4.56120280348,-14.8531330752,-4.83851808282,-17.5026546144,-6.48531004461,-11.864469923
off_to_on,-2.87746247054,-2.49642980247,-2.90074774927,-3.17279813152,-0.578693381708,-7.51120361263,-11.8087563017,-12.500919644,-4.08167179873,-11.60071824,-1.67122318895,-14.5245380196,-3.20047100686,-8.02767636271
off_to_on,-0.33331899658,-0.390533843992,-0.555040259994,-2.59762899182,3.08492394217,-4.76375348338,-8.59376291708,-9.66431641375,-3.44033101955,-8.27070497869,1.23592823593,-11.2989246236,-0.129608982277,-5.37204470285
off_to_on,1.95534101487,1.50555386679,1.53985022438,-1.97623159944,6.23625600821,-2.17291262776,-5.37848177615,-6.75349265985,-2.66094106114,-5.03837922858,3.70219013609,-8.0191644969,2.55013145146,-4.02864231164
off_to_on,3.92693024414,3.13747110316,3.31144499692,-1.32177669432,8.74639925565,0.207399680526,-2.31838311823,-3.87544687845,-1.77245398938,-2.01274825951,5.61493340078,-4.82174836341,4.73334902226,-3.866578495
off_to_on,5.56533636321,4.48809833489,4.73507302059,-0.642649424576,10.56317954,2.36944161999,0.483436450787,-1.09796125749,-0.808442921443,0.760864352241,6.93397612735,-1.78424686035,6.3876524501,-4.52186549504
off_to_on,6.88908279831,5.5694181517,5.82646073955,0.0553816364753,11.7025934972,4.33503770094,2.97304629743,1.5414413578,0.193656348271,3.28771720511,7.68649621049,1.06629260782,7.54444148295,-5.45817392238
off_to_on,7.93600715337,6.41083319239,6.62898532084,0.766439754155,12.232108886,6.13512731913,5.13544027887,4.02195017574,1.19358519743,5.60294582824,7.95375681106,3.73671924468,8.28125502543,-6.04983566279
off_to_on,8.74634598416,7.04615989073,7.19795947509,1.4817914573,12.2490959545,7.78944943224,6.97974828405,6.3243675017,2.14964621983,7.7472829006,7.85192687392,6.24640851663,8.69893414253,-5.67521958571
off_to_on,9.34732622845,7.50164905966,7.5847180701,2.18759942961,11.858234029,9.290244549,8.52297989779,8.41767894627,3.02044114301,9.74372092244,7.50999217965,8.60532900715,8.89753181671,-3.8081436783
off_to_on,9.7420830785,7.78714754748,7.8232475999,2.86361629101,11.1516973783,10.5931291492,9.77546523755,10.2501595859,3.76690569937,11.5794093078,7.04803523602,10.7957509016,8.95497504514,-0.096175721942
off_to_on,9.90498921393,7.89194607787,7.92164217903,3.48310804089,10.1952879465,11.6170528038,10.7307294395,11.7470460252,4.35451594437,13.1961731864,6.55898322029,12.7611468211,8.91194068675,5.58283199944
off_to_on,9.78439912636,7.7860456001,7.85985202708,4.01410401409,9.02255707588,12.2536779187,11.3616655658,12.8156144689,4.75548246147,14.4915933018,6.09631532811,14.4046029687,8.76533019769,13.091328681
off_to_on,9.31254789428,7.42664401882,7.59413578115,4.42186583366,7.63752578792,12.384871872,11.6236963211,13.3571493409,4.95071271181,15.3308153602,5.66927673438,15.5974351603,8.47128647081,22.0315771179
off_to_on,8.42109072884,6.76874151655,7.06749733736,4.67228088057,6.02510217193,11.9055323388,11.4643262502,13.283982454,4.93131566635,15.5674344234,5.24600417544,16.1969412509,7.9571107087,31.7726180192
off_to_on,7.05972493076,5.77802709316,6.2243559243,4.73574279691,4.16694517998,10.7479153806,10.8372906666,12.5387424745,4.69945035639,15.0702078807,4.76379213928,16.0705948083,7.13995345254,41.5006037435
off_to_on,5.21466929882,4.44375815514,5.02692697395,4.59100204979,2.05955165871,8.90317803201,9.71860044132,11.1123551019,4.26837927938,13.7512402145,4.14468571465,15.1227540479,5.94900210184,50.2867093133
off_to_on,2.92360364515,2.78925340159,3.47040622318,4.22846357461,-0.269095520131,6.43606971376,8.1213151305,9.05728794834,3.66167163079,11.5908357535,3.31382248291,13.319328017,4.34724882639,57.1660579604
off_to_on,0.284036669735,0.877907383051,1.59411896381,3.65247524095,-2.74781168791,3.48959366704,6.10593590906,6.49306897234,2.91159876621,8.6545157177,2.21756659335,10.7059235389,2.3489020759,61.2211352194
off_to_on,-2.54706292593,-1.18673405798,-0.513678749988,2.88227933421,-5.25816433902,0.277892134046,3.78389843486,3.60216194059,2.05686122455,5.09871528045,0.838533121186,7.41579898473,0.0291129842977,61.663757138
off_to_on,-5.36328370103,-3.26741433344,-2.71874821974,1.95147006936,-7.63960286204,-2.93261767628,1.31268488272,0.615712178815,1.13986873047,1.16327803471,-0.794922081372,3.66537166346,-2.47615996637,57.9105003929
off_to_on,-7.92788463567,-5.2056919373,-4.85179654703,0.905988694245,-9.70375114125,-5.85197752395,-1.11758789586,-2.20972690957,0.203849337822,-2.84917842624,-2.60634417111,-0.263135389151,-4.98079748651,49.647314331
off_to_on,-9.99999084434,-6.83914008348,-6.72635863243,-0.199132255295,-11.2562787177,-8.20176192045,-3.30481356706,-4.62185264021,-0.709917397005,-6.60492691952,-4.47649223273,-4.05033291076,-7.26865287998,36.8796257524
off_to_on,-11.3646214873,-8.0210041259,-8.16144924501,-1.30391658365,-12.1233895903,-9.75177006085,-5.06017873503,-6.40481268342,-1.56446901673,-9.77793478588,-6.25572742244,-7.37617754327,-9.12058199238,19.9645575947
off_to_on,-11.8624814168,-8.63959856339,-9.00592462737,-2.34802872961,-12.1790078251,-10.3530774849,-6.23452007474,-7.40940431561,-2.32891396719,-12.0906349158,-7.78182948729,-9.95953740817,-10.344563944,-0.37800188907
off_to_on,-11.415188948,-8.63460964762,-9.16103772971,-3.27530503415,-11.3683584305,-9.96241104867,-6.74173285826,-7.57668059036,-2.97944048192,-13.3509238712,-8.90077778633,-11.5952480664,-10.8044363893,-23.0786139089
off_to_on,-10.0419749884,-8.00776903427,-8.59772114775,-4.03777114963,-9.72391809161,-8.65378613518,-6.57534744646,-6.95100474138,-3.49955316077,-13.4799022419,-9.48756567336,-12.1831494875,-10.4427599755,-46.7585002837
off_to_on,-7.86484821713,-6.82604711439,-7.36569888172,-4.59876964395,-7.37062310036,-6.61495771397,-5.8151384886,-5.67985370455,-3.87961376543,-12.5259383275,-9.46406585002,-11.7444676533,-9.29399900057,-69.7984697034
off_to_on,-5.10066447769,-5.21649357704,-5.59254846922,-4.93494808199,-4.51865440883,-4.12827491077,-4.62190439105,-3.99940235983,-4.11585245952,-10.6623840792,-8.81133678237,-10.4224984588,-7.48547791792,-90.436513581
off_to_on,-2.04027990882,-3.35299455849,-3.4721772985,-5.03700586735,-1.44387463338,-1.5377130653,-3.22018692843,-2.20689255703,-4.20907793351,-8.1684711615,-7.57450491655,-8.46665988308,-5.22527442459,-106.891440825
off_to_on,0.983228444645,-1.43636127299,-1.24365889215,-4.90924653167,1.54218145932,0.794119509512,-1.87046786844,-0.622731786242,-4.1633404457,-5.39526379616,-5.85937080859,-6.20131326402,-2.77810037695,-117.506658295
off_to_on,3.63367563388,0.329848790118,0.837210946514,-4.56811098816,4.12923045549,2.53363279201,-0.834027792298,0.453103909686,-3.98478723904,-2.7207138933,-3.82102869297,-3.98298702317,-0.432029325987,-120.904610399
off_to_on,5.61342399177,1.76469399877,2.53013606042,-4.03996075625,6.04735560864,3.4223151718,-0.334935915918,0.784715058096,-3.68089769339,-0.499540861207,-1.64590005194,-2.1514426852,1.5396126455,-116.138986202
off_to_on,6.70220118154,2.73303398047,3.64211901382,-3.35842880367,7.10303110322,3.31490318986,-0.524355749066,0.237983461058,-3.2602043795,0.98540629731,0.47049179687,-0.98113157413,2.91599010595,-102.829207127
off_to_on,6.78782216674,3.16335809905,4.05449456504,-2.56165717654,7.20694210959,2.20417407108,-1.45237041969,-1.19318113451,-2.7325088623,1.56360460587,2.34706605869,-0.639820824468,3.56076363849,-81.2605475231
off_to_on,5.88439378848,3.05769855103,3.74130879293,-1.6896998189,6.38938671065,0.228460747845,-3.05181804382,-3.37631884793,-2.10950317578,1.20331073971,3.83889407784,-1.16045816043,3.44357866132,-52.4340283095
off_to_on,4.13504636216,2.49205776588,2.77616179588,-0.78229660065,4.8005698476,-2.33984701375,-5.13724804396,-6.04799716739,-1.40562504064,0.0198983585839,4.85413763212,-2.43076540288,2.64755208418,-18.0532545713
off_to_on,1.79815328872,1.60700708664,1.32607035463,0.122864938454,2.69505297643,-5.12408978059,-7.42022562784,-8.83956473389,-0.638920531904,-1.73571786683,5.3638999057,-4.20279323103,1.36110122886,19.55936996
do_nothing,-0.781875903032,0.58941815037,-0.367406112158,0.991374502421,0.401746345719,-7.6882527018,-9.54006111079,-11.318747371,0.168328919732,-3.70774059177,5.40361503925,-6.12202553306,-0.145416000039,57.6174865174
do_nothing,-3.21608852914,-0.352504870487,-2.01781938,1.79286277263,-1.71716502561,-9.59176220617,-11.106905597,-13.0425488909,0.989434334149,-5.48180984823,5.0657395382,-7.77294216293,-1.55565066632,93.088818416
do_nothing,-5.11991579024,-1.01777890199,-3.33079949136,2.50140987603,-3.31336326159,-10.4474722125,-11.752324234,-13.6152231935,1.79373924535,-6.64136231448,4.48468915203,-8.73559835311,-2.55136341873,122.960049142
do_nothing,-6.16354915549,-1.24111542758,-4.04377103312,3.09572831481,-4.09962674971,-9.97553539076,-11.1811904165,-12.7441359807,2.54773905775,-6.82689615036,3.81602935847,-8.64608473932,-2.85894996601,144.524651681
do_nothing,-6.11739047142,-0.917566807924,-3.96332641254,3.55924371185,-3.89095523603,-8.04617317157,-9.21822906709,-10.2862812805,3.21684115995,-5.79040195896,3.21273248404,-7.25293905238,-2.29212041293,155.664338499
do_nothing,-4.88662000376,-0.0200069440857,-2.99528931098,3.88016523502,-2.63400508172,-4.70557749285,-5.84287007539,-6.27909276587,3.7676226157,-3.43761694867,2.80175000889,-4.46181744127,-0.784751873624,155.092438872
do_nothing,-2.53012118197,1.39304157671,-1.16327942052,4.05159011273,-0.420605178524,-0.181151245945,-1.2072405049,-0.950904887425,4.17035468293,0.14787648183,2.66415353004,-0.361992924293,1.5909603419,142.528882086
do_nothing,0.739167302906,3.18053452571,1.38706719644,4.07163464983,2.51693514218,5.13522193909,4.3659970066,5.29122429177,4.40150666029,4.70251720138,2.82166758659,4.76961286886,4.62413689574,118.781774801
do_nothing,4.57315419827,5.13291452029,4.3993221301,3.94353910372,5.82873535616,10.7245058066,10.4068808855,11.8959025936,4.44592484491,9.803701271,3.2316046819,10.4884028177,7.98346711242,85.7194877551
do_nothing,8.52505135255,6.99554369663,7.53210282041,3.67566521206,9.08615388894,15.9945208789,16.3408070541,18.2208431267,4.29840896729,14.9119923521,3.7911203301,16.2245948011,11.2524924618,46.1288654026
do_nothing,12.0994591979,8.49888474957,10.3968247032,3.28129896746,11.8321125077,20.3446314819,21.5464881608,23.5997746609,3.96447512572,19.4300866635,4.3504737897,21.3438332851,13.9780585292,3.46834791892
do_nothing,14.810382266,9.3918578293,12.6030971933,2.7781886941,13.6370022396,23.2337359617,25.4230632732,27.4154535152,3.46019172844,22.7718104155,4.73376727154,25.219109855,15.7262459445,-38.462148295
do_nothing,16.2403712363,9.47434070274,13.8064275777,2.18778614312,14.1534186198,24.2436992078,27.458860344,29.1704735131,2.81108937597,24.4330311955,4.76460032719,27.3055735479,16.1389564189,-75.9015069511
do_nothing,16.0937024986,8.62481521138,13.752476599,1.53420871159,13.162990244,23.1308208593,27.2938399317,28.547618767,2.05026053278,24.0559552038,4.29335275804,27.2092284003,14.9840459448,-105.516914068
do_nothing,14.2370825093,6.8196907538,12.3123953075,0.842993930073,10.6094184425,19.8592669778,24.7682222175,25.4525392648,1.21586372337,21.478916278,3.22249575409,24.7410410244,12.1925115151,-124.758425311
do_nothing,10.7227387765,4.14179002207,9.50473645191,0.139762259889,6.6134328447,14.6124396954,19.9511802296,20.0334348884,0.348315732129,16.7653661313,1.52647286106,19.949560186,7.87768280054,-132.136510897
do_nothing,5.79076942943,0.776745611459,5.50096183647,-0.551068519689,1.46749078021,7.78076645467,13.1456186776,12.6749864571,-0.512515690349,10.2081533792,-0.736721516773,13.1275949718,2.33347145702,-127.387890023
do_nothing,-0.149972213899,-3.00252663128,0.613475476511,-1.20737091928,-4.38955518959,-0.0729449333816,4.86770491644,3.9666710483,-1.32982042795,2.30804199214,-3.42417512115,4.79151109757,-3.98877092732,-111.507014864
do_nothing,-6.56067229535,-6.86171276844,-4.73283058957,-1.81007403068,-10.4152228497,-8.26693232755,-4.19733208932,-5.35149929906,-2.07181252329,-6.27157971951,-6.31758563352,-4.36508162166,-10.5226497337,-86.6359371799
do_nothing,-12.8269317634,-10.4385668874,-10.0425751591,-2.34353184648,-16.0189369488,-16.0669728867,-13.2589015311,-14.4602125373,-2.71299767522,-14.7690719152,-9.14302636046,-13.5384553342,-16.6438908564,-55.8221670517
do_nothing,-18.3227842266,-13.3802965539,-14.8008709183,-2.79548000253,-20.6241698849,-22.7588447952,-21.4977499508,-22.5415348615,-3.23468935274,-22.4010478155,-11.5990017403,-21.8954436209,-21.7359559007,-22.6704158358
do_nothing,-22.477269185,-15.3807512943,-18.5276459189,-3.15663628106,-23.7302481233,-27.7190878835,-28.1476120862,-28.8604312011,-3.62482792177,-28.4426511819,-13.389761229,-28.6588022855,-25.2567167607,9.07229927354
do_nothing,-24.8361483105,-16.2133198732,-20.8292335225,-3.420062956,-24.9669309319,-30.4766826001,-32.5731160616,-32.8384296978,-3.87725002635,-32.30281027,-14.2600994066,-33.1878089805,-26.7985999039,35.9496528453
do_nothing,-25.1118842736,-15.7559307557,-21.4414454197,-3.58045399242,-24.135711509,-30.7593551856,-34.3355706187,-34.1116094468,-3.99062072623,-33.586245121,-14.0275666268,-35.0451905546,-26.1353140515,55.1953429229
do_nothing,-23.2163214385,-14.005440402,-20.2592975395,-3.63352814384,-21.2333192392,-28.5199571276,-33.2395234528,-32.5668308372,-3.96726936188,-32.1355081055,-12.6081910009,-34.0430265152,-23.2497892771,65.0501654524
do_nothing,-19.2724542378,-11.0798757038,-17.350066582,-3.57569525177,-16.4549230854,-23.9405434614,-29.3550312787,-28.3525205147,-3.81215843852,-28.0485816755,-10.0324547606,-30.262668636,-18.3400931799,64.9575875641
do_nothing,-13.6040094734,-7.20832904248,-12.9482333535,-3.40411790263,-10.1768041337,-17.4141324998,-23.0131883491,-21.8630877335,-3.532165952,-21.6702712083,-6.44930648989,-24.0466484661,-11.8025900434,55.6130455805
do_nothing,-6.70402829516,-2.7096331738,-7.43289477511,-3.11721981382,-2.92051236266,-9.5064067315,-14.7753244028,-13.698869021,-3.13578428827,-13.5584957665,-2.1173084973,-15.963665806,-4.19417153329,38.8600432497
do_nothing,0.81407142852,2.03787999383,-1.29016264402,-2.71560636727,4.69750778901,-0.901571299962,-5.37908364851,-4.60605870832,-2.63324627573,-4.42926802179,2.61653471052,-6.75069688904,3.82228965443,17.4451331823
do_nothing,8.27759978903,6.63233361761,4.93530769272,-2.2032752137,12.0253617153,7.66196857876,4.33297629078,4.59689291701,-2.03699662777,4.91363108834,7.34831169343,2.76130462311,11.5432959786,-5.33838858561
do_nothing,15.0212691161,10.6862386598,10.6943821292,-1.58892052005,18.437923418,15.459641302,13.4948348961,13.0986527067,-1.36235021646,13.6567711418,11.6559392096,11.7299844221,18.2938158607,-26.0740573227
do_nothing,20.4523491921,13.8625521742,15.4873066345,-0.887086612549,23.3954119454,21.8458604324,21.3001084005,20.171971775,-0.628130156478,21.0548201636,15.1410657512,19.3836026998,23.4927456164,-41.6603106171
do_nothing,24.1075142667,15.905300027,18.9116938167,-0.118915329403,26.49248517,26.3102365055,27.0783411883,25.2405350951,0.142933226792,26.500003002,17.4696875487,25.0939375201,26.7079225988,-49.7081519757
do_nothing,25.6956288979,16.6618576834,20.699728211,0.687739096555,27.4931917104,28.5198930599,30.3568748611,27.9292497287,0.924234458057,29.5764370278,18.4070913411,28.4327503374,27.6951593628,-48.848341714
do_nothing,25.1223563667,16.0949155514,20.7409602537,1.49898505365,26.3487505866,28.3444543312,30.9023131872,28.0934327214,1.68588587427,30.0942884738,17.8432983989,29.2064765036,26.4176344226,-38.9092969542
do_nothing,22.4945110879,14.2832557723,19.0887004564,2.27641587527,23.1970056474,25.8620418185,28.7378274852,25.824673746,2.39591383501,28.1009407809,15.806173914,27.4663060706,23.0441859542,-20.9431368447
do_nothing,18.1042771044,11.4116125113,15.9498342648,2.97941888253,18.3443121554,21.3464468824,24.1351130053,21.4336078209,3.02200123959,23.8688247029,12.460675594,23.4935362952,17.9273483125,2.90349527396
do_nothing,12.3955306307,7.75095687723,11.6596471208,3.56809133759,12.2323492535,15.2373598052,17.582428888,15.4121725764,3.53362411807,17.8619565515,8.09419947677,17.7626955042,11.5640863114,29.6575270474
do_nothing,5.91630664175,3.631434504,6.64478315574,4.00648085842,5.39373912816,8.09698132903,9.73255159345,8.37990048435,3.90435410699,10.6853136361,3.08947428325,10.8871719822,4.54388936637,55.8925491222
do_nothing,-0.737247494245,-0.589192376384,1.378598665,4.26579793672,-1.59873448356,0.557407272989,1.3363972289,1.02021741101,4.11405450339,3.02273905933,-2.11220815657,3.55370187267,-2.50998545651,78.1597053848
do_nothing,-6.9794066934,-4.55843484595,-3.6661968926,4.32722302563,-8.18414542717,-6.73620860164,-6.83066569496,-5.9865384767,4.15069300727,-4.4300276242,-7.05360796892,-3.54707215629,-8.99988351524,93.421957277
do_nothing,-12.2898546715,-7.96015018897,-8.06264264659,4.18395611126,-13.8616934666,-13.1815670727,-14.0422949677,-12.0266441429,4.01153085711,-11.0304132719,-11.3055673039,-9.78671999443,-14.4077426052,99.4370514478
do_nothing,-16.2597163417,-10.5409697623,-11.4678629651,3.84223144274,-18.2308980744,-18.2693776378,-19.6872233102,-16.6070026317,3.70352111873,-16.2459047864,-14.5078977807,-14.6553084752,-18.3385844159,95.0412662973
do_nothing,-18.6244061798,-12.1298322583,-13.6510566593,3.32113562783,-21.0204461985,-21.6236318828,-23.3216832987,-19.3948305183,3.24284801076,-19.6976393869,-16.4029368124,-17.8027322432,-20.5497620478,80.2988523671
do_nothing,-19.280632086,-12.6491371768,-14.5088221864,2.65120888114,-22.1037271229,-23.0288995893,-24.7036370726,-20.2398957597,2.65364982465,-21.1871468045,-16.858405271,-19.0618304098,-20.9639097207,56.4993212676
do_nothing,-18.2866692395,-12.1168987871,-14.0669531447,1.87195793403,-21.5004937424,-22.4427901685,-23.8062613083,-19.1780899457,1.96607380235,-20.7045597472,-15.8773769007,-18.4521204598,-19.6653458445,26.0041186971
do_nothing,-15.8467978278,-10.6401582254,-12.4693062679,1.02854455779,-19.3654484584,-19.9930627576,-20.8103314949,-16.4170492,1.2138964588,-18.4185356418,-13.5945706279,-16.1650647337,-16.8813945872,-8.03678510786
do_nothing,-12.282390792,-8.40071616862,-9.95566779577,0.168016824454,-15.9657318289,-15.9601986678,-16.0772783654,-12.3062888082,0.431994517101,-14.6499246072,-10.2596424388,-12.5336343044,-12.951533045,-42.0616930157
do_nothing,-7.99338144412,-5.63490866539,-6.83158671359,-0.664493635174,-11.6501906569,-10.7474642675,-10.1065347336,-7.295718104,-0.346037865876,-9.83270158197,-6.20952018986,-7.99036476525,-8.28830299442,-72.5194066349
do_nothing,-3.41462081188,-2.60961034755,-3.43380650263,-1.4291843482,-6.81385397988,-4.84149800996,-3.48217436096,-1.88732984934,-1.08986204623,-4.46672255759,-1.83294207033,-3.01898170479,-3.33446543135,-96.2839448276
do_nothing,1.02810792768,0.403119533806,-0.0951597156737,-2.09423584697,-1.86122506025,1.23282265163,3.18535548734,3.4147563292,-1.77376423479,0.932612905852,2.46889281259,1.8950471495,1.47909889018,-111.010689095
do_nothing,4.95791445207,3.15034060981,2.887408683,-2.63744159731,2.82818168385,6.95909288193,9.31644332574,8.15088283518,-2.3773240405,5.88272951051,6.32135163991,6.30998785114,5.77069161632,-115.391251504
do_nothing,8.07868990986,5.419309666,5.27860552374,-3.04668706748,6.92912083233,11.8735064006,14.4129583935,11.9447305006,-2.8853935058,9.97573589051,9.41103179245,9.86512411192,9.23709169915,-109.278017057
do_nothing,10.1963698044,7.0535830005,6.92213662292,-3.31930417565,10.1925051603,15.6025711589,18.0978234688,14.5312115343,-3.28750154109,12.9101844582,11.5126302421,12.3068389848,11.6727401434,-93.666390038
do_nothing,11.2281888424,7.96295788811,7.7484935026,-3.46047415008,12.4585754394,17.8912622416,20.1404120759,15.771452558,-3.57688138226,14.510386832,12.5055581201,13.5019171333,12.9779412973,-70.5409843029
do_nothing,11.199918254,8.12671540876,7.7731508126,-3.48097168479,13.6609558267,18.6194059632,20.4663064551,15.654400811,-3.74936770152,14.7323425689,12.3790523528,13.4379718218,13.1564148976,-42.608948375
do_nothing,10.2323610837,7.59029089818,7.08618686894,-3.39461947397,13.822094079,17.8052268389,19.1516413603,14.2860015587,-3.80241770401,13.6567441854,11.2258445949,12.2122636457,12.3035887646,-12.9571321611
do_nothing,8.51944247161,6.45611552074,5.83519626048,-3.21584435667,13.0413589825,15.5962150618,16.4038141857,11.8681180264,-3.73447577601,11.4707856881,9.22569925004,10.0112813172,10.5878245617,15.3217894614
do_nothing,6.30096619725,4.8698863045,4.20395118847,-2.95769181095,11.4776549787,12.2486715666,12.5316059057,8.67027699154,-3.54482950387,8.44150349067,6.62118465091,7.08419710636,8.22725442905,39.4867768732
do_nothing,3.83345365597,3.00388752971,2.38953809202,-2.63057001433,9.32877339515,8.09834422665,7.90861156877,4.99784235537,-3.23400749467,4.88402963756,3.68877916315,3.71363766546,5.46505197203,57.4458602151
do_nothing,1.36242138954,1.03917430198,0.580637926072,-2.24187112555,6.80981243619,3.52537564081,2.93425619078,1.16031016986,-2.80466188443,1.12839057409,0.708762217509,0.187122624685,2.54578470358,67.9592866478
do_nothing,-0.900981170155,-0.851571879598,-1.06074019488,-1.79647431431,4.13286988045,-1.0827446707,-2.00343970068,-2.55690576502,-2.26277798158,-2.51166290235,-2.06272722829,-3.22793614938,-0.304951037949,70.7275590221
do_nothing,-2.79678983689,-2.51888829306,-2.41236099011,-1.29799361872,1.48987140804,-5.36644579619,-6.5597379009,-5.91451088856,-1.61897655198,-5.76481814098,-4.41654113473,-6.30352783548,-2.89604945856,66.3591683396
do_nothing,-4.22525475972,-3.84778839379,-3.39874373712,-0.750514855692,-0.960109260932,-9.02409577049,-10.4570093822,-8.73344757114,-0.889633774734,-8.42117413399,-6.20613731653,-8.86340276166,-5.08074275165,56.2284901942
do_nothing,-5.14785554872,-4.76459733286,-3.99187616704,-0.16048705492,-3.09829359829,-11.8339974968,-13.4989582335,-10.9004378482,-0.0975473865333,-10.3428216538,-7.35480649165,-10.7882455489,-6.76069157888,42.2479527103
do_nothing,-5.58105453806,-5.23904983401,-4.20628492986,0.461593227563,-4.84830691543,-13.6665594713,-15.5749179509,-12.3653893614,0.728074209112,-11.4658659711,-7.85443381502,-12.0143087615,-7.88489232074,26.5884597903
do_nothing,-5.58436081162,-5.28185952554,-4.08972303985,1.10003794368,-6.1734663629,-14.4860035551,-16.6550600625,-13.1320735481,1.55243616573,-11.794710473,-7.75673896068,-12.5268801741,-8.44448237529,11.3870061819
do_nothing,-5.24485137323,-4.93844303414,-3.71117031267,1.73361753527,-7.07027415933,-14.3421848902,-16.7783247898,-13.2442204342,2.33681763389,-11.3902341367,-7.15878316481,-12.3504299365,-8.46483651741,-1.52000513716
do_nothing,-4.6605655539,-4.2798550563,-3.14803498336,2.33613949991,-7.5595009173,-13.3542178993,-16.0355551864,-12.7695923335,3.04096787352,-10.3540562284,-6.18510121962,-11.537463543,-7.99644607009,-10.8047473297
do_nothing,-3.92513587504,-3.39222368086,-2.4743828336,2.87794954627,-7.67641445145,-11.688491795,-14.5506274023,-11.784657723,3.62602239147,-8.81133406619,-4.96905227215,-10.1579905395,-7.10596842267,-15.7738938068
do_nothing,-3.11566448741,-2.36604642188,-1.75172520084,3.32820789491,-7.46167741244,-9.53420981256,-12.462304219,-10.3621898681,4.05763412476,-6.8944688736,-3.63587141887,-8.2911429201,-5.86856122979,-16.4013829721
do_nothing,-2.28525669932,-1.2866138476,-1.02341815813,3.65767195863,-6.95421169003,-7.07973004703,-9.90912730147,-8.56351021431,4.30896504567,-4.72972497174,-2.28947589809,-6.01990858269,-4.3622255326,-13.2700298856
do_nothing,-1.4608682966,-0.22658604651,-0.313132148377,3.84163340022,-6.18694067904,-4.49270508147,-7.01897771045,-6.43627058937,4.36318187278,-2.42815929555,-1.00440656151,-3.42927383018,-2.66443775539,-7.43611446707
do_nothing,-0.64631512311,0.758608193541,0.372773292638,3.86262474544,-5.18582364509,-1.90635028506,-3.90407752693,-4.01773539897,4.21514714341,-0.0815004275279,0.176531907204,-0.607395001625,-0.850917049733,-0.240608949407
do_nothing,0.170460122186,1.63230080498,1.03970751162,3.71253321807,-3.97205494199,0.586793980423,-0.661299185142,-1.3426136217,3.87208784157,2.23718489946,1.23921375186,2.35115938435,1.00398899997,6.90352714404
do_nothing,1.00736877248,2.37522522369,1.69732243039,3.39383401798,-2.56678649311,2.93337274996,2.62318328896,1.54627347439,3.35314579315,4.46893481805,2.1907572673,5.34145545634,2.82606432138,12.7171584735
do_nothing,1.87727853247,2.98183680116,2.35144627068,2.91977099689,-0.997314208415,5.11091022821,5.86651537851,4.58671202821,2.68785023627,6.56191117836,3.04932230481,8.24505537615,4.53999612649,16.226
do_nothing,2.77820287918,3.45517099043,2.99696741282,2.3134527016,0.696593869627,7.11459617324,8.98105120563,7.6876056632,1.91368431275,8.46378833384,3.83306319856,10.9291263672,6.06897438219,16.8755931009
do_nothing,3.68634899096,3.80125510132,3.61298615585,1.60597564831,2.45761875026,8.94178623113,11.8675749712,10.7234985048,1.0730253317,10.1153496922,4.55018259516,13.2488917549,7.33574550876,14.5781620302
do_nothing,4.55334477295,4.02409619935,4.1611881668,0.833813584442,4.20831267018,10.5771606656,14.4116714125,13.5348104499,0.209808525073,11.4468863321,5.1917715632,15.0539806972,8.26545060384,9.68961393156
do_nothing,5.30832153507,4.12212554629,4.5878897837,0.0358031139062,5.8519398561,11.9813703355,16.4845373951,15.9346826215,-0.633713778775,12.3784979724,5.728625465,16.1985726992,8.79022163502,2.92489854476
do_nothing,5.86478156465,4.0867111913,4.82963276288,-0.749900560078,7.2771654283,13.085455964,17.9488012349,17.7223560255,-1.4197735693,12.8247242239,6.1125713494,16.5545446282,8.85514568379,-4.77186867966
do_nothing,6.13143346344,3.90299475881,4.82164463822,-1.48853464229,8.36644340569,13.7924291152,18.6690926863,18.7019894924,-2.11717841777,12.7031813077,6.28212861196,16.026213323,8.42489221448,-12.3807557676
do_nothing,6.02553757869,3.55291809383,4.50800952253,-2.15080571186,9.00736408805,13.9862752775,18.5263005697,18.7049055743,-2.7025290883,11.9461568522,6.17165343925,14.5648203045,7.49007961268,-18.9591394373
do_nothing,5.48686062946,3.01993712717,3.85208017493,-2.7141359629,9.10570168816,13.5474410198,17.4337802825,17.6125678078,-3.16052505409,10.5135308069,5.7225832464,12.1807004039,6.07236994376,-23.7724847366
do_nothing,4.4901582719,2.29462801857,2.84555192861,-3.16301178332,8.598531959,12.3727718465,15.353326169,15.3772451869,-3.48344384564,8.40503391934,4.89507227824,8.95115601087,4.22734220122,-26.3853086818
do_nothing,3.05421725265,1.38021757994,1.51473178467,-3.48850326459,7.4656263916,10.3970377803,12.3085700082,12.0373729465,-3.66998573474,5.66978555444,3.67823483554,5.02242762534,2.04440100692,-26.7017354052
do_nothing,1.24588548816,0.297042513306,-0.0771394342284,-3.68714392364,5.73740768845,7.61274813701,8.39363386037,7.72508363393,-3.72374706743,2.4112889436,2.09739311104,0.604773902081,-0.35669376605,-24.9530310953
do_nothing,-0.821849883588,-0.914934380719,-1.83215777365,-3.75944748835,3.49807189845,4.08499028595,3.77533757195,2.66421414376,-3.65161396803,-1.21342031951,0.217131450123,-4.03952194663,-2.83268174646,-21.6373710744
do_nothing,-2.99789182382,-2.19616450515,-3.62466224634,-3.70837986846,0.883013490365,-0.0414610150255,-1.31201809763,-2.84180324044,-3.46235025095,-5.00104308153,-1.8604734029,-8.61451820967,-5.22660999052,-17.42370703
do_nothing,-5.10649282577,-3.4703667147,-5.31218881827,-3.53809331488,-1.92963204545,-4.5445853744,-6.57939264158,-8.43152085503,-3.16559340527,-8.71542187755,-4.00242820226,-12.8138031234,-7.37975795789,-13.0360869871
do_nothing,-6.96470036493,-4.65004498946,-6.74931357838,-3.25316820884,-4.73277341863,-9.13769926364,-11.7024456125,-13.7146693029,-2.77138105357,-12.1059500781,-6.0555496173,-16.3462584048,-9.14452647577,-9.13661608913
do_nothing,-8.40175041347,-5.64412743477,-7.80279349738,-2.85850564215,-7.30821762748,-13.491401718,-16.3459967084,-18.3060802358,-2.29022261884,-14.929120873,-7.86014516623,-18.961705529,-10.3969548491,-6.22433456715
do_nothing,-9.27803595368,-6.36685673012,-8.36618075687,-2.35988702984,-9.44676157088,-17.2627912571,-20.1911587811,-21.8607532713,-1.73362464433,-16.9708470209,-9.26508014106,-20.4736199568,-11.047511039,-4.56394170237
do_nothing,-9.50125313736,-6.74685137677,-8.37209083212,-1.76508548147,-10.9683307949,-20.1287848777,-22.9623989716,-24.1062099328,-1.11489044185,-18.0669804774,-10.1425021238,-20.7763281853,-11.048952215,-4.15316031996
do_nothing,-9.03762477047,-6.73519420868,-7.80055003129,-1.08529856387,-11.7398841723,-21.8196850759,-24.4517105359,-24.8684813025,-0.449959530993,-18.1195978365,-10.4005612393,-19.8546673335,-10.4003620257,-4.73148414243
do_nothing,-7.91668574042,-6.31150039445,-6.68230699763,-0.336592228376,-11.6890006756,-22.1489513006,-24.5373416829,-24.0887412548,0.241961557901,-17.1070812822,-9.99273927005,-17.7849242579,-9.14690001138,-5.82702391119
do_nothing,-6.22891422784,-5.48715946531,-5.09660721358,0.45898521386,-10.8115312277,-21.0354739191,-23.1950963902,-21.8286475078,0.93819596099,-15.0867573976,-8.92283830871,-14.7268793586,-7.37529382855,-6.83303894819
do_nothing,-4.1164015842,-4.30530138167,-3.1636200549,1.27293559718,-9.17237914921,-18.5154844807,-20.5010252517,-18.2637594724,1.61297121391,-12.1897607655,-7.24521373603,-10.9078315552,-5.20560219552,-7.10218091138
do_nothing,-1.75765113207,-2.83745540487,-1.03238301297,2.07072817405,-6.89928113524,-14.7424599161,-16.62526197,-13.6657998154,2.23842662356,-8.60874328359,-5.0603911998,-6.60043816926,-2.78020982998,-6.04487080864
do_nothing,0.651640124663,-1.17729338461,1.13430339689,2.81321808201,-4.17029234955,-9.97482998492,-11.8177168609,-8.37583602434,2.78619956414,-4.579922593,-2.50670871216,-2.09693857154,-0.251326655029,-3.21863927585
do_nothing,2.91943838016,0.567783815636,3.17621134477,3.45903386856,-1.19642497412,-4.55278405488,-6.38719551324,-2.77150884233,3.2294338372,-0.361633457819,0.250989063468,2.31725759806,2.23159049874,1.60256405795
do_nothing,4.87727889756,2.28619830394,4.95128532877,3.96774809403,1.79854919203,1.13320311162,-0.676165767876,2.7679111711,3.54497199841,3.78807825789,3.03434832585,6.38760726944,4.53311513453,8.38663525335
do_nothing,6.39676555238,3.87175059377,6.34864990245,4.30350877261,4.59881882195,6.67852263067,4.96622559464,7.89468493098,3.71544764395,7.63224910403,5.66488367889,9.90944641804,6.54066897752,16.8326083336
do_nothing,7.40067295984,5.232084934,7.29752564026,4.43871171146,7.01545753566,11.7011402853,10.2102215649,12.320360015,3.73099101672,10.971925848,7.97653135528,12.740034778,8.17009259273,26.3903670202
do_nothing,7.86739288303,6.29516170781,7.77110712169,4.35725064759,8.90152528909,15.8747607948,14.7681918363,15.8352821682,3.59030313576,13.6575893467,9.82641148203,14.8026465914,9.36764914438,36.3067188372
do_nothing,7.8283685083,7.01314351898,7.78513272752,4.05690201258,10.1618634073,18.9548869547,18.4121361542,18.3181598178,3.30093417943,15.5942574503,11.1031515902,16.0827992487,10.1086411536,45.6913520564
do_nothing,7.3591070856,7.36348181808,7.39158166622,3.55048390003,10.7568202136,20.7951972127,20.9847584786,19.7353047443,2.87870913473,16.7403551518,11.7324669816,16.6177614356,10.3932785314,53.5949898828
do_nothing,6.56522179576,7.34738396428,6.66857138044,2.86556511601,10.6999392021,21.352951022,22.4037144794,20.1305089939,2.34636150935,17.1012952785,11.6800071747,16.4813566177,10.240786532,59.0920227251
do_nothing,5.56560695554,6.98618729644,5.70800975222,2.04267296733,10.0504007989,20.6835380621,22.6594180051,19.6076831126,1.73154612128,16.7193915998,10.9517180514,15.7666520514,9.6829326544,61.3607940467
do_nothing,4.47520447237,6.31641580241,4.6028143114,1.13213502565,8.90162776882,18.9256210882,21.8074601717,18.3092162067,1.06448754942,15.662128989,9.59211061385,14.5693149449,8.75815318629,59.7561612716
do_nothing,3.38982319948,5.384410793,3.43550921738,0.189865374535,7.36786055655,16.2794030379,19.9571679129,16.393413649,0.375568335599,14.0108851892,7.68086437069,12.9741969463,7.50727234824,53.8705297525
do_nothing,2.37512536635,4.24139532687,2.26975110673,-0.727454302136,5.57063301192,12.9812372275,17.25805833,14.0142757892,-0.306837147934,11.8519301368,5.32814164685,11.047106295,5.97145816286,43.5808922637
do_nothing,1.46124464802,2.9396621819,1.14585491197,-1.56726368376,3.62692214777,9.27801434008,13.8859187216,11.3063228632,-0.958021683988,9.27096876713,2.66888040005,8.83283059963,4.19260301512,29.0802522943
do_nothing,0.643641578137,1.53029813193,0.0807603088321,-2.28553054314,1.64034034513,5.40449067161,10.0299845358,8.37623628563,-1.55791962518,6.3517348719,-0.143791091261,6.35941403495,2.21582528306,10.8920950984
do_nothing,-0.110142240285,0.0625214819369,-0.927809420739,-2.85017676617,-0.303846431553,1.56602801915,5.88225552273,5.30191753402,-2.09133010981,3.1783121537,-2.94597130461,3.64762917462,0.0933409612347,-10.1335894279
do_nothing,-0.849061994967,-1.41562699641,-1.89389044927,-3.24314377397,-2.13976081416,-2.07178405355,1.62946350565,2.13833930791,-2.54744278298,-0.159907628498,-5.5712224396,0.723677937839,-2.1113738701,-32.844562198
do_nothing,-1.6244197936,-2.85577942011,-2.83392541027,-3.46088576497,-3.81855234503,-5.38629759098,-2.55232723228,-1.07153615858,-2.91883070531,-3.56229089787,-7.85956679014,-2.36744952748,-4.3203584044,-55.8328437697
do_nothing,-2.47534790638,-4.20763616958,-3.75720938472,-3.51327528067,-5.30369553785,-8.29455417067,-6.50095847507,-4.28330458771,-3.20015910178,-6.91199033767,-9.6670491475,-5.55073424356,-6.44004672588,-77.5050382986
do_nothing,-3.4163533316,-5.41801164545,-4.65786288899,-3.42110363549,-6.5653372239,-10.7453126488,-10.0700311071,-7.43806000142,-3.38690191349,-10.0737981683,-10.8754740776,-8.71454399592,-8.36314305838,-96.1767821898
do_nothing,-4.42905246378,-6.43117103134,-5.50982543533,-3.21253251833,-7.57515889581,-12.7086423706,-13.1302622942,-10.4525752126,-3.47435330051,-12.8962647859,-11.4017016202,-11.7105845146,-9.97392892465,-110.189425288
do_nothing,-5.45959867572,-7.19085813536,-6.26589351326,-2.91897954752,-8.30303839284,-14.1655448712,-15.5711518198,-13.215027104,-3.45716828256,-15.218808688,-11.2056814435,-14.361274416,-11.1568664474,-118.044013059
do_nothing,-6.42244203951,-7.64408110407,-6.86118945924,-2.57098305451,-8.71638977923,-15.0998257001,-17.3035041643,-15.5876467245,-3.32957314224,-16.8836459973,-10.2962763757,-16.4742489724,-11.8077581432,-118.544107632
do_nothing,-7.21008448156,-7.74635173976,-7.22073630547,-2.19458181289,-8.78250007383,-15.4938319269,-18.2629746243,-17.4165072475,-3.08626612273,-17.7514287274,-8.73391774742,-17.862497557,-11.8461829478,-110.935510381
do_nothing,-7.70754920251,-7.46772860145,-7.27013465749,-1.80866544712,-8.47356119995,-15.3288106855,-18.4143834945,-18.547431532,-2.72390086448,-17.7186548794,-6.62927762814,-18.3676060325,-11.2275418125,-95.0281976021
do_nothing,-7.80951171046,-6.7987556099,-6.94779445978,-1.42361193629,-7.77352008404,-14.5896787525,-17.7561537468,-18.8458957628,-2.24292916089,-16.7343441003,-4.13744445462,-17.882873963,-9.95288661274,-71.2844341064
do_nothing,-7.43755970248,-5.7552662909,-6.21685251979,-1.04134897353,-6.68543792345,-13.2730861929,-16.3239508027,-18.2180008403,-1.64949479123,-14.8132693285,-1.44752962443,-16.3728294121,-8.07481545748,-40.8576529555
do_nothing,-6.55493773669,-4.38106857332,-5.0748600918,-0.656780249839,-5.2378378902,-11.3969607435,-14.1924957862,-16.6292109283,-0.957030912588,-12.0432542301,1.23183205762,-13.8859300621,-5.69809936639,-5.56961433683
do_nothing,-5.17641458187,-2.74773988461,-3.55956812439,-0.260332269724,-3.48857094751,-9.00935065506,-11.4746159627,-14.1176881554,-0.187227641293,-8.58468106309,3.69006258314,-10.5580030605,-2.9743220985,32.1814135093
do_nothing,-3.37155315084,-0.951123398479,-1.74964267206,0.1587732567,-1.52504213109,-6.1944051304,-8.3168844188,-10.7996789826,0.629896056611,-4.66133125439,5.73376596507,-6.60514728656,-0.0905912434275,69.5815436658
do_nothing,-1.26057810529,0.895424831154,0.240158272229,0.609012321694,0.539828055039,-3.07374245785,-4.89164826001,-6.86545130981,1.45696941466,-0.542871690105,7.20548639112,-2.30624653967,2.74678944635,103.62295645
do_nothing,0.996904331224,2.67049809306,2.26902072565,1.09333677549,2.57586009537,0.197808231191,-1.38578500243,-2.56559765352,2.25130657763,3.47946580041,8.00001452153,2.02327731722,5.33202768568,131.369564755
do_nothing,3.21902884267,4.25582466432,4.18422196692,1.60671678765,4.44733494894,3.44216332544,2.01292410541,1.81108007898,2.96786142394,7.12137083482,8.07623554902,6.0635198957,7.48068205275,150.242309307
do_nothing,5.22244240777,5.54786059106,5.83764554197,2.13482210312,6.02679244243,6.47271577167,5.13044781946,5.96561062102,3.5628190594,10.1346861617,7.46285763669,9.52404232076,9.0490718195,158.294399396
do_nothing,6.84394042449,6.46831642237,7.10251004319,2.6540630217,7.20907903398,9.1120339103,7.82052635207,9.61936192181,3.99743590647,12.3336323457,6.25694975937,12.1753432897,9.94972108843,154.44468139
do_nothing,7.95998281283,6.97219506934,7.88804547014,3.13303045857,7.92363395776,11.2100990925,9.97632239587,12.5430664457,4.24168341328,13.6144630192,4.61499622885,13.873633414,10.1606810909,138.639038347
do_nothing,8.5013330662,7.05217932311,8.1500617005,3.53518920127,8.14312672609,12.6604026177,11.5381379543,14.5804698059,4.27725284342,13.965699247,2.73705299093,14.5754389839,9.72727540688,111.915470128
do_nothing,8.46069558264,6.73865187827,7.89586555759,3.8225139273,7.88698354041,13.4113969007,12.4960516923,15.663329652,4.0995415815,13.467246133,0.845459619054,14.3398296349,8.75575300629,76.3578952504
do_nothing,7.89218045139,6.09520109058,7.18273019256,3.95963480471,7.21901354027,13.4713813718,12.8869471004,15.8155999182,3.7183574053,12.27814676,-0.839693966472,13.3176889784,7.39939340039,34.9358315673
do_nothing,6.9025685569,5.21008393504,6.11000139162,3.91799368423,6.23917569767,12.9058209784,12.7861350537,15.1460847354,3.15723102619,10.6142818339,-2.12563100629,11.7292109923,5.83864406764,-8.75942258319
do_nothing,5.63552149595,4.18469512338,4.80581667383,3.67951025446,5.07039359951,11.8272101186,12.2945242,13.8304365541,2.45139808784,8.71875902267,-2.86956050031,9.83246246824,4.25773657167,-50.8583404664
do_nothing,4.25091118806,3.12054200333,3.41018706224,3.23931869439,3.84209821234,10.3787383176,11.5229502924,12.084879173,1.64467630989,6.82884321545,-2.99618555,7.88716478099,2.82079572913,-87.6016084717
do_nothing,2.90218111327,2.10647803936,2.05673462068,2.60724975882,2.67273709639,8.71400753406,10.5757406418,10.1352401534,0.785598869516,5.14388636815,-2.50777503629,6.11861979693,1.65063357626,-115.731190375
do_nothing,1.7149822201,1.20795916929,0.855608364327,1.80788466483,1.65373937324,6.97573438805,9.53578519638,8.18559876481,-0.0767472641101,3.79871742787,-1.48533296789,4.6868088371,0.813165548598,-132.839176113
do_nothing,0.770195574247,0.459846822751,-0.120022699561,0.879175155533,0.837318723363,5.27662691192,8.45326979687,6.39098063552,-0.896701476967,2.84632638517,-0.0804228426523,3.6650950788,0.309717945913,-137.632474419
do_nothing,0.0938702461445,-0.136184956118,-0.841967788433,-0.130213111117,0.23003307521,3.68540012589,7.3398012915,4.83802711393,-1.63538703746,2.25248832141,1.50167776295,3.03172192128,0.0784897675305,-130.079697026
do_nothing,-0.34435632998,-0.609213076784,-1.32832332313,-1.16453935853,-0.20674625051,2.22020562235,6.16896413891,3.5364935495,-2.26309827151,1.9033723936,3.02574265756,2.67557817001,0.00521479147076,-111.419461178
do_nothing,-0.623996532896,-1.01188664261,-1.63784626488,-2.16521820801,-0.549270469969,0.85068662131,4.88347903599,2.42292648605,-2.76050735641,1.62537966563,4.25463900466,2.41572356627,-0.0581981661399,-84.0253589159
do_nothing,-0.858536763172,-1.40948483702,-1.85813346983,-3.07520658159,-0.897603575485,-0.491419479109,3.40819983997,1.37613948581,-3.11864298395,1.21470030191,4.97840733662,2.0322056253,-0.269414272298,-51.1400768002
do_nothing,-1.17445672614,-1.86676207941,-2.08925162531,-3.84312042274,-1.35736989188,-1.89453660182,1.66731310819,0.242391631479,-3.33775692836,0.472623419186,5.04092827794,1.30402650865,-0.769039069286,-16.5074285428
do_nothing,-1.6874577566,-2.43449677883,-2.42515043994,-4.42671242599,-2.01959334634,-3.44493574168,-0.396581354703,-1.13328488061,-3.42533680209,-0.758314180189,4.36093009397,0.0489787363099,-1.65527797643,16.0557421528
do_nothing,-2.47940701975,-3.13776149022,-2.93556347659,-4.79543793812,-2.941558103,-5.20324793701,-2.80422795215,-2.87414944244,-3.39362430783,-2.56254296014,2.94469866082,-1.84036548695,-2.96352400439,43.097518069
do_nothing,-3.57950594581,-3.96774767094,-3.65109762926,-4.93195529031,-4.13161049772,-7.18354882601,-5.52507213297,-5.04211966831,-3.25704458772,-4.92881272328,0.888793199132,-4.3698755013,-4.65396950211,61.9262375054
do_nothing,-4.95269049349,-4.87852612754,-4.55382688663,-4.83253200183,-5.5403947014,-9.33856042653,-8.46864508469,-7.61603278641,-3.02993840336,-7.74034763972,-1.62776416047,-7.4305503945,-6.60935769985,70.9150413776
do_nothing,-6.49732782859,-5.78946191019,-5.5749854074,-4.50644305357,-7.06021567657,-11.5537807098,-11.4837266581,-10.4814219736,-2.7249182177,-10.7798193231,-4.36111026643,-10.8012004619,-8.64368896623,69.6779702878
do_nothing,-8.05301235588,-6.59321844165,-6.60039353723,-3.97453807329,-8.53315325049,-13.6521688819,-14.3660912742,-13.4339207015,-2.35205337489,-13.7491734923,-7.02808401818,-14.1675194024,-10.5212422478,59.0953733477
do_nothing,-9.41785442339,-7.16848792991,-7.483177849,-3.26721166179,-9.76735196759,-15.4095406587,-16.8745443725,-16.1965644524,-1.91894651263,-16.3023024113,-9.33684130863,-17.1557009541,-11.983856679,41.184878491
do_nothing,-10.3732917916,-7.3958857356,-8.06230964796,-2.42203160201,-10.5597461011,-16.5792664592,-18.7538477742,-18.4493268124,-1.43161485788,-18.0867278444,-11.0190691979,-19.3767003646,-12.7832339717,18.8333958004
do_nothing,-10.71332822,-7.17494584109,-8.18462981404,-1.48126533719,-10.7225103573,-16.9234378089,-19.7621562186,-19.8674702474,-0.895958424387,-18.7891033417,-11.8601167096,-20.4756634374,-12.7142343073,-4.57688182906
do_nothing,-10.2743762955,-6.43992727709,-7.7274724974,-0.489502766208,-10.1098933889,-16.2465815072,-19.6998756508,-20.1639550558,-0.319501855121,-18.1786559343,-11.7235891881,-20.1801690914,-11.6448625502,-25.6020292136
do_nothing,-8.96166103555,-5.17222461178,-6.61882710579,0.508486575329,-8.64188884935,-14.4274220227,-18.4365066565,-19.1304233807,0.286948373215,-16.1427732814,-10.5675936355,-18.3408885377,-9.5389265512,-41.1753427898
do_nothing,-6.76846644152,-3.40756380578,-4.85221661838,1.46958957255,-6.32146559506,-11.444217156,-15.9321087947,-16.671268393,0.908078152909,-12.7098061717,-8.45079435458,-14.9590767512,-6.46816951681,-48.9966943942
do_nothing,-3.78534393595,-1.23680961196,-2.49409379514,2.35386634187,-3.24278952656,-7.38983453543,-12.2505156203,-12.8260249874,1.52355224222,-8.05569502069,-5.52762154224,-10.1968851296,-2.61193601853,-47.82343233
do_nothing,-0.197643864055,1.19997242643,0.317514228527,3.12578009795,0.411061585703,-2.4739251644,-7.56229414552,-7.77669169566,2.1083839258,-2.49304626757,-2.03322513729,-4.36861875273,1.75603176885,-37.6263855752
do_nothing,3.72878317578,3.72567703601,3.3832698875,3.75519634498,4.38109779419,2.98886415388,-2.13657672953,-1.83844000442,2.63422126819,3.55648338084,1.74006927608,2.08652035111,6.29245220278,-19.5916198229
do_nothing,7.67233622142,6.14319864386,6.46070572112,4.21820935216,8.35499244674,8.60392185854,3.67783732294,4.56575214673,3.07143920124,9.60348571819,5.47210522711,8.64728019292,10.6183117866,4.03182328706
do_nothing,11.2881118678,8.25535160124,9.28829731263,4.49783608562,11.9968695663,13.9324986314,9.4804626168,10.9439632825,3.39179729732,15.1409906326,8.8467359624,14.7638429272,14.3577535323,30.2184285027
do_nothing,14.2442651615,9.88528007727,11.6126264986,4.58458680337,14.9809965837,18.5344322089,14.853464294,16.7833721301,3.57132773016,19.6975791008,11.5826474157,19.9155886655,17.1774942498,55.5501995378
do_nothing,16.2579479877,10.8948868912,13.2154126203,4.47688589694,17.0255402689,22.0128984651,19.3988493464,21.6019656406,3.59307073414,22.8870437585,13.4598558177,23.6661922812,18.8221092571,76.6491764929
do_nothing,17.1264952292,11.1990564281,13.9371828463,4.18128540315,17.9224862853,24.0559563647,22.7746372957,24.9978874181,3.44928280116,24.4486360818,14.3391567746,25.7094133998,19.1410041598,90.6036290694
do_nothing,16.7500911934,10.7739849259,13.6947592248,3.71239496561,17.5602516131,24.4699597211,24.7262075363,26.6906557173,3.14280475195,24.273123167,14.1726849691,25.9001042103,18.1039048274,95.3342583873
do_nothing,15.1431933505,9.65868842586,12.4905049322,3.09245143493,15.9363783395,23.2008445918,25.1095319334,26.5494600145,2.68738365853,22.4116726525,13.0048086734,24.2668280264,15.8031078637,89.8547937135
do_nothing,12.4333790897,7.94963119961,10.4122926061,2.35047079733,13.1588751078,20.3407474122,23.9038894985,24.6053227924,2.10687887931,19.0667521534,10.9636973077,21.0048057599,12.4423613055,74.3952017031
do_nothing,8.84783066865,5.78928667273,7.62429802364,1.52096287612,9.43611632182,16.1191772142,21.212817728,21.0458818067,1.43342855869,14.5664811725,8.24492827882,16.4503791648,8.31387732111,50.373490683
do_nothing,4.68918048651,3.35019108473,4.3498326207,0.642239848364,5.05654655704,10.8798246832,17.2533432485,16.1936512916,0.704787972093,9.32591063033,5.0893218185,11.0404717572,3.76640370712,20.2214462183
do_nothing,0.303707543034,0.816577268207,0.848364466803,-0.245595022293,0.360599426327,5.04579962164,12.3347991829,10.4705867522,-0.0388439668022,3.80026066995,1.7577199706,5.2623394779,-0.831684150906,-12.9119535479
