label,COUNTER,INTERPOLATED,AF3,F7,F3,FC5,T7,P7,O1,O2,P8,T8,FC6,F4,F8,AF4,RAW_CQ,GYROX,GYROY,MARKER,SYNC,TIME_STAMP_s,TIME_STAMP_ms,CQ_AF3,CQ_F7,CQ_F3,CQ_FC5,CQ_T7,CQ_P7,CQ_O1,CQ_O2,CQ_P8,CQ_T8,CQ_FC6,CQ_F4,CQ_F8,CQ_AF4,CQ_CMS,CQ_DRL
off_to_on,-1.90992687837,3.59181744181,-6.0337354693,3.18595692061,10.5048098176,2.8583688736,0.950214053497,5.77614033969,3.41104079365,-2.24403031694,3.98878976684,2.56395668676,2.84658794483,-41.0572394751
off_to_on,-0.829922491708,4.11023160433,-4.38936163931,3.81658273941,11.5691769449,4.79344944837,1.62430280517,6.08807424463,3.79815732421,-1.99688170377,4.20560553635,3.04587598888,2.99576022478,-20.3528947574
off_to_on,0.836328523208,4.77508561425,-2.11828142429,4.28566176022,11.961150172,6.78772045356,2.83799925307,6.47715111655,4.02514648974,-0.946147103122,4.37314653482,3.83066739737,3.36422838076,3.716355478
off_to_on,2.98618205848,5.58393789446,0.573948753561,4.54987128099,11.6563213292,8.67755447443,4.50018230749,6.90134076239,4.07593642193,0.830075603243,4.49371860176,4.90414326937,3.98535278345,29.8765195676
off_to_on,5.42084783389,6.47082428942,3.42548237333,4.57903025843,10.6704793359,10.2638815842,6.40720634386,7.25694761823,3.94457093698,3.12029634783,4.55050991203,6.1672515969,4.81969737289,56.4819468725
off_to_on,7.8652910176,7.31103361397,6.14626157763,4.35986153157,9.05850852642,11.3333770229,8.26742230298,7.3945843815,3.63601391094,5.60372168463,4.509202825,7.44493270162,5.75618074749,81.5946740889
off_to_on,10.0008763006,7.93707993678,8.45002424125,3.89804435649,6.91143911121,11.6855719612,9.74161242596,7.14519430447,3.16593618034,7.89229362513,4.32333892056,8.50885163559,6.62582587918,103.11830373
off_to_on,11.5067280133,8.16383390273,10.0864460123,3.21827887145,4.35176532623,11.1624857448,10.4938953304,6.35229192033,2.55950126191,9.58524835006,3.94270495871,9.11106800121,7.22638084944,118.980039072
off_to_on,12.1043808718,7.81926978464,10.8695725971,2.36233391478,1.52716206031,9.67667913819,10.2458998764,4.90546780543,1.84929383409,10.3287362414,3.32351685429,9.0239054442,7.35436531107,127.34549348
off_to_on,11.5996181885,6.77627343124,10.6991309635,1.38530227409,-1.39723510958,7.23348435493,8.82624659189,2.76978824309,1.07264177181,9.87203109273,2.43885849844,8.08014280707,6.83986040252,126.843016165
off_to_on,9.91554998772,4.98059742774,9.57217114845,0.350508824534,-4.24776027532,3.9436326586,6.20774745246,0.00609314820465,0.268653360234,8.1120302553,1.28773042617,6.20735098537,5.57879197366,116.768979988
off_to_on,7.11197025702,2.47040949858,7.58367160019,-0.676322314963,-6.85204261397,0.0235421011279,2.52621272133,-3.22167834826,-0.524683644335,5.11911554263,-0.0988023482535,3.45080752667,3.55765149686,97.2439190258
off_to_on,3.38773270627,-0.616078710407,4.9160878958,-1.63295618598,-9.04930198365,-4.21796988273,-1.92284644661,-6.65426788716,-1.27301810322,1.13984337048,-1.65551871279,-0.0191318458523,0.866539957746,69.2922434512
off_to_on,-0.934920950536,-4.04682873361,1.81916403347,-2.46591677876,-10.7005747113,-8.40600948408,-6.71032721646,-9.96000044887,-1.94751177474,-3.42495201735,-3.28563131236,-3.91722881983,-2.30201639886,34.8255133375
off_to_on,-5.44274788986,-7.51604863197,-1.41751344796,-3.13456236663,-11.6982290466,-12.1366131995,-11.3199664296,-12.7706229175,-2.52592238856,-8.06464878678,-4.86804904751,-7.87068959488,-5.66905796524,-3.47975280442
off_to_on,-9.67699570995,-10.6761542207,-4.49590120132,-3.61356065291,-11.9740660282,-15.020487328,-15.2096592895,-14.7259116626,-2.99285950023,-12.2206972329,-6.26865133901,-11.4607098731,-8.8984666482,-42.4053316304
off_to_on,-13.1865421415,-13.1778877145,-7.1410958656,-3.89357503503,-11.5052952119,-16.7283761469,-17.8799564916,-15.5214113834,-3.33929817622,-15.3580316873,-7.35433266532,-14.273181445,-11.6360600127,-78.4971267879
off_to_on,-15.5820707068,-14.71357088,-9.12947199964,-3.98020661486,-10.317741113,-17.0324269652,-18.9407609632,-14.9529281268,-3.56153650153,-17.0366393571,-8.00814730004,-15.9520096101,-13.5535446659,-108.422370891
off_to_on,-16.5843718954,-15.0578377238,-10.310203295,-3.8914541517,-8.48578209851,-15.8381189369,-18.167178716,-12.9515166676,-3.65985092673,-16.9735717509,-8.14366841472,-16.2478713225,-14.3915334674,-129.337572012
off_to_on,-16.0604720234,-14.1003211789,-10.6178988583,-3.65412706123,-6.12874505421,-13.2022522683,-15.5366504002,-9.60368569858,-3.63712900925,-15.0866966022,-7.7167053885,-15.0556073702,-13.9957841758,-139.222061085
off_to_on,-14.042746051,-11.8656557952,-10.0752307138,-3.29975300568,-3.40376152807,-9.3340600575,-11.2417654185,-5.15328377689,-3.49773921064,-11.5137202701,-6.73279819805,-12.4347595934,-12.3415768602,-137.133356447
off_to_on,-10.7282828583,-8.51769586032,-8.78567492233,-2.86054976382,-0.495409135087,-4.57852129155,-5.67624884121,0.0161911715637,-3.24683615344,-6.60317964863,-5.24939524556,-8.60987363989,-9.54261963286,-123.34798429
off_to_on,-6.45826834712,-4.34683683451,-6.91767506129,-2.36598040771,2.39721688885,0.616831939614,0.604893587032,5.41758996225,-2.89020751272,-0.877791330235,-3.37225949709,-3.94981354228,-5.84286294074,-99.3642021066
off_to_on,-1.67970617199,0.258495063307,-4.68251416614,-1.84029188146,5.07506951916,5.74819424665,6.94665336986,10.5107104593,-2.43466060034,5.02574158191,-1.24635554181,1.07187500549,-1.59184440371,-67.7597829543
off_to_on,3.10592894764,4.85304536501,-2.30883263277,-1.30126959235,7.35420247713,10.3096815681,12.6693946076,14.7617657709,-1.88884012136,10.433134497,0.957844182774,5.93093988474,2.79362480637,-31.9165184794
off_to_on,7.40081576077,8.9837921654,-0.0169846842882,-0.760250362984,9.08004035006,13.8491284748,17.1490213857,17.7046631787,-1.26428062732,14.7155074001,3.06112096599,10.1141174685,6.87678308122,4.35907859997
off_to_on,10.7685102751,12.2409473809,2.00373107039,-0.223251002337,10.1395992917,16.0188147268,19.8918563007,18.9965900228,-0.576441985383,17.3682764571,4.89343663925,13.1807737219,10.2513665964,37.274728526
off_to_on,12.8841253859,14.3046546431,3.61246196611,0.307084130636,10.4705218514,16.6149302584,20.5946949987,18.4609176883,0.154537265369,18.0756445546,6.31096911454,14.8165830795,12.5888354055,63.4974909912
off_to_on,13.5707784501,14.9816192308,4.72712525196,0.829115413293,10.0660418249,15.600868638,19.1823076936,16.1118583578,0.903602963127,16.7521336276,7.21030139996,14.8722526267,13.6764050813,80.5489515178
off_to_on,12.8178691923,14.2271295744,5.32696332149,1.33985733592,8.97534805821,13.1113659023,15.8174934215,12.1574696345,1.64122828152,13.5555104493,7.53815191234,13.3821544399,13.4410756681,87.0992365169
off_to_on,10.7790650231,12.149739682,5.44764314333,1.83305437646,7.29923624192,9.4368342453,10.8822847777,6.9802289269,2.33459987706,8.86914524638,7.29557420253,10.5602839233,11.9566475775,83.1204109094
off_to_on,7.75044601858,8.99804091295,5.17012462243,2.29800600231,5.18138231452,4.98968111995,4.93258873971,1.09715832085,2.94949594831,3.25582023221,6.5362220947,6.77388066253,9.43290498831,69.8772154751
off_to_on,4.13176070095,5.13117827711,4.60521751722,2.71933322404,2.79599333586,0.256638788035,-1.36805574222,-4.8959824551,3.45269341952,-2.61125804243,5.3589863174,2.49794374408,6.18843846789,49.7539024707
off_to_on,0.375841941847,0.976772086899,3.87614618665,3.07772664115,0.332945969156,-4.25713373172,-7.32727008579,-10.3899295193,3.81465003352,-8.03149364331,3.8959711177,-1.74363980129,2.61066506578,25.9373977281
off_to_on,-3.06733935842,-3.01856714657,3.10151143108,3.35156457614,-2.01823005264,-8.08540265614,-12.3052845869,-14.8288873181,4.01214989919,-12.3633839775,2.29731155218,-5.44288856458,-0.891789292937,1.99626281258
off_to_on,-5.80492513217,-6.44008639357,2.38079099686,3.51916184246,-4.08405375865,-10.8527386434,-15.7888834949,-17.7713291054,4.03058705157,-15.1033935227,0.714669544396,-8.17020483933,-3.93826242123,-18.5907047232
off_to_on,-7.54700113207,-8.95097287434,1.78400918989,3.56132258928,-5.7210461458,-12.3147228742,-17.4487440329,-18.9374777297,3.86559350715,-15.9471596621,-0.714649118033,-9.6266035809,-6.22058610444,-32.8949575017
off_to_on,-8.13847433015,-10.328233935,1.34651822786,3.46383524924,-6.82668170773,-12.381790483,-17.1732973768,-18.2379697181,3.52379200837,-14.8252905611,-1.8811517544,-9.67909793157,-7.53747075395,-38.9271237513
off_to_on,-7.5733433186,-10.484297411,1.06907483211,3.21956641377,-7.34639207712,-11.124118572,-15.0753384773,-15.780529831,3.02255887058,-11.9093432951,-2.71273963246,-8.37484268843,-7.81464177588,-35.9024749939
off_to_on,-5.99002222969,-9.47210233623,0.922673390504,2.82987779558,-7.27607535349,-8.75737332049,-11.4711594748,-11.8541812683,2.38880419325,-7.58746189731,-3.17948480256,-5.9323965303,-7.10853619478,-24.346856936
off_to_on,-3.64881738702,-7.47353516039,0.857007664052,2.30519366241,-6.66001425046,-5.61153301737,-6.83550295806,-6.89324276707,1.6568979226,-2.41308956827,-3.29329358985,-2.71142070792,-5.59352922367,-6.02785360741
off_to_on,-0.894899512793,-4.7731186293,0.811047184576,1.66466787671,-5.58455721295,-2.08708806703,-1.73865994441,-1.4257718029,0.865973800525,2.96637604023,-3.10278090583,0.835104147222,-3.53478161791,16.2809180038
off_to_on,1.88812530225,-1.72061760059,0.724069378614,0.935020749766,-4.16832118114,1.39558366153,3.22582118604,3.98709825351,0.0569147547023,7.89159592748,-2.68424707314,4.21985236858,-1.25060040515,39.1721799268
off_to_on,4.32788422085,1.3125284093,0.545584580925,0.148718313566,-2.54999060495,4.44714594627,7.51336401099,8.81352716306,-0.730646774563,11.7733240922,-2.13008056886,6.98365904487,0.930543424779,59.0653682915
off_to_on,6.10974925151,3.97744667555,0.242894712395,-0.658263739426,-0.874983081278,6.75415476311,10.6913625849,12.6076337392,-1.46099512757,14.1639721174,-1.5361560622,8.753539614,2.71264952287,72.69426276
off_to_on,7.01439382587,5.98736907105,-0.194523334197,-1.44882043717,0.717690007967,8.11241143519,12.4852648336,15.0539647343,-2.10440279373,14.8097459259,-0.989833358442,9.28889373985,3.86899669162,77.557095849
off_to_on,6.94192846793,7.14788225908,-0.754098779952,-2.18698455547,2.10712116227,8.4450485767,12.8025192506,15.9949756128,-2.63843492031,13.6770839054,-0.559993661486,8.51019401952,4.26857170368,72.2690008754
off_to_on,5.92002062112,7.37464681206,-1.4024933869,-2.83987249181,3.19972380952,7.80368098593,11.732250659,15.4389856993,-3.04842367394,10.9505923342,-0.290206024354,6.50680455405,3.88906080878,56.769373361
off_to_on,4.09555274813,6.69703704057,-2.09052977346,-3.37917648059,3.93523649681,6.35321926095,9.52181132348,13.5485712167,-3.3271607518,7.00344569223,-0.195651803453,3.52331449241,2.81519942415,32.3558402814
off_to_on,1.71150949287,5.24797190632,-2.75979165714,-3.7821567606,4.28915034644,4.34306662963,6.53437857587,10.6117797409,-3.47395476443,2.34478759522,-0.263915094724,-0.0734587895347,1.22322957895,1.5394965504
off_to_on,-0.927371520151,3.24191060497,-3.34984575859,-4.03216872053,4.27158318574,2.06911744041,3.19413515096,7.00057887738,-3.49327178222,-2.44844005523,-0.459243654396,-3.84220686012,-0.645992856143,-32.2602102907
off_to_on,-3.49533304501,0.944360044017,-3.80508154092,-4.11882294322,3.92298682662,-0.167970053822,-0.0730310729183,3.12234013851,-3.39321274131,-6.80596983588,-0.729463478548,-7.32322920927,-2.52130158304,-65.1412855513
off_to_on,-5.68722813275,-1.36287672596,-4.08035288919,-4.03791059842,3.30737422891,-2.10247065413,-2.89510018456,-0.629253041203,-3.18407700603,-10.235145523,-1.01444273924,-10.0955944752,-4.1381650329,-93.2100494841
off_to_on,-7.25566604001,-3.41618286168,-4.144890178,-3.79122846783,2.50396097424,-3.53600961021,-4.99842192815,-3.9177453495,-2.87721962679,-12.3792386783,-1.25487828419,-11.828111892,-5.27333482151,-113.072904037
off_to_on,-8.03910214376,-5.00010632093,-3.9842757511,-3.3864088023,1.59821275137,-4.35865809584,-6.23564738271,-6.49681499836,-2.48433871692,-13.0560044448,-1.40022753829,-12.3178473278,-5.77274923695,-122.2649157
off_to_on,-7.97767676375,-5.96941871474,-3.60058332957,-2.83680664427,0.673273013043,-4.55638733507,-6.59413474606,-8.22912342609,-2.0172411017,-12.2721778575,-1.41481356183,-11.5116900398,-5.56930458423,-119.559730017
off_to_on,-7.11534832189,-6.26104787885,-3.01102335596,-2.16143289166,-0.197378433572,-4.20454908848,-6.18473756436,-9.08972198208,-1.48804340752,-10.2129457305,-1.28145378006,-9.50877948763,-4.68857660651,-105.121276909
off_to_on,-5.58872442424,-5.89509914926,-2.24557883661,-1.38485908013,-0.955393763261,-3.44901854757,-5.2136582784,-9.15474775493,-0.909686467003,-7.20879051907,-1.00235158584,-6.54411845985,-3.24224007245,-80.4788167196
off_to_on,-3.60471760858,-4.96561633212,-1.3441474002,-0.536973160452,-1.56077479438,-2.47831099044,-3.94234640143,-8.57805763586,-0.29658548325,-3.68503476235,-0.597386193987,-2.95609205619,-1.41056642285,-48.3302373756
off_to_on,-1.41051592814,-3.62299492658,-0.353633839567,0.347554721232,-1.99274873249,-1.49113857745,-2.64192774018,-7.55991312605,0.334785072878,-0.101531313798,-0.100283407406,0.85742927634,0.583240085271,-12.2009794689
off_to_on,0.739805053218,-2.05089204389,0.674709512672,1.2302251023,-2.24848433337,-0.664359194191,-1.54917708177,-6.31265781046,0.965561478289,3.10901900231,0.446598020333,4.48844400263,2.5031527573,23.9954757061
off_to_on,2.61748210233,-0.440977279548,1.68758007439,2.07016414502,-2.34006065289,-0.126033665949,-0.830544160272,-5.02843745645,1.57456175605,5.595793359,0.9980030873,7.56721542265,4.13074590775,56.4374216994
off_to_on,4.04592722011,1.03110198438,2.63162024905,2.82609157554,-2.29026276796,0.0625975258301,-0.559311912775,-3.85341432393,2.13883560754,7.13057139999,1.51118790077,9.80369047035,5.29194839785,81.852632315
off_to_on,4.9190387672,2.22558173079,3.45529756071,3.45872383306,-2.12785914935,-0.0861637621396,-0.708838056949,-2.87173466908,2.63468991008,7.6296153654,1.95027948978,11.0170882202,5.87681803248,97.8956412503
off_to_on,5.20906419761,3.05208262797,4.11090668131,3.9334441626,-1.88301015246,-0.491698026693,-1.1623318074,-2.10091249132,3.03910507044,7.15464980983,2.28910095717,11.1505541972,5.85010986685,103.398068884
off_to_on,4.96362286915,3.47556840006,4.55689200048,4.22299486338,-1.58337329147,-1.02109804972,-1.73711935169,-1.49853402217,3.33138907116,5.8938507794,2.51226131206,10.2698528083,5.25173719484,98.4632217642
off_to_on,4.29297528372,3.5146606683,4.76056991512,4.30989869891,-1.25132454658,-1.51328414485,-2.21921871512,-0.978521681295,3.49487110186,4.12648106562,2.6146033352,8.54718261614,4.1876025913,84.3973948292
off_to_on,3.34987541773,3.2332200593,4.70115435579,4.188307161,-0.902528452936,-1.807338694,-2.40258068075,-0.433857055259,3.51842194831,2.17692348769,2.5993577726,6.23306378844,2.81251921083,63.4920231696
off_to_on,2.30520601671,2.72691049933,4.37279533147,3.86500777995,-0.545889065687,-1.77063793309,-2.12675821624,0.238170154655,3.39760565466,0.365092955663,2.4755296976,3.62062536199,1.30788879766,38.6901052635
off_to_on,1.32297455791,2.10697376261,3.78717273231,3.35939923808,-0.184725039166,-1.32246286292,-1.30711280057,1.11234413017,3.13531315559,-1.03959156382,2.25511861823,1.00734984081,-0.142659543222,13.1845934186
off_to_on,0.538113889459,1.48360876629,2.97508843096,2.70235325993,0.181142223189,-0.44950835118,0.0471157383865,2.21729580706,2.74179593353,-1.85431446472,1.95074068895,-1.34065224647,-1.37638704708,-9.99609866649
off_to_on,0.0399326654287,0.951180158399,1.98650076512,1.93401210929,0.55280110421,0.789037885658,1.82965282195,3.52548597013,2.23409550303,-2.00437884863,1.5740899295,-3.21743021236,-2.27040138321,-28.3605261351
off_to_on,-0.13689451417,0.57702551884,0.888561838269,1.10070236952,0.929618414491,2.26759732607,3.84943847967,4.95288696949,1.63494053005,-1.52774594363,1.13547204935,-4.4958542989,-2.7542655513,-40.2372638423
off_to_on,-0.0130658143479,0.394978004302,-0.238555851925,0.251260806128,1.30699890983,3.81056730003,5.85644440139,6.36833541787,0.971246153675,-0.562753465288,0.644406804172,-5.13453544914,-2.81505232249,-44.9350567427
off_to_on,0.342423448072,0.40398017024,-1.30794779309,-0.56685047146,1.674894058,5.21652311251,7.57718861648,7.61105372402,0.272390532557,0.678414434518,0.111065095008,-5.1730831334,-2.49471244781,-42.7644367561
off_to_on,0.825664032707,0.571447004584,-2.23393735184,-1.31122726434,2.01729936999,6.28668695308,8.7546399121,8.51362020863,-0.431543423139,1.94597911153,-0.451874479283,-4.71735202125,-1.8806444419,-34.9245654662
off_to_on,1.31524463595,0.840440689643,-2.94093287355,-1.94761027575,2.31283543459,6.85348998289,9.18656538994,8.92687828236,-1.11138837086,2.99279014725,-1.02746650472,-3.91756508821,-1.09118185899,-23.2772340294
off_to_on,1.69101056597,1.13931834596,-3.37215210537,-2.45205035332,2.53635803106,6.80506523882,8.75662035064,8.74302087592,-1.74024151465,3.6124241775,-1.59335762371,-2.94294918073,-0.258250610209,-10.0444273562
off_to_on,1.85148774397,1.39234384863,-3.49705484044,-2.81193879398,2.66140630103,6.10212735017,7.45356486307,7.9133929661,-2.29446462073,3.66962216715,-2.12168819052,-1.95670304146,0.490358399917,2.52524683133
off_to_on,1.72766789266,1.52981475782,-3.31635682016,-3.02583016526,2.66319101551,4.7848232876,5.3757484325,6.45836640808,-2.75431939201,3.11887313614,-2.58028161799,-1.09474618808,1.04680762552,12.4736979855
off_to_on,1.29152618762,1.49651002836,-2.8637034585,-3.10213509481,2.52175888683,2.96860626183,2.72016910961,4.46782878972,-3.10427975286,2.00886339619,-2.93513195215,-0.450858414835,1.33527618618,18.3909401299
off_to_on,0.558498805701,1.25765201012,-2.20344637893,-3.05689933562,2.22494931459,0.829774920879,-0.242334765792,2.09221085948,-3.33310539235,0.472687743422,-3.15395063242,-0.0696656967045,1.31907919143,19.5802932846
off_to_on,-0.415951595539,0.802021778037,-1.42444857541,-2.91099407208,1.7707865651,-1.41720054599,-3.20219366374,-0.474650537876,-3.4337823818,-1.29416625729,-3.21031121366,0.0523515137162,1.00241091501,16.1128343276
off_to_on,-1.54474345491,0.142293686077,-0.63038332455,-2.68710604374,1.16901729037,-3.54728876327,-5.85147710352,-3.01835553915,-3.40343389166,-3.06430773725,-3.0877751086,-0.0411405798526,0.427020918402,8.76918236058
off_to_on,-2.7210085711,-0.687001477665,0.0724873054154,-2.40692615695,0.441600248806,-5.35350087854,-7.92375795803,-5.32924711867,-3.2432785002,-4.61252911379,-2.78332128722,-0.279327156052,-0.335245202824,-1.11727159839
off_to_on,-3.83146737669,-1.63325861019,0.588644002406,-2.08889096614,-0.377930908903,-6.67245767547,-9.22782192531,-7.22663650284,-2.9586709893,-5.74825556143,-2.30945265081,-0.579668674357,-1.19268165614,-11.8882421862
off_to_on,-4.769436106,-2.63062610488,0.84608176162,-1.7467396053,-1.24619382262,-7.40338848209,-9.67051235088,-8.57862501768,-2.55920970363,-6.34156085626,-1.69450834173,-0.863038284739,-2.04518525219,-21.8232308043
off_to_on,-5.44580886364,-3.60523875738,0.806805238331,-1.38902303168,-2.11262750472,-7.51803399441,-9.26561629669,-9.31489813406,-2.0588459735,-6.33909655033,-0.980954059775,-1.06615824556,-2.79544259055,-29.3974241435
off_to_on,-5.79683283075,-4.48037250737,0.47351977284,-1.019561128,-2.9228748942,-7.06028163429,-8.12774834548,-9.43093458698,-1.4758950145,-5.76793816002,-0.221716509558,-1.1495823494,-3.35858922938,-33.4977631086
off_to_on,-5.78809874301,-5.18124410008,-0.108599670942,-0.638706664148,-3.62258817516,-6.13586894208,-6.45237102132,-8.98334616942,-0.832832316342,-4.72725788947,0.525070988868,-1.10037013714,-3.66947913761,-33.56789568
off_to_on,-5.4147951739,-5.63937978076,-0.855591110532,-0.245162778202,-4.1613403437,-4.89392566859,-4.48508523103,-8.07735206704,-0.155769457789,-3.36959362928,1.20228395491,-0.929576910619,-3.68715575036,-29.6643766254
off_to_on,-4.69882180873,-5.79662430207,-1.65367483618,0.161971820827,-4.49633067842,-3.50327950468,-2.48484129998,-6.8485060846,0.526461319079,-1.87501804599,1.76017729463,-0.665577774151,-3.39655145558,-22.4201691638
off_to_on,-3.68374165696,-5.6089213501,-2.37263457186,0.581278634502,-4.59560308715,-2.12715796373,-0.686543634721,-5.44157492221,1.18362810942,-0.422494907562,2.1620402908,-0.344910925135,-2.80779215286,-12.9251665026
off_to_on,-2.42872525733,-5.04995683475,-2.88210680114,1.00753590984,-4.44054851185,-0.900081191601,0.731464335821,-3.98980147629,1.78577159716,0.836993768193,2.38832872408,-0.00266416415267,-1.95370163063,-2.54509723527
off_to_on,-1.00259049076,-4.11462869536,-3.06881635637,1.4309202429,-4.02752812693,0.0896602261245,1.67033862447,-2.59763653417,2.30510462229,1.80138561285,2.43865345547,0.335604928326,-0.886169184476,7.29180647606
off_to_on,0.521202459534,-2.82212352212,-2.85257850818,1.83702767646,-3.36852526489,0.809446897509,2.12087229043,-1.32941499032,2.71795686622,2.4294316912,2.33129102629,0.658812077791,0.328025346675,15.3076329746
off_to_on,2.06811992891,-1.21818888877,-2.19894948753,2.20772135145,-2.4908039945,1.28245476043,2.159540832,-0.205485555516,3.0065467278,2.74195187416,2.10022800762,0.971214439634,1.61150557678,20.5559388116
off_to_on,3.56463817383,0.623955949108,-1.12675096482,2.52268719485,-1.43561576973,1.57865410522,1.93127125503,0.793875494182,3.16035738189,2.81258970316,1.79010701138,1.28908705457,2.88050688663,22.546123297
off_to_on,4.93919041975,2.60468100502,0.290716491033,2.76147400201,-0.256049193252,1.79826291536,1.62172230537,1.71764753103,3.17692312164,2.74988251545,1.44975549829,1.63392425211,4.04900260204,21.2954080511
off_to_on,6.12261357422,4.60151364334,1.9311909829,2.9057248846,0.985839756671,2.05037360164,1.42341123505,2.62829027425,3.06189352205,2.67382705672,1.12520074262,2.02358267516,5.03289653445,17.3041273347
off_to_on,7.0488513355,6.47553634724,3.6352735738,2.94128305821,2.22244856638,2.43019715778,1.50092224991,3.58371248554,2.82832948822,2.69096452475,0.85316978654,2.46322770801,5.75447555487,11.4614563596
off_to_on,7.65660206939,8.08060057255,5.22332056856,2.8598789781,3.38441050761,2.99857382296,1.96055499802,4.62002869671,2.49528515327,2.87220721195,0.656024164965,2.93805660335,6.14724807897,4.89852425498
off_to_on,7.89235545747,9.2749246059,6.51548837201,2.66017321489,4.40453615966,3.76705636919,2.82910362407,5.73802458819,2.08582833125,3.23715741941,0.538888932608,3.40952655116,6.16112627737,-1.18730458889
off_to_on,7.71488809115,9.93420394679,7.35256824615,2.34802899321,5.22170620559,4.69103370474,4.04509890555,6.89568387079,1.62473463036,3.7476069655,0.489428524743,3.81625073426,5.76767781213,-5.71021271657
off_to_on,7.10085681873,9.96497521455,7.61509338025,1.93600405984,5.78450823862,5.67215366541,5.46399863009,8.00820350477,1.13614293199,4.31142130839,0.48034066267,4.07993014442,4.96493017442,-7.8501255601
off_to_on,6.05072455336,9.31671147205,7.23836335075,1.44216532828,6.05441741064,6.56990351239,6.87674566837,8.95577832824,0.641473200044,4.79633847209,0.474238394866,4.11579303186,3.78101739837,-7.16251088235
off_to_on,4.59395931243,7.99104808815,6.22149490556,0.888423969343,6.00833518722,7.22082098294,8.03913055927,9.59824092476,0.157877535961,5.0516097062,0.430228234379,3.84616559412,2.27587052209,-3.63060530581
off_to_on,2.79232980947,6.04668013219,4.62931682911,0.298648981063,5.64032361935,7.46264108636,8.70778381364,9.79457473305,-0.302575487708,4.93412416938,0.311223644086,3.21514031945,0.540209333406,2.34398593927
off_to_on,0.740217618492,3.59883964072,2.58679149735,-0.303165039981,4.96240574127,7.15990505293,8.67761545005,9.42453560999,-0.732886094273,4.33489232466,0.0908997476239,2.20195787891,-1.30869114737,10.0072245514
off_to_on,-1.43882173796,0.812824029826,0.266556609512,-0.894427180733,4.00434668753,6.22728161126,7.81525997914,8.40923473898,-1.13030194464,3.20163113568,-0.240779977533,0.830743499651,-3.13462435039,18.3622414718
off_to_on,-3.59952477846,-2.10825707658,-2.12897906007,-1.45499433478,2.81238447135,4.64711742045,6.08360990129,6.72761058825,-1.49483545008,1.55372041572,-0.674351016061,-0.825350177788,-4.79316647045,26.304431433
off_to_on,-5.58608765913,-4.94060808806,-4.38888984414,-1.96764265455,1.44694213908,2.47850457842,3.55375234714,4.42623951798,-1.82736904557,-0.513094365401,-1.18051668976,-2.64679531539,-6.14468113359,32.7616842364
off_to_on,-7.24609103465,-7.46015317388,-6.31584164734,-2.4179858206,-0.0205793807588,-0.14368247897,0.40238309028,1.62082869325,-2.12766793799,-2.83335792375,-1.71285608362,-4.47736094878,-7.06835734105,36.8204644502
off_to_on,-8.44570262656,-9.46409959366,-7.74647214044,-2.79396106887,-1.51176104755,-3.01993798082,-3.10519368493,-1.51112736118,-2.39264449558,-5.18932019612,-2.21328482247,-6.13996669943,-7.47569208313,37.8223642375
off_to_on,-9.08431990448,-10.7912499584,-8.56769518584,-3.08508281066,-2.94565035579,-5.90620352507,-6.64435402925,-4.74582713628,-2.61519208276,-7.33687825784,-2.61956934681,-7.45689235321,-7.32169146904,35.4216752609
off_to_on,-9.10670494404,-11.3386648895,-8.72710639879,-3.28170654365,-4.24349475449,-8.54037127248,-9.86889159257,-7.83495553629,-2.78383072707,-9.03649777769,-2.87387381775,-8.27176004335,-6.61216440271,29.6013396356
off_to_on,-8.51083608577,-11.0726010738,-8.23641062365,-3.37454482057,-5.33341789657,-10.6718151303,-12.4521950641,-10.5310951298,-2.88329184232,-10.0847680815,-2.93113789283,-8.47030211911,-5.40583048207,20.6511508415
off_to_on,-7.35014925111,-10.0322597538,-7.16765786085,-3.35463155916,-6.15472590255,-12.0901337909,-14.1263945807,-12.6135642865,-2.89602984536,-10.3420842969,-2.76607286242,-7.99695130519,-3.81053057432,9.1172109276
off_to_on,-5.72951532017,-8.32570885672,-5.64294967344,-3.2138474211,-6.66154921452,-12.649398863,-14.714309378,-13.9114384279,-2.80450452072,-9.75245383557,-2.3777283456,-6.86475121028,-1.97354980266,-4.26536205239
off_to_on,-3.79511136445,-6.11828633608,-3.81905159636,-2.94601017149,-6.82556896488,-12.2848192804,-14.1500478679,-14.3209043886,-2.59395037131,-8.35252011519,-1.79090182111,-5.15692985398,-0.0668451973105,-18.6439939986
off_to_on,-1.7191801096,-3.61473054825,-1.86892194988,-2.54841711616,-6.63764202011,-11.0197673091,-12.4856941373,-13.8148779091,-2.25525720293,-6.26842347967,-1.05409564852,-3.01959324086,1.73129538822,-33.1138950055
off_to_on,0.31858784715,-1.03708942922,0.0375252881907,-2.02362099632,-6.10822038948,-8.96241162426,-9.88343149947,-12.4438657698,-1.78754450933,-3.70085331926,-0.234210720714,-0.646223870341,3.25606014901,-46.7701248985
off_to_on,2.15078335428,1.39897848224,1.75109907542,-1.38114409731,-5.26655098394,-6.2925834478,-6.59442958759,-10.3282248583,-1.20002869204,-0.900331509977,0.591366412079,1.74416621892,4.37495838389,-58.744329533
off_to_on,3.64061781563,3.50666381787,3.15741347144,-0.638801870961,-4.15873218714,-3.24076865653,-2.92757736221,-7.64309349968,-0.512856446549,1.86384212478,1.34424293993,3.93244793248,5.0032657317,-68.2286363023
off_to_on,4.6964755425,5.14651203576,4.1858703886,0.176675052797,-2.84478575717,-0.0620977367831,0.787563383944,-4.59818805239,0.243298865342,4.33666021568,1.95478382804,5.72501760308,5.11395591781,-74.4927905261
off_to_on,5.28072699845,6.23874976147,4.81274679846,1.02996270253,-1.39496864918,2.99123358151,4.23855456549,-1.41524465214,1.02892425598,6.30790943711,2.37081537538,6.9762414047,4.74063755098,-76.902383279
off_to_on,5.41158210304,6.76799490278,5.05837229784,1.87853906785,0.114406175951,5.69560511003,7.16366110351,1.69393342655,1.79851492476,7.63592165982,2.56405083014,7.60466651027,3.97288202502,-74.9455547816
off_to_on,5.15768654882,6.77989955729,4.97913622192,2.67514065699,1.60535103285,7.87657446794,9.37700060349,4.54610328761,2.50430215757,8.26140037832,2.53332402955,7.60079419531,2.94432149758,-68.2728904673
off_to_on,4.62615442299,6.37032827865,4.65569092509,3.37111656258,3.00250286781,9.42216013859,10.7823754446,6.99978150348,3.10045576212,8.20960968643,2.30415558367,7.02536569446,1.81488125612,-56.7508431431
off_to_on,3.94564840556,5.66865377931,4.17914181568,3.9203767721,4.23708376068,10.2876263532,11.3745904765,8.96180269349,3.54728174118,7.58091246991,1.92468900333,5.99843117726,0.749350645061,-40.5237701984
off_to_on,3.24683217606,4.81752382016,3.63718683717,4.28352477563,5.25031007616,10.4918090904,11.2288657769,10.3870531723,3.81492434088,6.53133110953,1.45854892734,4.68076826529,-0.104932096307,-20.0746516777
off_to_on,2.6429220792,3.951909625,3.10207472459,4.4317074974,5.99609327212,10.1061791235,10.4806120229,11.2722034338,3.88613475927,5.24623007691,0.975616385329,3.25030230053,-0.638293586089,3.72912976038
off_to_on,2.21309212445,3.18032229859,2.62191444879,4.34971850044,6.44293518155,9.23876900009,9.29910957766,11.6451020051,3.75778018914,3.91117693503,0.542022223195,1.87689714224,-0.794040378304,29.6199651731
off_to_on,1.99112563789,2.57076563589,2.2163412161,4.03795538589,6.57497841224,8.01566977335,7.85934587259,11.5520408455,3.44092185583,2.6843879293,0.210783487475,0.699124897885,-0.57665924483,55.9576901251
off_to_on,1.96100089043,2.14332181678,1.87690402371,3.51295274745,6.39222336601,6.56295923313,6.31632900886,11.0452833217,2.95946847311,1.67485817534,0.0144283652548,-0.193654548865,-0.0515919937202,80.809819553
off_to_on,2.06013929527,1.87033052243,1.57187529552,2.80637342397,5.90996414208,4.9916498277,4.78561591681,10.173041027,2.3475879884,0.929362966458,-0.039318248291,-0.771334129371,0.663610223968,102.086387454
off_to_on,2.18996352557,1.68404918485,1.25458386693,1.96252254689,5.15752519342,3.38759879006,3.33267268209,8.97353560593,1.64621164279,0.430133991185,0.0318523005808,-1.06379010967,1.41576957016,117.722772718
off_to_on,2.23235928151,1.4906198335,0.873916119215,1.0346271693,4.17639989478,1.80741631768,1.97220267596,7.47397899061,0.899069760654,0.103369250065,0.188032758251,-1.15223119631,2.03813662629,125.89491022
off_to_on,2.0697575201,1.18826378112,0.385372284892,0.080275275627,3.01790342133,0.28038701231,0.676965166419,5.69438079266,0.148744240742,-0.162926548038,0.373673289858,-1.15247889023,2.37512209891,125.243472892
off_to_on,1.60598069186,0.687006203357,-0.238966556739,-0.843488763776,1.74045850147,-1.18455486235,-0.605891050611,3.65519365545,-0.566797217372,-0.494705983028,0.526591576299,-1.19270095278,2.30634951243,115.07840532
off_to_on,0.784813423768,-0.0730127495179,-1.00301386499,-1.68487394826,0.406636586719,-2.58853585101,-1.93411305249,1.38708004985,-1.21680201821,-1.00517041338,0.588115967008,-1.38897681128,1.76665925654,95.533737381
off_to_on,-0.396501541792,-1.10741751203,-1.88286687829,-2.40134594054,-0.919919143774,-3.93134969169,-3.34903077341,-1.05935554222,-1.77921722452,-1.76990935273,0.512873771119,-1.82244930044,0.759140915557,67.6455504306
off_to_on,-1.88100285692,-2.3798856614,-2.82716605599,-2.96250365655,-2.17755800526,-5.20126641121,-4.85747483223,-3.60610427488,-2.24096855597,-2.8079541571,0.276765162537,-2.52164957124,-0.640870071359,33.3333086768
off_to_on,-3.55419092437,-3.80218563166,-3.76160460402,-3.35155312135,-3.30953792937,-6.36806809624,-6.42019930189,-6.14449759004,-2.59711424631,-4.07194285393,-0.118096667085,-3.45288667602,-2.2917294743,-4.7241832509
off_to_on,-5.25470898986,-5.24222460324,-4.5970077932,-3.56528040759,-4.26665606464,-7.38072646664,-7.94901701626,-8.5374625154,-2.84910703383,-5.44923410889,-0.642277834461,-4.5204615472,-4.00093080754,-43.3134951595
off_to_on,-6.79240405306,-6.539234754,-5.23993055675,-3.61261325204,-5.00945968487,-8.17030556987,-9.31344395653,-10.6277164826,-3.00251220603,-6.77415889286,-1.24200387642,-5.57705199826,-5.54833369076,-78.99320776
off_to_on,-7.97159259219,-7.52419568055,-5.6043979808,-3.51203365765,-5.5099150351,-8.65775412031,-10.3561111192,-12.2513473866,-3.06459029859,-7.84990030099,-1.84589298188,-6.44311878184,-6.7143387894,-108.451068403
off_to_on,-8.61657554668,-8.04280647097,-5.62327391891,-3.28823857303,-5.75243461119,-8.76539373615,-10.9147723343,-13.255284702,-3.04215194475,-8.47699514681,-2.37455526444,-6.93281551926,-7.30941661218,-128.87095086
off_to_on,-8.59605120493,-7.97789382529,-5.25780005512,-2.96852501904,-5.73419832608,-8.43024772053,-10.847632659,-13.5164184931,-2.94003068006,-8.48437702006,-2.75173619813,-6.88284544659,-7.20110048225,-138.264508771
off_to_on,-7.84312361123,-7.26813606422,-4.50408772416,-2.57938990867,-5.46475003514,-7.61699400984,-10.058112307,-12.9596864771,-2.76040720338,-7.75839051027,-2.91542964072,-6.18015028394,-6.33476819565,-135.723896347
off_to_on,-6.36809798509,-5.92040320519,-3.39573144019,-2.14378239429,-4.96490466133,-6.32832148884,-8.51513912136,-11.572401472,-2.5030729297,-6.2653773255,-2.8273547214,-4.78433048057,-4.74524523261,-121.559460798
off_to_on,-4.26213326351,-4.01380870482,-2.00219321553,-1.67933607466,-4.2650572926,-4.61082099966,-6.2656337513,-9.41245219428,-2.16656362191,-4.06424889877,-2.47938966638,-2.74129199865,-2.55738138506,-97.2991963777
off_to_on,-1.69097252089,-1.69463567031,-0.423117837633,-1.1977558878,-3.40303729283,-2.55519545336,-3.43693284303,-6.6087384744,-1.74994893608,-1.3068058345,-1.89596004424,-0.185721573672,0.0248575440983,-65.5434954874
off_to_on,1.12075554954,0.837501703833,1.22078221405,-0.705361703222,-2.42169039822,-0.290425371443,-0.228327721556,-3.35320115384,-1.25495241292,1.77474567993,-1.13193483795,2.66853368119,2.73975903453,-29.6872191313
off_to_on,3.91294432776,3.35073183769,2.7992441237,-0.204621764724,-1.36639343576,2.02755559596,3.10753173313,0.11506111095,-0.688015294502,4.89183457189,-0.266214587639,5.54946260382,5.29728890948,6.46112863906
off_to_on,6.41838811265,5.60672223048,4.18508889334,0.303632343578,-0.282705125998,4.23127843132,6.29113760037,3.53199167283,-0.0619156018933,7.73222906989,0.608186961721,8.15695275628,7.41306971572,39.1187749095
off_to_on,8.39271965374,7.38802278189,5.26658625419,0.817712261186,0.785669193438,6.15921698656,9.04712713343,6.63457885828,0.603388485731,9.99724525019,1.39625083463,10.1982945828,8.84274504444,64.9730215478
off_to_on,9.64225355876,8.52352680214,5.95822530675,1.33273932538,1.79846920797,7.67296191168,11.1356973484,9.18755399117,1.2809131527,11.4385982832,2.01359499042,11.424646273,9.41242313561,81.5745504053
off_to_on,10.0463095921,8.90881422454,6.20877387403,1.83888102512,2.7199629503,8.67174845239,12.3802329998,11.0074952682,1.9378795318,11.8899970858,2.39788486395,11.6637084333,9.04130507526,87.6286371114
off_to_on,9.57125539011,8.51875942827,6.00583367994,2.32048023299,3.51953041204,9.10237038739,12.6874421458,11.981313797,2.53794019762,11.2892191129,2.51738407202,10.8442201481,7.75351996059,83.1451360221
off_to_on,8.27452625681,7.41074901159,5.37649631316,2.75626662877,4.17182693626,8.9631799525,12.0573130316,12.076780231,3.04417187897,9.68762626085,2.3753877213,9.00884504701,5.67749917415,69.4255754474
off_to_on,6.29811849726,5.71803777177,4.38412842411,3.12067936906,4.65666330843,8.30173226049,10.5816048762,11.3437596195,3.42248571162,7.2457279,2.00983629338,6.31344844929,3.03276000594,48.8865305645
off_to_on,3.85235204377,3.63401980451,3.12171596963,3.38616542747,4.95877365957,7.20655122585,8.43116089888,9.9060216404,3.64503521939,4.21523728332,1.48807346327,3.01248984595,0.105540150297,24.7398882802
off_to_on,1.19189093082,1.38934315913,1.70253457626,3.52617219054,5.0676465056,5.79433250786,5.83385760905,7.94471862451,3.69318930843,0.909850940188,0.897394638906,-0.567956764305,-2.78387152461,0.569794131528
off_to_on,-1.41305530907,-0.775298989593,0.249154279618,3.51844606628,4.97756604711,4.19453055857,3.04626177044,5.6757053798,3.55968486373,-2.33153607239,0.332638630763,-4.06642533009,-5.31820606386,-20.1396717078
off_to_on,-3.70686681454,-2.63732723026,-1.11808724006,3.34819564255,4.68795290776,2.53360690745,0.32287782903,3.32366284503,3.24967438776,-5.18448365378,-0.117483834669,-7.12716370684,-7.22021238232,-34.46473671
off_to_on,-5.47638512907,-4.01790398116,-2.29200386694,3.0106853492,4.20401353326,0.921197478502,-2.1128776978,1.09637286195,2.78052424312,-7.37648221197,-0.38341892562,-9.44108626864,-8.28509162189,-40.4295122303
off_to_on,-6.57325484569,-4.8018873878,-3.1878422748,2.5128922179,3.53761748936,-0.55990589076,-4.0921721924,-0.837578981641,2.18037867306,-8.7175266135,-0.425300891107,-10.7815041826,-8.40442261892,-37.2692002168
off_to_on,-6.92820326534,-4.9497040984,-3.75009868049,1.87397465411,2.70823654007,-1.85871154419,-5.51578641931,-2.36491035486,1.48566147931,-9.12001246206,-0.239442127589,-11.0301856669,-7.57867050985,-25.5331504316
off_to_on,-6.55576202102,-4.49977144753,-3.956317706,1.12445191433,1.74371386119,-2.95550231697,-6.35900652135,-3.43568294538,0.737819271251,-8.60561641758,0.140228200241,-10.1904950608,-5.91676891479,-7.01290511428
off_to_on,-5.54913435331,-3.56130205644,-3.81763146255,0.304155654746,0.680599421354,-3.85628896186,-6.66618497813,-4.06253271923,-0.020300456805,-7.29855057551,0.646102808521,-8.38597704629,-3.62284913087,15.4964826277
off_to_on,-4.0661198453,-2.29853511273,-3.37611526123,-0.540831503121,-0.436202290264,-4.58349754687,-6.53624924499,-4.31156373896,-0.748008239815,-5.40636320741,1.18579473568,-5.84458123573,-0.971758219346,38.5712903997
off_to_on,-2.30807179976,-0.908502953728,-2.6993317228,-1.36191132101,-1.5546700415,-5.16472915582,-6.10169073453,-4.28651370143,-1.40986369937,-3.19105400908,1.65487811938,-2.87052531491,1.72363434058,58.6211709008
off_to_on,-0.49465018146,0.404775734233,-1.87268227307,-2.1119614359,-2.61788878792,-5.62171201911,-5.50442400725,-4.10869138961,-1.97797098475,-0.934470209785,1.95179484626,0.192661393844,4.14936273815,72.3774614948
off_to_on,1.16244696537,1.45638033816,-0.990364962039,-2.74914141172,-3.56722751476,-5.9615021961,-4.87224851447,-3.89571354033,-2.43326962651,1.09740302622,1.99291216314,3.00328647657,6.02706362423,77.3429224246
off_to_on,2.48358082606,2.10357468095,-0.145838148009,-3.24010465846,-4.34629663776,-6.17158900687,-4.29943198033,-3.74216097854,-2.76575455997,2.68662428457,1.72564871858,5.26171809426,7.14605899745,72.1428333613
off_to_on,3.34029365056,2.26305501255,0.577293995495,-3.56229122238,-4.90536962695,-6.21988809516,-3.83420657106,-3.70492312996,-2.97370494516,3.68791184338,1.13780336464,6.74473283721,7.38704372533,56.7302172069
off_to_on,3.66737547604,1.92030730895,1.11312386583,-3.70509834764,-5.20584012214,-6.05976398788,-3.47484245686,-3.79526095131,-3.06212964236,4.04277347489,0.261697111228,7.32983204913,6.73466280273,32.4171779785
off_to_on,3.46675285003,1.13005515739,1.41929984917,-3.66986841409,-5.22421843367,-5.63934801078,-3.17461135552,-3.97860034811,-3.0407300528,3.78170566119,-0.827587284089,7.00668714091,5.27764514486,1.7273664683
off_to_on,2.80313540433,0.00792207978909,1.48039143705,-3.46877772585,-4.95516432672,-4.91364577988,-2.85457917923,-4.18191944437,-2.9217263125,3.01464424294,-2.0198005323,5.87453671454,3.19668368413,-31.9116729415
off_to_on,1.79237806834,-1.28546424625,1.30849048822,-3.12283554252,-4.41311315137,-3.85738570574,-2.42197648774,-4.30747911868,-2.71788556244,1.91140211962,-3.18210219439,4.12614850788,0.741725190656,-64.5962679329
off_to_on,0.584372912171,-2.56577359987,0.941042269244,-2.65929474566,-3.63217737161,-2.47633629229,-1.79106290708,-4.25072610725,-2.44103404315,0.675102611815,-4.17507718746,2.02064495223,-1.79842345049,-92.438588075
off_to_on,-0.657127498142,-3.64889616406,0.436161990959,-2.10882291671,-2.66418362296,-0.81495728536,-0.90304671183,-3.91960170821,-2.10123813818,-0.487554534975,-4.87016647784,-0.151143314002,-4.13040158264,-112.058496048
off_to_on,-1.77509749369,-4.3744362606,-0.134069169806,-1.5027812349,-1.57491650954,1.04126568241,0.258209068475,-3.25229928334,-1.70671888576,-1.39507269597,-5.16626166877,-2.10425757728,-5.99035622195,-121.011146412
off_to_on,-2.63767285356,-4.62585133022,-0.691641431342,-0.870911262485,-0.438858365838,2.96968895022,1.65729821347,-2.23075407234,-1.26443873608,-1.91514235073,-5.0032871672,-3.59530876738,-7.17372892406,-118.094934438
off_to_on,-3.15228470648,-4.34480082422,-1.16117024169,-0.239645414798,0.667089558239,4.82053487978,3.20674983366,-0.887781257028,-0.781187630243,-1.98077878168,-4.37095776248,-4.45182118721,-7.55735266942,-103.500464425
off_to_on,-3.27401325621,-3.53805319749,-1.47809672765,0.368850482972,1.67027201712,6.43206505232,4.77513845357,0.693291140536,-0.264914467481,-1.59673907331,-3.31150739595,-4.5916617649,-7.11145630401,-78.7823974947
off_to_on,-3.00750347232,-2.27626864423,-1.59569592459,0.936908242856,2.50862276224,7.6490527999,6.20276903008,2.38655488058,0.273988586425,-0.83573352032,-1.91595714846,-4.03034377045,-5.90045067208,-46.6594637348
off_to_on,-2.40264523127,-0.685002569727,-1.49016859418,1.45097182739,3.13598710681,8.34211159603,7.3227194121,4.03798247188,0.821732619545,0.17464713043,-0.31432503418,-2.87559877141,-4.07274678366,-10.670410989
off_to_on,-1.54500497817,1.07077150369,-1.16328219623,1.90078501525,3.52582291257,8.42518714255,7.98419373278,5.48443459242,1.36073877695,1.27213644919,1.33903369445,-1.31025810668,-1.84116044068,25.2678043138
off_to_on,-0.542605857563,2.80655887053,-0.642274961755,2.2783871294,3.67285496428,7.86866299989,8.07476409522,6.57457430813,1.86994420521,2.28408378646,2.88313392973,0.434038782395,0.543467976434,57.3411495438
off_to_on,0.488982523803,4.34011909542,0.0229794624928,2.57715760264,3.59249250993,6.70605041167,7.53820790155,7.18876960171,2.32583333462,3.05234177439,4.16889817118,2.108674676,2.82208968715,82.2963619164
off_to_on,1.44119972574,5.51243040126,0.765259183109,2.79111787206,3.31808451785,5.03306412805,6.38526255302,7.25520290729,2.7041034068,3.45530673601,5.07620051096,3.48116764486,4.75706113831,97.8171269721
off_to_on,2.22484262713,6.20534432422,1.50717948696,2.91463544381,2.89634820254,2.99891209781,4.69562526829,6.75993694402,2.98176914681,3.42418507285,5.5272912969,4.36525456391,6.15807799558,102.772137168
off_to_on,2.77877998725,6.3539255867,2.16951105211,2.94259110501,2.38152935178,0.790702065542,2.61077400908,5.749531683,3.13943643675,2.95145587879,5.49495120073,4.64413558307,6.90152889381,97.3064654123
off_to_on,3.07419791407,5.95219496151,2.67973287383,2.87097991327,1.82900789999,-1.3871625495,0.318492408303,4.32584521521,3.16343991786,2.09064130229,5.00441115414,4.28405353031,6.94127375605,82.7690060642
off_to_on,3.11420589363,5.05184526487,2.97988606529,2.69783396343,1.28912743904,-3.3360028942,-1.96884325151,2.6337329502,3.0475496346,0.947716145532,4.12888357735,3.33670698498,6.30996219805,61.4905313209
off_to_on,2.92927789193,3.75437052809,3.03286285408,2.42429257139,0.801992981476,-4.88533811987,-4.03928285382,0.843331709828,2.79400533463,-0.334383202441,2.97937282688,1.93048131449,5.11117920798,36.4462206642
off_to_on,2.56954042556,2.1978263788,2.82643242715,2.05561253363,0.393850612572,-5.91189103991,-5.70624546604,-0.87065803611,2.41372561309,-1.59580418882,1.69015993847,0.251931248653,3.50379173154,10.8507808373
off_to_on,2.09528146617,0.540032652601,2.37455505069,1.60191194155,0.0754521006228,-6.35265465721,-6.83004063473,-2.34989671935,1.92564937919,-2.68149963859,0.40189310172,-1.47982586956,1.68074127099,-12.2583336094
off_to_on,1.56720030944,-1.05962820878,1.7158408678,1.07847487608,-0.157455440799,-6.21034407258,-7.33313200422,-3.47075414062,1.35528272744,-3.46162833593,-0.755508360028,-3.04229871158,-0.154913606184,-30.3943968347
off_to_on,1.0378407254,-2.45760210599,0.909335079761,0.505505475643,-0.321655195935,-5.55058880016,-7.20721208499,-4.1576978345,0.732628259812,-3.84793150714,-1.6779463159,-4.23851439294,-1.81370969326,-41.9041436497
off_to_on,0.545371037093,-3.54074239817,0.0281183862401,-0.0927012886764,-0.442402220739,-4.49134007751,-6.51132096185,-4.39006069403,0.0897512676636,-3.80403180049,-2.29834805547,-4.92187921005,-3.14043452099,-46.1262592281
off_to_on,0.110445404675,-4.23652407075,-0.848536730962,-0.689120338088,-0.548386458399,-3.18601784332,-5.36149374501,-4.20146798826,-0.541722825087,-3.34850341744,-2.59264775885,-5.01389569869,-4.02943046628,-43.4101633303
off_to_on,-0.263630566618,-4.51795416108,-1.64354844065,-1.25575945447,-0.666444383753,-1.80275422441,-3.91358050066,-3.67222585666,-1.13288776359,-2.5505827184,-2.57992780355,-4.51263438635,-4.43302617241,-34.999146151
off_to_on,-0.587722497218,-4.40293472681,-2.28998450454,-1.76563606515,-0.816768418732,-0.50258777898,-2.34178372034,-2.91593113474,-1.6593639607,-1.51938369312,-2.31688921498,-3.49111391179,-4.36249410712,-22.8001797768
off_to_on,-0.881416677655,-3.94851941877,-2.73769487699,-2.19474689625,-1.00928268785,0.580443006517,-0.815977894291,-2.0623223562,-2.10246268734,-0.388317797649,-1.88757052359,-2.08607354213,-3.88187987734,-9.07725564293
off_to_on,-1.16634959184,-3.24109449336,-2.95788402095,-2.52380794542,-1.24168196282,1.35467757635,0.519053006572,-1.23885103215,-2.44963379194,0.703013589234,-1.38984752593,-0.478852621975,-3.0959037475,3.88600742208
off_to_on,-1.45951449084,-2.38394197431,-2.94514681597,-2.73957121336,-1.49939182909,1.77973639117,1.55970140216,-0.553552679956,-2.69422821268,1.6269485147,-0.92064266621,1.12893483111,-2.13379625208,14.1065239709
off_to_on,-1.76770042172,-1.48386324915,-2.71680633771,-2.83557946804,-1.75743558966,1.8679493914,2.25294683579,-0.0815327007828,-2.83470126985,2.28352083523,-0.561901955683,2.54164439977,-1.13132539052,20.1612491407
off_to_on,-2.08400517094,-0.638540854774,-2.30972284557,-2.81229265291,-1.98392527198,1.67838121764,2.59811700072,0.143200667138,-2.87345378316,2.611876144,-0.369246212339,3.59432335312,-0.213366820118,21.3530250548
off_to_on,-2.38701423499,0.0738914795752,-1.7750486584,-2.67659878231,-2.14466770737,1.3045660426,2.64115681807,0.12963478792,-2.81554539957,2.59605023439,-0.36479665747,4.17276446462,0.520835742096,17.7643729786
off_to_on,-2.64280820342,0.601976129621,-1.17164404386,-2.44079702572,-2.20822342791,0.857927846186,2.4626364913,-0.0746217207517,-2.66751345749,2.26462405781,-0.535071496787,4.22643922393,1.0080344736,10.197433309
off_to_on,-2.8095155253,0.924147623832,-0.559014084131,-2.12120090269,-2.15069707853,0.449425204178,2.16158851,-0.393099892585,-2.43649256624,1.68460405654,-0.834134799092,3.77284915374,1.22592894382,0.0144096952111
off_to_on,-2.84373148773,1.04795685399,0.00934231381401,-1.73654728355,-1.95958079405,0.172146779759,1.83778865766,-0.733994682283,-2.12976185145,0.950622027531,-1.19145052365,2.89298534518,1.19241321339,-11.0936899213
off_to_on,-2.70783347094,1.00572425477,0.491365326902,-1.30640790593,-1.63610972601,0.0873738246384,1.57521936501,-1.00534725781,-1.75476005102,0.171109047642,-1.52325213645,1.71874448925,0.959569515244,-21.3733121033
off_to_on,-2.37707684856,0.847456678449,0.860031908305,-0.849784056618,-1.19580137721,0.216056154134,1.42916829628,-1.12961476635,-1.31951757947,-0.546591420433,-1.74576808534,0.414164773793,0.603507277638,-29.2696243593
off_to_on,-1.8453735112,0.632143366205,1.10476666239,-0.384025494555,-0.667106879907,0.53680713736,1.41877447236,-1.05552360152,-0.833374017601,-1.1101727037,-1.78840714569,-0.846909781585,0.211622073177,-33.6453779392
off_to_on,-1.1288307983,0.41866791981,1.23061944189,0.0758416255407,-0.0883660629259,0.990538337134,1.52594339168,-0.765567076957,-0.307792129137,-1.45360996663,-1.60503441754,-1.903740828,-0.130898724629,-33.9278000992
off_to_on,-0.266435557791,0.257531303258,1.25546566914,0.517357274899,0.496508417088,1.49087177932,1.70055092829,-0.278195809675,0.242945421692,-1.54438573819,-1.18175159512,-2.62919756499,-0.353489524074,-30.1657128005
off_to_on,0.682338548436,0.184392170286,1.20574362083,0.930482496599,1.04302229941,1.93863112496,1.87089573766,0.355446995999,0.80135900977,-1.38597730806,-0.540092426035,-2.94525827132,-0.409932658101,-22.9928969607
off_to_on,1.64279813669,0.216128902232,1.11142193658,1.3071607759,1.51108700991,2.23814237084,1.95758402808,1.05959289275,1.34687089816,-1.0155420152,0.264814150725,-2.8316380795,-0.284213313115,-13.5075128895
off_to_on,2.53257282266,0.349758046774,1.00096688858,1.64071448268,1.86933739991,2.3128493159,1.88855046074,1.74538531994,1.8564626783,-0.497359155026,1.15086372804,-2.32660810912,0.00812387938637,-3.08914478921
off_to_on,3.2705198508,0.564156974406,0.897043711664,1.92521833045,2.09822197418,2.11789611527,1.61279933207,2.32408882905,2.30588440223,0.0869013587257,2.01947249149,-1.52010422585,0.423129114854,6.81686773672
off_to_on,3.78588489559,0.824183675203,0.813546722483,2.15498308766,2.19149236051,1.64782075519,1.11070026802,2.71998487043,2.67131686803,0.649672303961,2.7685147074,-0.54021663395,0.895532386187,14.9147422421
off_to_on,4.02656829152,1.08650547254,0.754331091188,2.32425465376,2.15595262875,0.938260848858,0.399245979512,2.88107697462,2.93130911799,1.10919447825,3.30593734846,0.465021427196,1.34868210402,20.2417212244
off_to_on,3.96545189324,1.30627085602,0.713748640295,2.42719135242,2.0095773727,0.0614803840507,-0.46851770432,2.78610796832,3.06875849525,1.39995103256,3.56219983685,1.34806726416,1.70591837709,22.2943231993
off_to_on,3.60398253613,1.44369978685,0.678811320225,2.45813293297,1.77833389292,-0.883553698113,-1.40977351293,2.44697915716,3.07267928609,1.4805964444,3.4998503665,1.98181638399,1.90181269228,21.081558468
off_to_on,2.97255019349,1.46972747222,0.632560265159,2.4121259563,1.4922157546,-1.78501932291,-2.32294007125,1.9063635134,2.93952169737,1.3385306098,3.11894059107,2.27647755057,1.89176168746,17.1007181781
off_to_on,2.1275965331,1.37000030312,0.558041593139,2.28562906066,1.18108832847,-2.53392810566,-3.10171497148,1.23101489396,2.67385373135,0.99073044708,2.45754304926,2.1912367256,1.65867068826,11.2428727188
off_to_on,1.1457907566,1.14676453335,0.442207952061,2.07729356111,0.870949513484,-3.03933199042,-3.65002843899,0.501888193085,2.28829718377,0.480926708522,1.58729346894,1.73928129996,1.2158662497,4.64513236822
off_to_on,0.115963357546,0.818474903069,0.279088601739,1.78870313546,0.581122197479,-3.24083267654,-3.89567566159,-0.197386423415,1.80270409637,-0.126357021717,0.604544108907,0.985631878963,0.605881639484,-1.48636432227
off_to_on,-0.870248787617,0.417245179539,0.0716960743205,1.42496156619,0.322733923242,-3.11661288197,-3.80062645325,-0.791945990353,1.24265769551,-0.75405073572,-0.381704188536,0.0381567552806,-0.104700344619,-6.05574052172
off_to_on,-1.72795153866,-0.0154698752378,-0.167655502218,0.995037689754,0.0986294123051,-2.68589835723,-3.36653683985,-1.22540063132,0.637467959395,-1.32200714859,-1.26350126275,-0.966993241805,-0.833654696023,-8.2330659759
off_to_on,-2.38763755854,-0.434361556258,-0.418688436534,0.511807862382,-0.0953642665798,-2.00559820903,-2.63472273832,-1.46646764437,0.0178940823763,-1.75655851351,-1.9474797849,-1.88360073587,-1.49366589153,-7.56541999001
off_to_on,-2.80195449364,-0.796193329362,-0.655956577097,-0.008226874937,-0.268107365144,-1.16173115378,-1.68068583411,-1.51170337809,-0.586144509514,-1.99908622015,-2.36645280561,-2.57488244928,-2.00364956198,-4.03000593594
off_to_on,-2.94986861243,-1.06539741715,-0.852661554939,-0.545534767215,-0.430196749018,-0.25699841908,-0.604079147008,-1.38411235246,-1.14761412857,-2.01270085429,-2.48757310061,-2.93177359299,-2.29937697845,1.97481188471
off_to_on,-2.8378182928,-1.21862780856,-0.984884775509,-1.07841224696,-0.590923606867,0.603600055706,0.484354403618,-1.12803303523,-1.64395746873,-1.78638478802,-2.31601035993,-2.88767370455,-2.34202768103,9.69545222625
off_to_on,-2.49781398979,-1.24769446247,-1.03555397322,-1.58403820716,-0.755667210338,1.3269665232,1.47693615922,-0.801236190955,-2.05808694969,-1.33624998693,-1.89369513064,-2.42779577484,-2.12356016446,18.1330949849
off_to_on,-1.98279780365,-1.16050878768,-0.997493390561,-2.03964138047,-0.92416743044,1.84386453101,2.28226223628,-0.465546733775,-2.37872646058,-0.703874994753,-1.293325236,-1.59194823361,-1.66819337651,26.179387027
off_to_on,-1.3598839363,-0.979917796752,-0.875039258825,-2.42369654421,-1.08996432687,2.1169632479,2.83563822828,-0.17746238298,-2.6001389414,0.0480244082716,-0.608445845523,-0.470403018218,-1.02978260952,32.7573624388
off_to_on,-0.702326073829,-0.740565148605,-0.68391793295,-2.71707227005,-1.24109426036,2.14392131498,3.10537724156,0.0198250924864,-2.72135939898,0.842091055244,0.0590815986499,0.806639735036,-0.285391567311,36.9481360383
off_to_on,-0.0811753624081,-0.484162044446,-0.44935060607,-2.90406604831,-1.36192039327,1.95523410823,3.09426005197,0.101879277072,-2.74511356355,1.59430520499,0.612578179706,2.08469318004,0.474155743889,38.0878760366
off_to_on,0.442406805504,-0.253751937219,-0.202625708895,-2.97327837598,-1.43578475239,1.60736146445,2.83619871648,0.0652527283108,-2.67663294712,2.22264915431,0.973258788773,3.20381219348,1.15557340034,35.8255391432
off_to_on,0.823329163091,-0.0876871752841,0.0233745432611,-2.91829251535,-1.44802949272,1.17234948188,2.38885509162,-0.0736534433668,-2.52257377182,2.65561888695,1.09051708073,4.01830483916,1.67484952792,30.1387329983
off_to_on,1.0365995083,-0.0140868641112,0.199031644589,-2.73813862924,-1.38886884622,0.725656468091,1.82353605322,-0.282731087012,-2.29021152319,2.83977146259,0.948472051624,4.41491907588,1.9679385355,21.3116478834
off_to_on,1.07883237251,-0.0465058657408,0.302493315556,-2.43752866777,-1.25561119296,0.334118070919,1.21403471177,-0.520483195453,-1.98702112635,2.74558729502,0.567956426009,4.3272834512,1.99904370413,9.88418702613
off_to_on,0.967173003367,-0.181417047908,0.323116654946,-2.02685194121,-1.05383029374,0.0459110950447,0.626165023505,-0.743390538072,-1.62067522271,2.37107191876,0.00371925752191,3.74483272684,1.76541130739,-3.4155603277
off_to_on,0.735878336783,-0.397904463871,0.263290998263,-1.52192229031,-0.797250654527,-0.115983358876,0.109542211593,-0.913085300462,-1.19941232286,1.7427129853,-0.662769994383,2.71511160391,1.29798288035,-17.7428742952
off_to_on,0.431059422106,-0.659704848547,0.138312316543,-0.943468579164,-0.506318400351,-0.155898962541,-0.307267892084,-1.00217945454,-0.73265564409,0.91363425704,-1.3339701321,1.33914226593,0.657765439518,-32.2012906799
off_to_on,0.104285231194,-0.919446619313,-0.0257303126948,-0.31636360416,-0.205643485813,-0.102979286317,-0.61769682075,-0.997866686095,-0.23171348382,-0.0409636585859,-1.90899215274,-0.239629907663,-0.0716817390797,-45.8939163845
off_to_on,-0.194145106666,-1.12465204176,-0.195793443194,0.331405233481,0.0793124510292,-0.00457370119679,-0.834336940068,-0.902820990615,0.28962906265,-1.03073197021,-2.29676919111,-1.85153118038,-0.794747129644,-57.9590537785
off_to_on,-0.421445032219,-1.22482324837,-0.336910134966,0.970005681825,0.325796088689,0.0833046061381,-0.983048205713,-0.733383727089,0.814806011534,-1.95888664817,-2.42800067018,-3.32009844735,-1.41596251962,-67.5927423196
off_to_on,-0.547367380802,-1.17875786256,-0.417682862109,1.56923247882,0.517009724169,0.106851541694,-1.09520749369,-0.515486457115,1.32459121739,-2.73191401662,-2.26436778778,-4.48247475004,-1.8523631231,-74.0644933651
off_to_on,-0.557452592252,-0.961160365357,-0.415416021427,2.10011811538,0.644519348875,0.0248804641736,-1.19956129798,-0.27912546661,1.79771522511,-3.26932876243,-1.80387334824,-5.20835231005,-2.04442972086,-76.7343119287
off_to_on,-0.454164413829,-0.567646701548,-0.320094416422,2.53659351066,0.709415376084,-0.182935095188,-1.31515712304,-0.0524270311898,2.21196978051,-3.51247557904,-1.08165412485,-5.41521709665,-1.96417797091,-75.0786449503
off_to_on,-0.25584083525,-0.0173853479216,-0.1365627789,2.85708703226,0.722003773587,-0.511326216361,-1.44659952024,0.143613724774,2.54571024473,-3.43139485047,-0.166184151432,-5.07807789915,-1.61929333476,-68.7301982364
off_to_on,0.00634827769014,0.647132120204,0.115489131666,3.04593568152,0.700031009167,-0.928977243369,-1.58244543773,0.298777518869,2.77959600168,-3.02890939918,0.848639845291,-4.23250831624,-1.05269187126,-57.5321080998
off_to_on,0.293009718509,1.36336786213,0.403815499323,3.09447976251,0.665677296756,-1.38245259262,-1.69699409224,0.415004566258,2.89836090348,-2.3413318126,1.85453558686,-2.9706171177,-0.337460611314,-41.6016023287
off_to_on,0.56209327097,2.05486415974,0.687920043969,3.00172481621,0.64175331949,-1.80390405493,-1.75513222219,0.505278147649,2.89238750885,-1.43552524501,2.74162569587,-1.43039922741,0.432273797249,-21.3931341665
off_to_on,0.774700476428,2.6396459553,0.924811626822,2.77448289896,0.647674102456,-2.12136630642,-1.71936413238,0.59021370997,2.75887348541,-0.402445996776,3.41141228075,0.220292245105,1.15345809984,2.25284236452
off_to_on,0.90039905376,3.03999705677,1.0754083082,2.42694791349,0.695837171563,-2.27004226584,-1.55777404499,0.692968779026,2.50242425529,0.65228748235,3.78836212868,1.80326649586,1.72770001852,28.0908000434
off_to_on,0.921372027365,3.1924699443,1.1106640282,1.97971276468,0.788990324301,-2.20282379356,-1.25149771468,0.833395382099,2.13497628072,1.61986665189,3.82871715352,3.15069561422,2.07458806978,54.4947104585
off_to_on,0.834875741217,3.05687978163,1.01649966534,1.45829369172,0.919041383407,-1.89840941269,-0.800348280014,1.02250852427,1.67504014036,2.40056603562,3.52549877789,4.12452965554,2.14298393458,79.5357597235
off_to_on,0.653688584057,2.62307525925,0.796762135875,0.891282016121,1.06755631953,-1.36574952237,-0.225536430597,1.25831533702,1.14633943286,2.91539786705,2.90914843203,4.63230141848,1.91873781664,101.115645331
off_to_on,0.4044786849,1.91447762386,0.473694462297,0.308288240579,1.20794269609,-0.644112495009,0.431101015512,1.52384298141,0.575997973787,3.11571229829,2.04377938336,4.63741757647,1.42769548033,117.14913968
off_to_on,0.124275860623,0.987720189292,0.0857420356464,-0.262128745176,1.30905927064,0.201265839974,1.11137418788,1.78785130963,-0.0075172501267,2.9894713777,1.01954183836,4.1626877369,0.733445217309,125.780480257
off_to_on,-0.144528951558,-0.0718301793214,-0.317101464699,-0.794348451188,1.33976828841,1.08731520076,1.74794089561,2.00827459539,-0.576464067791,2.56326385483,-0.0579398707018,3.2866555757,-0.0700755475984,125.610155335
off_to_on,-0.360042593566,-1.15838110135,-0.679844163956,-1.26721028662,1.2737889979,1.92384144877,2.27336390432,2.13797627645,-1.10567742444,1.89961126229,-1.07976581022,2.13317028909,-0.870314823996,115.90325936
off_to_on,-0.486851909408,-2.15706038378,-0.950086302207,-1.66502877442,1.09414438934,2.62522710069,2.62962500867,2.13199630827,-1.57401706027,1.08969090602,-1.94613003677,0.855466902476,-1.55078320335,96.748964573
off_to_on,-0.501359258954,-2.9570730871,-1.08561618029,-1.97802012195,0.796530066146,3.12139692231,2.77659082782,1.95518896664,-1.96528427151,0.242198467058,-2.57740235568,-0.383291521708,-2.00683667222,69.143462927
off_to_on,-0.395758364767,-3.46513869601,-1.06093926369,-2.20212772737,0.391071238287,3.36645163301,2.69806255792,1.58903752413,-2.26855936371,-0.530386745138,-2.92264274252,-1.43060426398,-2.16051406685,34.9759964002
off_to_on,-0.180082638921,-3.61754932663,-0.871779834454,-2.3383065303,-0.097847172828,3.34374405795,2.40440240035,1.03651238316,-2.47799277251,-1.12646413613,-2.96459680122,-2.16378952338,-1.97242454134,-3.09135959787
off_to_on,0.118023064854,-3.38926674306,-0.536844162167,-2.39139126391,-0.633722145059,3.06672780544,1.93125770377,0.324102047224,-2.59215553169,-1.46902302138,-2.72065474715,-2.50529642863,-1.44899100181,-41.8459776862
off_to_on,0.455887204716,-2.79875985758,-0.0964898400362,-2.36872274729,-1.17180817629,2.57556156193,1.334517327,-0.499446212823,-2.61310820799,-1.51655387288,-2.23974291889,-2.43222017789,-0.643899518486,-77.8306439347
off_to_on,0.780543393531,-1.90775075736,0.39163935312,-2.27873245513,-1.66423560629,1.93010065865,0.682236231145,-1.36764831194,-2.54537409666,-1.26959055559,-1.59559701283,-1.97877765752,0.346680127393,-107.701969383
off_to_on,1.03512400638,-0.8156361461,0.859536082314,-2.12968481181,-2.06569328875,1.20045113465,0.04475754564,-2.20354134812,-2.39499908753,-0.771820880073,-0.877283553237,-1.23137761923,1.39473849761,-128.600460341
off_to_on,1.16620124413,0.350987841103,1.23746956919,-1.92874872206,-2.33890515128,0.456616269522,-0.515433923816,-2.92872173253,-2.1688485288,-0.105379750621,-0.178142796656,-0.31685629234,2.35578917156,-138.486827449
off_to_on,1.13120867691,1.45262854523,1.46324564661,-1.68151828143,-2.45914779653,-0.241122739328,-0.952527936024,-3.47291559235,-1.8742363926,0.619296447904,0.415511278569,0.614670882574,3.08714253751,-136.400390381
off_to_on,0.905021594814,2.35342184888,1.49087432076,-1.39203427324,-2.4171825159,-0.849597930347,-1.2434651153,-3.78272638641,-1.51891330112,1.2779238818,0.834595916939,1.41018049755,3.46683265061,-122.602818014
off_to_on,0.484828755555,2.93791634592,1.29747826981,-1.06328226947,-2.22019284519,-1.34680646641,-1.39028084717,-3.82830152455,-1.11136873919,1.74936816094,1.035186059,1.93472764376,3.41076592597,-98.583262025
off_to_on,-0.10741016205,3.12603039773,0.887478723319,-0.69807039929,-1.89059742503,-1.7320696593,-1.41830738922,-3.60694862524,-0.66134055655,1.93299290485,1.00326897393,2.09031882466,2.88579700026,-66.9177124723
off_to_on,-0.825372330146,2.88423411505,0.29343031223,-0.300130337709,-1.46290753517,-2.02238963539,-1.37048442297,-3.14317100957,-0.180381637311,1.76402143328,0.755822465875,1.83016969429,1.9168763354,-30.9940075996
off_to_on,-1.60177413511,2.23140204837,-0.426699418753,0.124752722484,-0.979075882894,-2.2457232109,-1.2986615446,-2.48511560428,0.317683669872,1.22473728464,0.338152256636,1.16639958422,0.587109120664,5.36811154928
off_to_on,-2.35454459234,1.23839187024,-1.19555263628,0.567785870384,-0.482997542527,-2.43240692487,-1.25328262098,-1.69795536804,0.816569267674,0.349816743938,-0.182136496383,0.170030572124,-0.969566182773,38.3576968411
off_to_on,-2.99520289839,0.0211598180795,-1.9250222952,1.01657624265,-0.014943704999,-2.60628464533,-1.27313903575,-0.855181791361,1.29772047607,-0.775193604642,-0.723771049272,-1.03686272333,-2.58243599175,64.6203269121
off_to_on,-3.43858095344,-1.27196672681,-2.52648164956,1.45504152032,0.393283988728,-2.77715769547,-1.37691524744,-0.0290909285771,1.74094817949,-2.02235718215,-1.2019919658,-2.29598831307,-4.0632802197,81.65647426
off_to_on,-3.61282787188,-2.47747810612,-2.9213561066,1.86389756842,0.721798049357,-2.93598341618,-1.55801397777,0.718139469846,2.12548980432,-3.23595459429,-1.53906455016,-3.43286585593,-5.22861128902,88.1188378619
off_to_on,-3.46854644137,-3.43633912359,-3.05073437591,2.22171921847,0.964194925316,-3.0538186204,-1.78366999738,1.34148270916,2.43141054641,-4.25152903053,-1.67388232425,-4.27954513881,-5.92219560932,83.9687470138
off_to_on,-2.98595668273,-4.01374138301,-2.88282578588,2.50649028681,1.1270527574,-3.08490352487,-1.99870924112,1.81720425796,2.6411964344,-4.9170199404,-1.56954788974,-4.69710719691,-6.03505302301,70.4691719996
off_to_on,-2.17915932452,-4.11649072623,-2.41733311718,2.69748832085,1.22746615936,-2.97360086698,-2.13358050926,2.14356158618,2.74134936585,-5.11326756111,-1.21806725734,-4.59500866268,-5.52036827798,50.0127618952
off_to_on,-1.09686642084,-3.70579246182,-1.68619096113,2.77729782046,1.28901838828,-2.66424907565,-2.11559093216,2.33805068003,2.72377992078,-4.7711574203,-0.641640197365,-3.94467925078,-4.4013204801,25.8049302492
off_to_on,0.180652882255,-2.80371254366,-0.750568733017,2.73371978891,1.33682477874,-2.1124603714,-1.88172170717,2.43172779758,2.58680919084,-3.88302790797,0.109570239196,-2.78547590016,-2.77067600746,1.44141710359
off_to_on,1.54823822485,-1.49234263432,0.30550325372,2.56134892913,1.3924223596,-1.29607943375,-1.39107628375,2.46159478885,2.33563421654,-2.50664859018,0.96289823549,-1.22205147982,-0.781995531822,-19.5657063899
off_to_on,2.88552153127,0.0944092575113,1.38411587907,2.26262218439,1.46930777109,-0.223969744188,-0.634975192446,2.46234295084,1.98217684185,-0.761008721416,1.83120733646,0.586708387901,1.36664913121,-34.2520254635
off_to_on,4.06866765311,1.78555481813,2.38399320775,1.84819936584,1.5698340808,1.05897262265,0.357025861274,2.45885459031,1.54431351311,1.18578532833,2.622549817,2.44593047518,3.45460107403,-40.5936964001
off_to_on,4.98294470845,3.3926008753,3.21128557844,1.33661086269,1.68397931996,2.47169175689,1.51638597948,2.46074470127,1.04456251998,3.13515867478,3.25033622849,4.1479775909,5.26360576028,-37.7768972272
off_to_on,5.53476376165,4.73163444248,3.78938278301,0.753189315799,1.79022361238,3.90217155049,2.74055865489,2.45990295555,0.508373955981,4.88102615957,3.64285665953,5.49776400722,6.60285925649,-26.307228148
off_to_on,5.66184818455,5.64522927747,4.06663088701,0.128381280915,1.85845736927,5.21763668351,3.90333775657,2.43151617382,-0.0377836537986,6.23421162085,3.7510877349,6.33695741999,7.33107091697,-7.94337810905
off_to_on,5.34036901849,6.02146383852,4.02111568084,-0.504398437885,1.85453581137,6.27868197398,4.86940624522,2.33848640071,-0.568324464021,7.04523498067,3.55393284892,6.56395634831,7.37283281534,14.5373840497
off_to_on,4.58819704459,5.80766378625,3.66205119323,-1.1111607954,1.74584000392,6.95563786904,5.51126576831,2.13859678906,-1.06022682823,7.22253683273,3.06035086745,6.14703310271,6.7272721851,37.711867502
off_to_on,3.46384123975,5.01711479498,3.02773281286,-1.65975486972,1.50703936177,7.14508174545,5.72630892596,1.79330496217,-1.49432451071,6.74376541924,2.30819327843,5.12888123221,5.46790827846,57.9730903315
off_to_on,2.06111977127,3.72785634777,2.18042650586,-2.12207445805,1.1252001597,6.78428997507,5.45168754241,1.27673719052,-1.85609611168,5.65862924579,1.35994818267,3.6218962508,3.73372244721,72.0209308662
off_to_on,0.500088785567,2.07365570697,1.19891639581,-2.47586553453,0.603457472922,5.86161669929,4.67485223633,0.58336812632,-2.13591405498,4.08290568707,0.29593729985,1.79470942871,1.71254146984,77.3161534501
off_to_on,-1.08482019644,0.228246923819,0.169680240626,-2.70599183671,-0.0373450850108,4.42126074088,3.43816604528,-0.266981072667,-2.32878997075,2.18434727593,-0.794210734284,-0.148368953302,-0.381210719405,72.4371745297
off_to_on,-2.55818211434,-1.61522516447,-0.822221308455,-2.80507910929,-0.759368241321,2.56158011182,1.83675854925,-1.22782574158,-2.4337202523,0.162287952106,-1.82081223066,-1.99240866727,-2.33164174232,57.2915933754
off_to_on,-3.79702904003,-3.26700363099,-1.70147968929,-2.77352602197,-1.51083811388,0.426940110927,0.00968277038528,-2.22884530313,-2.45278421745,-1.7764227752,-2.70305213204,-3.53823087664,-3.94630179019,33.153646181
off_to_on,-4.70290645957,-4.56292033581,-2.40919052229,-2.61893314631,-2.23112245362,-1.80607678185,-1.87465909911,-3.18269259364,-2.39017079501,-3.44205224906,-3.3765959607,-4.62671278433,-5.07782559999,2.52179393067
off_to_on,-5.21122724371,-5.3832341087,-2.90717543128,-2.3550534382,-2.85720360022,-3.94652873907,-3.63706997563,-3.99499900201,-2.25130502373,-4.68401507455,-3.79908998298,-5.1578995409,-5.63968821438,-31.1854761582
off_to_on,-5.29692151137,-5.66577300357,-3.17965222812,-2.0004032871,-3.33072791939,-5.80892938497,-5.10778541163,-4.57626491929,-2.04221425079,-5.40749412904,-3.9530225062,-5.10246254749,-5.61422199035,-64.0560852088
off_to_on,-4.97580210119,-5.41178033302,-3.23227885745,-1.57668979456,-3.60472235693,-7.23264455303,-6.14582069537,-4.85398127714,-1.76922118075,-5.58258191283,-3.8457469425,-4.50403592863,-5.0520375525,-92.1773040648
off_to_on,-4.30155290211,-4.68380376834,-3.08891795144,-1.10720766666,-3.64910509725,-8.09854352847,-6.65498161432,-4.78322201695,-1.43898550169,-5.24488478763,-3.50680897685,-3.47215377318,-4.06308747041,-112.13075795
off_to_on,-3.35874350294,-3.59599068069,-2.78672463621,-0.615340518758,-3.45427417144,-8.3409291868,-6.59451305126,-4.35410154746,-1.05884822457,-4.48768272585,-2.98303403433,-2.16674292067,-2.80066595918,-121.424956137
off_to_on,-2.25272009871,-2.2981272354,-2.37032086527,-0.123270899111,-3.03231312175,-7.95337840678,-5.98306291193,-3.59488941786,-0.637373890455,-3.44686705974,-2.33207952126,-0.776236051917,-1.44051460661,-118.809314202
off_to_on,-1.09756697225,-0.955555883975,-1.88586984871,0.34903363507,-2.41567047334,-6.98790232451,-4.89551814107,-2.57016347504,-0.184944809172,-2.28083369536,-1.61530999742,0.507790694344,-0.157790918877,-104.429555669
off_to_on,-0.00353516378995,0.27237859485,-1.37580456413,0.784528952818,-1.65350504524,-5.5476790194,-3.45320307183,-1.37407997425,0.285754951588,-1.14815901404,-0.890895745379,1.51609540558,0.89511988844,-79.8055244212
off_to_on,0.934627640818,1.25253769894,-0.874810108923,1.16950181885,-0.806195020371,-3.77440529275,-1.80878935542,-0.119543907935,0.759517269084,-0.186142424607,-0.20796358213,2.12399294321,1.60713387462,-47.6359251667
off_to_on,1.64714234708,1.89423886386,-0.407437897685,1.49370740056,0.0612573793675,-1.83195408428,-0.127933787265,1.07532856326,1.21876417314,0.506869778004,0.397544941102,2.26738999531,1.92104836879,-11.4571561627
off_to_on,2.09543613204,2.1594776794,0.01252495873,1.75028495731,0.886063832319,0.111572378855,1.42995410976,2.10164288072,1.64413643962,0.883033667668,0.904903966592,1.95052914143,1.83869759064,24.7978318531
off_to_on,2.27452639873,2.0658678356,0.381058420014,1.93550752635,1.61385970659,1.90118443106,2.72935810949,2.87307405369,2.01550586139,0.948971533444,1.30841290425,1.24444781561,1.41820041601,57.2823046085
off_to_on,2.21138837174,1.68201752724,0.701624446401,2.04842096437,2.20352645778,3.40970566562,3.67253655644,3.33626561743,2.31333072521,0.761771142675,1.6151743592,0.276399641151,0.763853686425,82.6973285288
off_to_on,1.95961830623,1.11606492325,0.982082347885,2.09042148695,2.63008175739,4.54822931223,4.20802735313,3.47680283058,2.52021381892,0.417761057889,1.84129340273,-0.788306990755,0.0101697556745,98.6733224422
off_to_on,1.59113342776,0.498996458847,1.23136084756,2.06481164962,2.88537748324,5.2713526784,4.33293607159,3.31989094057,2.62248100128,0.03580636257,2.00714610665,-1.76958704012,-0.697711664899,104.02445601
off_to_on,1.18598315156,-0.0349486180717,1.45642750933,1.97636513848,2.97665939133,5.57693830285,4.08902989848,2.92561242257,2.61158254806,-0.262382507947,2.1324669289,-2.49782829036,-1.22458189288,98.8465461043
off_to_on,0.821545849969,-0.368114481192,1.66000533885,1.83092270732,2.92333908737,5.50087457321,3.55349298302,2.37940982812,2.48513191976,-0.372044693282,2.23200120226,-2.83771037254,-1.46396691655,84.4504049444
off_to_on,0.562430105878,-0.416820263997,1.83933880379,1.63503605254,2.75256629562,5.10793139028,2.82588511426,1.77913141596,2.24743585442,-0.222403466173,2.31236302645,-2.70739171711,-1.35273960966,63.1444744405
off_to_on,0.452286609121,-0.14396503302,1.98613240842,1.39567323739,2.49433406026,4.48024653307,2.01329271048,1.22048352334,1.9094303624,0.211501601082,2.37054639857,-2.09049170855,-0.879704413642,37.9000639597
off_to_on,0.508483102145,0.43484418031,2.08760212149,1.11999745444,2.17688207083,3.70518283035,1.21581229104,0.782980405926,1.4880107021,0.903864671799,2.39428601957,-1.03926714707,-0.0871453084556,11.9470056587
off_to_on,0.720233053514,1.25246103665,2.12841968972,0.815228913467,1.82308113558,2.86424743912,0.51434910446,0.518429556608,1.0048192683,1.78073367938,2.36418918076,0.331435054752,0.934732848535,-11.6447959794
off_to_on,1.05034421703,2.19851226975,2.09321325707,0.488595870142,1.44829923268,2.02448142925,-0.0377205911489,0.443641881724,0.484622722295,2.72980804974,2.2572996772,1.85863323639,2.05961417228,-30.3424835066
off_to_on,1.44031758803,3.13375548591,1.96922794182,0.147374115315,1.05999554821,1.23326211065,-0.418114628758,0.538458233788,-0.0465408979558,3.61600641621,2.05154475471,3.35214027495,3.14148711654,-42.4381263648
off_to_on,1.81813229507,3.90859055694,1.74875105471,-0.200995700268,0.659002773703,0.516887900692,-0.634273824526,0.749420173382,-0.563239783211,4.3005882216,1.73038546518,4.61917944922,4.03346471902,-47.2132284255
off_to_on,2.1077433861,4.38329399122,1.43096330841,-0.548735999677,0.242183421615,-0.11727580536,-0.717629726461,0.998592099778,-1.04234882647,4.66112333702,1.28695720972,5.48942472036,4.60655551235,-44.963679494
off_to_on,2.23913162655,4.44732953507,1.02297685259,-0.887541800256,-0.194075323496,-0.675833956065,-0.714709377612,1.19628233217,-1.46440166627,4.60949830595,0.727054954746,5.83716802155,4.76600289401,-36.8884931536
off_to_on,2.15769650363,4.03521917382,0.539945304467,-1.20841960931,-0.650198282606,-1.1727066612,-0.67669365576,1.25582319921,-1.81447577302,4.10543728008,0.0704768497742,5.59772166844,4.46318855004,-24.8640330485
off_to_on,1.83187780991,3.13691493361,0.00426011929197,-1.50161030517,-1.12028829225,-1.62209332839,-0.649202878664,1.10824196884,-2.08255900488,3.16365510334,-0.649531672624,4.77595172691,3.70171937077,-11.1401211199
off_to_on,1.25811289516,1.80132920732,-0.556037218678,-1.75665018806,-1.59013623001,-2.03234322078,-0.663962977383,0.714636287291,-2.26341720981,1.85365551539,-1.38872576096,3.44589823055,2.53709679285,1.99647089123
off_to_on,0.462556879894,0.132562308027,-1.10941157805,-1.96261495354,-2.03680847057,-2.401795197,-0.73363345817,0.0743662233825,-2.35604737911,0.292210396806,-2.09592793341,1.74162477647,1.07019484957,12.5431960892
off_to_on,-0.500627811261,-1.72070649116,-1.62329552936,-2.10857249593,-2.42999329229,-2.71726742993,-0.85051788494,-0.772249080875,-2.36285026878,-1.37043854006,-2.71821233157,-0.159408126389,-0.564461625985,19.0439380184
off_to_on,-1.55421348521,-3.58134483909,-2.06658455604,-2.18424342418,-2.73500344074,-2.95540252685,-0.989219363658,-1.7472683216,-2.28868349968,-2.96876656794,-3.20654551197,-2.05818927447,-2.21402152556,20.7588422776
off_to_on,-2.6055204531,-5.26341982813,-2.4119239057,-2.18083586757,-2.91705852109,-3.08658090209,-1.1126514208,-2.74417382765,-2.13995760401,-4.34207843362,-3.52115456975,-3.75832008623,-3.72426329627,17.7228572341
off_to_on,-3.55585150919,-6.5929807917,-2.63760079469,-2.09198784195,-2.94624988102,-3.08068198334,-1.18027005226,-3.64147254053,-1.92391390965,-5.35385931874,-3.635925776,-5.08934541085,-4.95610546891,10.6906082656
off_to_on,-4.31070973202,-7.42747987648,-2.72892614554,-1.91472123203,-2.80245623326,-2.91366422909,-1.15703896083,-4.31902251939,-1.64817892724,-5.90782717696,-3.54126533066,-5.92628024323,-5.79975914707,0.981404100523
off_to_on,-4.78969328749,-7.67155539361,-2.67906173003,-1.65029146689,-2.47945177264,-2.57379576962,-1.02153010299,-4.67483085747,-1.32063246931,-5.95864572614,-3.24506018339,-6.20293194953,-6.1850065063,-9.74830298476
off_to_on,-4.93501526455,-7.28739690476,-2.48930977571,-1.30481056565,-1.98753534586,-2.06641579177,-0.771710497823,-4.6399593343,-0.949565414799,-5.51602350336,-2.77163211757,-5.91749668824,-6.08665350266,-19.7686330589
off_to_on,-4.71776318429,-6.29860952039,-2.16892452761,-0.889531147213,-1.35419794585,-1.41633185523,-0.42734861925,-4.18939842429,-0.544047607445,-4.64184721833,-2.15884653876,-5.12996969916,-5.52485203973,-27.5363439638
off_to_on,-4.14126915905,-4.78730211928,-1.73452536185,-0.420705763416,-0.622609927499,-0.667323003423,-0.0285284837705,-3.34729996251,-0.114385560645,-3.4409443793,-1.4537809972,-3.95200342272,-4.56062609643,-31.9138272812
off_to_on,-3.24127639278,-2.88493387466,-1.20919018797,0.0810224502778,0.151988844298,0.121334591321,0.369600721365,-2.18572168545,0.327470220204,-2.04690764582,-0.7075433164,-2.53082478505,-3.28748381986,-32.3173041967
off_to_on,-2.08292465789,-0.758163421724,-0.621291704811,0.591689711769,0.907616603864,0.880942267672,0.705087317671,-0.816927237398,0.767704366522,-0.605027094639,0.0300703601256,-1.02955253935,-1.82038750599,-28.7761347393
off_to_on,-0.754899921723,1.40852944793,-0.00311612124983,1.08547781231,1.5819680744,1.54127200922,0.919188968209,0.619821444313,1.19071091395,0.745313238678,0.715384800219,0.393356360989,-0.283546247542,-21.8989052735
off_to_on,0.638631610041,3.43139520406,0.610716279976,1.53645948449,2.1191332036,2.03920734318,0.966553275105,1.97527177609,1.57952507786,1.88644598384,1.31452432521,1.60279974844,1.20151730069,-12.7557336885
off_to_on,1.98748316119,5.14506377873,1.18501844273,1.92046390339,2.47577018656,2.32692965646,0.823914092955,3.10874142313,1.91661688725,2.73446058609,1.80554082867,2.50150287184,2.52637348555,-2.6980227461
off_to_on,3.18536748739,6.41744566159,1.68597380795,2.21687889499,2.62594699549,2.37849101725,0.495835849694,3.9057545248,2.18499032491,3.24610853405,2.17880540088,3.03859415988,3.60365203815,6.85493850041
off_to_on,4.13932919287,7.16047385687,2.08319997465,2.41020391206,2.56403323577,2.19382485755,0.0164555061482,4.29238565898,2.3694776459,3.41998780564,2.43573389704,3.2114965938,4.3720720811,14.6296194358
off_to_on,4.77781852686,7.33584693247,2.35185462652,2.4911887735,2.30527519968,1.79959063776,-0.553240397233,4.24438118893,2.45807966386,3.29224675496,2.58615705565,3.0613099618,4.79846717365,19.680705251
off_to_on,5.05669280267,6.95555882192,2.47465163129,2.45743584634,1.88398593371,1.24667676921,-1.13239564232,3.78983132548,2.44318506428,2.92780007386,2.64483491986,2.66275683092,4.87711132826,21.5169517928
off_to_on,4.96264795872,6.07759724358,2.44361026559,2.31340290346,1.3495870146,0.60463567483,-1.63066083524,3.00503860042,2.32250807637,2.40862165613,2.62772564765,2.11047137861,4.62692400508,20.1545010186
off_to_on,4.51383458877,4.79768657451,2.26133016209,2.06981283879,0.761007355521,-0.0462675601293,-1.96057062389,2.0041482455,2.09961334748,1.82099458847,2.54863433731,1.50383017044,4.08727310479,16.0931050099
off_to_on,3.75767459397,3.23828955595,1.94157939645,1.742545674,0.180140459026,-0.624401756988,-2.05018882733,0.923945671702,1.78394538893,1.24362105777,2.416786397,0.932606498805,3.31310018421,10.2222273047
off_to_on,2.766142318,1.53623790537,1.50901057952,1.35114841323,-0.334840105855,-1.05634866096,-1.85420288981,-0.0941299828526,1.39034047592,0.738233544479,2.2357049086,0.465474556711,2.36997976535,3.67393307722
off_to_on,1.62898692078,-0.169664955931,0.997882516118,0.917140890405,-0.735517264508,-1.28553779667,-1.36182977304,-0.922347275199,0.938062653407,0.343854527468,2.0035477533,0.142845717422,1.32953141218,-2.35355798071
off_to_on,0.445535060668,-1.74990960627,0.449759734203,0.462314699264,-0.987942641343,-1.27890125371,-0.600318388137,-1.46298134416,0.44946341357,0.0752099499158,1.71481239689,-0.0252227967552,0.265377016748,-6.77469248479
off_to_on,-0.684185369721,-3.09355078795,-0.0897201175849,0.0072147571463,-1.07554493682,-1.03078310908,0.366561278643,-1.66041669238,-0.0515914576894,-0.0748832746124,1.36308255322,-0.0561285746565,-0.75037355747,-8.77186549278
off_to_on,-1.66822293186,-4.11496906347,-0.574794454994,-0.430040041317,-1.00000447257,-0.563697097131,1.44495243481,-1.50751134036,-0.541360352106,-0.129955076568,0.944308068275,0.0123095043869,-1.65027451459,-7.9060740078
off_to_on,-2.43063128315,-4.75795981242,-0.963904891462,-0.834494614597,-0.780128510268,0.0740785622881,2.52148635052,-1.04547301288,-0.997760919112,-0.122403938662,0.460006585676,0.131552273175,-2.37456015251,-4.16952203862
off_to_on,-2.917883625,-4.99728199616,-1.22398120881,-1.19461856203,-0.449003739732,0.813702811733,3.47662979369,-0.357381158695,-1.40165416096,-0.0855924106678,-0.080229696927,0.252886349934,-2.87421296139,2.02403627212
off_to_on,-3.10324239565,-4.83800833851,-1.33420544844,-1.50212513078,-0.0498885283407,1.57309259727,4.19904446879,0.443661563638,-1.7377696115,-0.0469799905998,-0.657443857929,0.336940957107,-3.11414632406,9.90616628674
off_to_on,-2.98872606343,-4.31312466118,-1.28878745591,-1.7514465552,0.368584643154,2.26547771779,4.59905488865,1.23006497671,-1.99521549533,-0.023484740772,-1.24357971754,0.360554695145,-3.07638113695,18.4648782882
off_to_on,-2.60451218894,-3.47983355711,-1.09834913312,-1.93901067847,0.757306296063,2.80821935445,4.61944783816,1.87683520274,-2.16757379023,-0.0197980586127,-1.80339817257,0.319884659168,-2.76289756355,26.5816240453
off_to_on,-2.00582441332,-2.41494858085,-0.789637836582,-2.06248670918,1.07116001706,3.13096081967,4.2422037716,2.2779139866,-2.25263203217,-0.0297971112954,-2.29787112341,0.229337209992,-2.1976781651,33.1735083372
off_to_on,-1.26755673276,-1.20965411749,-0.403459171242,-2.12016365372,1.27266867175,3.18232581573,3.49033229287,2.35964403922,-2.2518441368,-0.0406058455003,-2.68862777386,0.116647793234,-1.42737127321,37.321084028
off_to_on,-0.477077551895,0.0362076303146,0.00908186748547,-2.11059396677,1.33458904156,2.93460430332,2.42466628203,2.0896805282,-2.1696361222,-0.038349056052,-2.94283260519,0.0151245998101,-0.520026095818,38.3660277591
off_to_on,0.274184650447,1.22024130794,0.391737725566,-2.03258197079,1.24140387716,2.38613096295,1.13616255276,1.48033496859,-2.01267685894,-0.0143110731678,-3.03776776724,-0.0454146694138,0.43850252329,35.968988213
off_to_on,0.899654841123,2.2439342443,0.689193907523,-1.88552979541,0.989813867488,1.56132646465,-0.265139431872,0.586121462935,-1.78921939817,0.0298908131315,-2.96439489809,-0.0472273557777,1.35061999229,30.1248354315
off_to_on,1.3262400595,3.01931373585,0.853442288736,-1.67008347097,0.58843746891,0.508602134309,-1.66292188672,-0.503936685386,-1.5085885055,0.0793578245552,-2.72928647008,0.00898721876848,2.11532233215,21.1392041655
off_to_on,1.50188472875,3.47560399694,0.849753058385,-1.38895961115,0.0569692753698,-0.703501492806,-2.94738592063,-1.67800040104,-1.18085051083,0.106044863794,-2.35453165244,0.101330648336,2.63820273149,9.57552054382
off_to_on,1.40132502722,3.56550992016,0.661545609476,-1.04778909779,-0.574974423295,-1.99147516415,-4.02634070691,-2.81538634783,-0.816659518763,0.072286278178,-1.87550778604,0.188354328741,2.8421887093,-3.81516880364
off_to_on,1.02944082523,3.27060097124,0.293539951356,-0.655796010629,-1.26917032161,-3.26280940566,-4.83319881729,-3.80087282126,-0.427236597413,-0.0626149062696,-1.33672547761,0.215156352258,2.67779430139,-18.1686582056
off_to_on,0.421790073355,2.60515406203,-0.227271950771,-0.226141561918,-1.98021908406,-4.4223158411,-5.33100191803,-4.53745724456,-0.0244119297112,-0.333672801426,-0.786256459278,0.123174627633,2.13154350094,-32.5752852579
off_to_on,-0.357853699284,1.6177789998,-0.85307594188,0.224196697343,-2.65716166043,-5.37842056216,-5.51222609383,-4.95600639898,0.379351767076,-0.760802626631,-0.269492682012,-0.137781336094,1.23127195285,-46.1335893368
off_to_on,-1.22287158557,0.390223803636,-1.51908913599,0.675075889445,-3.24543746098,-6.04913671764,-5.39475986174,-5.02076992018,0.771031442211,-1.34039657129,0.176876034987,-0.59721780359,0.0472563132386,-57.9874450194
off_to_on,-2.07170842658,-0.967047320148,-2.14953064797,1.10435567453,-3.68937735291,-6.36750144239,-5.01501210944,-4.73037657467,1.13726842076,-2.03958610424,0.529765390381,-1.25352693439,-1.31146070718,-67.3489928541
off_to_on,-2.79768683126,-2.32260128952,-2.66517413077,1.48948784336,-3.9353934449,-6.28631284865,-4.41950624167,-4.11460049905,1.4647711584,-2.794601293,0.782701022081,-2.06746841782,-2.70562990263,-73.5134801617
off_to_on,-3.2998680261,-3.5348133619,-2.99174669854,1.80936042157,-3.93592580443,-5.78201817415,-3.65649102701,-3.22777048684,1.74088459268,-3.514098408,0.946386253466,-2.96112095973,-3.97870134317,-75.8740984483
do_nothing,-3.49394443323,-4.46494991079,-3.06831224692,2.04617817314,-3.65404471113,-4.85758730884,-2.76902311073,-2.14011461044,1.95427862702,-4.08760336885,1.04662964709,-3.82311271673,-4.97293304379,-73.9446198261
do_nothing,-3.32208049469,-4.99142877333,-2.85474051827,2.18714038849,-3.06841046658,-3.54416987606,-1.79066464778,-0.928528047607,2.09567962444,-4.39841318449,1.11981028124,-4.52001331746,-5.5470525314,-67.3950985378
do_nothing,-2.76065319329,-5.02381554366,-2.33742323813,2.22569018375,-2.17809602862,-1.90129916923,-0.744442393128,0.331796910266,2.15855257516,-4.33953052214,1.20643390829,-4.91279901227,-5.59348912558,-56.1015768717
do_nothing,-1.82498714963,-4.51494906295,-1.53255133148,2.16215661938,-1.00662048071,-0.0153958274526,0.354888664949,1.57371538145,2.13964078768,-3.83059778558,1.34364739436,-4.87643152201,-5.0530938573,-40.2054611456
do_nothing,-0.570425162232,-3.46961533392,-0.486498338651,2.00368604988,0.395538564196,2.00364068708,1.49584685174,2.74173539207,2.03928486121,-2.83344829065,1.55778370491,-4.31995622058,-3.92542271716,-20.1730951485
do_nothing,0.910593962354,-1.94842494877,0.726858410454,1.76345211993,1.95065886541,4.02786989963,2.66358358384,3.79271549452,1.86147097293,-1.36387102883,1.85807042033,-3.20423310517,-2.27307203058,3.15781470714
do_nothing,2.49539084532,-0.0659850433193,2.01173496685,1.45923159436,3.55627105919,5.91873685749,3.83304192015,4.69403268349,1.61359551742,0.50248534976,2.23253564286,-1.55452550903,-0.219182467751,28.5599049711
do_nothing,4.04136754572,2.01694645979,3.25850671326,1.11152150048,5.09073160583,7.53623620969,4.96346580412,5.4200566503,1.305972721,2.63149190832,2.64689250718,0.534308587305,2.06199959895,54.439748379
do_nothing,5.39894467149,4.10694412552,4.35352673927,0.741438606723,6.42180355978,8.74932170497,5.99566258447,5.94805920734,0.951147391392,4.83972578707,3.04680559458,2.90140354664,4.36079011402,78.9128585888
do_nothing,6.42594266952,5.99595105044,5.18978077516,0.368674801994,7.41776554474,9.44683056654,6.85302684654,6.25476709427,0.563100462496,6.91095536304,3.36348642524,5.33251070348,6.45247708257,99.9327836261
do_nothing,7.00202102342,7.48215762717,5.67735220613,0.00977583042814,7.96015940121,9.54799484118,7.44674778921,6.31461922134,0.156446113611,8.61838929181,3.52209081172,7.58069752106,8.12035982903,115.468406679
do_nothing,7.0417077353,8.39155386414,5.75266156065,-0.323033981702,7.95693971862,9.01149373572,7.68493047142,6.10043996104,-0.254285956191,9.75027591608,3.45196316483,9.39300118603,9.17891427781,123.714593019
do_nothing,6.50462106268,8.59776338841,5.38553951073,-0.622336222297,7.35456170493,7.84199364003,7.48466736302,5.58674630317,-0.655210212887,10.1358370873,3.09745301311,10.5399884361,9.49447867959,123.31340858
do_nothing,5.40170719768,8.03782397836,4.58338263437,-0.885267503799,6.14748375629,6.09324490036,6.78550873568,4.75535118593,-1.03344675399,9.66828891326,2.42786582595,10.8446116351,9.00106181027,113.557739139
do_nothing,3.79667565278,6.72192423843,3.39190914125,-1.11259680242,4.3836943476,3.867058449,5.56239426966,3.60240254297,-1.37728349768,8.32188862836,1.44513303169,10.2066472563,7.70937468914,94.547428168
do_nothing,1.80227664483,4.73571031688,1.89235181749,-1.30729510898,2.16520116613,1.30785420505,3.83599281287,2.14559888999,-1.67617674944,6.16054372317,0.188000083154,8.61938875566,5.70792200961,67.2707031227
do_nothing,-0.428413569892,2.234576934,0.195266722298,-1.4728391606,-0.357081739313,-1.40707831806,1.678583787,0.430121227762,-1.92065920665,3.33646303676,-1.26808387138,6.17610720649,3.15587507804,33.5907141303
do_nothing,-2.71500689791,-0.569737899165,-1.5685344295,-1.61153392847,-2.9939966974,-4.08098816148,-0.785909771982,-1.46813850425,-2.10224273361,0.0785077038248,-2.81567975452,3.06499312491,0.268378704694,-3.87218258294
do_nothing,-4.86595054643,-3.42903342633,-3.25913485124,-1.72313953105,-5.53363942472,-6.51367034436,-3.38841500312,-3.44318381888,-2.21340463866,-3.3288337397,-4.32440517178,-0.447296395803,-2.70419167939,-41.9584836771
do_nothing,-6.69627292347,-6.08299414761,-4.73973951827,-1.80404623025,-7.76034685943,-8.51864002846,-5.92755265999,-5.36398305621,-2.2477297586,-6.57372899547,-5.65347643872,-4.0419199318,-5.50081357798,-77.2700340805
do_nothing,-8.04517744387,-8.28542591527,-5.88885156065,-1.84716137945,-9.47532400216,-9.93981728873,-8.18776827102,-7.08398017806,-2.20024848085,-9.34946410343,-6.66642470995,-7.38111493061,-7.87559407539,-106.522344333
do_nothing,-8.79169677058,-9.82952030761,-6.61125756178,-1.84256555107,-10.5167422767,-10.6660194831,-9.96089851579,-8.45432358623,-2.06796778918,-11.3873994557,-7.24632945506,-10.1446401433,-9.62195993747,-126.908638645
do_nothing,-8.86677352311,-10.5693392396,-6.84677584734,-1.77887670277,-10.7770710912,-10.6417047046,-11.0687382463,-9.3394421112,-1.85054547126,-12.486574954,-7.30977348863,-12.0651036419,-10.592670349,-136.430897353
do_nothing,-8.26046616977,-10.4350961726,-6.5759177289,-1.64514833404,-10.2156011931,-9.87274237049,-11.3838891058,-9.63310705446,-1.55101477171,-12.536432502,-6.8178048684,-12.9579253652,-10.7135464465,-134.154338872
do_nothing,-7.02345932055,-9.44048624622,-5.82189151418,-1.43303690884,-8.86457224787,-8.42647437578,-10.8462345643,-9.27286953911,-1.17643576115,-11.5298788262,-5.78248814108,-12.7422643313,-9.98953258477,-120.349002833
do_nothing,-5.26263712091,-7.68120726859,-4.64871759174,-1.13891925769,-6.82798317913,-6.42592030864,-9.47280288679,-8.25080431894,-0.73833675517,-9.56501992333,-4.26810872059,-11.450294071,-8.50257280435,-96.4946986645
do_nothing,-3.13109570546,-5.32481151719,-3.15558881124,-0.765631132088,-4.2729682378,-4.03860614537,-7.35950561904,-6.61883429908,-0.252817896848,-6.83522589736,-2.38670353535,-9.22360661054,-6.40169786927,-65.1421168397
do_nothing,-0.813558803031,-2.59301518516,-1.46796934073,-0.32353610808,-1.41446988365,-1.46108425053,-4.67418819733,-4.48752005812,0.259780136321,-3.60856828087,-0.288255076374,-6.29709051166,-3.88656597259,-29.6412743527
do_nothing,1.49134549978,0.261550738155,0.273757199603,0.169284681572,1.50527223956,1.09930721625,-1.64148276097,-2.01800104938,0.775689572083,-0.198939792374,1.85347688709,-2.97216369105,-1.18638638524,6.23376852606
do_nothing,3.59014494475,2.98154046873,1.92703448122,0.687817607976,4.24026794688,3.44358404026,1.47902390418,0.592335341658,1.26899601287,3.06783863422,3.85798063675,0.417448921813,1.46339562033,38.7203015472
do_nothing,5.31296448641,5.33112028467,3.3600718362,1.20184103514,6.56482254124,5.39918630039,4.41893588906,3.12902565343,1.71330442642,5.88902031623,5.55601153738,3.54328712737,3.84410740835,64.5093991702
do_nothing,6.52944863655,7.1193260029,4.46373761668,1.67842404439,8.29545245356,6.83512460763,6.92855613572,5.38241212323,2.08364844852,8.01701355143,6.80660218102,6.11856638873,5.77413151974,81.1396117277
do_nothing,7.16052560038,8.21802102927,5.16125741929,2.08492388348,9.3082587897,7.67267020196,8.80258479393,7.16966173612,2.35845511644,9.28486685349,7.51115948448,7.92907656531,7.12443537036,87.2907661122
do_nothing,7.18481380731,8.57258246017,5.41476787741,2.39213164451,9.54985488541,7.89055110229,9.90100735529,8.35423609727,2.52135405147,9.62228255924,7.62307010408,8.85491879501,7.82792607661,82.9383420765
do_nothing,6.63904281066,8.20430942309,5.2280749703,2.57718700608,9.04068267897,7.52422431008,10.1627192223,8.86036569252,2.56262412871,9.06042080843,7.15174935947,8.88058550705,7.88194654177,69.3461207679
do_nothing,5.61250131069,7.20451710947,4.64533442953,2.62590504734,7.87043359423,6.65944413687,9.61029084737,8.68065351237,2.48010257697,7.72509357933,6.16070888325,8.09234824906,7.34400992745,48.8954748946
do_nothing,4.23616490145,5.72123424137,3.74577591637,2.53422852235,6.18620514991,5.42096330172,8.34533910893,7.87576710488,2.27943798226,5.81932144223,4.75990684326,6.66349649699,6.32160202928,24.7710731719
do_nothing,2.66772448952,3.94024732736,2.63499251526,2.30862811769,4.17486202946,3.95771569142,6.53510313194,6.56616854911,1.97364290151,3.59746717387,3.09329851707,4.82946742756,4.95748367153,0.542021516568
do_nothing,1.07417038036,2.06283614923,1.43367206917,1.96540615508,2.04172659321,2.42618027955,4.39188361403,4.91684870076,1.58198405574,1.33412177808,1.32304566953,2.8561331113,3.41233623552,-20.3080987348
do_nothing,-0.386161140858,0.282854957994,0.26491940381,1.52899762616,-0.011881734609,0.973777591538,2.1478600603,3.1169394629,1.12832728248,-0.70851246529,-0.387793470445,1.00531509637,1.84677674773,-34.8412678255
do_nothing,-1.58012989476,-1.23419678934,-0.758521932028,1.02948729553,-1.8096534684,-0.275909504588,0.0283425226705,1.35675252054,0.639119684993,-2.31088321021,-1.89212753557,-0.498120377213,0.404716960801,-41.0545742545
do_nothing,-2.41314571639,-2.36779165249,-1.54581304128,0.499655804466,-3.21746962885,-1.23455760537,-1.7733241017,-0.194858569102,0.141233583308,-3.32048196536,-3.07337173167,-1.49350023922,-0.800226436207,-38.1472793418
do_nothing,-2.83792368008,-3.05294155459,-2.03710564482,-0.0280813938023,-4.15489999741,-1.85605655303,-3.11622337694,-1.40994442122,-0.340090063063,-3.66761782379,-3.85609541207,-1.90260597627,-1.69400250532,-26.6290663383
do_nothing,-2.85774956789,-3.28374760428,-2.20919280718,-0.524477256823,-4.59989706386,-2.1384174745,-3.92532436934,-2.21525102007,-0.782979098147,-3.37088968631,-4.21169581818,-1.73683078493,-2.24636054186,-8.25387154184
do_nothing,-2.52397892099,-3.10982266494,-2.07710105294,-0.965681370374,-4.5864194999,-2.12063649342,-4.19645383079,-2.59862524289,-1.17017548174,-2.53192601232,-4.15861975718,-1.09253678155,-2.46992518973,14.2132371445
do_nothing,-1.92813399313,-2.62631746527,-1.69143003109,-1.33466522827,-4.19558737593,-1.87507376943,-3.99237494241,-2.60726779175,-1.48968430213,-1.32023759243,-3.75730033113,-0.135414574893,-2.41455755162,37.3663545512
do_nothing,-1.18955946728,-1.95900480261,-1.13170631917,-1.62173382723,-3.54174281535,-1.49638290073,-3.43067296796,-2.33813557784,-1.734803634,0.0498207539015,-3.10058481053,0.923978301047,-2.1579303065,57.6178905844
do_nothing,-0.44008422544,-1.24640169606,-0.496460095787,-1.82414076621,-2.75536899852,-1.08836844912,-2.66515649395,-1.92182810293,-1.90359470648,1.3470926238,-2.30093037285,1.86024421776,-1.79359545267,71.6860515999
do_nothing,0.192540305982,-0.621181448808,0.108891803816,-1.944944299,-1.9651383417,-0.750326948979,-1.86326520795,-1.5021511276,-1.99792355246,2.35324704343,-1.47597968697,2.46482785606,-1.41801393613,77.0459332885
do_nothing,0.600529387864,-0.193124217709,0.585008945285,-1.99133741935,-1.28138312021,-0.564426926786,-1.18243579295,-1.21412137059,-2.02225632448,2.89045006869,-0.734262795513,2.57529091058,-1.11803887606,72.2839691677
do_nothing,0.709471169129,-0.0355873899281,0.850968496521,-1.97274305255,-0.783013365612,-0.585514259824,-0.748462513235,-1.16338184181,-1.98241373193,2.84383653222,-0.162695353284,2.09847271867,-0.960208818614,57.3080411583
do_nothing,0.487724468134,-0.176988242703,0.854557521595,-1.89897857013,-0.509389571649,-0.834416938643,-0.638592363617,-1.40981087813,-1.88448258503,2.17620370676,0.182728226672,1.02464371786,-0.982940524922,33.3845661331
do_nothing,-0.0492644919677,-0.598147747832,0.579291956206,-1.77876168951,-0.457964830644,-1.29540834946,-0.871458194231,-1.95755346502,-1.7340457393,0.933298323558,0.282075944585,-0.569081846922,-1.19234946996,2.99678398951
do_nothing,-0.840229229096,-1.23562784095,0.0472842687372,-1.61875863991,-0.587736694846,-1.91801959234,-1.40506099621,-2.75285431879,-1.53583162736,-0.760815940686,0.152010567018,-2.52645277184,-1.56201372131,-30.4577921062
do_nothing,-1.78481292987,-1.99049144969,-0.682462919351,-1.4232772095,-0.827795662282,-2.62292080801,-2.14297937554,-3.69004078049,-1.29381029158,-2.71767455501,-0.158168945241,-4.62990787749,-2.03657725407,-63.0914439913
do_nothing,-2.75503027485,-2.74130557388,-1.52024440559,-1.19459765375,-1.08962158441,-3.31116764738,-2.94794094761,-4.62492600024,-1.01168571696,-4.70592606277,-0.574332673749,-6.62629254632,-2.53870247286,-91.0164139717
do_nothing,-3.61020089726,-3.35975813971,-2.35570954582,-0.933830496759,-1.28134025829,-3.87577260658,-3.66096707414,-5.39392095064,-0.693666034813,-6.47792370306,-1.00809696348,-8.2572980728,-2.9785621366,-110.837066127
do_nothing,-4.21370234209,-3.72701272195,-3.07071471798,-0.642107784458,-1.32196079502,-4.21434124985,-4.12361224996,-5.83638601845,-0.345344209839,-7.79834330009,-1.36881181711,-9.29092346645,-3.26483222753,-120.079837818
do_nothing,-4.44967797716,-3.74889944907,-3.55354521905,-0.321865485378,-1.15368693993,-4.24142626347,-4.20044503046,-5.81731757122,0.0255003689526,-8.47159817149,-1.57548104209,-9.55018327432,-3.316023776,-117.505232614
do_nothing,-4.2378248219,-3.36822735474,-3.71288373649,0.0220338304653,-0.750714095507,-3.89930002754,-3.79890077707,-5.24740725956,0.408360916831,-8.36500628436,-1.56720018841,-8.93566379568,-3.07097768631,-103.261945785
do_nothing,-3.5445785434,-2.57287165771,-3.48988738604,0.381556870986,-0.123438418918,-3.16601851106,-2.88397493799,-4.09783725545,0.789867184268,-7.42517987613,-1.31092289194,-7.43930568003,-2.49743791874,-78.8642607623
do_nothing,-2.38938726549,-1.39878936387,-2.866908814,0.745286294338,0.682358992352,-2.05992482777,-1.48587268718,-2.40783839095,1.15413761277,-5.68588623415,-0.805721308868,-5.14785898428,-1.59780340523,-46.9972389391
do_nothing,-0.845282581742,0.0723126113213,-1.87174412066,1.09880056439,1.59111865949,-0.640091055189,0.300396929771,-0.283951872901,1.4836274257,-3.26657710642,-0.0831435444946,-2.23568120705,-0.411420550878,-11.1767785033
do_nothing,0.966439282558,1.72035533308,-0.576775809417,1.42561106971,2.50704912322,0.997411419207,2.32350614448,2.1090209156,1.76040143083,-0.361795417729,0.796264356873,1.05222036807,0.98690539821,24.6896872833
do_nothing,2.88698436844,3.39848728772,0.907050047175,1.70852967216,3.32627845626,2.72712471028,4.39141454681,4.56435715793,1.96768997122,2.77736853877,1.74976733005,4.42490854089,2.49215492696,56.7837192727
do_nothing,4.73524687617,4.94766303022,2.44088072907,1.93127076572,3.9499832388,4.40504165244,6.29228009247,6.8551150936,2.09153543844,5.86778389411,2.68171633567,7.575174027,3.97771852534,81.8350502563
do_nothing,6.32590071281,6.21268238907,3.87217032491,2.080055403,4.29679591256,5.8816965933,7.81822723837,8.75862401942,2.12231298583,8.62217469961,3.49417866881,10.2108241943,5.3066964383,97.5007910307
do_nothing,7.48855282305,7.05805647899,5.05093732957,2.14498645202,4.31294163529,7.01631094055,8.78919062801,10.0808624946,2.05591649188,10.7775248663,4.09770289286,12.0842025365,6.34489158555,102.617742364
do_nothing,8.08597260991,7.38211530693,5.84628306889,2.12100226641,3.9788985798,7.69067001441,9.0740519756,10.6778654464,1.89443877171,12.121111712,4.42102952466,13.0168294709,6.97431024214,97.2986176747
do_nothing,8.02947435843,7.12797060178,6.16131555503,2.00828517279,3.31185797105,7.82139830578,8.60661456018,10.4716914838,1.64623834855,12.5115786923,4.41872064217,12.9166794263,7.10587843613,82.8642309896
do_nothing,7.28979156383,6.29027043258,5.94476255814,1.81208851505,2.36381303773,7.36940946975,7.39456977701,9.45916606015,1.32536483071,11.8930025703,4.07594858744,11.7864809687,6.69008767835,61.6255321415
do_nothing,5.902218166,4.91709381542,5.19789613351,1.54203740622,1.21565453624,6.34552996901,5.52042673898,7.71250144399,0.950399684883,10.3006447921,3.41002037459,9.7224359608,5.72440955053,36.5488061856
do_nothing,3.96535894371,3.10679333995,3.97589309944,1.21103851429,-0.0318759816398,4.81161684032,3.13429969063,5.37186516474,0.542846752046,7.85792157916,2.4685793438,6.90378120693,4.25656293231,10.8518128271
do_nothing,1.63347331744,1.0000601438,2.38336684488,0.833989857859,-1.26918239964,2.87688738978,0.439369566243,2.63090191074,0.125266027306,4.76499521909,1.32477770862,3.5745476322,2.38306705175,-12.4137229997
do_nothing,-0.896950741988,-1.23208123283,0.56445665141,0.426503520962,-2.389393779,0.689620565527,-2.32835098975,-0.283004127554,-0.280623513593,1.28019464318,0.0700158954079,0.0196118587954,0.242943180201,-30.7379148036
do_nothing,-3.40515896168,-3.40327518513,-1.3115229007,0.00383886457937,-3.29916887968,-1.57516117757,-4.92370634579,-3.13139936169,-0.655645524,-2.30385935863,-1.19493198803,-3.46238492574,-1.99309811937,-42.438995206
do_nothing,-5.66691472575,-5.32849199735,-3.06735921519,-0.419806070473,-3.92754206178,-3.73100583314,-7.11694890966,-5.68779452588,-0.984476619477,-5.68707962303,-2.36946095269,-6.58649001871,-4.13717303637,-46.8260360018
do_nothing,-7.47607585495,-6.8408428495,-4.53628733756,-0.831573108019,-4.23193677793,-5.59697904937,-8.71651012029,-7.75856630517,-1.25642747376,-8.58911122618,-3.36237816172,-9.10661106688,-6.00120731244,-44.2220214094
do_nothing,-8.66482103355,-7.80702919366,-5.57940738104,-1.2198092227,-4.20086748541,-7.01465741869,-9.58759368493,-9.19959512453,-1.46563290272,-10.7743438247,-4.09995482942,-10.8361224283,-7.41482149999,-35.8507170947
do_nothing,-9.12048290913,-8.14000474918,-6.10026320114,-1.57362129069,-3.85327340701,-7.86350083656,-9.6646975634,-9.92710264093,-1.61067260202,-12.0724382354,-4.5320567993,-11.6621936734,-8.24236707307,-23.6091409944
do_nothing,-8.79725263112,-7.80765252336,-6.05497397343,-1.88229080815,-3.23482169245,-8.07302032159,-8.95687075934,-9.92189348561,-1.69372270951,-12.3925379089,-4.63584731129,-11.5528284748,-8.39734614748,-9.76213710843
do_nothing,-7.72150804814,-6.83661004972,-5.45679523139,-2.1347559962,-2.41183499889,-7.6304074821,-7.54532166983,-9.22699326012,-1.71940053316,-11.7299664367,-4.41681524302,-10.5563501667,-7.85261830053,3.39533753198
do_nothing,-5.99013864951,-5.31078963786,-4.37459892272,-2.31936694328,-1.46370545804,-6.58269366156,-5.57382280483,-7.93940941707,-1.69350169146,-10.1649399495,-3.90715019787,-8.79378743341,-6.645149877,13.8601578509
do_nothing,-3.76193411994,-3.36460576448,-2.92543357722,-2.42407751629,-0.474737481505,-5.03302861318,-3.23310983838,-6.19733710625,-1.62183541013,-7.85357803092,-3.16173599347,-6.44523276583,-4.87456789122,20.1834821076
do_nothing,-1.24280116828,-1.1714019463,-1.26197935763,-2.43716103315,0.473681380832,-3.13126232533,-0.741070815325,-4.16452543872,-1.50933919863,-5.01220784237,-2.25224408461,-3.73171743569,-2.69539605487,21.640240193
do_nothing,1.33379550111,1.07197598419,0.443725699768,-2.34843663592,1.30982981772,-1.05961938935,1.6790959822,-2.01367825578,-1.35960259107,-1.89655854257,-1.25996155323,-0.894440002133,-0.303512601663,18.2867160195
do_nothing,3.72927277231,3.16312566142,2.01850607305,-2.1508859468,1.97679052411,0.98519291685,3.82044302643,0.0893127264589,-1.17485908199,1.22211670615,-0.268074390237,1.82670826796,2.08199309174,10.903872631
do_nothing,5.72303936595,4.91293656825,3.30622875607,-1.84244301579,2.43569817341,2.81166859302,5.51136017658,1.99878538065,-0.956426619228,4.08171332079,0.645857474995,4.2134484782,4.23984869216,0.84030054259
do_nothing,7.13397237491,6.16358066838,4.18397410862,-1.4276720783,2.66706792658,4.25294597522,6.63034258421,3.59928940761,-0.705502021062,6.45244215569,1.41654855784,6.08660031866,5.96842000262,-10.2177476802
do_nothing,7.83809473646,6.80390120257,4.57446641825,-0.919020909442,2.67038475923,5.18393165888,7.11512601551,4.81155974353,-0.424154845718,8.15638375427,1.99618524383,7.31944079328,7.10607182706,-20.5126720272
do_nothing,7.7806504625,6.78064050201,4.45346122164,-0.33736027608,2.46228187919,5.53421178932,6.96552220727,5.59442710378,-0.11633064348,9.0817103139,2.35775442282,7.84604500931,7.54789634513,-28.4781286184
do_nothing,6.98132611261,6.10429384097,3.85135482867,0.288407666595,2.07371179541,5.29526238945,6.23997397936,5.94307093908,0.211332400168,9.19039670811,2.49627239418,7.66417358146,7.25696046446,-32.9602519629
do_nothing,5.53205411642,4.84885935764,2.8489243094,0.922774912045,1.54651845875,4.5210596891,5.04650144953,5.88436642888,0.549044685211,8.51888289213,2.42788311763,6.83272549399,6.26876251304,-33.3675231723
do_nothing,3.58758688531,3.14533345577,1.56775002822,1.52604850737,0.929766863379,3.32190459085,3.52925840052,5.47027888355,0.883883755668,7.17182831353,2.18699058867,5.4641967894,4.68828868212,-29.7309938105
do_nothing,1.34977265657,1.16942315923,0.15644521732,2.05757950404,0.276098894296,1.85203426589,1.8523080524,4.77030810244,1.20033851258,5.30974912992,1.82176513528,3.71294881748,2.67984601718,-22.6703923028
do_nothing,-0.952883115299,-0.875450587665,-1.22574500094,2.47947868807,-0.361714391777,0.292310982463,0.182426603075,3.86389653917,1.48134744111,3.13188917076,1.38850353431,1.76037637438,0.450634182476,-13.2755023238
do_nothing,-3.0882930337,-2.77826619173,-2.42615590308,2.76039980027,-0.933940388138,-1.17013268742,-1.32726005367,2.83352165348,1.70972236828,0.856093213424,0.945416875036,-0.201736493502,-1.77028691805,-2.92409458336
do_nothing,-4.84414090508,-4.34166396098,-3.31485684654,2.87892569213,-1.39674586534,-2.36302655871,-2.55119442441,1.75893937063,1.86978701786,-1.30231161479,0.546460728357,-1.98828397569,-3.75545345793,6.93403462613
do_nothing,-6.04911808757,-5.4022071109,-3.79803299563,2.82611018771,-1.71474343966,-3.14847623916,-3.40160050267,0.712780643305,1.94902131313,-3.15058330955,0.235806450673,-3.43693760105,-5.30240907161,14.9937676223
do_nothing,-6.58986399348,-5.84752737258,-3.82722311724,2.60680939487,-1.86319743829,-3.43860714107,-3.83419590254,-0.242528983836,1.93949382208,-4.53570078278,0.0434820509864,-4.42197969111,-6.25458456758,20.2803661543
do_nothing,-6.42187811337,-5.62850501229,-3.40352484263,2.23957259126,-1.82981756662,-3.20550467126,-3.84912623327,-1.05672279671,1.83888738772,-5.35702918489,-0.0174077009129,-4.8647596942,-6.5174173342,22.2784065115
do_nothing,-5.57330219182,-4.76510445751,-2.57644644799,1.75503792363,-1.61601315708,-2.48425722915,-3.48736025921,-1.6927970429,1.65097370195,-5.57345907701,0.0483712445038,-4.73992912187,-6.06798881447,20.9876697651
do_nothing,-4.14122068967,-3.34512242599,-1.43767059652,1.19296901754,-1.23743500433,-1.36870284179,-2.82324094995,-2.12754023452,1.38546411385,-5.20453668609,0.2191401816,-4.07694452745,-4.95715803716,16.9011385798
do_nothing,-2.28091520754,-1.51584141478,-0.110534976009,0.59824904889,-0.723614836049,-0.000334562001568,-1.9542401151,-2.35168890336,1.05724602598,-4.32570554837,0.459056915314,-2.95670810797,-3.30398238434,10.9118556568
do_nothing,-0.189249018979,0.530660593947,1.26353083488,0.0162932628735,-0.116538216424,1.44836855727,-0.989181927709,-2.36979513622,0.685095028563,-3.05835166989,0.722365581209,-1.50361679901,-1.28305123532,4.16545270954
do_nothing,1.91602928225,2.57709712073,2.5400879797,-0.511572003626,0.531939197794,2.79424866147,-0.036268927715,-2.19976608178,0.290020882663,-1.55582817938,0.958707316804,0.126316478269,0.893880722745,-2.11775219766
do_nothing,3.81885569967,4.40345504917,3.58665655042,-0.952199899677,1.16380383948,3.86503491161,0.807834111286,-1.87193480336,-0.106549050775,0.0130148398311,1.11894559456,1.76025380019,2.99997142791,-6.82397444839
do_nothing,5.32690882607,5.81002237894,4.29600665654,-1.28367890339,1.71954817106,4.51962834927,1.46680921557,-1.4274725242,-0.484528634356,1.48108502102,1.16090703162,3.22494116704,4.816714462,-9.104324929
do_nothing,6.29085136272,6.63851740189,4.59644619822,-1.49697819245,2.14345289816,4.66471216286,1.89064078447,-0.915970344479,-0.826667871325,2.69936983541,1.05444493196,4.36326505061,6.15622868262,-8.48887984043
do_nothing,6.61878066082,6.78904722001,4.45814841138,-1.59598817751,2.3890151428,4.26573026208,2.05833135981,-0.392105594638,-1.11962029895,3.55077411249,0.785298755982,5.04943552873,6.88009678912,-4.94265203126
do_nothing,6.28445494193,6.23104940018,3.89501779879,-1.59597193953,2.4239557826,3.35095237236,1.97736535682,0.0885486997527,-1.35448361398,3.96023377542,0.357342122521,5.20136225772,6.91284577475,1.14113193861
do_nothing,5.328552458,5.0070059047,2.96208131042,-1.52065359013,2.23421086291,2.00817562651,1.68025517423,0.47433836972,-1.52679080569,3.90028896907,-0.207026835964,4.78901484106,6.24877122138,9.00573201907
do_nothing,3.85298259846,3.22849419954,1.74885799973,-1.39835093334,1.82636304653,0.374498354179,1.21878771713,0.722561388903,-1.63600639267,3.39178346193,-0.868412117762,3.83790843528,4.95154187578,17.6408570897
do_nothing,2.00901497405,1.06497031241,0.369555543718,-1.25768676436,1.22810114532,-1.37956832436,0.656783831301,0.804179388251,-1.6846491657,2.4998499725,-1.57372948293,2.4273007375,3.14679578376,25.919627439
do_nothing,-0.0193586515025,-1.2735309739,-1.04877278666,-1.12346750327,0.486497909466,-3.06971442951,0.0622740289453,0.7075999225,-1.67720952185,1.3257923832,-2.26098506388,0.683187858567,1.00866749863,32.7418698225
do_nothing,-2.03493539718,-3.55793242525,-2.37882632595,-1.01329142491,-0.335854280762,-4.5188047082,-0.500020799752,0.440944527091,-1.61904953739,-0.0041577046247,-2.86506090259,-1.23330440906,-1.25821098932,37.1639709181
do_nothing,-3.84753228245,-5.56358411801,-3.50511784977,-0.935344592501,-1.16654502187,-5.57671095715,-0.975125442536,0.0323368370881,-1.51546492347,-1.35198285191,-3.32394444785,-3.14107272578,-3.43927616617,38.4993306302
do_nothing,-5.29277078197,-7.09316321732,-4.33433112471,-0.887674796318,-1.93033536964,-6.13667606915,-1.32257148767,-0.47204773906,-1.37105186386,-2.58157752582,-3.58479537271,-4.85629997041,-5.33101342513,36.3793712947
do_nothing,-6.24747637783,-7.99657822367,-4.80304858713,-0.859025499754,-2.55669718573,-6.1463410672,-1.51912782504,-1.01215815565,-1.18946442025,-3.57168074969,-3.60926057245,-6.2101642792,-6.76024136737,30.7719573038
do_nothing,-6.64019190755,-8.1857980219,-4.88224185971,-0.831092051971,-2.98706117543,-5.61224839179,-1.55940018754,-1.52015824017,-0.973578791347,-4.22686955647,-3.37752425589,-7.06525712567,-7.59984951026,21.9607524981
do_nothing,-6.45589458177,-7.64309862632,-4.57827799443,-0.781862082083,-3.18093331291,-4.59745171636,-1.4544440765,-1.92783692911,-0.726010041119,-4.48568765567,-2.89070586936,-7.32908078326,-7.77957821863,10.4943918859
do_nothing,-5.73467895288,-6.42195253678,-3.93055483642,-0.689549305499,-3.12014885507,-3.21270951172,-1.22874290432,-2.17451967452,-0.449865868921,-4.32530205727,-2.17138035234,-6.96327131264,-7.29099124244,-2.88243595225
do_nothing,-4.56484171778,-4.64059219165,-3.00620229047,-0.536546575368,-2.81074067519,-1.60250883543,-0.916053170277,-2.21453525871,-0.149579937808,-3.76243264182,-1.26217568965,-5.98761226461,-6.18640855254,-17.3031967791
do_nothing,-3.0714009784,-2.46906779871,-1.89254208987,-0.312821772166,-2.28217941075,0.0722387238924,-0.554698698536,-2.02328674636,0.168349382152,-2.85065007294,-0.222583284263,-4.47842432518,-4.57217218482,-31.8479426432
do_nothing,-1.40153586517,-0.111302150709,-0.688166191298,-0.0182594139195,-1.58406109946,1.65263752433,-0.182902990472,-1.60109975007,0.494877736078,-1.67445413551,0.875720566807,-2.56148306069,-2.59714882217,-45.5985485069
do_nothing,0.291305085192,2.21585373917,0.506436458278,0.336399537318,-0.780631611542,2.99912886612,0.165312253546,-0.974265150797,0.818316390634,-0.34080234155,1.95461411844,-0.400170775331,-0.437780872631,-57.678040684
do_nothing,1.86282955262,4.30429225386,1.59780182588,0.73016855412,0.0561959493958,4.0056584172,0.463250867371,-0.193028579184,1.12468417149,1.03105941364,2.93581706307,1.8199498436,1.71874910176,-67.2760440718
do_nothing,3.19122485467,5.97476499346,2.50717028906,1.13390655652,0.85449105284,4.6091280495,0.693430650153,0.673337353231,1.39850748105,2.32051437026,3.7471760849,3.90859469459,3.69159057969,-73.6661415859
do_nothing,4.18708489072,7.09339919948,3.17631070584,1.5136095127,1.54970785543,4.79322441863,0.848149594374,1.54386117847,1.62399526977,3.41627678015,4.32841589715,5.6885081751,5.32196118452,-76.2229309806
do_nothing,4.79911931812,7.58302619535,3.57109664079,1.83445423336,2.09096874549,4.58646298463,0.928809057656,2.33475875958,1.78645450483,4.22597752221,4.63588466226,7.01174849733,6.48619249096,-74.4463356432
do_nothing,5.01536399929,7.42834531208,3.68268013687,2.06504118885,2.44551559828,4.05502443794,0.944215347907,2.96881195901,1.87376919137,4.68386172403,4.64592276987,7.77292152598,7.10505801383,-67.9982741267
do_nothing,4.86015035617,6.67464153015,3.52633925543,2.18125716532,2.60086359742,3.29159429822,0.90818486126,3.38408663947,1.87774883507,4.75600673791,4.35661063422,7.91810783102,7.14875086903,-56.7525673519
do_nothing,4.38756259038,5.42047171697,3.13827876917,2.1692346777,2.56449802983,2.40186601061,0.836833625359,3.54090051322,1.79516310167,4.44268433685,3.78779168225,7.44868492855,6.63730020435,-40.853792091
do_nothing,3.67246192566,3.80535529845,2.57082329764,2.02701481153,2.36127471262,1.49058031769,0.745936860356,3.42616102333,1.62831687773,3.77772611446,2.9794082616,6.41977922439,5.63662448092,-20.7757427132
do_nothing,2.80035030361,1.99398503971,1.88654914661,1.76470453921,2.02897559161,0.648929579547,0.648701193061,3.05452345492,1.38507859078,2.82499054428,1.98831926944,4.93363209998,4.25078266883,2.63364182804
do_nothing,1.85736833703,0.158766069123,1.15195143118,1.40313172142,1.61269301298,-0.0551292294244,0.554210066423,2.46622697044,1.07834601375,1.67225952426,0.883879484176,3.12867313267,2.61127594626,28.1356290564
do_nothing,0.921582424468,-1.53742633316,0.431238370262,0.971210249582,1.15883982798,-0.582587079586,0.466694323179,1.72189690259,0.725007531589,0.423097766549,-0.257354895258,1.16550750976,0.864455829268,54.1258386301
do_nothing,0.0564427636619,-2.95650513413,-0.219209100929,0.502403984075,0.709592789293,-0.92465372033,0.385659833075,0.894997053505,0.344522358346,-0.812623011186,-1.35737615104,-0.788697430982,-0.841798446451,78.7104986588
do_nothing,-0.693067854287,-3.99698898723,-0.755268006444,0.0307961412455,0.298474948102,-1.09975200825,0.30678769254,0.0629216773981,-0.0427088895958,-1.92871382431,-2.34249032642,-2.57582590128,-2.37096078166,99.8363421831
do_nothing,-1.30147168234,-4.60136757557,-1.14807281555,-0.412685952013,-0.0524137042167,-1.1469792665,0.223423860505,-0.702109241501,-0.416988239072,-2.8322918435,-3.14866755144,-4.06088123015,-3.60920690132,115.468192662
do_nothing,-1.76127487248,-4.75853091954,-1.38540278606,-0.803377802126,-0.333268641623,-1.11722573876,0.128405089133,-1.34117052094,-0.76078776469,-3.45216736492,-3.72608588854,-5.14317438599,-4.47430410168,123.799391156
do_nothing,-2.07945173535,-4.50132489223,-1.47142293503,-1.12491442848,-0.545592829097,-1.06339838368,0.0159336485585,-1.81472976834,-1.05987928962,-3.74520845268,-4.04254147324,-5.7636456078,-4.92134640768,123.472381785
do_nothing,-2.2727035051,-3.89980030148,-1.42488664204,-1.36996268297,-0.699652843871,-1.03123986539,-0.116782939701,-2.10596787174,-1.30401713534,-3.70005558564,-4.08548305613,-5.90776708439,-4.94492102238,113.781435009
do_nothing,-2.36234140905,-3.0511356272,-1.2760360132,-1.53961450868,-0.810895403601,-1.05206081522,-0.268371289337,-2.22095266996,-1.4871301871,-3.33778391195,-3.86253025791,-5.60395180467,-4.57760420289,94.8278111866
do_nothing,-2.36959894382,-2.06749631777,-1.06254176908,-1.64160748165,-0.895966798726,-1.13835145,-0.432785385093,-2.18573127585,-1.60704893608,-2.70938858015,-3.40044613241,-4.91786017256,-3.88500571687,67.6003225298
do_nothing,-2.31202385519,-1.06322573345,-0.824900574506,-1.68771171197,-0.969002036315,-1.28276398594,-0.599538604511,-2.04083033099,-1.66485619673,-1.89027700508,-2.74264953686,-3.943402555,-2.95788706419,33.9612799773
do_nothing,-2.20136670581,-0.142741313051,-0.601748976419,-1.69074099104,-1.03877228597,-1.46043298436,-0.754660577764,-1.83400738012,-1.66399775025,-0.97226227023,-1.94546421913,-2.79154156076,-1.90214500163,-3.47143077846
do_nothing,-2.04310950523,0.609652311594,-0.425555877892,-1.66169349894,-1.1071132601,-1.63410436141,-0.882268880647,-1.6123311752,-1.60931456117,-0.0538314329111,-1.07340178773,-1.57817374096,-0.827654409496,-41.542186983
do_nothing,-1.83750708551,1.1370968757,-0.319118414885,-1.60749669544,-1.16883122667,-1.7611461611,-0.966563543863,-1.41475113516,-1.50615820254,0.770322189815,-0.193856943585,-0.412402691933,0.162918417033,-76.8575038542
do_nothing,-1.58178492842,1.41407694488,-0.293210566587,-1.52972720388,-1.21303380227,-1.80126953114,-0.993993741683,-1.2662346519,-1.35972632493,1.41939264228,0.628352048028,0.613593746793,0.984205877613,-106.137431202
do_nothing,-1.27298053599,1.44668439558,-0.345624257498,-1.4245155312,-1.22559881905,-1.72372687233,-0.955317358026,-1.17431663515,-1.17470975807,1.83506615653,1.3361431696,1.43213320715,1.57610194989,-126.57853279
do_nothing,-0.910849197838,1.26944006425,-0.46170683987,-1.28365192375,-1.19231263129,-1.5128784224,-0.84727861007,-1.12855130391,-0.955284517737,1.98764466685,1.88459238137,2.00439456574,1.9087718656,-136.183894901
do_nothing,-0.500282747913,0.939203685531,-0.616347617999,-1.09671305458,-1.10210686398,-1.17130393624,-0.673666128599,-1.10293146572,-0.70541986362,1.8789400882,2.24423423804,2.32132233039,1.98418298121,-134.016794335
do_nothing,-0.0528011521655,0.526972962197,-0.777213098657,-0.853859625333,-0.949814701374,-0.720035144052,-0.44557995681,-1.0609052337,-0.429417343048,1.54153822613,2.40295091654,2.40120698356,1.83400185175,-120.341846586
do_nothing,0.413150641492,0.108549000181,-0.908891198393,-0.548838440169,-0.737954346368,-0.195934552614,-0.180823892618,-0.962235991148,-0.132554178277,1.03444509494,2.36628291986,2.28444103365,1.51410701184,-96.6300064458
do_nothing,0.873164121447,-0.244882652084,-0.977494209263,-0.181677285724,-0.477213449038,0.353321500056,0.0975598298037,-0.770673273426,0.178316191445,0.435562683308,2.15613965643,2.02624161982,1.09636125923,-65.4202575136
do_nothing,1.29894766066,-0.475239585494,-0.955202895962,0.239405393957,-0.185526919781,0.875846667328,0.36349409228,-0.461270378385,0.494349990367,-0.168157430946,1.80804090155,1.68832028241,0.658624125239,-30.0491246052
do_nothing,1.66121574909,-0.544213853546,-0.824220258135,0.697245755204,0.114123661379,1.32270686961,0.590596134986,-0.0262189030421,0.804601811725,-0.691718863224,1.36716536373,1.33055089684,0.274220174218,5.72316535512
do_nothing,1.93296134637,-0.437454716283,-0.579648727675,1.16633706714,0.396845683825,1.65455360829,0.755146667679,0.521732265933,1.09628601309,-1.06289623203,0.883604244588,1.00363341206,0.00217611876607,38.1464273084
do_nothing,2.09263984307,-0.165862933564,-0.230907974144,1.61478978694,0.639402839266,1.84674699732,0.838968416362,1.14887198031,1.35542191684,-1.23149424209,0.407301269514,0.743583503366,-0.120521662714,63.921308636
do_nothing,2.12681946158,0.236096832197,0.198535853117,2.00744280581,0.823631718404,1.89223818614,0.831873916429,1.80330941945,1.56781197274,-1.17583698837,-0.0168049617871,0.568618787423,-0.0836200346916,80.5915623456
do_nothing,2.03194302323,0.714846655333,0.673169386275,2.30973899211,0.939140134694,1.80183544503,0.733370284052,2.42066087986,1.720246359,-0.905593362405,-0.352941344101,0.478693165254,0.0954219981325,86.8368575204
do_nothing,1.81498234534,1.20440045492,1.14899519279,2.49185119096,0.984826762814,1.60188061334,0.553373282693,2.93193256485,1.8017866325,-0.460493950315,-0.577544317417,0.457590845387,0.374364798711,82.6267476411
do_nothing,1.49292578899,1.63457463138,1.57829811772,2.53249099312,0.968944747661,1.32975126794,0.31177928928,3.27255861603,1.80496129175,0.0949784419558,-0.680892593231,0.477171335918,0.692710764309,69.2135788792
do_nothing,1.09119650708,1.93978752855,1.91509103142,2.42186081002,0.907662601892,1.0279207384,0.0368631063519,3.39136132449,1.72671062228,0.680305408962,-0.667192510003,0.503094238603,0.981001763912,48.9627109789
do_nothing,0.641230792487,2.06745365899,2.12060835689,2.16331698981,0.822317911544,0.737506963697,-0.237399718958,3.25817735375,1.56894645885,1.20996204081,-0.553155762088,0.501179103631,1.17166443585,25.039741712
do_nothing,0.177535288941,1.9850022512,2.16817995318,1.77348310801,0.735774915994,0.492294862658,-0.474859017095,2.86904562805,1.33864048895,1.60531740985,-0.365280947351,0.443491378566,1.20991333054,0.993599121981
do_nothing,-0.265420629817,1.68467612443,2.04686296048,1.28076383334,0.668451507986,0.314120520159,-0.641225833835,2.24816080444,1.04741548712,1.80580109631,-0.136196858137,0.31329800573,1.06315062968,-19.7112547699
do_nothing,-0.656135729096,1.1854882791,1.76333408155,0.722430540854,0.634649349195,0.210276912922,-0.70819788445,1.44622059944,0.710678589579,1.77777890939,0.0994718560096,0.108198807717,0.727442446468,-34.1527301297
do_nothing,-0.968548586062,0.532012005491,1.34173816858,0.140648169091,0.639790493303,0.17327752386,-0.65721466418,0.535278836757,0.346395032815,1.5198449226,0.309210496689,-0.159007702012,0.229997894937,-40.3388111819
