label,COUNTER,INTERPOLATED,AF3,F7,F3,FC5,T7,P7,O1,O2,P8,T8,FC6,F4,F8,AF4,RAW_CQ,GYROX,GYROY,MARKER,SYNC,TIME_STAMP_s,TIME_STAMP_ms,CQ_AF3,CQ_F7,CQ_F3,CQ_FC5,CQ_T7,CQ_P7,CQ_O1,CQ_O2,CQ_P8,CQ_T8,CQ_FC6,CQ_F4,CQ_F8,CQ_AF4,CQ_CMS,CQ_DRL
off_to_on,5.16887514487,4.81207048914,2.60357606496,-0.325852107921,6.21640100539,9.09921149293,14.2457291344,19.3245813087,-0.768731877282,3.24909004429,70.871467188,15.9117753713,12.4872324352,-101.381188456
off_to_on,2.65827724753,3.66366983849,3.13696414034,-0.609998816734,2.56098946969,4.90564901512,10.5774925721,16.7511203895,-0.818415059228,2.54756223445,59.1785388034,12.7309257593,10.1604292799,-89.5452019712
off_to_on,-0.858791356356,1.07636786761,2.70241391751,-0.746945529348,-2.13993529276,-1.09850980818,3.11755174981,8.55866877151,-0.71314869441,0.89201429073,29.8071929487,5.10869549056,4.32356913203,-57.1441206661
off_to_on,-4.00788454808,-1.97798098663,1.52465484877,-0.722818129389,-6.08506091227,-6.59260512368,-5.1017632613,-2.35983448712,-0.466812888405,-1.10069211432,-9.48822709735,-4.1333511512,-2.80554856609,-13.8613241629
off_to_on,-5.52739404367,-4.34267639087,0.0451882693673,-0.564097127835,-7.7118942947,-9.4251978836,-10.8116972869,-12.2059426746,-0.124732501899,-2.68713158508,-47.7139060241,-11.6132451788,-8.57444786718,28.3558408793
off_to_on,-4.73679158707,-5.0881063061,-1.23482043152,-0.322482789617,-6.2629682928,-8.39396284446,-11.687167901,-17.5588446879,0.245641891287,-3.2600302978,-73.783250165,-14.5886018267,-10.8439691947,58.882200724
off_to_on,-1.80661104769,-3.85038232999,-1.92351125282,-0.0554806768599,-2.08036854027,-3.70112988226,-7.19933653168,-16.5361748391,0.56980535011,-2.56673046915,-79.7960823764,-11.9346060513,-8.75583607366,71.3977654492
off_to_on,2.27256118934,-0.976076024944,-1.86163224559,0.189822785985,3.47951428864,3.08201901019,1.16215491462,-9.43816616686,0.783083963191,-0.805985010535,-63.4571299563,-4.5525364326,-3.04602701596,65.3400751634
off_to_on,6.01931549432,2.5810504417,-1.16012383553,0.384764233703,8.48869628382,9.53799451735,10.3820480312,1.34518430185,0.844940184357,1.43245089863,-28.8798773017,4.93766616312,4.20926994694,45.4378483605
off_to_on,7.97925484339,5.57913022671,-0.142810160081,0.51790718087,11.1012222122,13.2384868629,16.9629220619,12.1342571368,0.747154525449,3.36620056786,14.4990052693,13.1139474623,10.3269819385,19.599746576
off_to_on,7.25193578188,6.91502594224,0.78176429978,0.587583591041,10.1963144106,12.6054243213,18.1612626742,19.1974001923,0.514170465826,4.28901288968,54.5964994959,16.9557145206,12.9713883139,-4.01818501768
off_to_on,3.84007875722,6.01210986743,1.27145080741,0.593343914596,5.79050415578,7.49780264147,12.9882436574,20.0082151937,0.1960748394,3.81733832715,80.1647380237,14.9116808951,10.9925025524,-19.6989695867
off_to_on,-1.30701882482,3.03435882603,1.17030937794,0.531268619353,-0.92525147607,-0.684254331469,2.62549516666,14.0995453685,-0.14346487988,2.02948066269,84.0404089175,7.45829909402,4.85289455495,-25.6819135822
off_to_on,-6.57904597912,-1.14888466909,0.555822343736,0.395696957973,-7.94137801132,-9.42223363554,-9.89473610693,3.22951400499,-0.440989207547,-0.551031123973,65.1932280615,-3.04460622486,-3.50739408819,-24.060338815
off_to_on,-10.2279343157,-5.23782720597,-0.300592593104,0.186493573752,-13.0639051957,-15.8920571752,-20.6446634621,-9.19153281774,-0.64548522855,-3.12269056328,28.9702934097,-13.1478696384,-11.320750458,-19.2313708137
off_to_on,-10.9536459441,-7.92516249455,-1.0424576955,-0.0819858045619,-14.6189959412,-17.8958857704,-26.07476886,-19.2162165451,-0.726702056516,-4.86730106234,-14.5178027644,-19.4784807237,-15.9303044661,-15.606759823
off_to_on,-8.35356755045,-8.32503437139,-1.36484387598,-0.375288081118,-11.9964242584,-14.6001065792,-24.1823940239,-23.6422164424,-0.678508108798,-5.21718097302,-53.3626069226,-19.8734837488,-15.6919968065,-15.5468474843
off_to_on,-3.08138386102,-6.26446689112,-1.12828811474,-0.640637956069,-5.85490172324,-6.83171655581,-15.1879546729,-21.0367751123,-0.517538654031,-4.03911378709,-77.2708732734,-14.0965067486,-10.5318599193,-18.3568474326
off_to_on,3.34087668304,-2.34099729917,-0.409138322137,-0.817238938524,2.07535568667,3.16593042848,-1.49816106663,-12.1729284657,-0.278246804488,-1.67515746035,-80.4069979893,-3.90154767299,-1.97285263991,-20.7366287122
off_to_on,8.99702307025,2.27041201053,0.530575266175,-0.85268488233,9.52535182261,12.4360895129,13.0266614275,0.251361491101,-0.00579183374994,1.17060533201,-62.8470257293,7.56346501936,7.36980790329,-18.4770693594
off_to_on,12.1807874053,6.1942987469,1.34117823322,-0.720254881676,14.3806214154,18.2371172709,24.2567203441,12.5008270103,0.25191019097,3.6588445663,-30.2711779562,16.7967646297,14.6452123418,-8.6805591492
off_to_on,11.9314425885,8.28889566706,1.71448886327,-0.430936548631,15.3129762089,18.8924229749,29.0428838519,20.9918320323,0.451934616884,5.07840770396,7.9341169027,21.0672096491,17.6814342987,8.44742110123
off_to_on,8.32771068726,7.99515576991,1.49678641753,-0.0353856927682,12.154762861,14.2895559405,26.1369602207,23.3899901672,0.563079262893,5.06010808484,41.5231417598,19.2489172438,15.6542343741,29.0405638961
off_to_on,2.44924084235,5.49030759411,0.74509528385,0.385781761876,5.90842979706,5.87728873183,16.5055128001,19.2695845441,0.570818850412,3.67432032423,62.292373676,12.1048167172,9.29921313122,46.5773554225
off_to_on,-3.97434184118,1.60347781088,-0.292606120862,0.741103170386,-1.59615050297,-3.82297701771,2.96469074474,10.1458279616,0.479691523361,1.38681090886,66.1772758539,1.95417671981,0.617866477289,54.1562070596
off_to_on,-9.10589468554,-2.46962677112,-1.26506034107,0.951362961285,-8.27406149779,-12.0188450492,-10.7186113724,-1.0966445146,0.312407965899,-1.1053253986,53.984071787,-8.13272559296,-7.80169659858,47.2152451075
off_to_on,-11.5561625307,-5.55207849363,-1.84108069896,0.969887465138,-12.3997313567,-16.4954243189,-20.9546187144,-11.1622338118,0.105365971896,-3.09815127023,30.6513723949,-15.3218103031,-13.6078662492,25.6434582278
off_to_on,-10.7768204314,-6.84266806145,-1.82439532119,0.794147417835,-13.0741038982,-16.2421520342,-25.3308533716,-17.3617582014,-0.098988758684,-4.09065065137,3.39509015189,-17.8529955361,-15.3784596943,-5.59700493862
off_to_on,-7.17629152234,-6.13228621291,-1.219822607,0.465534318356,-10.4140496674,-11.6746658109,-23.1932013325,-18.3638929287,-0.261553326317,-3.91480209552,-20.5946056759,-15.4715199667,-12.971106685,-37.6954609169
off_to_on,-1.93828309021,-3.82009428563,-0.228745217618,0.0578134827642,-5.42933858721,-4.40854283783,-15.6694601532,-14.4651059556,-0.35549055213,-2.75186679418,-36.1559840926,-9.35100124717,-7.44738511207,-60.7385474207
off_to_on,3.38113194524,-0.73885555196,0.822761744532,-0.341967569463,0.34817746605,3.31283071434,-5.18102120369,-7.33447710344,-0.372192447729,-1.04048487992,-41.2763537359,-1.58328632713,-0.633876092069,-67.0605077968
off_to_on,7.33691894462,2.13979916824,1.59636957618,-0.654452117731,5.34810435203,9.33159656404,5.3590935939,0.637367542977,-0.322332254709,0.683384084438,-37.090101962,5.55424805445,5.503388962,-54.0091499143
off_to_on,9.00317118495,4.01577101813,1.854487184,-0.825152881777,8.4014649246,12.1968579625,13.3892737144,7.13995907438,-0.231384499739,1.95664136426,-26.9043375344,10.2923721701,9.45115400917,-25.0986449633
off_to_on,8.1869251242,4.48572515951,1.53505773721,-0.833834896598,9.01105211545,11.5105774213,17.3310554455,10.6251000146,-0.130758218398,2.51439393591,-14.7078806031,11.8068015992,10.523185308,10.9338311305
off_to_on,5.40109904608,3.61917142548,0.764192603636,-0.69474172513,7.39303098831,7.91915954379,16.8549102514,10.6658443524,-0.0472865392777,2.33661672214,-3.74246339363,10.2940082434,8.92628209652,42.9097116293
off_to_on,1.63089884759,1.87649203842,-0.194787001031,-0.448963023232,4.30853582701,2.79268247793,12.7594931824,7.91648796082,0.00538764842486,1.61238235909,4.37324823977,6.71821792495,5.54236941796,60.9026647815
off_to_on,-2.01010807984,-0.0868823722185,-1.03530541852,-0.152097989471,0.766283450919,-2.27125790668,6.56524168211,3.73750418411,0.0304047994446,0.645662281699,9.72969996481,2.36941909318,1.54316266949,59.5687351948
off_to_on,-4.61411792447,-1.65280221756,-1.5101193436,0.13900617317,-2.29463185887,-5.94215102367,-0.00654309100464,-0.347470220843,0.044749890322,-0.257275962487,13.502767387,-1.58446094721,-2.00674979986,39.9412614981
off_to_on,-5.70148115347,-2.42831469265,-1.50711907015,0.377220239849,-4.24350886214,-7.49556491226,-5.49506538218,-3.16052039458,0.0706046673691,-0.878815223171,16.9632453596,-4.39732060406,-4.42410444301,9.04581002996
off_to_on,-5.27912449594,-2.33274118773,-1.07433021736,0.531897623707,-4.86120972196,-6.91372704942,-8.98257290187,-4.18021846098,0.124052447413,-1.13322942184,20.5777607171,-5.82472973711,-5.49130142937,-22.544212414
off_to_on,-3.74353433368,-1.5688167894,-0.389272060166,0.591020807204,-4.30377148406,-4.75476046052,-10.1626268825,-3.580237421,0.205475531665,-1.05739006882,23.5924775467,-6.0088962234,-5.36569698682,-44.3605921311
off_to_on,-1.68651330723,-0.504740276528,0.312458398017,0.55947998733,-2.96797287306,-1.8729871227,-9.23668931378,-2.02626189719,0.295721440581,-0.763813707237,24.2750949818,-5.26579800386,-4.39215665797,-49.6203766549
off_to_on,0.315341960181,0.478423707224,0.82129785283,0.45483281481,-1.3236718249,0.890935919988,-6.72645334405,-0.341949308818,0.360261230018,-0.381934987465,20.712777419,-3.89273440662,-2.9196066766,-37.4766687462
off_to_on,1.85524354574,1.11475549,1.02008005744,0.301953694659,0.225693100594,2.94180468415,-3.29053564644,0.815160904329,0.36067829988,-0.0127496679016,11.8311920007,-2.08207076894,-1.19966027753,-13.1581418781
off_to_on,2.7556553998,1.31505026018,0.910891893243,0.127716703567,1.41746844301,4.02283565613,0.400030760671,1.15197251677,0.269910450358,0.288675637214,-1.79931830463,0.0397099786289,0.607714026395,14.0311424298
off_to_on,3.03526361292,1.15091388747,0.596597026722,-0.0434850467521,2.13489477245,4.17124077342,3.72127101499,0.761145853873,0.0858223085314,0.503314836198,-17.7336329412,2.29701881136,2.3541040903,34.1181413474
off_to_on,2.82026803451,0.781649179702,0.228162598333,-0.192850648205,2.36621964248,3.58945091396,6.12256710104,-0.0105491061469,-0.162299535403,0.623959914212,-32.1476437424,4.36291024572,3.81695858991,40.043771185
off_to_on,2.25114782386,0.363950172561,-0.0593491060421,-0.308578846052,2.15322995215,2.50763207959,7.16307692432,-0.766628209963,-0.417702454174,0.634694418609,-40.9339773347,5.75164979352,4.6768465823,30.1398099179
off_to_on,1.42759831588,-0.0139849765428,-0.196779950018,-0.38546541961,1.55913217147,1.10141740655,6.58378931429,-1.24042458593,-0.610478194066,0.507957252024,-41.0366010915,5.9397292785,4.59111630757,8.62478912369
off_to_on,0.409188878253,-0.347950262962,-0.198685853072,-0.422935709001,0.667600428411,-0.508586176658,4.40514818701,-1.37630507933,-0.678382737855,0.222297114998,-31.5567658883,4.58114039812,3.34431297476,-16.037082614
off_to_on,-0.740433396364,-0.682108517359,-0.144403188944,-0.422217025295,-0.396281438061,-2.19382136494,1.00631405763,-1.29113647892,-0.587638379371,-0.208295823675,-14.2254620848,1.72654081761,1.00931415164,-34.3001112336
off_to_on,-1.89937921459,-1.04538959686,-0.132475263576,-0.383764469545,-1.44663026701,-3.74222016836,-2.87143472686,-1.15079153472,-0.346621568629,-0.710516206317,6.95171109871,-2.06229293473,-1.96477669596,-39.0673047372
off_to_on,-2.86151544321,-1.39566607928,-0.228655567277,-0.30616976674,-2.24350334514,-4.82775319543,-6.23858618801,-1.03326630013,-0.00723130069898,-1.15022142778,26.7876803984,-5.78119757245,-4.80166334638,-28.306493856
off_to_on,-3.36327027272,-1.60385957776,-0.429618407569,-0.187411578946,-2.53832022509,-5.06162118678,-8.08836210402,-0.852955006051,0.347433799179,-1.36167535685,40.4001858372,-8.2454606774,-6.59558257344,-5.81061114558
off_to_on,-3.1626659739,-1.49204364714,-0.657765075371,-0.028436938692,-2.1509109317,-4.12196473535,-7.69335905322,-0.389896043864,0.625927505117,-1.20248093695,44.6104069373,-8.47426564113,-6.60622243911,20.1655059704
off_to_on,-2.14388373136,-0.914614295917,-0.789907155705,0.162062076343,-1.05265008524,-1.91779536237,-4.87705881311,0.582760677484,0.754992101183,-0.616200191448,38.8041708257,-6.06756605343,-4.55066231108,39.8943348844
off_to_on,-0.404641193458,0.149951406709,-0.709038723312,0.363752720936,0.579005858253,1.28222523521,-0.15992085922,2.12853407084,0.701420613813,0.322113455255,24.9917793039,-1.43190884957,-0.779255977183,45.7124738816
off_to_on,1.71541030335,1.53826459063,-0.359014615472,0.544000402181,2.36457535383,4.82314998861,5.29244238013,4.01626741231,0.482149405749,1.39952375549,7.07576210017,4.24688361818,3.74697078354,34.835761924
off_to_on,3.68895906758,2.90587882681,0.21978255128,0.662111872495,3.7976001632,7.77562973509,9.93311847336,5.70123505025,0.159174402259,2.30807155801,-10.4008329328,9.30282160062,7.69461951052,10.4467718321
off_to_on,4.93271600758,3.80720502055,0.889174892971,0.678568206282,4.3784588958,9.17392505525,12.2535294962,6.45188262776,-0.179206338639,2.72972013431,-23.5918867111,12.082963799,9.75204227055,-19.3326835102
off_to_on,4.98185473036,3.83373547726,1.44934004848,0.567309648542,3.77171340271,8.31800870353,11.2443144425,5.59729379023,-0.444850007156,2.43973449551,-30.332671987,11.4827483174,9.05852614699,-44.2215758166
off_to_on,3.65337715016,2.7676852715,1.7016922177,0.327413008741,1.93866478988,5.04541646739,6.75763706266,2.81662493836,-0.575454447195,1.39529190223,-30.4806051612,7.34688389802,5.52609120661,-55.335826744
off_to_on,1.14275164972,0.696705360274,1.51768626199,-0.0101626311521,-0.801271616698,-0.123706826907,-0.350736641505,-1.63675282978,-0.551340503252,-0.222573237447,-25.5645178135,0.594754735949,-0.0616166225034,-48.2805699513
off_to_on,-1.98502659765,-1.95730619327,0.889799038389,-0.384235890207,-3.80953247654,-6.03421940424,-8.36327302291,-6.87428029393,-0.398265104079,-2.03317098575,-17.9417710692,-6.98597179925,-6.22103608188,-24.7117356764
off_to_on,-4.9182744505,-4.51742614293,-0.0537822682045,-0.714644774282,-6.26892258046,-11.1466515337,-15.1088813218,-11.5257009812,-0.175924729642,-3.54603797692,-9.82384122352,-13.2279423917,-11.1721561344,8.15858587307
off_to_on,-6.80874512231,-6.22631424001,-1.07756421228,-0.921139269751,-7.39617688189,-13.9376852317,-18.5396007237,-14.0884811275,0.0434434182646,-4.29480506787,-2.55041829336,-16.213529628,-13.3584124745,39.9257976937
off_to_on,-7.01378778854,-6.47012981987,-1.90294758702,-0.945110667435,-6.67255549983,-13.3451295257,-17.3224208816,-13.3842116285,0.198821515387,-3.97770757234,3.63266027529,-14.8561781479,-11.9267247495,60.4053368739
off_to_on,-5.30176223897,-4.98491668088,-2.28912227092,-0.767756984639,-4.02760116157,-9.12844406741,-11.2791862819,-8.98599062318,0.25852500864,-2.56256585645,9.25359060486,-9.25665829569,-7.01943355443,62.9372171351
off_to_on,-1.95790111767,-1.97813332925,-2.10589244937,-0.418705840577,0.0820854957158,-2.02949052385,-1.54045155362,-1.47440971217,0.226964705785,-0.321985522126,14.9392217775,-0.723779956613,0.215687751768,46.4917506272
off_to_on,2.24783802853,1.88086749971,-1.37590225376,0.0284039241376,4.7335124158,6.33284676139,9.64936140559,7.58100251688,0.138544054369,2.21677997777,20.7149436751,8.55147623233,7.90781868338,15.9180299871
off_to_on,6.23286335049,5.61039986636,-0.273018904441,0.473028122948,8.73634664217,13.8285199552,19.4465308896,15.9425472334,0.0417314353964,4.39866766868,25.6195461064,16.0784452158,13.9620791756,-19.6859329935
off_to_on,8.87676915484,8.17256586259,0.923087003781,0.813154320197,10.9305012947,18.3613548986,25.1253194632,21.2644120671,-0.0203644097839,5.61298518954,27.8443906179,19.7434077666,16.6361321921,-49.885288289
off_to_on,9.33036640394,8.76759629823,1.90304650611,0.971911083634,10.5104841896,18.4540184915,24.819521244,21.7502301081,-0.0256962686406,5.46494464445,25.3866454224,18.3936476618,15.0332303727,-66.1169404792
off_to_on,7.27571880333,7.08186188175,2.41256287779,0.917585850284,7.2890379371,13.710960841,18.0917412468,16.7238733948,0.0202172915958,3.89841228271,16.9824917356,12.1705811219,9.37433733312,-64.1660327534
off_to_on,3.06085828242,3.4132752358,2.32163139421,0.671158153831,1.81931206634,5.01872120956,6.16583099245,6.93826649892,0.0888031855997,1.23300672072,2.94623034103,2.50369983889,0.973263681679,-45.1795066542
off_to_on,-2.33897153527,-1.37072752547,1.65890295298,0.299232997391,-4.67512251017,-5.59436842262,-8.2652669819,-5.49157462738,0.141611188269,-1.899372547,-14.4569348328,-8.23243695361,-8.08081114084,-15.0028411876
off_to_on,-7.53798544926,-6.04098580583,0.602191650402,-0.105284717443,-10.565004067,-15.4274391962,-21.6386447889,-17.5456509921,0.146682369965,-4.70656186165,-31.3275610017,-17.3097121088,-15.4517925796,17.8258430169
off_to_on,-11.0899672049,-9.33008859753,-0.571361820527,-0.44876861661,-14.222487773,-21.8000116936,-30.400555921,-26.0493987294,0.0916745498113,-6.43987604366,-43.1150900064,-22.337185696,-19.1601985593,44.6957098408
off_to_on,-11.8860116349,-10.2850460172,-1.56087988187,-0.661016447721,-14.4713114263,-22.7916266164,-31.9530800055,-28.5288582877,-0.0111921226706,-6.59686963826,-45.9897075356,-21.879166311,-18.1071820845,59.3058010565
off_to_on,-9.4925365635,-8.54960423739,-2.1218771593,-0.711086809889,-10.9565669405,-17.8237004283,-25.4189830931,-23.9375854416,-0.12999050257,-5.06805597776,-38.156522238,-15.8472005943,-12.3844442673,59.1233744084
off_to_on,-4.32867074433,-4.49180962406,-2.12915925704,-0.610896191465,-4.3196044778,-7.90755994106,-12.0021885711,-13.0413043594,-0.225536504212,-2.18494996355,-20.6491984609,-5.5660104306,-3.2879610557,45.5990007499
off_to_on,2.38199992914,0.867196341192,-1.60609243987,-0.406658575735,3.89249084792,4.5361017549,5.18845705253,1.67204925008,-0.266361047023,1.3485879299,2.71120118203,6.51073103467,6.97445846517,23.2459944449
off_to_on,8.89196436256,6.11206054716,-0.713420147597,-0.161946138801,11.583207483,16.2656721903,21.8482897177,16.5638310967,-0.240301096088,4.62889777008,26.2391390442,17.3767136662,15.8167447317,-1.97257198099
off_to_on,13.3827627765,9.8141296911,0.298157021977,0.0616729343873,16.6506224459,24.0753017211,33.565909443,27.7684056217,-0.158289927431,6.78708557393,43.940568916,24.2118094861,20.9232038843,-24.3622927761
off_to_on,14.4747301508,10.9306291265,1.15788844812,0.220408175617,17.577493303,25.6922958739,37.0185306787,32.2312060943,-0.0491037500515,7.22448597555,51.2316484402,25.1084880741,20.8532212218,-39.8045809129
off_to_on,11.6505097239,9.10860638066,1.64803164387,0.296312377089,13.8985720308,20.4597627759,30.9456816326,28.575921422,0.0525734143085,5.7843953737,46.2810876241,19.6034811976,15.446914709,-46.3641944846
off_to_on,5.46193856539,4.80298785766,1.66040611914,0.296517848496,6.39792247566,9.59452722394,16.6091427157,17.5475354268,0.119791805843,2.80971389536,30.5476017978,8.86805822651,5.9186091688,-44.1909052696
off_to_on,-2.55716133576,-0.831605038369,1.22166662376,0.245476374337,-3.04211275819,-4.07844186616,-2.42809341234,1.885246037,0.14311129349,-0.934633409783,8.33866151677,-4.51449134403,-5.40209222348,-34.9363761564
off_to_on,-10.2686028569,-6.251419103,0.481206826415,0.17392946196,-11.9195604684,-16.8653395113,-21.1854708213,-14.3646250122,0.132579874138,-4.45870297096,-14.4695798078,-17.1546179396,-15.6333571215,-21.0078121904
off_to_on,-15.5071016527,-9.95287237299,-0.334232574431,0.108653399153,-17.7975396983,-25.2235073034,-34.5969039592,-26.9237985269,0.111216303398,-6.81362272001,-32.1442419805,-25.7121922438,-22.0770118685,-4.94055464983
off_to_on,-16.6998703453,-10.8995575133,-0.986223563549,0.0658975993808,-19.0028022508,-26.7752182142,-38.9298890937,-32.4535024677,0.102831575243,-7.35439711754,-40.7015544195,-27.7899043333,-22.9409366164,10.964695634
off_to_on,-13.347665994,-8.82296951626,-1.29217053349,0.0495254538142,-15.1300703654,-21.0162926723,-32.8816921367,-29.4907412309,0.119443620604,-5.92479426105,-38.9158191555,-22.6235577603,-17.8524061629,24.7537305585
off_to_on,-6.21669011417,-4.30674883491,-1.17591711567,0.0530450773893,-7.19236018603,-9.49901486896,-18.0153945785,-18.8744381068,0.153851170808,-2.90905878801,-28.4474311962,-11.3647790577,-8.01078418198,34.8043645411
off_to_on,2.83063949753,1.37409698716,-0.687445075519,0.0636848243569,2.64151156928,4.5814096056,1.62076658432,-3.52701378547,0.180960841265,0.868282169433,-13.0992450652,3.14966082425,4.08187743336,39.8330957514
off_to_on,11.3324436387,6.61562773623,0.0136641736164,0.0666809492937,11.6564403438,17.2895572753,20.6080407226,12.3574137181,0.167932662705,4.36957567114,2.51005254434,17.1088813755,15.2589849007,39.0100677133
off_to_on,16.9170741787,9.94505578098,0.706128829592,0.0487479916513,17.3723432206,25.0825287375,33.6968665206,24.4909376414,0.0894863779344,6.63519086316,14.394815232,26.7448748918,22.5349232027,32.1679131063
off_to_on,17.9868793631,10.4438897097,1.17243922235,0.000699793315318,18.2637584414,25.8369521019,37.321946916,29.696231789,-0.0577242747746,7.05511420428,20.3019147035,29.3800760923,23.9280905782,20.0032601863
off_to_on,14.1917790862,8.00910917242,1.26304842768,-0.0802419485388,14.1980297847,19.4600552341,30.6367521186,26.7855546663,-0.247882542124,5.54135187809,20.1364449591,24.2044850333,19.0264489797,4.1411980484
off_to_on,6.54619755819,3.37497522114,0.940721242568,-0.188104658758,6.45635416776,7.89765697219,15.7478281325,16.856985465,-0.429783819143,2.54960456735,15.6374132312,12.5451555468,9.1250471754,-13.0251410904
off_to_on,-2.85196325591,-2.11024198409,0.292147175581,-0.306256510603,-2.66904775067,-5.46407006849,-2.92985265413,2.92455505829,-0.541439540195,-1.05689398812,9.48632675853,-2.46905377314,-3.1160971092,-28.718255143
off_to_on,-11.420982542,-6.88447089731,-0.496610010675,-0.407304816225,-10.5753378302,-16.8187030064,-20.0037520049,-11.0002116629,-0.531094530833,-4.26106927317,4.21172401633,-16.7672358708,-14.4054422289,-40.2891002584
off_to_on,-16.8360495787,-9.627712213,-1.1937183144,-0.456484017208,-15.127072708,-23.0662870501,-30.7126597466,-21.0926951946,-0.377410515548,-6.18724881417,1.29518819417,-26.4797433096,-21.7378232775,-45.7136101617
off_to_on,-17.6893818563,-9.63661393271,-1.58863711096,-0.419473526683,-15.2688313521,-22.7000585091,-32.3171485144,-24.8056302476,-0.101288337709,-6.349443015,0.781431849056,-29.0317982044,-23.2307244832,-43.9396961372
off_to_on,-13.8728861425,-7.00747642096,-1.55312313449,-0.273831698005,-11.2852825937,-16.1856781481,-24.8449172332,-21.5409615828,0.235697745709,-4.77902042715,1.49057713365,-23.8625854722,-18.6337600616,-35.0181730737
off_to_on,-6.57295514589,-2.57796922771,-1.07854617022,-0.0210803001813,-4.63796133899,-5.72970309736,-10.9714491472,-12.7147427334,0.546797907627,-1.99592273063,1.70287932514,-12.5549805132,-9.36303851225,-20.0365827133
off_to_on,2.11246468986,2.34712572495,-0.278957660198,0.305093007139,2.55373820348,5.47042368857,4.90606031827,-1.21978044526,0.74515634078,1.16367921574,0.0180138767688,1.65991698046,1.94414054062,-0.935593341198
off_to_on,9.80852187173,6.39529509223,0.640520351313,0.639085254985,8.20621320618,14.2401254364,18.0868344715,9.52209996942,0.770528325751,3.80628181915,-3.95907550933,14.8674202302,12.2131547468,19.7060620442
off_to_on,14.5498121352,8.52464061653,1.44034285996,0.894712391978,10.9078354813,18.3743989469,25.0111232691,16.6054144135,0.608820796323,5.24419385013,-9.37258213271,23.6041401943,18.8124339453,38.8802200667
off_to_on,15.3095171052,8.30061105016,1.91160031698,0.986678619054,10.2937033159,17.2210918308,24.2702355979,18.4546180449,0.297788367931,5.18210288702,-14.3996781193,25.8168286683,20.2645217953,53.3851329397
off_to_on,12.2200922058,5.97413436261,1.93100352448,0.857138306828,7.05133486292,11.7356656856,16.8778526566,15.1670046561,-0.0832702978254,3.77356621082,-16.947692393,21.3623264171,16.5826520896,60.169931561
off_to_on,6.43795175388,2.35046425091,1.49096421105,0.499258066312,2.57968777562,4.02415555419,5.7527908783,8.31050629383,-0.436652008197,1.53761280761,-15.4922318058,11.9183157797,9.15191104625,56.8536032729
off_to_on,-0.281140152876,-1.49539757283,0.697764659901,-0.0309073547844,-1.55834027609,-3.43975702055,-5.37287871234,0.283363555027,-0.674788479575,-0.829155112669,-9.73292750523,0.364727445146,0.219974302986,42.3962703244
off_to_on,-6.14244150496,-4.55595286666,-0.259780494966,-0.620384554402,-4.18527344513,-8.63870399228,-13.2236276867,-6.5207420443,-0.745015115696,-2.67793100471,-0.81410483411,-10.1403321887,-7.8186905785,17.77052574
off_to_on,-9.82302875781,-6.17108293841,-1.16071724524,-1.12406163671,-4.86594066381,-10.5952328209,-15.9906741362,-10.4512468968,-0.642795095795,-3.5955826397,8.97895619477,-17.082297398,-13.108037618,-13.6295465079
off_to_on,-10.7788241592,-6.16816876164,-1.80659014459,-1.40292588095,-3.9571376227,-9.53502834979,-13.7569149679,-11.0066612902,-0.409637741066,-3.49764926966,16.9434123155,-19.2232108669,-14.7757254468,-46.1268135557
off_to_on,-9.273857064,-4.83338408666,-2.06584853213,-1.3651284907,-2.35375906322,-6.6099216018,-8.23204151691,-8.80453377741,-0.117145913713,-2.60507885376,20.844112041,-16.7753851473,-13.0248654819,-72.6265979772
off_to_on,-6.15678975756,-2.74431010601,-1.89799213201,-0.997042676255,-1.04820542363,-3.32059555227,-1.94243519442,-5.17298193619,0.156826373547,-1.32451998416,19.646075729,-11.1105853526,-8.88606224895,-86.1652645707
off_to_on,-2.49220444861,-0.53819683602,-1.35415760498,-0.373471373814,-0.686005688491,-0.880363083989,2.79219179563,-1.5516876592,0.351598118578,-0.0836990309341,13.8376942974,-4.15552914004,-3.7565573791,-81.8230200969
off_to_on,0.807798752861,1.29537260515,-0.557499768487,0.357953758237,-1.29589900685,0.23083842553,4.70368786062,1.05571955997,0.439001029824,0.815149612841,5.2377975124,2.28372181751,1.08736035298,-58.459784092
off_to_on,3.22313641981,2.52734872874,0.328738529889,1.015088114,-2.29976530312,0.359326302296,3.93631045441,2.37471390157,0.426251566881,1.27282615009,-3.63521905671,7.02734409809,4.83098775995,-19.6660857177
off_to_on,4.6701071943,3.18053395249,1.13618381997,1.43162932916,-2.79497760836,0.40019110438,1.81460779938,2.80847428656,0.346631326461,1.38066839103,-10.4012307833,9.70485453126,7.21654776068,26.5324704065
off_to_on,5.36591549864,3.422130155,1.72159055887,1.50437868144,-1.99215281866,1.2809932545,0.141003624934,3.09446802002,0.242561951057,1.33304334809,-13.5659605765,10.6012724934,8.40110965963,69.3358779507
off_to_on,5.59780729298,3.41769315865,1.98797751388,1.22265085976,0.373040870316,3.43306116934,0.324817749639,3.83738799449,0.148074024661,1.30818494476,-12.9229820604,10.2842997803,8.67950902458,97.8720618466
off_to_on,5.5120972861,3.21767823739,1.89566006135,0.670381776274,3.82927479258,6.48154138719,2.70414483884,5.13203918752,0.0773768992057,1.3708313536,-9.4868556106,9.20657805521,8.221011176,104.224329476
off_to_on,5.02069741741,2.7289983527,1.46446238622,9.72997454922e-05,7.26029596493,9.29802294489,6.34090991895,6.44769371348,0.0234485497259,1.43861878159,-5.00609814137,7.46954111999,6.9499228793,85.872643709
off_to_on,3.86546386838,1.78379487125,0.768968779439,-0.613019954292,9.28066786056,10.4134712061,9.37936999653,6.83337582041,-0.0335886297816,1.3260746992,-1.25343728931,4.85035479742,4.6264467298,46.7338308538
off_to_on,1.80789808039,0.272605109754,-0.0720385387535,-1.02228661847,8.76611624469,8.64046580319,9.83240618909,5.36604484298,-0.112447217584,0.846654115769,0.636770133115,1.06771218455,1.08646975304,-3.63083480759
off_to_on,-1.14669272431,-1.72218836712,-0.9117805977,-1.14965646972,5.34016868064,3.66020420596,6.48495892724,1.65544026362,-0.217327759194,-0.0721129602327,0.541965427881,-3.85148858245,-3.48106360061,-52.5107440437
off_to_on,-4.60163373467,-3.86120056235,-1.59730120378,-1.00249888934,-0.375789588309,-3.6708862933,-0.452250478041,-3.81568036949,-0.331208224429,-1.31248100372,-0.691098679503,-9.29660648976,-8.36862127937,-87.5559978283
off_to_on,-7.78217148708,-5.59482051859,-1.99566289193,-0.662710187452,-6.86293760426,-11.444805109,-9.2198084754,-9.68307197308,-0.419013230499,-2.56737634873,-1.67321842242,-14.0515018571,-12.4082756333,-100.254036841
off_to_on,-9.73000972612,-6.3204142311,-2.02097684599,-0.253225558352,-12.1446287508,-17.248037247,-17.0014082939,-14.0667507822,-0.439888620814,-3.42616627865,-1.10978672122,-16.586337897,-14.2753005228,-88.2968317372
off_to_on,-9.62337774436,-5.60061079695,-1.65641355837,0.105559810662,-14.4277259426,-18.9598516899,-20.8788173013,-15.2046514711,-0.364044531504,-3.51851106536,1.60157287712,-15.5865636815,-12.9511008448,-56.0929564195
off_to_on,-7.10873189814,-3.36202790938,-0.964398919174,0.33403624301,-12.727660254,-15.5269238024,-18.9134806772,-12.1323557752,-0.187575864374,-2.66392400409,6.04457450459,-10.5283416473,-8.17791585867,-13.2671117545
off_to_on,-2.51386694157,0.0075093094695,-0.0796599417826,0.413445787542,-7.2551462072,-7.43065591156,-10.9547297031,-5.15107922159,0.0608703247266,-0.968506660817,10.8580928136,-2.06552680637,-0.717903672692,28.3589802582
off_to_on,3.15391664636,3.714209035,0.816230905866,0.381989157295,0.581643240238,3.34002092974,1.14088378864,4.1129223632,0.324876606554,1.17332091783,14.1903844963,7.95829716793,7.7164171847,58.3188703648
off_to_on,8.44766095318,6.76380504792,1.53464973396,0.310128400488,8.57541368689,13.829293652,13.9903182328,13.1153174666,0.535608695198,3.18088855846,14.3732989213,16.931682822,14.8810154564,70.4415581996
off_to_on,11.8951743582,8.2588577566,1.92469756869,0.265768163013,14.3956474042,21.0066430964,23.7252308834,19.156691872,0.632892906423,4.46363595012,10.5742594806,22.2285750613,18.658595524,64.2636521066
off_to_on,12.4568397654,7.69120982089,1.91076849616,0.283383870962,16.3208578653,22.7202512254,27.2480797873,20.2554783416,0.584879470922,4.61333476415,3.18911920561,22.0556447878,17.7467469168,44.5366090544
off_to_on,9.87250841947,5.12794679361,1.51164822928,0.349216809677,13.783659069,18.392492243,23.2724030444,15.8326690285,0.399408650896,3.54530290376,-6.17168612415,16.1014133331,12.1376312243,19.110328978
off_to_on,4.77470183437,1.220825074,0.834704729037,0.408161808038,7.54704660619,9.22081344965,12.7844205997,6.96361601296,0.122932430262,1.5374688928,-15.1106438445,5.74486320053,3.20771083551,-3.98177472827
off_to_on,-1.47839116783,-2.97268349687,0.0461200554938,0.389404983449,-0.545083046591,-2.18698845593,-1.2392299859,-3.90512257641,-0.172907760905,-0.849186943115,-21.149279613,-6.27725195336,-6.63787436126,-19.17372814
off_to_on,-7.20203280526,-6.30393135307,-0.674342230873,0.240463311398,-8.15658274937,-12.6230883383,-14.7658451373,-13.6932965148,-0.412703901499,-2.94399450137,-22.4835682225,-16.6602663744,-14.6692764935,-24.8409781896
off_to_on,-10.8885771849,-7.88234169534,-1.18048504358,-0.0441683946528,-13.1879598562,-19.2662571978,-23.9769484218,-19.6402222658,-0.539633668061,-4.17593273672,-18.5440410457,-22.5320169177,-18.6627905852,-23.1596270223
off_to_on,-11.6519704143,-7.34455099017,-1.39452828267,-0.41172912619,-14.4041852466,-20.5199234363,-26.4463573231,-20.1584024168,-0.531416101168,-4.24841102752,-10.1828102062,-22.3366678375,-17.5863798151,-18.5336223929
off_to_on,-9.46972551688,-4.95444486215,-1.31956918216,-0.762784254597,-11.760962588,-16.4333516861,-21.8368231754,-15.3046060877,-0.404827806448,-3.22120987732,0.566364516553,-16.3072518114,-11.9108646327,-15.3054009066
off_to_on,-5.14841685257,-1.50203226275,-1.02712680011,-0.982553809553,-6.33711535747,-8.58479815526,-11.8998807768,-6.71626155018,-0.207718996942,-1.47407675028,11.0712748885,-6.36827099743,-3.44158219436,-15.71197219
off_to_on,-0.0326428783894,1.96266227845,-0.625620918112,-0.981176323887,0.0834198293878,0.509911090996,0.192095744377,2.95612466177,-0.00172107859964,0.432116449659,18.8389910965,4.49766655872,5.27284839694,-18.9188275416
off_to_on,4.43738417506,4.46900320622,-0.22182499531,-0.72834391492,5.62114316304,8.24334493154,10.9261894578,10.919512023,0.158135972209,1.94567596824,22.1799180892,13.2038200976,11.7549886641,-21.5114420543
off_to_on,7.1676047721,5.42351339311,0.110903612394,-0.269319030184,8.88784037912,12.7222811692,17.5575295633,15.1129199358,0.239904765679,2.6986645446,20.6055328104,17.5125618778,14.3629067433,-19.2248561267
off_to_on,7.70623631689,4.76807104284,0.347097219166,0.284265665976,9.35795526292,13.2692745592,18.8737657485,14.7950691811,0.241990641768,2.60672541274,14.8616283126,16.6730963551,12.7525410683,-9.17903202769
off_to_on,6.30618067848,2.95139773042,0.502905638739,0.786518758844,7.41895590579,10.4768223731,15.3853229101,10.6629859643,0.189365317928,1.86414552975,6.61767215581,11.5445418002,7.89487327746,8.33723551539
off_to_on,3.75078772796,0.732832051453,0.613783298572,1.10182458974,4.11402815003,5.83549141729,8.9274995795,4.48853649699,0.120839698698,0.842965561054,-2.0643095609,4.18761645437,1.66105353992,29.3359415688
off_to_on,1.02221740036,-1.10492499948,0.706952435147,1.1468238276,0.69685180266,1.10473913344,1.86881079972,-1.57259537855,0.0725505676661,-0.0609151958082,-9.30308433066,-2.90871294885,-3.86328726753,47.173672958
off_to_on,-1.05837943793,-2.02856840107,0.7811686894,0.915689009117,-1.82538489509,-2.32680323016,-3.75517207141,-5.73867417555,0.0638906764049,-0.574652777026,-13.8422764891,-7.68052230603,-7.0858998297,54.863697322
off_to_on,-2.08853061555,-1.91663351458,0.802955840607,0.480365595176,-2.99581655256,-3.86094652997,-6.86355625807,-7.1567027932,0.0909171161715,-0.634270113087,-15.2538796164,-9.12337972475,-7.39238064271,47.8200933753
off_to_on,-2.15577604405,-1.05963730328,0.721360186058,-0.0338598262633,-2.9645037347,-3.75838230738,-7.50726174467,-6.07286400937,0.129324435679,-0.381128290754,-13.878709462,-7.5023160234,-5.25181350445,25.9734714787
off_to_on,-1.71305240652,-0.00713956993755,0.495216031837,-0.488680857856,-2.30448124896,-2.86674262909,-6.58752024322,-3.58723741234,0.145489346476,-0.0763846958407,-10.5663632902,-4.09455324019,-1.93054270356,-5.62264911514
off_to_on,-1.32286249235,0.673213108768,0.121152204081,-0.775039997478,-1.68513573204,-2.14807779445,-5.28069691919,-1.11587357913,0.111188439997,0.0277546080843,-6.33093105489,-0.593247495596,1.05742279206,-38.0471000501
off_to_on,-1.381419836,0.629473972384,-0.350494922227,-0.843266632609,-1.54844638601,-2.21352762182,-4.43741160714,0.214946061947,0.0163732546488,-0.19428508567,-2.04675314047,1.58321144886,2.54566972598,-61.2920059668
off_to_on,-1.93608760498,-0.137097728233,-0.820473420127,-0.711801794315,-1.92173327225,-3.05672024383,-4.21416974933,0.00436413442033,-0.124770143598,-0.682973659658,1.72624462847,1.81113759811,2.1327642207,-67.6412940707
off_to_on,-2.66784623685,-1.28073316923,-1.16671679074,-0.453085403119,-2.43660694965,-4.08672419875,-4.08173611852,-1.31792681235,-0.276724794521,-1.21761301155,4.75847754884,0.424689999717,0.275251264314,-54.4493510677
off_to_on,-3.0422743592,-2.25898151102,-1.28363015307,-0.163181781815,-2.5350736817,-4.4342512994,-3.185778303,-2.74173934072,-0.393510446477,-1.51216133751,7.04052164545,-1.51799030189,-1.96152912567,-25.2877071427
off_to_on,-2.56435506143,-2.55946441226,-1.12045554399,0.0730161476321,-1.76617789465,-3.39228462684,-0.881942146585,-3.16555976231,-0.433722380744,-1.34320310208,8.62066590654,-2.75067301671,-3.38188116756,11.020269261
off_to_on,-1.03053521833,-1.91595682649,-0.703886289297,0.208415571234,-0.0406534082125,-0.798459439205,2.8079011867,-1.91716526826,-0.374571039737,-0.657050607517,9.47233896844,-2.37674076572,-3.17096466747,43.2107306991
off_to_on,1.32830441456,-0.429233415943,-0.135172749151,0.243431705392,2.26985863057,2.80840331713,7.0386276837,0.910247560231,-0.220208593834,0.389187283014,9.4496917229,-0.272005608388,-1.23620275275,61.3002951261
off_to_on,3.87733429316,1.45475532365,0.438888473249,0.216822603344,4.43703091337,6.33223323846,10.3770384483,4.44561580617,-0.00167397198062,1.47182531763,8.34583799136,2.84771708177,1.75195790424,59.932163998
off_to_on,5.77858703003,3.10197076633,0.871846331687,0.182824008492,5.64657308463,8.51539670639,11.3525073047,7.35966891909,0.231363510957,2.21550124348,6.0228089758,5.71712423261,4.63037418875,40.1710161325
off_to_on,6.29177135808,3.92353982365,1.06438300383,0.184554648255,5.32832547016,8.43287931495,9.10413850504,8.39174491244,0.424246821725,2.33555382293,2.55231927098,7.04881253634,6.21309454707,9.10292006458
off_to_on,5.06350830811,3.59701867352,0.995087364652,0.234455819083,3.41129864088,5.88755164411,3.85026776887,6.87479562373,0.531999424555,1.75261362896,-1.69801253178,6.08200123118,5.77263879516,-22.6329802334
off_to_on,2.29392405282,2.19189125141,0.723780514153,0.309208432842,0.395902151125,1.54314781092,-3.03679589824,3.04751877107,0.530639000391,0.633514804041,-6.07736402036,2.92879240797,3.34199660118,-44.5214514047
off_to_on,-1.28800389167,0.151500404243,0.365961461827,0.360571968129,-2.79403213326,-3.26894402506,-9.41816239672,-1.97678580617,0.422141853397,-0.65990359805,-9.7705249473,-1.42547817227,-0.281698117345,-49.7667374435
off_to_on,-4.64002550272,-1.86252356974,0.0477826853013,0.337296539982,-5.13027697388,-7.006464483,-13.1203091582,-6.58271648818,0.232260947881,-1.69737083251,-11.9909829482,-5.47416997647,-3.83356741711,-37.5452712722
off_to_on,-6.74274638855,-3.20583409464,-0.141486685753,0.209068512928,-5.85236856269,-8.46959128978,-12.7470274096,-9.23171897483,0.00259865421731,-2.1359869929,-12.1894816942,-7.75988618193,-6.06199980481,-13.133446634
off_to_on,-6.94052996763,-3.47970665806,-0.181299973842,-0.0171324058204,-4.75119783685,-7.24226681138,-8.25810681066,-9.03025515017,-0.220190662869,-1.84686345859,-10.2131194087,-7.4417701827,-6.20699011992,14.1131250987
off_to_on,-5.16740396631,-2.66791482796,-0.123485638165,-0.294779298116,-2.25336188195,-3.85140189559,-1.07440151622,-6.07033913742,-0.394831805468,-0.964086620481,-6.36568041721,-4.63589404223,-4.2896396018,34.1874857996
off_to_on,-1.97724525424,-1.13235161431,-0.0659376236252,-0.550680542103,0.729967684746,0.421783601123,6.36033533513,-1.40913625281,-0.492960090695,0.163949505296,-1.35080965587,-0.390837890006,-1.09998385016,40.0285572348
off_to_on,1.63438437344,0.529572845673,-0.106304273231,-0.708332666581,3.1363684895,4.01284521964,11.4246659819,3.31026773246,-0.502570240821,1.10415677892,3.88516084023,3.69894938377,2.11263211998,29.9998087799
off_to_on,4.55663335013,1.71135344811,-0.293902738131,-0.713305319841,4.1440921363,5.65407819011,12.273140052,6.45877718382,-0.427615473316,1.50171183963,8.36589546144,6.09829914601,4.12690571794,8.37367872
off_to_on,5.92639773152,2.02247299546,-0.599563896356,-0.551695910569,3.47512420246,4.84623543779,8.54497052922,7.01878427443,-0.284959250039,1.21536215846,11.2956426646,5.92415722076,4.22555955774,-16.3300721936
off_to_on,5.40431427051,1.42819639189,-0.916971358423,-0.255451806423,1.49404742207,2.04305553262,1.55175667811,4.95491814351,-0.100156249028,0.373506471599,12.2150883979,3.2963221902,2.47445456758,-34.5307326177
off_to_on,3.27119069789,0.252652630693,-1.09735186539,0.106793154396,-0.936249996849,-1.52404265094,-6.14687740268,1.2172354835,0.0968104850625,-0.671519210046,11.0692488998,-0.693993623651,-0.305300411074,-39.1324533134
off_to_on,0.315300727957,-0.954694261719,-1.00635889537,0.44969042136,-2.78907595906,-4.31883584858,-11.6452483681,-2.62662696057,0.275363102618,-1.47558178896,8.18070847135,-4.39301032676,-2.86398800321,-28.1434966697
off_to_on,-2.44682754098,-1.63787507281,-0.582581554644,0.694916777279,-3.27305692812,-5.09554753534,-12.7540674227,-4.99409264746,0.407820832275,-1.6731885798,4.14659224921,-6.22073446224,-4.02432994023,-5.42554490582
off_to_on,-4.1174095456,-1.45541732213,0.124956661699,0.791038497869,-2.14458174822,-3.39296444908,-8.83630389888,-4.8992753615,0.472816682323,-1.12282536408,-0.30571438468,-5.29495369756,-3.16342367029,20.6912365267
off_to_on,-4.21267146821,-0.419710985406,0.956559670584,0.723974259104,0.186452959601,0.261121380554,-1.10118930066,-2.34237086996,0.458646052643,0.0280658386102,-4.46448000755,-1.80311949279,-0.486649459543,40.4227747275
off_to_on,-2.80776054494,1.09849586151,1.68231232458,0.516309660718,2.80075431567,4.51781213285,7.7685328637,1.67312991507,0.366043893374,1.3849281674,-7.7484773628,3.02640022834,3.01812958182,46.0883200523
off_to_on,-0.48693227205,2.50335044995,2.07189373594,0.217559645092,4.61293801171,7.69212585299,14.5398527155,5.50718853845,0.209456298083,2.44216235297,-9.77273655887,7.35329101354,5.9366729698,34.9340124595
off_to_on,1.87742960374,3.19636754732,1.97107756398,-0.110064990137,4.7876829676,8.39099239924,16.5829173396,7.50187882823,0.0158317682691,2.76583634293,-10.3640747284,9.40293268946,6.96609006812,10.2136777687
off_to_on,3.43568741671,2.80612985151,1.35860641326,-0.405486601362,3.0732861197,6.05425332118,12.8430157529,6.6239208713,-0.179557021106,2.15737134028,-9.53905409745,8.14455176095,5.43328407727,-19.8587240462
off_to_on,3.65250330107,1.3399851027,0.362773979386,-0.618835882663,-0.0742379123035,1.20696381754,4.27629933468,2.89084958713,-0.339852334719,0.738177804023,-7.46396573007,3.71640983888,1.59585893356,-44.9163966915
off_to_on,2.48029649315,-0.79942916931,-0.769771661838,-0.716876659836,-3.62739255421,-4.67625097083,-6.41920222577,-2.58279708689,-0.434521371686,-1.07731062722,-4.41537071977,-2.56654640891,-3.39540881878,-56.02186653
off_to_on,0.35969299031,-2.94103212096,-1.74429844912,-0.684972093924,-6.3392007974,-9.65449624186,-15.6957690426,-7.94517608212,-0.446392423948,-2.71325153177,-0.752079556238,-8.63613365686,-7.86954457595,-48.7758662153
off_to_on,-1.94694528873,-4.37178766841,-2.30511852075,-0.527561410532,-7.18659065834,-11.9852842136,-20.3661725051,-11.2501111807,-0.375761808525,-3.62434414429,3.10138004107,-12.3811939013,-10.2161121637,-24.8810500556
off_to_on,-3.62624087259,-4.58308130283,-2.31134560329,-0.268377301129,-5.74593525767,-10.737476026,-18.7100492591,-11.155698998,-0.240231816333,-3.48198905618,6.66947938098,-12.3937215148,-9.46678487636,8.36558586994
off_to_on,-4.09308519185,-3.45001064782,-1.77672706522,0.0500173730595,-2.36440920614,-6.13574710829,-11.0877136688,-7.4277794862,-0.0701797690149,-2.29004055241,9.45300797679,-8.48373971179,-5.66665252563,40.460341726
off_to_on,-3.18362831467,-1.28052050826,-0.86110680226,0.369259773304,1.93691082553,0.486673057606,0.156019353558,-1.06481529347,0.0988974363144,-0.389773655873,10.980933579,-1.77631535113,0.102922846162,61.1331067379
off_to_on,-1.20004312229,1.28257578836,0.18263134992,0.622906436164,5.79690894966,7.113327137,11.4669216034,6.0058022523,0.234950053405,1.64802690164,10.8892130334,5.64785335892,6.0643992797,63.6752370947
off_to_on,1.20243338346,3.4720872933,1.08754346297,0.749527827727,7.96994487458,11.7028216716,19.2672156989,11.5584514723,0.316400765131,3.20718899905,9.01517556116,11.4448659063,10.3319873029,47.0576165875
off_to_on,3.24236461858,4.64624392773,1.65087403357,0.709189596698,7.74504624352,12.8553352046,21.1425763919,13.8100689637,0.335754079954,3.82414579594,5.48283975601,13.792121594,11.5437000151,16.1774023719
off_to_on,4.27288189691,4.49235575032,1.78625387427,0.498605220418,5.18427859474,10.2619985105,16.6240083391,12.015817039,0.299097495143,3.33360427225,0.747237123584,11.9927190902,9.31797330918,-19.7864970143
off_to_on,3.98860741748,3.11671924549,1.534573245,0.158907399544,1.09987613358,4.78912276265,7.30380947883,6.71604130909,0.222153129341,1.91457792552,-4.43120891132,6.6929816126,4.37751792247,-50.3082995577
off_to_on,2.51283323025,0.994007589798,1.03322367929,-0.228931271607,-3.21906165186,-1.82402320553,-3.74090760669,-0.446838990972,0.124570539303,0.024043029826,-9.09657044095,-0.356148610826,-1.69962063511,-66.7480898278
off_to_on,0.341666931807,-1.20175793469,0.457815096546,-0.562421020535,-6.43375867275,-7.5441744008,-13.0046023254,-7.27408302875,0.0245104573135,-1.75658709711,-12.2821969145,-6.90347341132,-7.01183474701,-64.8471239631
off_to_on,-1.83003956611,-2.82305491032,-0.0408162563544,-0.746000144451,-7.58991423516,-10.7001201106,-17.7173546781,-11.7288860037,-0.0648320811994,-2.90879679463,-13.2346824912,-10.9525466238,-9.96226514735,-45.7502179482
off_to_on,-3.33877136947,-3.45324248033,-0.381438368526,-0.721405462886,-6.41349402945,-10.4969748901,-16.7182152496,-12.5826474586,-0.136073056612,-3.13561160199,-11.6210205675,-11.4057264138,-9.76810844164,-15.3398092935
off_to_on,-3.76125418774,-3.0222484636,-0.564529327579,-0.489614769897,-3.37422503001,-7.22537978827,-10.7526206531,-9.77594084055,-0.186264370816,-2.44133323105,-7.65696287527,-8.38188124916,-6.68202996769,17.7823641363
off_to_on,-3.03600871613,-1.80005568392,-0.65040078451,-0.115533109493,0.495508715372,-2.11076328685,-2.11720497268,-4.38429043474,-0.214516885868,-1.11071448928,-2.10769100362,-3.11233138274,-1.860916585,44.9331645451
off_to_on,-1.46323000533,-0.278056338924,-0.715248989189,0.288279213668,3.9561589493,3.13020634041,6.1969531169,1.78369306125,-0.220051519041,0.399729264971,3.85698207016,2.5312722257,3.05952377191,59.7489585482
off_to_on,0.410290120502,1.0139377986,-0.805107733059,0.595354246771,5.96571002478,6.8653862571,11.5454025233,6.8055809202,-0.201681911899,1.6174124227,8.9290299706,6.69870930351,6.52733809887,59.6579130691
off_to_on,1.97807820695,1.68824715646,-0.90769691793,0.706352074335,5.99848281453,8.0598536404,12.4898516377,9.26543208681,-0.158892434899,2.20273217455,11.9865511915,8.17686423939,7.5770943847,46.1017177643
off_to_on,2.76924777156,1.61598568791,-0.954292049499,0.583591697708,4.17910029431,6.56276005006,9.19160928,8.66955041592,-0.0938113202396,2.0438116914,12.3877502011,6.75114087372,6.10599602885,23.61359144
off_to_on,2.58975699033,0.944740458284,-0.851142418974,0.266450525729,1.19988550729,3.09028975363,3.23135422179,5.53243200569,-0.0128767855697,1.27071365668,10.147047993,3.20344420228,2.84314649177,-1.80277134344
off_to_on,1.5680981432,0.0190297942718,-0.52757576496,-0.139070971222,-1.93658994967,-1.06832335289,-3.04655481122,1.12624748041,0.0729262042808,0.191459071285,5.93457469171,-1.03026186576,-0.958192813072,-24.4034904516
off_to_on,0.0964466539532,-0.760988606599,0.0194233422486,-0.494477833811,-4.25378282041,-4.50614480904,-7.40658627872,-2.99892965013,0.149758031704,-0.822372144003,0.89046423329,-4.40277965615,-3.98194869427,-40.0239659074
off_to_on,-1.30837608153,-1.08819558112,0.70379005094,-0.67578056156,-5.1020935757,-6.15595145722,-8.49226973558,-5.54685664279,0.204157624206,-1.45872124449,-3.69766946451,-5.79758665839,-5.29576788593,-46.6962171536
off_to_on,-2.17615304725,-0.851803129273,1.36335599549,-0.617273343245,-4.33149111488,-5.60267258677,-6.23089478393,-5.87675756149,0.226675510453,-1.55632879612,-6.76030080315,-4.88171491073,-4.63095972776,-44.5559509042
off_to_on,-2.23150557238,-0.162566574484,1.80540433344,-0.336309395343,-2.29304256349,-3.16333057898,-1.75536683607,-4.15075157096,0.214490922396,-1.13836241831,-7.7430529679,-2.16018442718,-2.41278712104,-35.2598201349
off_to_on,-1.47410503666,0.702681801698,1.8701541101,0.0706012760187,0.314032858423,0.270291283244,3.09517514164,-1.19925145439,0.171942052345,-0.384262948025,-6.74145553331,1.26512901687,0.448826082839,-21.2350663212
off_to_on,-0.169255988883,1.41111059036,1.48982168142,0.460091023059,2.68539158962,3.55464457082,6.48850737711,1.82505777528,0.10873285331,0.443666683568,-4.42922005534,4.12555836674,2.91528309035,-5.04524426861
off_to_on,1.24415628794,1.6953896109,0.721336735373,0.692032121508,4.15899490736,5.66604703891,7.2564399465,3.86790210857,0.0365518665187,1.08975300236,-1.80242717753,5.43934973549,4.18543201925,10.98030836
off_to_on,2.29651691463,1.44305295158,-0.260643765796,0.679948110768,4.39057721925,6.00108277292,5.26477213875,4.31870122011,-0.0344780881945,1.38008639325,0.176178268288,4.82815384377,3.94352767186,24.8650141137
off_to_on,2.63540394814,0.725313212518,-1.21009463832,0.423492592825,3.41377443151,4.52168758587,1.38440446566,3.17027898965,-0.0980236574981,1.26198317113,0.912945088277,2.59698352945,2.41410321818,34.9747073953
off_to_on,2.13338306809,-0.239164943083,-1.88114588603,0.0106455698457,1.58389304813,1.71883002877,-2.89625313199,0.957407424801,-0.151536906223,0.801398632941,0.383317285608,-0.429417000672,0.224434763894,40.0250846433
off_to_on,0.924432815194,-1.16671600638,-2.10151176385,-0.412084310217,-0.559620919621,-1.57282385958,-6.0505976225,-1.48146400337,-0.19415869504,0.146607630459,-0.875624137952,-3.23360802766,-1.85613262918,39.1942485185
off_to_on,-0.639685608401,-1.80421120104,-1.82362411842,-0.69153123526,-2.45837165859,-4.43680504206,-7.06073143684,-3.31837345727,-0.223702985078,-0.524233044532,-1.98118717158,-4.96488788866,-3.19369118462,32.3269088427
off_to_on,-2.09767539415,-2.0035666486,-1.13677480396,-0.723523525459,-3.67642735137,-6.12913372895,-5.73661750068,-4.00965161336,-0.234463425184,-1.05255590238,-2.05720666852,-5.20137691826,-3.48325786843,20.1306174641
off_to_on,-3.01752968059,-1.75253063251,-0.236826226407,-0.492097464163,-3.98481822903,-6.25643598275,-2.71050709978,-3.44041366578,-0.217379745482,-1.33229925073,-0.598947663254,-4.03352925007,-2.79956145035,4.23612384696
off_to_on,-3.12397876733,-1.15742638154,0.63568376002,-0.077493123528,-3.3806453956,-4.84225828617,0.863627232575,-1.90657775372,-0.163138926023,-1.32175212331,2.2819943969,-1.96153791411,-1.50618481168,-12.9645349247
off_to_on,-2.3772377785,-0.391290841151,1.26796737989,0.37083289716,-2.05316218116,-2.28249637412,3.76985444032,0.0376102051512,-0.067411693558,-1.03821191861,5.82852633846,0.33189843455,-0.0771309876981,-28.6999612269
off_to_on,-0.981135220907,0.368596694469,1.53414240306,0.687241161802,-0.319600026564,0.781010184628,5.16609268906,1.7948674201,0.063800334413,-0.543804750022,8.84801489936,2.23336833976,1.08859383485,-40.3277556766
off_to_on,0.679938657684,0.989684717582,1.42286023605,0.750286594738,1.44743696958,3.62625900137,4.83765438243,2.91906093174,0.211250735153,0.0696971216844,10.1011406931,3.37880189836,1.7866552325,-45.8254560761
off_to_on,2.15489302655,1.40471073355,1.02673812135,0.528567038151,2.88737605443,5.61475280447,3.19258043055,3.22440343951,0.344005510404,0.693370006875,8.74338824835,3.70625322141,2.02462408368,-44.1331190321
off_to_on,3.05584137664,1.60280820453,0.500249310526,0.0949241028732,3.70924575547,6.32174385369,1.02718111324,2.78666288695,0.426051105202,1.21214476013,4.66818414256,3.38410077084,1.9472678203,-35.2831727251
off_to_on,3.16551708555,1.60254362677,0.00299814145987,-0.397002043235,3.7392700131,5.6145806801,-0.82492886873,1.85702762559,0.426594046439,1.51822813078,-1.37268720096,2.66802716611,1.71847916996,-20.3377565195
off_to_on,2.49143465366,1.424280272,-0.350975262842,-0.766299499297,2.95666221895,3.67150110815,-1.81283493371,0.738483752021,0.330991146784,1.5297938225,-7.9253617343,1.76309441102,1.42216066017,-1.21288660487
off_to_on,1.25280827919,1.07690906507,-0.521050791114,-0.869725243293,1.51046185057,0.940831281607,-1.83589920788,-0.320258028725,0.148484326208,1.21350891814,-13.2296439497,0.755013257697,1.02955369316,19.5266779092
off_to_on,-0.193183838605,0.564943006506,-0.537835744565,-0.654843936666,-0.293631957059,-1.95327782794,-1.20902485784,-1.17607657072,-0.0865075547108,0.604272455764,-15.7357330686,-0.365038387338,0.445102765637,38.86734611
off_to_on,-1.46115077512,-0.0893509900036,-0.475269182388,-0.181931765332,-2.04517118264,-4.34517676189,-0.461353571456,-1.78136451334,-0.320935782552,-0.187503595008,-14.5799971603,-1.60605373865,-0.396597585297,53.578634537
off_to_on,-2.24860606908,-0.822534797433,-0.410517909184,0.393909265054,-3.31825064656,-5.67948081822,-0.0687193065154,-2.13477668774,-0.496336364842,-0.989371331152,-9.86758468469,-2.87239971562,-1.43619590931,60.5610897466
off_to_on,-2.41480930844,-1.52082670998,-0.388635091523,0.874841731726,-3.78174684395,-5.64863594318,-0.239143531778,-2.22976879174,-0.565129065682,-1.60326398085,-2.66982899906,-3.91397011892,-2.45160897892,57.3764422458
off_to_on,-2.00520463593,-2.03503544242,-0.405753479023,1.08867275587,-3.30043187567,-4.28052003548,-0.839200428622,-2.03334578325,-0.505043734156,-1.85811590543,5.26492997918,-4.37134217824,-3.10618122183,42.9354123737
off_to_on,-1.21747893183,-2.2187663044,-0.416265462976,0.949557713263,-1.99189368679,-1.94589218326,-1.48308526339,-1.50727244162,-0.326946441524,-1.66378574917,11.9976422828,-3.91010133963,-3.07262390079,18.1862340363
off_to_on,-0.324053753081,-1.97792825816,-0.359434805082,0.489528819018,-0.212412560274,0.727145564654,-1.73485287568,-0.658665660922,-0.0731964139739,-1.04770926014,15.931714114,-2.39227017366,-2.18474915698,-13.4642013877
off_to_on,0.420904033436,-1.31281906493,-0.193135715886,-0.15049111218,1.53426789044,3.01820867972,-1.32757637009,0.411265637,0.193402329919,-0.158813603495,16.2317709092,-0.0070794283782,-0.550376983532,-46.2866317713
off_to_on,0.858391127026,-0.334772846899,0.0801367417616,-0.767285116062,2.74431833576,4.3182357597,-0.299681093563,1.49381178996,0.406944498342,0.767165614118,13.0079891852,2.70914382781,1.43167105097,-73.1049979687
off_to_on,0.96108428813,0.752427941623,0.406357318917,-1.1634064175,3.07315005311,4.3122081576,1.01165937585,2.31317459915,0.516833079354,1.47368027158,7.22422835636,4.99445077803,3.17229558179,-86.8657871357
off_to_on,0.820390800942,1.70345757677,0.695544020607,-1.21307158545,2.45285268187,3.08093910066,2.11555978533,2.61356580859,0.501586310972,1.7614135423,0.376114073266,6.09739923201,4.0846945682,-82.5769711323
off_to_on,0.592716467936,2.2994264632,0.853946218757,-0.903150013582,1.12337965443,1.08237169819,2.58496615034,2.26120930964,0.373802210435,1.55297488926,-5.94684122088,5.54938054506,3.80200559816,-59.0676553364
off_to_on,0.427623711694,2.41060257133,0.820146309525,-0.335457412035,-0.439836456332,-0.990123248568,2.2488422846,1.31735022631,0.174882849101,0.921400193629,-10.4746103079,3.37032224673,2.3363761885,-19.952528863
off_to_on,0.405895532494,2.03257262608,0.590630632605,0.309722210493,-1.683167876,-2.43293844313,1.2721332732,0.0452226533968,-0.0385747296893,0.0705955552627,-12.5264625734,0.11998628742,0.111435972291,26.6657184217
off_to_on,0.510496686154,1.28347795001,0.224382482907,0.835417523892,-2.16626393027,-2.76935009554,0.085702124689,-1.16190158944,-0.212165709805,-0.728149887746,-12.0767655543,-3.24161048016,-2.15598741974,69.8755803227
off_to_on,0.640086366374,0.36355894463,-0.17581013263,1.09305092278,-1.72131391051,-1.91771156898,-0.805458750371,-1.91224415557,-0.309191798788,-1.22396991945,-9.62916997382,-5.65130159659,-3.69259210862,98.6896747998
off_to_on,0.658164373176,-0.508539764573,-0.498558391765,1.02826489716,-0.521413975245,-0.228763475648,-1.05263557723,-1.96027433343,-0.319466309202,-1.26956893386,-5.97217376883,-6.30170599844,-3.94373049293,105.10628531
off_to_on,0.457351098127,-1.16033381872,-0.662343492189,0.692419486541,0.970923263937,1.62746727313,-0.629615970317,-1.30830216107,-0.258992736798,-0.871154659919,-1.9171467767,-4.93591033238,-2.78690509038,86.5778109486
off_to_on,0.0127697792029,-1.50887549963,-0.642671724139,0.217343763157,2.16211362281,2.89254415908,0.143422709233,-0.220857063352,-0.161262406562,-0.187080228817,1.89154771492,-1.9668288161,-0.600434538427,47.0623061608
off_to_on,-0.596985281673,-1.56926305923,-0.477651665723,-0.235924682098,2.54038109317,2.99211216504,0.736859403053,0.861054080485,-0.06371512959,0.525677160105,5.04757649775,1.63259434977,1.84678621229,-3.77792631518
off_to_on,-1.21006670622,-1.42786741303,-0.250043040213,-0.534808848463,1.86879339036,1.75527491624,0.657649572118,1.48013220905,0.0056222923806,1.0000094531,7.34301557235,4.64194138626,3.6540934117,-53.0990655364
off_to_on,-1.63552186775,-1.19301390608,-0.0529178265216,-0.618199242123,0.288100392405,-0.499432138885,-0.298645818406,1.34067567377,0.0366404282222,1.05236886248,8.67072674963,6.0076227792,4.1097884199,-88.4243845811
off_to_on,-1.72098414652,-0.943970955008,0.0475722006281,-0.510009923928,-1.71133772532,-3.04797127452,-1.90263121556,0.436604588655,0.0380889777397,0.649347399531,8.93825518199,5.21656512622,2.96020279869,-101.158904925
off_to_on,-1.40833456872,-0.699148138696,0.0376808424828,-0.300017627351,-3.44389819385,-4.99252279652,-3.5275338489,-0.923197146185,0.0311168433039,-0.0765307194294,8.04711723392,2.49525607051,0.526989190233,-88.9822704791
off_to_on,-0.756472039173,-0.416393727403,-0.0403010163358,-0.101086272995,-4.25957391432,-5.56594439617,-4.37007750217,-2.20907928987,0.0382822575007,-0.868455856454,5.95171394365,-1.24307433252,-2.37697243801,-56.3658221851
off_to_on,0.0769613086007,-0.0252229458461,-0.107868962739,-0.00046777076635,-3.7730221283,-4.40577888187,-3.78024667377,-2.85680209697,0.0724890936352,-1.43141826228,2.76672736702,-4.69390982734,-4.71224767221,-13.0543470102
off_to_on,0.887367355299,0.522379608593,-0.0859516468105,-0.024541985651,-2.01092308889,-1.70201332843,-1.57198597772,-2.48175921445,0.130216079516,-1.53420444504,-1.13897423188,-6.60429749444,-5.57177183709,28.9885623081
off_to_on,1.48846682402,1.20424832465,0.0676644594116,-0.130613129873,0.57558509249,1.83606475314,1.81676826759,-1.0430611696,0.191707747647,-1.09277738457,-5.1261763335,-6.21293798372,-4.51077163739,59.1753816729
off_to_on,1.76661944032,1.90524392037,0.334266262016,-0.228505929747,3.24095076681,5.18757762558,5.39678089397,1.1065785992,0.228133682071,-0.206203785304,-8.38291788726,-3.5338497668,-1.73011041683,71.2713391047
off_to_on,1.70505077306,2.43290450761,0.63389875896,-0.222896606976,5.17650995888,7.33632995953,7.92888135465,3.31082348665,0.213077751225,0.86816140351,-10.124070464,0.619728637814,1.95712044097,64.8256242886
off_to_on,1.3716056957,2.57106120565,0.85034040993,-0.0590818453472,5.76704700376,7.59218469013,8.35921095305,4.81578829916,0.134052834,1.79332256941,-9.83334477412,4.88689800476,5.37254441836,44.6742256839
off_to_on,0.878577004144,2.15613609613,0.873202627391,0.246632437675,4.78795351672,5.81194282712,6.23353386943,5.02557648798,-0.000354713768086,2.26014710761,-7.4607828743,7.80681619758,7.35553867619,18.7970306529
off_to_on,0.334079940153,1.15056950101,0.642079602134,0.604963192787,2.47858968656,2.44793149252,1.93152788811,3.7200337343,-0.160599309118,2.08887798625,-3.49465380383,8.31386041532,7.15576549622,-4.63735939507
off_to_on,-0.193181668379,-0.314011613324,0.176205603546,0.882237812396,-0.530729393947,-1.58975245515,-3.38180403341,1.15708877298,-0.303879613537,1.29141872973,1.13428163503,6.11215673506,4.70198383138,-19.9639381381
off_to_on,-0.681082689151,-1.94356862787,-0.422299076147,0.949748945533,-3.412108611,-5.20994132531,-8.09194968297,-1.98078015842,-0.387067733793,0.073686198676,5.29933274044,1.79943900513,0.652826066705,-25.5247896629
off_to_on,-1.1321839534,-3.34293517272,-0.994381336602,0.735663646227,-5.389222873,-7.46460272379,-10.6565006854,-4.78419052427,-0.380621121342,-1.22339381971,8.00171031928,-3.30676629913,-3.79308568839,-23.5369096274
off_to_on,-1.53607823266,-4.11833937182,-1.37161184959,0.259579441533,-5.96191329347,-7.81702561483,-10.137246174,-6.39750373989,-0.278819554135,-2.22599122867,8.66544012221,-7.58757020056,-7.26988983914,-18.5047127807
off_to_on,-1.83781227946,-3.99310952853,-1.42985029735,-0.36440332005,-5.03742484076,-6.27325037139,-6.55416920417,-6.29197435383,-0.102848818562,-2.64062085242,7.30226879626,-9.64956233822,-8.68033273469,-14.8978103189
off_to_on,-1.93286731686,-2.90175674493,-1.13097059349,-0.959009820505,-2.93309185542,-3.34438396346,-0.927413517453,-4.44169648437,0.104399167871,-2.34319845276,4.48794443253,-8.78593166947,-7.55242520904,-15.0668347263
off_to_on,-1.69789033172,-1.03148847946,-0.538336558564,-1.33985477633,-0.258423077458,0.13636415705,5.02161070632,-1.34350843043,0.290239106896,-1.41641870239,1.15651481081,-5.21803254928,-4.19928550327,-18.2426277599
off_to_on,-1.04944853099,1.20600545192,0.199548297135,-1.37723778688,2.27791803782,3.27363666989,9.41963002507,2.12742529482,0.407107106158,-0.124356626445,-1.7162819206,-0.0354190609125,0.371720362203,-21.0094220549
off_to_on,-0.00761980252517,3.26973982744,0.892132315683,-1.04203167622,4.0710361736,5.36017930868,10.8602128035,4.98134048451,0.425881836409,1.16723569012,-3.42975003795,5.14821514987,4.77276589689,-19.0378161707
off_to_on,1.26571161061,4.62861347627,1.36269715643,-0.419139973866,4.77075924926,6.04258848767,8.88119160064,6.41354748748,0.343634268226,2.09991825933,-3.76445326762,8.71194437494,7.67190385386,-9.3433989057
off_to_on,2.47837918687,4.90716528237,1.49904979249,0.316899446597,4.34192405139,5.36325475292,4.13407300676,6.04572745571,0.183685101528,2.42736629009,-3.0077782297,9.54905253161,8.21186082681,7.89442219781
off_to_on,3.27657092406,3.99641559904,1.28315533482,0.956432787355,3.02847558515,3.68381898474,-1.81836111109,4.03408031005,-0.0117153338761,2.08453964982,-1.79501223315,7.42311596409,6.27713908472,28.7672264261
off_to_on,3.3549202016,2.09623282579,0.791216416661,1.32107222064,1.24667319527,1.53274763116,-7.0133189981,1.01267551916,-0.193568668321,1.2013312879,-0.829858395743,3.04298298934,2.52460938604,46.657980229
off_to_on,2.57259679051,-0.326233034705,0.165662401814,1.31952805982,-0.549134237794,-0.562647711879,-9.73865620173,-2.10740118087,-0.319373578684,0.0580661305681,-0.592368089016,-2.16733990255,-1.83090520718,54.5482805289
off_to_on,1.03178082196,-2.65410846153,-0.430447944276,0.974161149735,-1.98378065787,-2.20514260666,-9.10432584474,-4.41809496328,-0.363611202117,-1.00224912635,-1.14609917188,-6.52880515375,-5.40617557196,47.7769027383
off_to_on,-0.91701136274,-4.2842956843,-0.861038743193,0.40971954298,-2.8313715714,-3.18683850455,-5.34158414353,-5.28585920914,-0.322783648432,-1.67752093131,-2.11826190813,-8.64827712902,-7.08913184166,26.183428348
off_to_on,-2.75535499067,-4.79249902807,-1.05152511026,-0.191199007214,-3.02975995741,-3.47879384475,0.271531062199,-4.53210368776,-0.214154175309,-1.79469290703,-2.86067320489,-7.86586251538,-6.3886079547,-5.25409159488
off_to_on,-3.94531210638,-4.05320560533,-1.00062064998,-0.650074630324,-2.65116151806,-3.175932249,5.8338955051,-2.47076286727,-0.0692318543167,-1.35661911604,-2.73000959,-4.46529811081,-3.5842959555,-37.6505960138
off_to_on,-4.10107395597,-2.27920307105,-0.768233563372,-0.850249438636,-1.85190669495,-2.43214621183,9.45231820494,0.203523632792,0.0755957698407,-0.534907201073,-1.3790899306,0.419042810235,0.368766037341,-60.9864893888
off_to_on,-3.12616453821,0.0330050239995,-0.446386148939,-0.770980086179,-0.823946259992,-1.414002354,9.86932043595,2.63768073846,0.188404087314,0.387679420297,1.0555256125,5.16756549622,4.14900995852,-67.495185984
off_to_on,-1.26555659591,2.23900011168,-0.125149132725,-0.486909416239,0.238787090873,-0.283749656698,6.87973850682,4.08231627863,0.248605361359,1.10684774482,3.9475955206,8.19578803159,6.49162693774,-54.4641522816
off_to_on,0.951952523472,3.72680441324,0.134032856248,-0.134456153425,1.15866312528,0.796944146332,1.40033717369,4.11408767645,0.249990687926,1.39100777469,6.36813665214,8.46377280394,6.59267625994,-25.4084620561
off_to_on,2.86898487868,4.09112546132,0.309341034008,0.141824416083,1.78587700897,1.66254168213,-4.82713381932,2.75386489932,0.199858197508,1.15192360765,7.40410968761,5.81346749038,4.36766085333,10.8734540003
off_to_on,3.90545917385,3.25106008393,0.41238011237,0.243145907068,2.01322494709,2.15703155543,-9.79835903583,0.44967457842,0.11520439641,0.471053612393,6.49645855949,1.02807652458,0.484595183462,43.1038703896
off_to_on,3.74787075417,1.47579792445,0.469976400357,0.151306524891,1.79793127865,2.17075737973,-11.8884519927,-2.06576963368,0.0175099517428,-0.425826160577,3.67410781505,-4.40460516254,-3.83799737371,61.2557916987
off_to_on,2.4571732386,-0.691262132715,0.50335159096,-0.0676912060782,1.18446194187,1.68874224906,-10.3657692854,-3.99727142022,-0.0723590303379,-1.23787993058,-0.405672762797,-8.75061786841,-7.20535275835,59.9207843821
off_to_on,0.455771658946,-2.59001416396,0.514226717255,-0.291909294017,0.314658121974,0.825768265061,-5.61622317517,-4.72250699119,-0.138048017305,-1.68173811483,-4.63325305702,-10.5676329049,-8.47800865192,40.1294074017
off_to_on,-1.60571279427,-3.63818664349,0.483747116921,-0.392844801539,-0.588879381819,-0.177344804937,0.985996826805,-3.97301732994,-0.1699311291,-1.57995236427,-7.785527567,-9.15645771595,-7.12908079628,8.96984470284
off_to_on,-3.05993795811,-3.50618623247,0.384231373979,-0.28762125505,-1.27193242648,-1.00883630149,7.51093657922,-1.91135837119,-0.1657035361,-0.919198453881,-8.91597514826,-4.78844204899,-3.41911588032,-22.87691927
off_to_on,-3.44271407188,-2.21987876269,0.198055659615,0.0252024026749,-1.52198231772,-1.38298875195,12.0644233917,0.914282953634,-0.129712227482,0.139305501621,-7.66456046115,1.35960991896,1.66414117523,-44.8285997943
off_to_on,-2.64705214345,-0.159094904522,-0.0652366361492,0.459517873124,-1.24353042407,-1.14780083553,13.3505347343,3.72238665033,-0.0714527748474,1.30102883038,-4.382160541,7.54244839763,6.68333620905,-50.0253583212
off_to_on,-0.95851223024,2.04997230837,-0.362002825269,0.86799976576,-0.506551631435,-0.360974122665,11.0345031391,5.71331433876,-0.00357194988241,2.22003019162,-0.0266146678944,11.9535576162,10.1646225108,-37.6140436473
off_to_on,1.04104532497,3.71856365605,-0.622132721674,1.09214092891,0.455996067158,0.702362925123,5.80575930415,6.28815378224,0.0603923665459,2.59871540704,4.13562849849,13.2515772379,11.025427812,-12.8980472161
off_to_on,2.66929308941,4.30188808215,-0.769696105355,1.01882661924,1.30966173255,1.62439453385,-0.861820971954,5.21289693179,0.108333725012,2.27713900052,6.92365336816,10.9517102946,8.8928762441,14.6813436403
off_to_on,3.37263936421,3.5669694394,-0.749542387674,0.623820743397,1.72504214327,1.98464946734,-7.16334355121,2.68570953661,0.131698550005,1.28598544753,7.60296721305,5.57008728551,4.22175757889,34.9946754098
off_to_on,2.91109996131,1.67078623222,-0.549875889182,-0.0131730717514,1.49585438742,1.51987207132,-11.4826569127,-0.708752633612,0.127048832884,-0.15284028194,6.09753719583,-1.5170105569,-1.82055928671,40.8625002264
off_to_on,1.43644877948,-0.876293594544,-0.211714189155,-0.72769895141,0.626207216239,0.244968783975,-12.8223603119,-4.14478208188,0.0966853629911,-1.67960056889,2.98899999333,-8.45425207418,-7.66822750124,30.5811789513
off_to_on,-0.561968663623,-3.35276827104,0.179428864468,-1.31834873801,-0.648575244143,-1.5152939076,-11.0273819895,-6.76270802138,0.04807672695,-2.89051022645,-0.68970354679,-13.4164703692,-11.7804830073,8.44358411993
off_to_on,-2.42400213834,-5.0331626722,0.517908531731,-1.60801172458,-1.92209777121,-3.20538379698,-6.75659983164,-7.88487236484,-0.00788166495634,-3.44673557533,-3.79277621569,-15.10085693,-13.0561837193,-16.912477178
off_to_on,-3.54014432233,-5.39948730597,0.710653783932,-1.49897190226,-2.74385054493,-4.2108643757,-1.23495972298,-7.18647936509,-0.0594048036127,-3.16870233262,-5.41923293022,-13.0666256266,-11.1258715393,-35.7145878251
off_to_on,-3.55202047966,-4.29466981276,0.707156866967,-1.00428756429,-2.77298815488,-4.06904226148,4.12124685759,-4.77930757758,-0.0964958827928,-2.08938904487,-5.17622416781,-7.83416097925,-6.44436184843,-40.6559892213
off_to_on,-2.46483373901,-1.97264449777,0.516270021039,-0.245609983656,-1.90599121378,-2.64596930278,8.08732442985,-1.18826202904,-0.113025807283,-0.451267531858,-3.27059652222,-0.725732946274,-0.163473239859,-29.5848189485
off_to_on,-0.636123197838,0.969606570615,0.203688098939,0.581641986976,-0.330968398308,-0.214414111881,9.91493467411,2.77279499741,-0.107651542888,1.35306724336,-0.410234076622,6.49854696847,6.17522959962,-6.31647012283
off_to_on,1.35182891126,3.75788554381,-0.12938655097,1.26460398341,1.51526942134,2.60127380601,9.4542424579,6.19500236849,-0.0833993812728,2.88104284171,2.44224073708,12.1029922886,11.0407182449,20.7181497295
off_to_on,2.88926185949,5.65575485647,-0.379367078763,1.63321997658,3.07785925066,5.00227411418,7.10407892654,8.2906495388,-0.0461987919537,3.75424310345,4.37769039359,14.8098473903,13.2973318634,41.4992469872
off_to_on,3.53704615766,6.16627112793,-0.47403646352,1.60619153723,3.86116817385,6.26004631066,3.63042943508,8.57900817816,-0.00299982336787,3.75590165863,4.8121797435,14.0926067079,12.4744537831,48.0343378532
off_to_on,3.15905835669,5.16321086629,-0.395521834302,1.20946362343,3.59343261156,5.94888607798,-0.0763490199345,6.99725913288,0.0398041037877,2.88576931571,3.64295070309,10.2624483857,8.85648126644,37.2735395182
off_to_on,1.94733780615,2.91646909412,-0.184782370627,0.563065133036,2.32181274463,4.08829439168,-3.23060326091,3.9106503161,0.0771384385644,1.35815365821,1.25144138722,4.34044256027,3.37908888028,12.2880253989
off_to_on,0.336985258841,0.0080225780018,0.0737411606595,-0.158022051809,0.403582291339,1.146274624,-5.30974639144,0.0208805145703,0.1051127868,-0.455509437481,-1.63458514054,-2.23529451814,-2.63085093156,-18.7056365593
off_to_on,-1.15432166526,-2.83352923358,0.281893167302,-0.775719898744,-1.60545319022,-2.09887144798,-6.11587789144,-3.80346776849,0.120365339834,-2.12325902549,-4.16741398702,-7.97985855843,-7.7960772346,-45.1330396842
off_to_on,-2.1031389652,-4.92979020992,0.361722046626,-1.15717708524,-3.12855067478,-4.79311862316,-5.74669669179,-6.7319795186,0.119542222627,-3.26195052472,-5.62188738945,-11.7099369016,-11.0191625386,-57.6882135795
off_to_on,-2.31177950621,-5.82442460298,0.282021045884,-1.24553804104,-3.75167713975,-6.26057483584,-4.50491479888,-8.16261096995,0.0995261686812,-3.63026776343,-5.58547009536,-12.7866724831,-11.7202881067,-51.5422825658
off_to_on,-1.85198750236,-5.38426983899,0.0686466951555,-1.0656084559,-3.35095284596,-6.19428709253,-2.7845528847,-7.85149411678,0.0586579393033,-3.18174210223,-4.0502678448,-11.2052018617,-9.93089536699,-28.0354844649
off_to_on,-1.01123594166,-3.8072011544,-0.204591765977,-0.705245187309,-2.12122804792,-4.72467679517,-0.968202296629,-5.95286270113,-0.00136653312844,-2.06578180904,-1.39371780573,-7.52714846602,-6.23270286873,5.71227079621
off_to_on,-0.166896192979,-1.54243984491,-0.441080782384,-0.280783705577,-0.497731616566,-2.34903756037,0.643604647175,-2.96275819087,-0.0737495668785,-0.579155798163,1.73465643526,-2.69192279785,-1.57180628871,39.1195449297
off_to_on,0.362280218613,0.846687925931,-0.553908467308,0.100935785417,0.999974511975,0.247355034318,1.86484324388,0.415634728579,-0.146034142998,0.916547585105,4.58233411377,2.2322163691,2.99375869673,61.5885020238
off_to_on,0.432382922664,2.83410385659,-0.494820071452,0.371525570004,1.94580504181,2.4130930557,2.62387972168,3.4481614459,-0.201542651087,2.08782391791,6.47340231031,6.29041880751,6.54402074598,65.9156077662
off_to_on,0.11750744177,4.0535836422,-0.270197970711,0.512760537312,2.14416675696,3.71920650301,2.94200229617,5.54150840574,-0.22297106584,2.70764625042,6.95821181963,8.8218492606,8.48412585334,50.5494834058
off_to_on,-0.332799870406,4.36289548979,0.0607998625729,0.549389828246,1.67928892438,4.05439808099,2.90174264593,6.36792801394,-0.197437638929,2.70013023731,5.9051281261,9.54762827269,8.63111604342,19.9940179095
off_to_on,-0.603031119458,3.84022526305,0.404824557572,0.528021477953,0.862151986631,3.60326014482,2.61296361956,5.91438103851,-0.121532767705,2.14276010469,3.52148911979,8.56279274924,7.19320950579,-16.7111030859
off_to_on,-0.445775364253,2.72443506161,0.66317221302,0.491484166041,0.0973012381933,2.72656555388,2.18145239804,4.4488923692,-0.00458850611251,1.22957136524,0.304789365193,6.25250305833,4.66251659746,-48.87195052
off_to_on,0.209773046377,1.32537951406,0.761417208333,0.458926950135,-0.279654055958,1.79631171818,1.68336552666,2.41939362214,0.131328909225,0.208899741777,-3.06371532468,3.1666963148,1.66105180469,-67.4111486239
off_to_on,1.21482989335,-0.0647765647162,0.670629989056,0.419085061801,-0.133187593708,1.05090816079,1.14934688476,0.317824675393,0.255325914302,-0.685085702314,-5.86231985589,-0.11005595576,-1.21431126799,-67.4843581783
off_to_on,2.23971042656,-1.23380289167,0.414152204384,0.338763304855,0.42086791361,0.524037043736,0.562891068217,-1.44998752853,0.334892611403,-1.28805340991,-7.48231402535,-3.06400717096,-3.50948291964,-49.6723541557
off_to_on,2.88156502151,-2.07247329975,0.0587925744043,0.182644955255,1.06281181721,0.069642100639,-0.123547125106,-2.65221374858,0.344655916014,-1.53486289016,-7.56145666755,-5.31673855912,-4.97140038547,-19.4824414571
off_to_on,2.8047836422,-2.56059956068,-0.305815703508,-0.0638599562004,1.39790178224,-0.532636671716,-0.955340402099,-3.25479124962,0.274206417836,-1.45786418218,-6.06839830396,-6.64683752686,-5.54481429042,14.5562650477
off_to_on,1.86674647879,-2.73007914396,-0.592669202227,-0.378319521252,1.11910877703,-1.43817581628,-1.93268101508,-3.37996101874,0.132562971667,-1.15871157021,-3.31613758224,-6.97838225911,-5.32295121735,43.5066000698
off_to_on,0.186555067455,-2.62437827756,-0.739854731533,-0.698900554112,0.143459825924,-2.62332680274,-2.97184389862,-3.21917395798,-0.0523469684577,-0.765379104637,0.103478141649,-6.35192058497,-4.47764153361,60.4979569391
off_to_on,-1.86705886503,-2.27171406574,-0.723939852119,-0.938280064995,-1.32971366413,-3.84568743092,-3.88823814737,-2.9342601507,-0.239436163526,-0.389124396808,3.45338374072,-4.89361956503,-3.1955913354,62.3481403867
off_to_on,-3.76682831303,-1.68115169894,-0.561624814619,-1.01021194643,-2.8631570852,-4.69935120394,-4.41603158106,-2.58400275995,-0.384153899061,-0.0945766739982,6.02314956024,-2.79325426191,-1.64019465243,49.9647823023
off_to_on,-4.97090764844,-0.860336028893,-0.300779279981,-0.860178594523,-3.91716857272,-4.74970110678,-4.26938141596,-2.10408775798,-0.44964622638,0.109267408375,7.2960053929,-0.293926770976,0.0542550627139,27.5780868087
off_to_on,-5.077887647,0.155460444742,-0.00489789592691,-0.489454141938,-4.03223286359,-3.70167242179,-3.23557150654,-1.34932132646,-0.416397176205,0.256706487842,7.06630618214,2.3114262713,1.76251268479,1.20254279393
off_to_on,-3.94824353172,1.27783519324,0.263767691519,0.036550177651,-2.99734251388,-1.541109585,-1.27528717153,-0.183892619405,-0.287728944176,0.398200756241,5.47481600698,4.68701001021,3.33901800058,-23.1066365409
off_to_on,-1.75764949224,2.35696024603,0.457731540037,0.60000754863,-0.945850769196,1.40423304222,1.40429907164,1.41406837945,-0.0896495419489,0.56949123091,2.95260249457,6.47588524283,4.59919420015,-40.6759496728
off_to_on,1.03312488957,3.19796729465,0.551675353786,1.0603116987,1.65631683917,4.51193309379,4.33706254089,3.27629633968,0.134941444445,0.768767004557,0.0920162036577,7.34361403395,5.32727856112,-48.9893064073
off_to_on,3.78439055782,3.60063627635,0.543283673718,1.29338575926,4.13040119672,7.01293406618,6.86622053201,5.0334436106,0.336194797548,0.950539574856,-2.51423924292,7.04268260315,5.31621126122,-47.7580269564
off_to_on,5.83265420658,3.41250436018,0.448971430995,1.22879348542,5.77768383635,8.19968261327,8.29014246458,6.1863776341,0.468879045207,1.0389175228,-4.41588155153,5.48613885266,4.43180320274,-38.4549412569
off_to_on,6.65542877818,2.58005216989,0.296906739203,0.872898627827,6.08678809408,7.63333024286,8.05538439815,6.24821833316,0.502735912897,0.956086916104,-5.38783470331,2.80977609451,2.68151082325,-23.600592579
off_to_on,6.00452284227,1.18182905372,0.119646749824,0.310256618169,4.89161394085,5.28772582807,5.94479510125,4.91758870811,0.429217207299,0.656197427667,-5.43413522957,-0.601910123928,0.26189714936,-6.07809703112
off_to_on,3.9746222175,-0.568579686009,-0.0520686123313,-0.317994463025,2.43116253344,1.58573622811,2.2003578185,2.22597089227,0.263193312232,0.152378865769,-4.72332932643,-4.1469926222,-2.43894914254,11.3543889216
off_to_on,0.989679617415,-2.35415696729,-0.19375123761,-0.852818612823,-0.707445553376,-2.68566305263,-2.46900358696,-1.39759911304,0.0394722590014,-0.473811494129,-3.49008238817,-7.10314198988,-4.89678041038,26.3236868213
off_to_on,-2.29076585291,-3.81584068327,-0.289851400085,-1.16168124047,-3.7461150848,-6.56068082486,-7.01573397357,-5.18089925558,-0.194869313596,-1.08591040898,-1.94750718472,-8.7798750748,-6.55980439148,36.9497753404
off_to_on,-5.12407995259,-4.6306269819,-0.334885398451,-1.1753645301,-5.92683384938,-9.13171157375,-10.2992279663,-8.18260779011,-0.390527688469,-1.52695227407,-0.24586607906,-8.69483632023,-6.987339626,41.9117183386
off_to_on,-6.86010613602,-4.58812182025,-0.333023186584,-0.906128904339,-6.71535983223,-9.77567858032,-11.3903376062,-9.54620054873,-0.506230342986,-1.66533436919,1.51068394168,-6.72757572814,-5.9813137287,40.5438917312
off_to_on,-7.09762249833,-3.64651869554,-0.295981634146,-0.441872531266,-5.93982752331,-8.3109086836,-9.85044905399,-8.76183624834,-0.517176463314,-1.43799066055,3.20674369724,-3.20087605174,-3.66947327259,32.960664815
off_to_on,-5.78285741114,-1.95298684455,-0.239207969804,0.0816510878222,-3.82698031721,-5.04474209537,-5.89847605272,-5.85312481856,-0.420098036165,-0.87636318031,4.65671831298,1.14788504208,-0.508102084504,20.1426128635
off_to_on,-3.22426815249,0.178592390903,-0.176887261222,0.521762894057,-0.929279290998,-0.700809100419,-0.40413339842,-1.42116212905,-0.234058985624,-0.105138929785,5.58714813751,5.31546724311,2.8072713904,3.89776782904
off_to_on,-0.0179952862193,2.32948723207,-0.117063180492,0.770225123297,2.03258724384,3.75447535126,5.30685378423,3.48201881942,0.00313417327555,0.688079325689,5.68640218807,8.27578498328,5.50747243008,-13.3533642163
off_to_on,3.09878706991,4.06464304461,-0.058693011984,0.78246795054,4.36440805541,7.34189834515,9.793326869,7.62553367398,0.242295802381,1.3045373731,4.71614586718,9.25759494264,6.95025445681,-28.9502692629
off_to_on,5.42984705641,5.02780123536,0.00767823301043,0.586194207138,5.57476289816,9.29858307074,11.8942112518,9.94296292094,0.432723641696,1.59226693978,2.6454112808,7.97747752103,6.7991831383,-40.4361930715
off_to_on,6.489788893,5.0207177424,0.0949512612607,0.267569850162,5.48543418388,9.25036597517,11.0640827717,9.84401728261,0.532770431616,1.4918666998,-0.252342289276,4.75206031552,5.12543176189,-45.9571978254
off_to_on,6.11652755903,4.04721121949,0.211228615445,-0.0597025925917,4.24968671334,7.28664719625,7.54431034368,7.39516383441,0.51905334331,1.05469317158,-3.39518157507,0.442257054996,2.39641543101,-44.5230220258
off_to_on,4.49616356181,2.3111034797,0.351074392411,-0.291930751762,2.27988885129,3.92185454607,2.30965755592,3.3066140406,0.392285879715,0.42634947894,-6.00832149807,-3.76952155343,-0.65194940802,-36.0982774568
off_to_on,2.09469330323,0.168576189976,0.490103015161,-0.367424357604,0.111763776497,-0.0438236218318,-3.20326246308,-1.2770340523,0.178193412846,-0.200352158566,-7.34014710012,-6.71448350145,-3.22582733625,-21.5602339074
off_to_on,-0.481910495821,-1.95295543921,0.586380852143,-0.283046339454,-1.75092971916,-3.72671506743,-7.51067143264,-5.12115052537,-0.077122989546,-0.648214603854,-6.91413100667,-7.58849187822,-4.70470781442,-2.59567403485
off_to_on,-2.65652374601,-3.64890396419,0.59019663113,-0.090827620478,-2.96472490784,-6.37195936611,-9.51599505519,-7.27251521211,-0.316796992795,-0.813415640382,-4.72659266054,-6.20859029855,-4.82096637873,18.4066080692
off_to_on,-4.02769163755,-4.62113825179,0.460688836914,0.123217970582,-3.41249530406,-7.52144516539,-8.82932782694,-7.33780990009,-0.485933627938,-0.698143248801,-1.30743442922,-3.08608691862,-3.72869073188,38.4708694486
off_to_on,-4.45157174768,-4.73152299995,0.184633790392,0.270281088359,-3.19338395951,-7.09613517442,-5.86942409524,-5.57734513639,-0.544635769396,-0.405932884737,2.39791801968,0.719371931089,-1.93673729053,54.2284903206
off_to_on,-4.03824913607,-4.01486309314,-0.209329237047,0.289274953742,-2.54756132583,-5.37587855521,-1.71256712258,-2.78286152772,-0.478111182289,-0.100199878839,5.30452549924,3.9302685811,-0.125537183293,62.2928392696
off_to_on,-3.07072527304,-2.65248835336,-0.647586855053,0.166751815309,-1.74710015971,-2.888769944,2.26600655416,0.0184196917221,-0.301101843618,0.0602911089318,6.53916617088,5.46757296032,1.09244997692,59.8755825881
off_to_on,-1.88089508068,-0.918318267039,-1.02338023627,-0.0597683371287,-0.993750613283,-0.247343338326,4.84325385991,1.93054448106,-0.0551392681764,-0.0138366646132,5.74711632322,4.81866273778,1.38691209681,45.592167158
off_to_on,-0.730459440221,0.884651147771,-1.22270785837,-0.315344957428,-0.360015599695,2.0172791965,5.34394717425,2.49718335821,0.201065860355,-0.301891182288,3.23957420475,2.22999404334,0.822386066721,20.2590910202
off_to_on,0.259251943519,2.47969680546,-1.15821266188,-0.512847637923,0.206950671811,3.5742465002,3.84821724951,1.84137214011,0.405917267057,-0.673402689502,-0.0846124782352,-1.3507308269,-0.173792306257,-12.6242562771
off_to_on,1.10506600843,3.65186416735,-0.801059023531,-0.581208847812,0.822936958406,4.33342947185,1.13945826455,0.585474603697,0.51033109589,-0.932251081412,-3.03150574872,-4.57709869008,-0.981506683649,-47.0231244698
off_to_on,1.89353672214,4.26122825799,-0.199840631223,-0.487599042148,1.57279219208,4.40366816037,-1.59164712042,-0.420430313938,0.490192310513,-0.89137665316,-4.52760979939,-6.16090014669,-1.03862523324,-75.3260249791
off_to_on,2.68010585322,4.24031056411,0.521705862782,-0.246957833129,2.42557933672,3.99342172668,-3.18670442103,-0.461916335363,0.352484499269,-0.452364635077,-4.0149894756,-5.33429216233,-0.0826163975443,-90.0442073433
off_to_on,3.40430413239,3.58672801824,1.19046303291,0.0832329635434,3.19814859149,3.29768776486,-2.95020922182,0.721883261849,0.133361123948,0.339788198644,-1.6800197974,-2.15721713599,1.70884268312,-85.8864513924
off_to_on,3.86464105831,2.36088436462,1.62799292593,0.420297606206,3.59016754096,2.41803469882,-0.917951085111,2.79105779315,-0.111378224956,1.28984212087,1.57873455411,2.44592350023,3.7386838135,-61.6160249686
off_to_on,3.77341099742,0.691950240713,1.70115445336,0.679737045368,3.28688675458,1.3477398741,2.13687202985,4.89449615097,-0.320839629639,2.10100476131,4.44805406053,6.94942224185,5.17751968239,-21.0415687536
off_to_on,2.87786642042,-1.21344811998,1.36420750155,0.797356447367,2.09774462216,0.0263659706213,4.96972331375,5.9757783203,-0.444661196937,2.46720080895,5.67007845056,9.71621117166,5.26068529271,27.3344545271
off_to_on,1.10302847478,-3.07221688542,0.678665076625,0.744136884681,0.0797191337735,-1.56219007073,6.3160848246,5.19155812876,-0.455506556387,2.18020011342,4.52258982526,9.55897541944,3.59417640297,72.1128263364
off_to_on,-1.34430248498,-4.54884492371,-0.196910345868,0.53078865339,-2.40768968101,-3.29524973503,5.37183878491,2.28950500959,-0.355168699653,1.21507240543,1.13362714619,6.18357759669,0.357279659186,101.875273277
off_to_on,-3.96327144987,-5.30951011197,-1.04606729942,0.202348332269,-4.75102235225,-4.87043534972,2.13007860407,-2.20209936548,-0.172885556298,-0.237993854399,-3.49542277192,0.356211265262,-3.68155889393,108.37229191
off_to_on,-6.06146534962,-5.101002207,-1.65236599381,-0.174143602356,-6.2364547692,-5.85023713186,-2.55377075751,-7.06086805401,0.0433355385471,-1.81131363325,-7.78513703645,-6.27786469696,-7.3582526323,89.0605286406
off_to_on,-6.95260926677,-3.8355638719,-1.85946122151,-0.524693065997,-6.2709530611,-5.7906621542,-7.20492713477,-10.7246045844,0.239712985293,-3.05978794405,-10.1045115962,-11.6808749165,-9.46555413318,48.1458970423
do_nothing,-6.19002217879,-1.65344922878,-1.61546175206,-0.782381704132,-4.60292022387,-4.41581690972,-10.2086228243,-11.8063370406,0.370318599509,-3.59464210819,-9.35294779565,-14.0656668066,-9.1541958477,-4.29877893279
do_nothing,-3.75494175522,1.06503169635,-0.987955050577,-0.898109964068,-1.4642258587,-1.77455802265,-10.3674690361,-9.59746181149,0.407743842789,-3.20881021884,-5.39297105858,-12.4876929564,-6.24778983127,-54.9826204768
do_nothing,-0.125685473686,3.75507051278,-0.144817174464,-0.847434823063,2.42780565721,1.68792554049,-7.34455899986,-4.37937389544,0.348308456112,-1.95238685559,0.827946483293,-7.18754047415,-1.35791453754,-91.0762480189
do_nothing,3.81130131068,5.78757618566,0.69362303002,-0.633914073474,6.02921924604,5.18784453651,-1.83277491231,2.57910185358,0.21101295601,-0.131114109698,7.5251843261,0.437331994404,4.25208687226,-103.822179533
do_nothing,6.99486226615,6.62830964986,1.31668418625,-0.289453658502,8.25686534825,7.79113654625,4.61943728125,9.35777432193,0.0311771832879,1.7748735729,12.6252567865,8.2329176136,9.02308028107,-90.9612336522
do_nothing,8.5012594202,5.99269923087,1.5810146452,0.128468137267,8.32427147467,8.68500772762,10.0786739972,13.9589561386,-0.149026481487,3.2487947365,14.4375993146,13.939052973,11.5685910765,-57.2147435516
do_nothing,7.83667292985,3.94803603015,1.44679701203,0.543496354674,6.02014937037,7.44880001696,12.8428015481,14.9371626528,-0.290458084304,3.88919263152,12.2241568006,15.8833464432,11.1065206219,-12.6784372145
do_nothing,5.11168228207,0.925541420878,0.982419104869,0.871804239893,1.83170129275,4.23074423504,11.9983486745,11.8764861286,-0.364962436287,3.52847992685,6.47036387934,13.4956152735,7.71252532678,30.3423967256
do_nothing,1.03373321399,-2.3705136991,0.337612376034,1.03791798575,-3.14302251308,-0.23949650447,7.7306038286,5.55244566131,-0.359952555325,2.28069655856,-1.24026323043,7.4776539693,2.30933981618,61.0250850209
do_nothing,-3.28804904208,-5.13801422201,-0.305159305413,0.992719579943,-7.48456685786,-4.82215703911,1.27921450305,-2.28266651135,-0.27929338832,0.503809996914,-8.71139765519,-0.423854908594,-3.6076931816,73.0623789539
do_nothing,-6.66859225806,-6.68987898876,-0.784965590797,0.72933867784,-9.86668591852,-8.28090239316,-5.44887242127,-9.42681370338,-0.141069012485,-1.31059633937,-13.819452377,-7.96360898123,-8.42162865751,66.0956350618
do_nothing,-8.20080938116,-6.64313099974,-1.00536871819,0.29156641902,-9.47221058686,-9.64587083853,-10.48154506,-13.898545141,0.0267009651199,-2.68431415019,-15.1714608125,-13.0827782056,-10.876095077,45.170556978
do_nothing,-7.52401741637,-5.02691947613,-0.953789992352,-0.229807080574,-6.27673453911,-8.51156408336,-12.3989412715,-14.5333235884,0.191308401214,-3.28932381318,-12.5179224165,-14.5115924498,-10.4341929488,18.517974855
do_nothing,-4.92037261979,-2.27519456941,-0.693434598968,-0.714477076374,-1.10083427636,-5.17124170313,-10.7627697863,-11.3140097253,0.320759069519,-3.03232379394,-6.78897873092,-12.1017547362,-7.40273853157,-5.48008375372
do_nothing,-1.20981831215,0.895441163616,-0.33311729975,-1.04137346893,4.59928159883,-0.540035620983,-6.2201805551,-5.33403326007,0.388851603963,-2.06338023619,0.24744189348,-6.79627448908,-2.79055783157,-21.0394119026
do_nothing,2.51884335908,3.68664565263,0.0128774135883,-1.12175352301,9.14969045721,4.11263238434,-0.256906597006,1.58450317307,0.37961654758,-0.71074783046,6.57843093862,-0.267058179285,2.04145942945,-26.4972675236
do_nothing,5.24925247162,5.43748910015,0.260574581306,-0.926973204504,11.1622332142,7.5378578077,5.3070546782,7.48161872248,0.290718412068,0.632253871773,10.5815120557,5.6420841329,5.81394513888,-24.1627107887
do_nothing,6.33777121482,5.7962096314,0.376302512708,-0.501485434188,9.96763567672,8.87032725363,8.9023802411,10.8581796071,0.135196073422,1.62848681049,11.4881271722,9.47381067973,7.69976305107,-18.6850539857
do_nothing,5.6768333894,4.79500234676,0.376143496002,0.0448155902573,5.83912563696,7.86523581212,9.67898139028,11.0874215388,-0.0592369864745,2.08687005906,9.53003257714,10.5370561902,7.51491765322,-14.6789998497
do_nothing,3.67558962792,2.81010552535,0.307905827991,0.564673105949,-0.0698058587422,4.93776515134,7.70982844476,8.51676440158,-0.253958290704,1.99518001344,5.74152758968,9.00252643227,5.68179392887,-14.5972900059
do_nothing,1.07649421005,0.426234843285,0.224751756731,0.914958454863,-6.06029947177,1.00047241955,3.87985423364,4.24933454423,-0.40631581183,1.49176594212,1.51325142164,5.71396683944,2.99937546396,-17.7082588669
do_nothing,-1.31808353243,-1.74630657956,0.161806606004,0.999453028791,-10.3950528288,-2.83938282307,-0.479091262417,-0.295073975384,-0.478747954151,0.793620038947,-1.92392816061,1.81332833783,0.320750360449,-20.5718657541
do_nothing,-2.90831071823,-3.24146819289,0.124793933335,0.799340705296,-11.8202922164,-5.61713033302,-4.06230757751,-3.87039833332,-0.448289086454,0.111737949695,-3.89264171501,-1.66671439802,-1.73636299223,-18.7942390823
do_nothing,-3.45808084496,-3.8426049455,0.0941043758298,0.380870922874,-9.93967845266,-6.77168777543,-6.00272832709,-5.77156763917,-0.313958638288,-0.414187871867,-4.40606486984,-4.09446507203,-2.9430403731,-9.3155379718
do_nothing,-3.10749335286,-3.59700513708,0.0410594114497,-0.123492820099,-5.32378807652,-6.25259154675,-6.08135339742,-5.96219102309,-0.0995739420002,-0.740619447858,-4.01966916497,-5.32650974704,-3.43397609917,7.74584724405
do_nothing,-2.24736023228,-2.74678816649,-0.0518705673096,-0.555555336896,0.676593695059,-4.45402082701,-4.68482515942,-4.9435402798,0.149585620255,-0.901519816037,-3.48098231347,-5.59062582609,-3.53497352998,28.5143643013
do_nothing,-1.31766653074,-1.61130652536,-0.176556521504,-0.781191754279,6.35053704613,-2.01854541659,-2.55513643141,-3.44427341678,0.376243884554,-0.960978377949,-3.33592115994,-5.24586005286,-3.53243884002,46.3774183337
do_nothing,-0.616943477886,-0.469627828359,-0.297430559259,-0.733507409849,10.1442439583,0.404554165099,-0.450827443393,-2.07292056858,0.524837837616,-0.962481633535,-3.66077207372,-4.54409545856,-3.49400454642,54.3020823639
do_nothing,-0.199596791914,0.513766619527,-0.363883716488,-0.434980119832,11.1114424359,2.35381573426,1.13736609243,-1.0791766727,0.556047282197,-0.899605810674,-4.03190813616,-3.50595842103,-3.22360011487,47.6061527383
do_nothing,0.101820826097,1.2982732603,-0.332072999662,0.00926784721232,9.15889180575,3.63829749592,2.10752577503,-0.316001502808,0.458071827365,-0.721775727222,-3.74422119627,-1.96482616829,-2.37361281639,26.1109688567
do_nothing,0.546169874959,1.91801756463,-0.187042852498,0.445500280891,5.01948123335,4.29483000612,2.67133169564,0.59462046534,0.251153518378,-0.371923402224,-2.18431521532,0.248334613852,-0.665895642699,-5.2183368811
do_nothing,1.3077701006,2.40489402607,0.0445830115824,0.721946305613,-0.0242116173323,4.45924644113,3.13574388666,1.97736744301,-0.0164266490607,0.162488859773,0.802627074268,3.07516606583,1.87871097555,-37.5075331711
do_nothing,2.33721151554,2.72477559926,0.297724358756,0.739385342237,-4.56354732156,4.22463646532,3.65548208741,3.83717414083,-0.280220753523,0.811020142689,4.71587790755,6.07791791377,4.81397389806,-60.7509149674
do_nothing,3.32662661442,2.76063914498,0.488059998066,0.484880941355,-7.49007661819,3.56060064155,4.08101265525,5.74119810053,-0.476302953066,1.41645144767,8.47181445708,8.46082503249,7.32093483561,-67.2012136099
do_nothing,3.80391364433,2.35464789825,0.541129515362,0.0372017781152,-8.28787020302,2.3358911203,3.98328499072,6.91833836685,-0.558142084647,1.77384959659,10.7398942274,9.2888754964,8.44540998344,-54.1672939742
do_nothing,3.32559339906,1.3939356958,0.420810854892,-0.45816929598,-7.10889213234,0.43621730591,2.85653242272,6.55303230089,-0.508810082856,1.70226774764,10.4283879051,7.84029636862,7.44805160277,-25.1791112806
do_nothing,1.69346643441,-0.0968633203885,0.14629115273,-0.836354556395,-4.62708334352,-2.07915239412,0.417036758096,4.16334283234,-0.344962948019,1.12329780418,7.13967906765,3.96118306424,4.13975684512,10.9666071522
do_nothing,-0.895739278111,-1.90028323482,-0.209543157979,-0.967118352542,-1.74232529046,-4.86321721796,-3.13606866741,-0.0922585255559,-0.111455916326,0.114599492385,1.41584103861,-1.7280444993,-0.933419964532,43.016559645
do_nothing,-3.83856652759,-3.62066750672,-0.540746452724,-0.797731704049,0.748470482194,-7.28057474604,-7.02898443589,-5.31955479042,0.131728402486,-1.08703418026,-5.33498590285,-7.88332007069,-6.54773749819,60.9886722069
do_nothing,-6.27228265373,-4.77590977873,-0.741461205052,-0.370537189267,2.39409056424,-8.54857026925,-10.0622025831,-10.0718517801,0.326250064882,-2.14134334598,-11.2270223477,-12.7647198413,-11.1106731997,59.5282198924
do_nothing,-7.34226519388,-4.94280610563,-0.740357571788,0.190400688307,3.16745386158,-7.98916054925,-10.977568334,-12.774622771,0.430838933682,-2.70545196749,-14.4796453611,-14.7565657539,-13.1377864972,39.7102083336
do_nothing,-6.50097127979,-3.90872893371,-0.524519298631,0.718842831864,3.36851157338,-5.30786466147,-8.92733062086,-12.2576340955,0.430888437622,-2.54806677954,-13.999127111,-12.9140346813,-11.7459585772,8.64016599287
do_nothing,-3.73198137979,-1.7749116805,-0.144605853276,1.0587954799,3.40755937667,-0.792555688343,-3.87412335494,-8.20911653122,0.339693469728,-1.63759369056,-9.75828855239,-7.34550783823,-6.99417315032,-23.0208434123
do_nothing,0.386761845835,1.03076727538,0.30027853989,1.11250481035,3.56757279472,4.6582066105,3.2414723779,-1.38153546221,0.191535305574,-0.171231164008,-2.83961407496,0.716537465593,0.0547713543601,-44.7449374655
do_nothing,4.81344800757,3.84478280072,0.692528290788,0.868659351508,3.84731190727,9.71377820259,10.6578331489,6.54298962523,0.029385309488,1.46909881326,4.87766054228,9.20390135333,7.58934733095,-49.7448406192
do_nothing,8.33290594359,5.94090695613,0.930425082465,0.402469706973,3.95062653903,12.9609443264,16.2542383267,13.4043015449,-0.108443896869,2.82341122658,11.2840696578,15.7867211538,13.5534513986,-37.2331097226
do_nothing,9.91698803166,6.73433572213,0.955626101701,-0.151114194851,3.42640579169,13.3233805992,18.1864287363,17.1983721321,-0.198327845338,3.49045851633,14.6724690381,18.5591450814,16.2465492297,-12.5471386164
do_nothing,9.03890650212,5.95393291533,0.765551429043,-0.641013717696,1.90165077796,10.4172530641,15.4932055568,16.692478339,-0.23511180429,3.25104993685,14.2304042769,16.619257835,14.8316184577,14.8844698185
do_nothing,5.83974473193,3.72839082286,0.40836887163,-0.945448961338,-0.68913516886,4.7219115598,8.46886446507,11.8213752831,-0.2291012649,2.13792597595,10.2391364738,10.3561397228,9.59045656469,34.9899792821
do_nothing,1.09431629208,0.559138791986,-0.035461299845,-1.0045412951,-3.97680194832,-2.49983770458,-1.33449165528,3.73450081306,-0.198174671059,0.429531646004,3.93002927938,1.3509301927,1.84715277186,40.6735097572
do_nothing,-4.01027482399,-2.81137991741,-0.476928872268,-0.830771912307,-7.19478548234,-9.51755249774,-11.4921931694,-5.52170348505,-0.158575512457,-1.43005373674,-2.93491406874,-8.07595678622,-6.41281647078,30.3099775007
do_nothing,-8.21000919914,-5.59523129887,-0.838746211563,-0.496126875042,-9.38180977098,-14.5940808253,-19.3700669746,-13.5841173185,-0.118191412399,-2.9589486593,-8.60486103497,-15.5261238331,-13.1048673604,8.23415289393
do_nothing,-10.5066406942,-7.1596095329,-1.06636422822,-0.102703229219,-9.68814069268,-16.4536739646,-22.8638427936,-18.4321114525,-0.0749195226234,-3.77242369882,-11.822614938,-19.1851226297,-16.6134985916,-16.9311649176
do_nothing,-10.4149158923,-7.17567966353,-1.12898744309,0.251515312265,-7.68176509856,-14.618117821,-20.9886548198,-18.9236193287,-0.0205257223676,-3.6837633757,-12.1027845557,-18.2853276677,-16.1976789518,-35.4854217924
do_nothing,-8.04916004188,-5.67854906646,-1.0146100369,0.499644315706,-3.54584457065,-9.5158344635,-14.1424303953,-15.0551528612,0.0519253834027,-2.74287129588,-9.74463667386,-13.2435511875,-12.1257357931,-40.228264957
do_nothing,-4.04025349489,-3.03106466698,-0.725401111508,0.617590981408,1.90753875475,-2.34219005385,-3.97338411074,-7.88892401431,0.140557436265,-1.20598238354,-5.61561147414,-5.45792024202,-5.52376638158,-29.1105098995
do_nothing,0.672176306493,0.186956965862,-0.278546991904,0.618974462969,7.42186017622,5.27418366933,7.09293090727,0.802070229372,0.230746513442,0.548043981693,-0.814791713992,3.14350786808,1.98897948717,-6.00517015524
do_nothing,5.09474734522,3.32412893349,0.286540129086,0.538265903635,11.6273815068,11.690301926,16.5103599433,9.03843073045,0.297095903883,2.12433830439,3.6499839276,10.6416475805,8.74731995551,20.6734209208
do_nothing,8.40263709533,5.79482812961,0.898932130093,0.411027038362,13.4190181783,15.6294854337,22.2514888011,15.1257312125,0.311295258206,3.20768969739,7.06672770687,15.5840289152,13.4315903778,41.0010112846
do_nothing,10.0749192615,7.17735466036,1.45268493437,0.260091738889,12.2657553353,16.4264387201,23.2517653246,17.9976254635,0.253327628405,3.62182599948,9.06670287822,17.2420677086,15.3037888604,47.1356511798
do_nothing,9.92899847117,7.26124975251,1.81688496343,0.0928555665076,8.35942615105,14.0934967035,19.5586222796,17.343938495,0.121805714175,3.34276554093,9.54773147363,15.6327708111,14.2554961039,36.185898033
do_nothing,8.07785486652,6.0506539335,1.86258524329,-0.0907593064811,2.56252003933,9.22485988801,12.1870903694,13.5372277205,-0.0609260507148,2.47341432395,8.55401944258,11.3535919031,10.7014920622,11.3335228103
do_nothing,4.85396064404,3.74095042966,1.50258113543,-0.28516863357,-3.82289823189,2.79971530317,2.77074110435,7.43220326004,-0.251733467812,1.19773270973,6.19739096728,5.33165727639,5.39512471145,-19.1877335062
do_nothing,0.740312288652,0.685218826154,0.732468523084,-0.468713854716,-9.39110563727,-4.04043060884,-6.85848545176,0.133602152324,-0.397711314449,-0.265201914174,2.66684623426,-1.40678948575,-0.753919211754,-44.8982026473
do_nothing,-3.67331023457,-2.64232683019,-0.342839261879,-0.602576731231,-12.9740695858,-10.1807224114,-15.0361139988,-7.19277013837,-0.452273993695,-1.69359874914,-1.68720826827,-7.88003338843,-6.80816399344,-56.6809671702
do_nothing,-7.71909471471,-5.69029620337,-1.51150972737,-0.641222199015,-13.896156753,-14.6632107805,-20.5012913383,-13.4388054195,-0.391133538554,-2.87950329525,-6.26122718568,-13.2020280391,-11.8718051755,-49.9394616452
do_nothing,-10.6943615478,-7.89230637742,-2.49285606326,-0.550952297761,-12.0847330889,-16.7682657843,-22.4941473122,-17.6247012167,-0.222525672491,-3.63735328192,-10.1862972922,-16.5887427378,-15.1347372099,-26.2191192628
do_nothing,-11.9479013083,-8.75484685647,-3.00601841367,-0.328768396777,-8.02697729866,-16.0757721,-20.7580427319,-18.9697474451,0.012401474884,-3.81653007619,-12.4567024288,-17.388229153,-15.938200943,7.25011048832
do_nothing,-11.0166362272,-7.96533039717,-2.85216537207,-0.0125773275129,-2.60716473134,-12.5296043647,-15.5090357945,-17.0029015022,0.249991947755,-3.32605291675,-12.1978706216,-15.1820209022,-13.8905571916,39.9152476087
do_nothing,-7.78633635225,-5.49771095795,-1.98537503056,0.323468372498,3.11495415408,-6.50419938299,-7.41560755041,-11.713913691,0.422558391227,-2.16966194752,-8.99867260027,-9.95312964393,-9.02027121582,61.3483419814
do_nothing,-2.6206800131,-1.68019884595,-0.547378545721,0.588970984938,8.12109920808,1.15791458939,2.41157842378,-3.69668840822,0.479261946187,-0.478498841586,-3.18158782538,-2.25743477382,-1.90944658341,64.6161527467
do_nothing,3.60680591767,2.81112425214,1.14990034132,0.706625620951,11.6003578632,9.1862820077,12.4624120856,5.79660024125,0.402590915523,1.47778767752,4.11884372315,6.69975822763,6.27167947038,48.4634235514
do_nothing,9.62487493779,7.05398972073,2.69474435231,0.640341460297,13.0450050317,16.0411355834,20.9619522414,14.9686953702,0.214793812314,3.31833492743,11.1459765089,15.170945166,13.8955263617,17.6294333208
do_nothing,14.023871213,10.0701805899,3.68252909155,0.41099679409,12.2825198374,20.1961268922,26.1348930572,21.7903165569,-0.0282264717031,4.62208585794,15.9626847906,21.190374439,19.1895549806,-18.7437436973
do_nothing,15.6104652584,11.06545397,3.82939837969,0.0925682281548,9.46404939107,20.4996872117,26.5833534533,24.4714765094,-0.253927516588,5.03092585246,17.0277144192,23.0631495648,20.676159023,-50.0280144451
do_nothing,13.7608583458,9.6558059679,3.05856562999,-0.211510495959,5.0292127771,16.5226552132,21.6956923797,21.974514649,-0.395721815197,4.35750497584,13.7223948059,19.8875856922,17.6222132577,-67.366332226
do_nothing,8.65917664112,6.01039387403,1.53150305168,-0.404197510392,-0.343734641834,8.77871501793,11.956866225,14.4085133468,-0.413836240095,2.66246839134,6.63853164049,11.9372835306,10.350933069,-66.2294536253
do_nothing,1.33023272839,0.85807096646,-0.387938299895,-0.430063660358,-5.80644661778,-1.27748326897,-0.972368815109,3.15490184663,-0.307579031512,0.270287280699,-2.49630701382,0.748664181062,0.290326511021,-47.5194855964
do_nothing,-6.56696171604,-4.65903561388,-2.22810851931,-0.296445900047,-10.4384258931,-11.5126020007,-14.4897244727,-9.35825308778,-0.114949841502,-2.29049257466,-11.263282743,-11.160059612,-10.2963359809,-16.9802157187
do_nothing,-13.1439993708,-9.25580651286,-3.53614792163,-0.0716845386633,-13.3801494088,-19.5957315703,-25.5890331153,-20.2090995434,0.100264465187,-4.41292763447,-17.2456163697,-20.8951308358,-18.8528576447,16.7740395207
do_nothing,-16.7784216046,-11.8290768589,-3.99965133253,0.140102083841,-13.9917164478,-23.5810619133,-31.5866594984,-26.7273618439,0.269573860475,-5.57069072281,-18.7565538336,-25.9608781107,-23.205279496,44.894260022
do_nothing,-16.5564791237,-11.7473198474,-3.52780168836,0.239247583904,-12.0079450984,-22.4305382904,-30.8431326851,-27.222742923,0.341981913439,-5.46419336712,-15.3650791523,-24.9731736514,-22.1743631787,60.7429227601
do_nothing,-12.5300673757,-9.0216313875,-2.26892554696,0.171050497629,-7.64692048181,-16.3202369962,-23.2647407982,-21.4767542035,0.299904404793,-4.10871579027,-8.04163217514,-18.0882897321,-15.9359462325,61.4462735584
do_nothing,-5.70806348874,-4.30723527154,-0.561112416776,-0.0491106588458,-1.62878087793,-6.63066543798,-10.4182705583,-10.8403054861,0.163621077719,-1.83573660276,1.13116113256,-7.00183112198,-6.00891048198,48.2066377798
do_nothing,2.21750108862,1.26632022545,1.1671117052,-0.336740410619,4.92168278692,4.38755476554,4.80083673983,2.10441435785,-0.0169650945746,0.794915616875,9.59320886431,5.49643584201,5.13785901479,25.4536116911
do_nothing,9.32936354949,6.38827775417,2.51468043539,-0.566581439039,10.6846216031,14.1841752535,18.8737912372,14.2262063416,-0.180145093879,3.14666533531,15.0818494896,16.286049363,14.7502397449,-0.744251853274
do_nothing,13.9914818409,9.90014832722,3.20915637965,-0.619282230769,14.4280747963,20.5565157993,28.54868522,22.6739111065,-0.273475088118,4.67635543957,16.2956633549,22.7703127626,20.5310979556,-24.4280087887
do_nothing,15.2575906178,11.0772540459,3.16329644744,-0.429765993559,15.2979712416,22.1920983497,31.6675630039,25.6114341405,-0.270817425761,5.0727122236,13.2360092944,23.5660862339,21.2421170076,-41.1316128706
do_nothing,13.0706573645,9.78448812157,2.47492145646,-0.0190097366269,13.0390194084,18.9595225114,27.6987110483,22.6507577373,-0.179660378558,4.32401425038,7.12681690529,18.8275544915,16.99286651,-48.588759755
do_nothing,8.21019392493,6.47183229406,1.3764719933,0.503962229891,8.08280951813,11.8782779088,17.8298603879,14.8719394115,-0.0365768661036,2.69917825288,-0.0433575853997,10.1206888764,9.1436746835,-46.7272331765
do_nothing,2.02179513685,2.02223820599,0.155478544482,0.972771573872,1.47182372509,2.79368281576,4.6076338913,4.44686542394,0.107096811741,0.653745940802,-6.18854881067,-0.0934902632493,-0.132126600478,-37.1442815915
do_nothing,-3.97562036338,-2.49570137805,-0.926322826057,1.21805802752,-5.36873391514,-6.13470665706,-8.76118638375,-6.00047482079,0.203905034935,-1.30576550881,-9.77111889367,-9.1915011281,-8.48109992457,-22.3679409604
do_nothing,-8.48308854762,-6.0968132104,-1.69086064456,1.12733113262,-10.9579599287,-12.9789352353,-19.240624494,-14.0968630877,0.226444075189,-2.75599936527,-10.2150979849,-15.1050737152,-14.0028172071,-5.1858394594
do_nothing,-10.7075120614,-8.0989072718,-2.06539177665,0.689127205252,-14.1043364943,-16.4754102369,-24.6979882614,-18.284793283,0.175406627389,-3.45118552399,-7.96817392948,-16.8146307913,-15.7024199365,11.7974928053
do_nothing,-10.4777561475,-8.24381867117,-2.06906154441,0.00487715365789,-14.1824501391,-16.2449321518,-24.3511958837,-18.1092533103,0.0770042969939,-3.3563551397,-4.22184033804,-14.4958121222,-13.6508427777,26.3624157613
do_nothing,-8.18693684676,-6.70375389644,-1.77740481543,-0.737356897497,-11.2724373538,-12.7711926088,-18.8383571566,-14.1831998992,-0.0287460130333,-2.61949049627,-0.41668543347,-9.31449858719,-8.83833628884,36.7314609068
do_nothing,-4.60748466342,-3.98882750096,-1.28324784476,-1.31987366374,-6.12866365617,-7.17808449963,-9.92821546534,-7.88673105716,-0.10406252791,-1.50142237076,2.27528703458,-2.97390377225,-2.79895483448,41.608422792
do_nothing,-0.652727118618,-0.793543366112,-0.669982901151,-1.5646076463,0.0125101158134,-0.892563321955,0.0164134534096,-0.922464012535,-0.127511029276,-0.291887689205,3.30760983636,2.81969393347,2.85869490882,40.2790487286
do_nothing,2.84260429345,2.17278251728,-0.0045884496259,-1.3914187671,5.73626828919,4.70689190526,8.65931472279,5.13095746418,-0.100875245037,0.761418472403,2.84588490547,6.80435810336,6.87049989292,32.7672121525
do_nothing,5.27438546123,4.33279487821,0.652850368807,-0.84539422573,9.78830480382,8.57343114715,14.2332137586,9.15249803482,-0.0464094158588,1.49442445483,1.58272481744,8.40776614383,8.57851251023,19.9659317762
do_nothing,6.33810558813,5.34031407204,1.23434330666,-0.0835076225067,11.3663816332,10.1592532835,15.8844190885,10.6410857387,0.00410457260837,1.83647597679,0.380450609274,7.75736540618,7.99177350509,3.63888474625
do_nothing,6.02716739322,5.12266981018,1.6571539341,0.675155822972,10.2948450755,9.4576847898,13.7662437837,9.70882450419,0.0238725980517,1.79731894085,-0.103785523999,5.50140702786,5.6682940984,-13.774269951
do_nothing,4.58597895066,3.868591509,1.83353202156,1.21889184004,7.04191198047,6.93781437341,8.89381970193,6.9503488158,0.00317816132192,1.44493717156,0.336368934839,2.53536658385,2.48564703882,-29.5374478493
do_nothing,2.44079598258,1.97054749228,1.69659018004,1.40915620722,2.57797636256,3.40208147334,2.82237885946,3.24888164554,-0.0459692929561,0.885197085681,1.42314031153,-0.265630138102,-0.617953057933,-41.0933287763
do_nothing,0.119558701576,-0.0668605771774,1.23254819605,1.22066971804,-1.88825413193,-0.202005116686,-2.76333702547,-0.429865144013,-0.0946737195196,0.246888949831,2.56547221659,-2.23798318718,-2.86441058501,-46.5059038129
do_nothing,-1.83877012971,-1.73882515341,0.504222055332,0.743018790718,-5.22898889463,-2.98797024931,-6.45710012237,-3.22584319188,-0.109705322529,-0.331570686311,3.14491431976,-3.02112448292,-3.78093170737,-44.7600412375
do_nothing,-2.98638943992,-2.65544886404,-0.348046873371,0.144443729602,-6.69064990099,-4.32629294362,-7.45616237572,-4.54215077732,-0.0688011221024,-0.720508727895,2.78819644944,-2.56699793823,-3.26254908663,-35.8713867557
do_nothing,-3.07176812723,-2.63826672008,-1.13397782998,-0.388415007196,-6.08481055918,-3.9973662166,-5.74153992485,-4.1634021306,0.027555660037,-0.826031969876,1.51386985082,-1.10347687058,-1.56345732029,-20.8348544842
do_nothing,-2.12380693016,-1.77365834541,-1.6639821718,-0.713062687222,-3.82451381851,-2.26388985902,-2.0757498682,-2.31858346311,0.153005534024,-0.621627520245,-0.298513918254,0.919693408167,0.76772917946,-1.48638381715
do_nothing,-0.480577828523,-0.402021161478,-1.80700522725,-0.774146939544,-0.792602672251,0.171173885167,2.19044913087,0.337997041972,0.26274993014,-0.172243355096,-2.08946419941,2.89657934187,2.99920731916,19.653791127
do_nothing,1.26792029199,0.966115474651,-1.53489069337,-0.612777896382,1.92629859036,2.3354928876,5.47430822973,2.85256391175,0.309374084484,0.3645413908,-3.36100245324,4.15697042189,4.36847328935,39.5425149082
do_nothing,2.43124231833,1.79553480975,-0.935665901356,-0.340654224557,3.37872363804,3.26600148508,6.41120951678,4.20767827124,0.261439073883,0.77109448101,-3.86793407226,4.10169956807,4.26548855608,54.8347752485
do_nothing,2.43698978063,1.69893275125,-0.188486756694,-0.0903214616098,3.04572172153,2.33165329145,4.29255105109,3.6313194873,0.117801143015,0.834872670055,-3.67685876127,2.37807440565,2.41950721098,62.2562924103
do_nothing,1.05379683708,0.585375328632,0.493081294856,0.0387293713601,1.02422323977,-0.496421244068,-0.633455864633,0.898954221495,-0.0881780563259,0.429687431047,-3.07470430138,-0.942887621807,-0.957593173709,59.1883115998
do_nothing,-1.46236507101,-1.26904547669,0.930527349454,0.0175059543218,-1.97644351152,-4.53012568088,-7.10927093113,-3.47786703516,-0.296886680064,-0.415239237401,-2.37904624713,-5.25636734077,-5.12938452574,44.4223562266
do_nothing,-4.36936333186,-3.26526565942,1.03802355296,-0.105324361157,-4.83441390088,-8.4762390152,-13.1221367224,-8.2727549984,-0.44100973159,-1.48906285791,-1.74822435065,-9.45551030079,-8.94137156577,18.9041262274
do_nothing,-6.61695725607,-4.64330012117,0.847082726792,-0.228514561795,-6.36320981183,-10.7800910802,-16.4379360999,-11.819034002,-0.468269931039,-2.43629475064,-1.08976698316,-12.1489390565,-11.085991756,-13.8232641817
do_nothing,-7.16966478447,-4.7245682935,0.488738351081,-0.245058364226,-5.70880223118,-10.12390718,-15.2922232436,-12.4967192732,-0.360424506902,-2.85645076708,-0.120037163204,-12.0448194266,-10.4810931762,-47.7783201971
do_nothing,-5.3820966935,-3.16251300534,0.139407845706,-0.0918822977635,-2.67263635871,-5.93268204029,-9.04170286795,-9.30290935069,-0.141572100995,-2.44122925832,1.44427285853,-8.40794599916,-6.66227514713,-75.4810305694
do_nothing,-1.29939369755,-0.115905495392,-0.0495586056199,0.217602200515,2.14981679894,1.28798943162,1.44180065339,-2.31953015364,0.127629217707,-1.10508735388,3.64945723354,-1.44131475209,-0.0588852610831,-89.6101967557
do_nothing,4.23689474582,3.7256514785,-0.0119949144135,0.591589460186,7.47595258735,9.92674629266,13.8031388296,7.10514309969,0.368351731525,0.939878520891,6.14121980949,7.56400491914,7.96473897128,-85.0270098832
do_nothing,9.74374382641,7.29225147143,0.206621421657,0.890392713721,11.6756304196,17.610537234,24.7140885093,16.5734033638,0.508635700706,3.20088789224,8.17208766302,16.4144276173,15.3625379673,-60.5884442804
do_nothing,13.4938871254,9.4310025263,0.467357302435,0.978617485279,13.2546677981,21.8537034121,30.7636031436,23.2418010979,0.506658304218,5.02118596518,8.81062268398,22.5360557464,19.9224241842,-20.1156487828
do_nothing,14.0486460782,9.2671432984,0.594755489803,0.779591792246,11.3398189403,20.8340562549,29.4908800748,24.6624235534,0.364296840386,5.76975286851,7.29533956947,23.7139928897,19.9163624799,27.9532560101
do_nothing,10.7601384544,6.51550703971,0.45146849003,0.311197560568,6.01127106825,14.0531190893,20.2479343802,19.610443862,0.126329851526,5.0482865486,3.40383309262,18.8336551939,14.6917214064,72.3324761146
do_nothing,4.07026992302,1.6347429537,0.00199553484944,-0.311385068611,-1.63369649404,2.65034007451,4.59892207425,8.62124329975,-0.134442952002,2.84761837055,-2.31719246938,8.37774098719,5.00459433892,101.725988553
do_nothing,-4.51236974405,-4.24001488985,-0.659965671093,-0.908594446372,-9.72432075204,-10.7656745919,-13.9158059657,-5.97091793107,-0.341034297982,-0.403665211821,-8.57817725892,-5.51513533537,-7.04206906962,107.976880924
do_nothing,-12.7772022154,-9.58180762267,-1.33314310129,-1.29452398478,-16.1104727939,-22.7576285801,-30.633573467,-20.5534957993,-0.436891937092,-3.92424847592,-13.6576208195,-19.4982049638,-18.4768568567,88.5805114682
do_nothing,-18.4243430928,-12.897815768,-1.77380591741,-1.34004648386,-18.968419845,-30.0045074303,-41.0243945097,-31.1958581869,-0.402988996885,-6.78207382708,-15.9174530395,-29.8771962437,-26.2421587512,47.7242290487
do_nothing,-19.7436570675,-13.1700479934,-1.78230181265,-1.01865519311,-17.3380409386,-30.273607819,-41.9876947299,-34.776258915,-0.26181922369,-8.15704464803,-14.3560791808,-33.6471229315,-28.0605041508,-4.57876048658
do_nothing,-16.1475754241,-10.1732793467,-1.28009972822,-0.418394145995,-11.426160091,-23.118147945,-32.7972941892,-29.9317625397,-0.0673974068981,-7.58542089245,-9.00316914105,-29.3946889692,-23.1236672932,-55.1103244626
do_nothing,-8.38425877284,-4.56697708402,-0.348780849707,0.284939139227,-2.57889515589,-10.0736704869,-15.3934212994,-17.5273278433,0.114750914447,-5.10938393217,-1.00329181376,-17.7810641824,-12.3854634516,-91.0985981377
do_nothing,1.64396749649,2.27272106446,0.784668953317,0.88448906055,7.07329077032,5.7214956453,6.08598713408,-0.482605032054,0.230265775178,-1.28299293254,7.66186776188,-1.44029204909,1.64505254877,-103.809874471
do_nothing,11.4065573623,8.63292421545,1.81303728681,1.20953093042,15.1931605605,20.3759835356,26.4084138023,17.005132953,0.253284294745,2.9700179554,14.7367521528,15.6928733933,15.5600644177,-90.9719881873
do_nothing,18.4544301087,12.9404539042,2.44331154932,1.18004597909,19.8641407242,30.3108557102,40.6600948776,30.6122517753,0.192624961942,6.60501755966,18.3612001375,29.4337876128,25.9688167344,-57.2683059734
do_nothing,21.0951150571,14.1896423505,2.48858699165,0.83006203893,20.0821718828,33.2195555335,45.5497203145,37.0664564328,0.0852417647104,8.73753155171,17.6246626892,36.4672880355,30.4018060563,-12.7519438192
do_nothing,18.8295277201,12.1938649663,1.92644816272,0.292186018135,15.973124097,28.6389528694,40.2217434773,34.9983707572,-0.0199817740959,8.87369482561,12.8212233858,35.2068374875,27.9386131632,30.2991221722
do_nothing,12.427511917,7.59204526824,0.904574849945,-0.250616603444,8.6866593348,17.9771104627,26.3589760322,25.224071966,-0.0816462026369,7.02516966345,5.3243424561,26.1510805967,19.38530863,61.0626880198
do_nothing,3.63812112622,1.62099678477,-0.307248733559,-0.628600793325,0.0195524524799,4.01877237149,7.58109820691,10.4013849015,-0.0810972125607,3.68139088706,-2.86791344518,11.6566142646,6.971122666,73.2059995867
do_nothing,-5.35399790256,-4.26246476733,-1.40118454636,-0.741743363867,-8.09848979535,-9.90894724205,-11.6379505411,-5.79965554748,-0.0280106520536,-0.343573582798,-9.7541084864,-4.77368221761,-6.31809713032,66.3309248022
do_nothing,-12.5419538229,-8.78373063927,-2.1222463747,-0.589697552371,-14.091647496,-20.8347776433,-27.1771748439,-19.7293541156,0.0453894695316,-4.13614608172,-13.9024271037,-19.4479525866,-17.5494832241,45.4470811027
do_nothing,-16.5883132379,-11.153191024,-2.3359232913,-0.265533933641,-17.0575059913,-26.8329707599,-36.2346610712,-28.6698685658,0.0988151879637,-6.91051709061,-14.787815284,-29.3952761031,-24.5503240991,18.7678040822
do_nothing,-17.0611436824,-11.1893091947,-2.05218545935,0.0833602491383,-16.8492338069,-27.32598897,-37.7990723647,-31.3704736806,0.101196128331,-8.17543482288,-12.799934978,-32.9788793728,-26.3233312073,-5.3170484608
do_nothing,-14.3783552744,-9.2489780654,-1.40209706223,0.312274784769,-13.9378130552,-22.9678738512,-32.560269456,-28.099795117,0.0439216951619,-7.80414195616,-8.95310535271,-30.0829522696,-23.0931597941,-20.9942605801
do_nothing,-9.52543784087,-6.0180843855,-0.580200953767,0.333098834251,-9.14399466049,-15.2188159304,-22.3845263023,-20.2787246142,-0.0551081121281,-6.00560266354,-4.43629209907,-21.8915558841,-16.0333407303,-26.5636772691
do_nothing,-3.67935655112,-2.25614638966,0.223160899916,0.145791869146,-3.36110659723,-5.80954898734,-9.60678153358,-9.88773144422,-0.158152871671,-3.22505969697,-0.190140131753,-10.4007570655,-6.81672609585,-24.3041357504
do_nothing,2.11666064762,1.40844699156,0.87422581449,-0.163504542667,2.62864967822,3.70079849546,3.58698818155,1.11232553979,-0.222390707342,-0.0173122362845,3.3281733203,2.13834991236,2.8361489291,-18.8535140874
do_nothing,7.12641944589,4.5700061626,1.31609156514,-0.456418879554,8.19964153977,12.1430845242,15.4991318592,11.155782521,-0.217016996666,3.06658849489,6.12037429406,13.6703358363,11.4727717312,-14.8365660212
do_nothing,10.9190960989,7.01630739866,1.55462711161,-0.59556201372,12.8165974733,18.7191190535,24.9423089997,19.1704260675,-0.136034741041,5.55546591784,8.40537748309,22.5871055203,18.0332961653,-14.7304247038
do_nothing,13.248090691,8.62386514178,1.62217460101,-0.49746852883,15.9375264165,22.8409057613,31.0530888664,24.4564365839,-0.00173182149146,7.09532769058,10.2960332419,27.7904431506,21.820453137,-17.8285656191
do_nothing,13.9125298212,9.25242395837,1.53970244483,-0.166087099673,16.98019275,23.9800549329,33.0911396685,26.495458577,0.142612268148,7.46324816958,11.5634546609,28.6528323093,22.4121769366,-20.7030601891
do_nothing,12.7001697451,8.70785564243,1.2972939676,0.305197898444,15.413370008,21.6597772863,30.4053982153,24.8533877356,0.248148876888,6.57802869165,11.6179834895,24.9851165874,19.6210559825,-18.9515850326
do_nothing,9.46015166318,6.80524310193,0.863298767424,0.763735375556,10.9675397851,15.6364801541,22.6456712997,19.2738422277,0.278272915689,4.51937661265,9.73816200687,17.0795683107,13.5570930072,-9.48780159952
do_nothing,4.27977360576,3.51090167897,0.218246661106,1.04933342957,3.88814482326,6.20488543997,10.1508899464,9.94301023145,0.222157196563,1.55087264491,5.46361866366,5.81860713095,4.772348855,7.60241465484
do_nothing,-2.32555356801,-0.903636922185,-0.603191841076,1.04948527974,-4.88999403984,-5.5291205799,-5.6799322852,-2.20646419315,0.0989225095328,-1.87331939721,-1.01731027352,-7.23697796669,-5.60461021437,28.4653240492
do_nothing,-9.32576747683,-5.78067215749,-1.48472113726,0.739048915565,-13.7632091302,-17.5870216489,-22.271638905,-15.3418470822,-0.0491491666574,-5.14329361884,-8.67192313744,-19.9008076255,-15.8647863787,46.4852436182
do_nothing,-15.282073788,-10.1341909744,-2.23390694943,0.190953743667,-20.7320079833,-27.3870386841,-36.1840587953,-26.8865208356,-0.171863937376,-7.58571548809,-15.7451438604,-29.6453408647,-23.93392817,54.5962250401
do_nothing,-18.6615104425,-12.8613760491,-2.62643254563,-0.445400507515,-23.8906198775,-32.3390025954,-43.8658425135,-34.0345703137,-0.229186030358,-8.60768635659,-20.2057358529,-34.1207911815,-27.8119005402,48.0604798786
do_nothing,-18.2858554356,-13.0588282972,-2.47836683532,-0.990441819227,-22.002967823,-30.6163294778,-42.6759689133,-34.5204816319,-0.205453080343,-7.86028850343,-20.3908632527,-31.799099845,-26.1378981715,26.6392491622
do_nothing,-13.7692432321,-10.3431393947,-1.72190344481,-1.28979139276,-14.9779504927,-21.8535594793,-31.8501718356,-27.4090236191,-0.114517969312,-5.37126639948,-15.6295204823,-22.5447758658,-18.7030788762,-4.74448218888
do_nothing,-5.77807929292,-5.05817629706,-0.454895718598,-1.2605934712,-4.06358085554,-7.5015154367,-13.0504031144,-13.6162811651,0.00600959617257,-1.59459815049,-6.60994746162,-7.89209666218,-6.71292233224,-37.2223284035
do_nothing,4.01023272544,1.72200691508,1.05922582615,-0.914374194017,8.34585565247,9.34164676481,9.76730715255,4.0732421217,0.109195972155,2.65632523696,4.67035422494,9.12827745408,7.34110019369,-60.7513915506
do_nothing,13.2778684207,8.42209775275,2.44850668121,-0.35026795962,19.2740810779,24.6396301522,31.2212401391,21.5767951946,0.156463928302,6.39000666019,15.3940796461,24.6347730071,20.2209587917,-67.5125080378
do_nothing,19.6792288038,13.3744122827,3.33349012204,0.277698071554,25.9551717556,34.4943321886,45.9097080809,34.5540362452,0.131928036329,8.69084103952,22.7191366841,34.8709620899,28.770202356,-54.7292348256
do_nothing,21.5151756981,15.2891703945,3.44200525977,0.807531052395,26.6218670876,36.2720584043,49.9489516414,39.6244418777,0.0480811962737,8.97404171626,24.629871347,37.2394943899,30.7947859568,-25.8599439131
do_nothing,18.2532806643,13.638610547,2.7000996942,1.11501644946,21.0423277475,29.4195072009,42.1585015143,35.3814455309,-0.0592258773764,7.16190353115,20.5642188194,31.0738402222,25.7208522697,10.3330500132
do_nothing,10.7176339682,8.82836261242,1.26712238156,1.14449914897,10.6255464116,15.6899140013,24.4937148288,22.8651688322,-0.144585824113,3.7210254504,11.6038845823,17.8886198489,14.8077966098,42.5823584145
