label,COUNTER,INTERPOLATED,AF3,F7,F3,FC5,T7,P7,O1,O2,P8,T8,FC6,F4,F8,AF4,RAW_CQ,GYROX,GYROY,MARKER,SYNC,TIME_STAMP_s,TIME_STAMP_ms,CQ_AF3,CQ_F7,CQ_F3,CQ_FC5,CQ_T7,CQ_P7,CQ_O1,CQ_O2,CQ_P8,CQ_T8,CQ_FC6,CQ_F4,CQ_F8,CQ_AF4,CQ_CMS,CQ_DRL
off_to_on,-1.02191520139,-3.85038989011,0.0592828654746,-0.134970656567,-2.04881554705,-5.65072755483,-10.3431430979,-6.1193479738,0.554483390638,-2.77958585031,-14.2166222588,-3.49346713633,-4.07912321315,-65.295698536
off_to_on,3.27523679622,-0.259717612228,0.0911248512636,0.121364348884,2.89584257503,0.759101117818,-8.37902220843,-4.45264288399,-0.0367966923689,-1.41280347604,-9.15197805708,-1.14352759939,-0.409174248648,-31.6479008595
off_to_on,3.08220478571,3.00340985571,0.495717729267,-0.297846989117,3.57444277851,3.21026710841,-1.80883798264,-0.906527694812,-0.406039924541,0.535224366711,-3.48205470036,0.935423146976,1.92608532405,13.2765068095
off_to_on,-1.30552127863,2.88238069208,0.501790754831,0.0233793498709,-0.997628285205,-1.7909273194,2.58243422655,0.389481551639,-0.282710700238,1.41572042,3.28643582936,2.22095239682,1.32114870667,-27.9219012056
off_to_on,-4.94824427144,0.251876635697,-0.292602961787,1.31629859854,-4.83445499342,-6.06408182047,1.77057093772,-0.709431358453,-0.116460555566,1.15128846269,9.16050074049,1.44695399691,-0.401427188808,-79.8700321887
off_to_on,-4.23376982038,-1.86679544721,-0.976938998753,1.6691593722,-2.82087338456,-2.27198731652,-1.32128394648,-1.15734163692,-0.0895824528412,0.278594054946,10.9068976943,-1.58346761232,-1.35610188583,-21.1467523053
off_to_on,0.0437494009477,-1.87404000276,-0.586028750674,-0.137779495318,2.77599498439,5.57614680034,-1.0324429854,1.17516957258,0.138878997109,-0.765467647852,8.63973795181,-3.65007128033,-1.12826783472,101.286836663
off_to_on,4.30556527313,-0.622585870812,0.395726100204,-2.31055910019,5.44842290312,8.01666574743,4.1442493565,4.7045042057,0.547332298693,-1.26250799193,4.81024869522,-1.6034374216,-0.0517384992952,128.943782395
off_to_on,5.35711039685,0.397936054565,0.728615099083,-2.15599946341,2.47852692031,2.53187499286,8.24235667968,5.46424809105,0.486705717917,-0.547041871313,-0.01226564078,2.52608172966,1.1037104058,22.230155613
off_to_on,2.60770772773,0.774539068497,0.179228662213,0.256708999255,-2.4134753759,-4.48239013952,4.13788978992,1.37365734065,-0.251086521026,0.777072007385,-6.57330908162,3.71839476069,1.24088600721,-94.1155673998
off_to_on,-1.55801015892,0.927239747044,-0.352369956285,2.19802207991,-4.06277102235,-6.35729311967,-6.34519996291,-4.8284513874,-0.822922941844,1.1512155208,-12.7664880546,1.05138823878,0.25495039171,-105.053608403
off_to_on,-3.79820347917,0.974945718599,-0.25140844674,1.79334628049,-1.53694013273,-2.70089138816,-12.2119179808,-7.5457247739,-0.443193921588,0.222113492268,-13.6934892989,-1.29074696014,-0.286552360766,-22.5698572545
off_to_on,-2.9419541225,0.544640764484,0.16504954102,-0.0737781784613,1.71697664399,2.20800393778,-5.81486275266,-3.88327250877,0.412650717874,-0.484618499719,-6.92445125142,-0.585499538293,0.703091076197,66.8245533901
off_to_on,-0.842614852737,-0.425626892541,0.394368959324,-1.43430470268,2.1911855473,4.20920182146,6.7420844598,2.93795028765,0.663157890287,0.0706256316937,4.10367770918,0.794702392974,1.59289107926,86.6488957079
off_to_on,0.242738176919,-1.31759272864,0.323660284302,-1.39868318275,-0.121266649652,2.10628500626,11.5919663869,6.45568387776,0.145475112338,0.611218848616,12.7168484747,-0.169020950635,-0.0756166494881,10.6579006922
off_to_on,0.290032617145,-1.49792721383,-0.0393572837077,-0.311290622529,-2.18987943672,-1.79703667466,3.32206464832,3.51980692632,-0.330969286791,-0.46370008017,14.2878381585,-2.47910383415,-3.5209451805,-100.561422234
off_to_on,0.73235543857,-0.942831234411,-0.647176191689,0.979456103702,-1.43819797376,-3.46248667536,-8.37015169793,-2.42105059957,-0.291612752656,-2.09950149866,9.14408943018,-3.13525842776,-4.69920526568,-117.104468468
off_to_on,1.89056603616,0.0682864995831,-1.00819939727,1.42421367446,1.3946898801,-1.13567903875,-9.92202784862,-4.94484941416,-0.0804722478282,-1.60906216796,1.42984358281,-1.2736108705,-1.20626014742,16.6956501909
off_to_on,2.4788049738,1.35587214242,-0.442606539096,0.428014741713,3.04518390401,2.29722923505,0.380498482512,-1.46668799971,0.00339497566424,1.29032229629,-4.7309276232,1.82892495526,4.27351320695,168.117258748
off_to_on,1.44097788874,2.37249801688,0.846854390579,-1.11036299639,1.47981886156,2.68326752988,10.6827610102,3.96809007312,0.157537367519,3.45330489977,-8.42556940389,4.57894482219,6.55198340778,149.847074015
off_to_on,-0.769021999071,1.93417444579,1.58125015967,-1.38048302308,-1.60147693986,0.111137042252,9.48989766592,5.0757697309,0.395014646682,2.21448963457,-10.9511315164,4.91453306969,3.34305166994,-29.3283455998
off_to_on,-2.66789274184,-0.382285886209,0.863653677014,-0.0240216248287,-2.64989611384,-1.32271216293,-1.23706427809,0.43909870888,0.251758997694,-1.11848168053,-11.619792875,1.13413812035,-2.50276385933,-163.133451324
off_to_on,-2.83921868677,-2.73965137052,-0.586247642109,1.11014421269,-0.508473933628,0.38870687727,-9.14916951071,-4.699815827,-0.347318649948,-2.98488038839,-6.82897083963,-4.47260215735,-5.72929118735,-121.335802758
off_to_on,-1.05413756307,-2.57841186815,-1.29996102448,0.558074291687,2.01825858924,1.96863401505,-6.95121782275,-4.70979910246,-0.656088985847,-1.94573895671,4.37436869939,-5.96432795365,-3.65812415353,-1.24274340738
off_to_on,0.921777547321,-0.178907217573,-0.891348307459,-0.514469902078,1.26430576161,-0.612313438861,-0.886699987164,-0.747261938356,-0.175639068664,0.117164361364,15.4241233161,-1.52487578293,0.898825224755,49.3224000277
off_to_on,0.690258919671,1.17786079276,-0.255580835781,-0.192761044818,-2.76510590593,-5.93024703469,-0.64255743364,0.994771103209,0.449949017284,0.941381947726,17.138615984,2.37185412777,2.38808504475,36.7396723233
off_to_on,-1.15735615104,-0.0151944412008,0.0125296655862,0.916843373842,-5.32768959604,-7.36332926581,-3.71287001108,-1.11441560313,0.374217591675,0.586407153973,8.40597603543,0.143882544343,-0.438257101078,49.5625144939
off_to_on,-0.316950083292,-0.594677708307,0.444794334235,0.491761749456,-1.34179371737,-0.0127207777324,2.20678618039,-0.371210660481,-0.108378143697,0.651320933075,-1.86983315869,-2.64703489846,-1.74065732198,77.8445542379
off_to_on,5.1948456495,2.47943700056,1.42746000447,-1.495503828,7.88859290851,12.3324780276,18.1415120857,7.90734921382,-0.100617750208,1.59576812936,-6.01328369534,2.98040146529,3.47373653352,39.4383960102
off_to_on,9.19958056027,5.73753310166,1.87227775051,-2.07255903171,12.9588367713,17.488022616,23.9153010695,14.8585440549,0.330611256712,1.79789349944,-7.19159846582,12.0613096888,9.42382812453,-55.7786097028
off_to_on,2.90317672504,2.35674701499,0.33185199894,0.345173518249,4.82263563485,5.47672555066,1.0795351021,5.65102880938,0.251980436958,-0.363745023851,-12.7196044357,8.09112821134,4.32124531892,-101.883433491
off_to_on,-11.6122750647,-7.0588795408,-2.49871678702,2.9748396918,-12.7295782248,-17.66066227,-35.7589083003,-18.0441661114,-0.468829057824,-3.74562607619,-19.4223856,-11.705202165,-11.6644668848,-57.1994779645
off_to_on,-19.0136999804,-11.8824451596,-3.62777924674,2.12937591419,-22.3625083883,-29.7036613781,-45.7991500086,-31.7456073503,-0.783298585275,-4.65677346213,-13.6573326956,-25.0657035307,-20.4595092126,4.3870927416
off_to_on,-7.73118040893,-4.05687140589,-1.12020526672,-1.48596735216,-10.6448839414,-13.7157424224,-9.42839058976,-14.4255511654,-0.126254713436,-0.869778784018,9.7735427684,-10.9793137725,-6.80933888113,21.4847286505
off_to_on,13.4179165843,9.70793472294,2.95395950456,-3.39976592123,13.9809478558,19.0767234258,41.3756172008,21.8092783152,0.623268349259,4.81042944471,34.348034073,18.9657255755,18.4972534425,24.1135124525
off_to_on,23.0323578657,14.4040241055,4.32235856772,-1.27090847858,27.1316938236,36.3552096475,54.9217985976,40.4607799829,0.518338576224,6.62635512546,35.8556854182,31.1067657736,27.5515961991,47.8983445015
off_to_on,11.9333643151,5.10611038065,1.50880077236,2.12241187805,15.3210774518,20.0054177585,19.2821208924,22.2294622778,-0.0276989174046,2.34343583736,9.8342402681,11.852886859,9.25384101765,57.9204636979
off_to_on,-7.01066344331,-7.31154442785,-2.28849731568,2.71193689329,-8.58391818554,-12.4960184761,-26.0088195392,-12.7536783681,-0.0967561458676,-3.78121457715,-22.0857648595,-16.0313911389,-16.5643053636,15.9057509017
off_to_on,-16.2109909794,-10.6626342162,-3.16147092228,0.266007436048,-21.3569219588,-29.3596134425,-40.0399597138,-30.9087053749,0.15989779124,-5.93008450591,-35.5819328559,-24.5706553136,-24.4216550711,-41.0120601754
off_to_on,-12.9014635753,-5.4928594338,-1.17028879622,-1.87831805332,-15.6828499265,-20.7945614212,-24.4155859537,-23.4959991344,-0.0559051133273,-3.34943060379,-26.8256123039,-13.4113164267,-12.5866264132,-53.3899366514
off_to_on,-5.77198278602,-0.286228177183,0.485964268344,-1.40224073276,-3.06745515473,-3.17763776615,-6.49938691601,-7.47041601092,-0.599133777921,0.0921086688768,-8.38235342066,-0.705920177757,2.05367719968,-28.3091347521
off_to_on,0.934035786993,1.98767523166,0.282187582463,0.439894460308,5.60077843224,8.39284251253,4.05280150016,4.30364575289,-0.509260030595,1.93413383077,9.82950344904,6.406129334,9.9169231486,-12.6642240785
off_to_on,9.49868423331,4.92364582875,0.066690040415,1.05663407627,10.8921707592,15.2919512275,18.9424362009,15.324094075,0.287235969,3.31461525546,25.0805680857,14.4142674467,14.8239155462,-9.67583680208
off_to_on,16.9782228093,8.39263332529,1.45357501591,-0.0403152738244,14.6805212983,20.3999897766,36.8751348002,26.443957924,0.689586353675,4.7121494711,31.2994444097,21.5177186005,17.1433302237,12.1895783182
off_to_on,13.5846975256,6.31916580257,2.77600598791,-0.974718916745,11.3082899188,15.3650196216,33.6159402711,24.0067894606,0.17889168954,3.43968048961,19.0836013149,14.0621013495,8.4425266739,45.2980724023
off_to_on,-2.57856803777,-2.78749472232,1.43728090839,-0.244741069969,-2.68420749832,-4.90127558297,-2.24994233431,-0.29331836091,-0.324584548524,-1.90350397881,-8.16904993177,-9.66975412495,-11.2705279018,45.8035159348
off_to_on,-17.880490929,-10.4507927205,-1.94001346632,1.26794241335,-17.2721408509,-25.699518836,-42.8446147889,-29.0250127573,-0.0122593002336,-7.12476708337,-29.2416915517,-28.7078294413,-25.0005057024,9.26192912117
off_to_on,-17.7814111086,-8.55324554462,-3.92231644209,1.45842461706,-18.1376665633,-26.2275748872,-49.0325492406,-34.7893828112,0.441575147904,-6.49329903324,-26.4332958189,-23.6813607188,-18.2936932243,-18.7809097415
off_to_on,-4.48158678098,-0.3778767932,-2.61523224298,-0.225301066677,-5.11728809172,-6.5404256126,-16.9854593932,-13.4330430052,0.0366387812125,-0.372558336205,-6.60583837451,-1.74155015885,0.970580551872,-16.9924362717
off_to_on,7.33171330093,4.51786827418,0.327322675509,-1.91444280283,7.80175804034,12.790775262,20.1005950849,12.1948970893,-0.777570627838,4.85920685168,8.6653782779,14.489061719,13.3589426991,-15.4368042425
off_to_on,9.41636134965,3.4511638032,2.31417966279,-1.56726832599,10.8111602882,17.3976618097,33.2322056376,21.5407953409,-0.713444888393,4.84127924126,10.1851217802,15.7327314288,12.7357484314,-30.9034221285
off_to_on,6.60630661692,2.02368603684,2.64719434007,0.430127433427,7.73860636949,12.4319988017,23.9728704365,16.3075920677,0.294762874539,1.8114553025,7.31452456189,10.9063293567,8.47220224072,-31.1379349629
off_to_on,5.30669373285,3.53122123154,2.00252033379,1.71372242268,5.52934725095,7.50052140391,9.41409563711,8.57618025711,0.924837155026,0.0481027762117,8.48570130135,7.54515733236,6.49771747508,5.30046025076
off_to_on,4.15748002866,4.1652578753,0.693915018248,0.945673927811,3.37942005262,2.10694705198,-1.64841389588,2.38086106422,0.444628281792,-0.00594188881581,8.94330606182,2.50084609296,2.20752642872,41.6828997972
off_to_on,-0.764750711106,0.379926596066,-1.17069960125,-0.59303762533,-2.46718250984,-7.1199670424,-10.0066893028,-4.93581116082,-0.317995395916,-0.697348656979,2.30053691353,-6.53340321903,-6.60337593877,36.7132336753
off_to_on,-7.87215047682,-5.00618872284,-2.67750847945,-0.896139011244,-9.61845410429,-15.3335319056,-15.9413190304,-12.2229147946,-0.384415284894,-2.51747070633,-7.02570674662,-13.6986735065,-12.9788221377,8.05907609902
off_to_on,-11.8295245489,-7.27166571703,-2.67563280301,0.11518563788,-11.9335998065,-15.1090464539,-18.0904947663,-15.1833141908,-0.000166182255763,-3.54173489253,-11.0317965482,-14.228426894,-11.8939623817,-3.00591476891
off_to_on,-9.79151196835,-5.85424335915,-1.15153151442,0.789739636665,-7.69368909303,-7.14351870877,-16.1236952709,-12.8687308368,0.0622446583861,-2.59459529755,-9.96566720152,-10.699313797,-7.39640544804,0.118290327605
off_to_on,-2.35806541097,-2.42200568947,0.843254998303,0.192512810223,0.0590248855593,2.72482579572,-7.60249550931,-5.89220127461,-0.187004787366,-0.312121935131,-7.95624235795,-4.55740062223,-2.64845080503,-12.4016173215
off_to_on,8.12720787292,3.02694319891,2.32749034598,-0.79340543561,8.42966405251,11.9490993423,10.8621858478,7.02149813969,-0.186189406081,2.5238596839,-2.91491643302,8.23936260311,6.72571875811,-32.7738231851
off_to_on,16.3681324638,9.46582185946,2.72567032302,-0.923360049104,14.477533798,18.6917119292,32.0498882094,22.4097283556,0.095333152467,5.16574469533,8.36157913574,24.969413628,20.5488033057,-26.567530538
off_to_on,14.9629385108,11.4340652578,1.66253202835,-0.156585933936,13.0661188306,16.3172668093,36.1832758914,27.0242652748,0.189626953184,5.57386592959,18.4706719741,29.2831631925,24.8609839963,3.36994845795
off_to_on,2.24583917958,4.47658359413,-0.479187615311,0.65569930773,2.02569685698,1.23222210383,12.4171654117,11.0338959449,0.0493238583261,1.83716062689,15.1843506272,9.51827084519,8.05750234093,20.3805867102
off_to_on,-12.3647346532,-6.85565616727,-2.17639018187,0.9064706982,-11.2758177886,-16.2939626035,-22.2472017032,-14.9435926745,0.0883774858232,-4.22034075913,-0.379637850845,-20.6942252202,-18.3428611994,16.4043417654
off_to_on,-16.6541930991,-12.3302470843,-2.15964392188,0.538553436701,-15.5093681569,-20.4902916469,-38.2551636269,-27.8306028816,0.305398832598,-7.43092409095,-12.7355854466,-33.8913285275,-29.377651345,14.4087934717
off_to_on,-9.13419867287,-8.12993168586,-1.01748072475,-0.209922055093,-8.5587296579,-9.77111178054,-26.4921642379,-19.0134666155,0.172044933401,-4.93885218553,-12.3025608036,-20.8920133217,-17.1356807393,12.7417798077
off_to_on,0.698204864948,-0.562204398529,-0.228247630895,-0.799365312167,0.702066234892,2.04167093621,-4.31488629369,-2.62802449822,-0.405467374891,0.311504803656,-6.2114183574,0.723897253007,1.47941866541,-8.18178652854
off_to_on,5.3754249012,3.55057716898,0.135278540087,-0.597961690476,4.81696261554,5.46978308346,10.4364382003,6.0467786357,-0.728523934318,3.45328179243,-3.78514077898,12.0257276446,9.77307882104,-24.5003668416
off_to_on,6.58572092593,4.71691050448,1.14271342948,0.285442416335,5.48951805268,5.55686599438,17.090560976,8.61720144217,-0.287377096613,3.45778614511,-1.80665893616,13.5977272495,10.4567154354,5.73832025537
off_to_on,7.92098096831,6.12569802462,2.45871074121,0.768994315728,6.64420961043,8.76374718835,20.6990386868,13.0661624915,0.447826502842,2.80412355622,6.477228385,14.9277927634,13.1374357737,45.2763790705
off_to_on,7.38246609797,6.36141999011,2.1193957525,0.0943487572275,6.6758899378,10.8629248015,18.2190472752,16.2543753529,0.677664155883,2.60985212785,15.4602392203,15.0402219687,14.9754032088,5.5038849015
off_to_on,1.81638025611,2.10421711863,-0.345291419981,-0.950738600159,2.59652898558,5.44022253565,5.9060711601,9.09972321887,0.315669346869,1.19749165694,12.8275267812,5.83861196254,6.28105876088,-91.9210995472
off_to_on,-5.7535232504,-4.65548378749,-2.4980736721,-0.923567891689,-3.15352090717,-3.94489880447,-9.60624477247,-6.20642480346,-0.109717633551,-2.17274330152,-1.30357686494,-10.7312117274,-10.5929643241,-97.6255560988
off_to_on,-9.09877909853,-7.92218761091,-2.14628916318,0.300425944137,-6.03486651149,-9.29777471407,-18.5586191458,-16.8275406404,-0.292693852284,-4.94837025516,-12.755432761,-21.4977963267,-21.1113599898,41.3367253769
off_to_on,-7.01886877865,-5.69976250385,-0.363914922584,1.34131438498,-6.2994789055,-10.1563447196,-20.0022084238,-16.162731325,-0.338491072284,-4.28885531577,-12.0249944633,-18.3444749307,-17.0112468078,155.474220861
off_to_on,-3.39548567423,-1.76492712542,0.435535654382,1.16440115853,-6.60889626111,-10.5320186422,-16.9462284132,-9.47371265217,-0.28171553547,-0.888795137587,-4.58918419603,-6.55648881969,-4.80267738924,82.012922591
off_to_on,-0.283163862339,0.80808937432,0.164963754041,0.197391767276,-5.2943202132,-8.20412348541,-6.49989651916,-2.315045512,-0.00638351389574,1.98017477874,0.494988229427,4.57476629241,5.48420165203,-73.7731971744
off_to_on,3.68120686021,3.08294486579,0.506697486766,-0.662488392599,1.22464478656,2.06441950263,12.9594830713,6.10001928369,0.33583905138,2.57955464914,2.9397148627,11.7353928038,11.2619241689,-86.8925703661
off_to_on,8.04300988687,5.86537593032,1.47580840416,-1.19324171466,10.1684959375,15.9886938774,29.508858992,15.1960452774,0.355268217242,2.17287929304,6.47267905591,15.4118111988,14.0834906476,30.3934102974
off_to_on,9.03187063943,6.4202029797,1.289550877,-1.40882974379,13.4299510755,21.1392956761,27.0362321365,18.2623309392,0.0149739488245,2.35671582334,8.97838280859,14.3514816837,12.8363469298,46.4946369543
off_to_on,4.79618998637,2.52325073324,-0.272990157785,-0.841039832663,7.82541965079,12.3614348265,6.75332062617,10.816670984,-0.236420899958,2.43762114417,5.3669314898,7.01937188237,5.55013121021,-96.9653535867
off_to_on,-1.84393081597,-3.2023350835,-1.15308586137,0.732565500959,-1.39660995148,-2.66200393322,-13.3470431392,-2.48410030158,-0.112725177291,0.482687010684,-2.95380670303,-4.43636025479,-5.60076279979,-159.904221983
off_to_on,-7.29325292516,-6.20318470304,-0.456671482106,2.24496243849,-8.35931872235,-14.5477945845,-21.3448100934,-13.7729520722,0.10623336718,-3.43438161058,-8.64749387609,-14.9281428781,-15.042644177,16.9366414119
off_to_on,-10.1379118109,-5.42310690493,-0.0154221649122,2.11214471519,-11.9485852154,-20.1689964302,-20.6985574391,-19.235433717,0.0634707579114,-6.16609708719,-7.69012488661,-19.4186058457,-17.7542440072,229.985019301
off_to_on,-9.01433365309,-2.99810691069,-1.04871338528,0.165161106776,-11.675975952,-17.7322297371,-15.1898701435,-16.8552861877,-0.120574283969,-4.49170956665,-2.77610401113,-14.4485484291,-11.3229478996,200.462469392
off_to_on,-2.24795290955,-0.177188078117,-1.64052382559,-1.92868946724,-4.97809650415,-4.56612504182,-0.96051283055,-4.43791747105,-0.112694049639,0.916764598471,1.94587650657,-0.652143710713,2.20523682668,-19.0993577201
off_to_on,7.51379679808,3.1680320313,0.206385291903,-2.38829144725,6.89698000296,14.3577005911,18.8930536622,13.5076243585,0.0631345761038,5.49139299183,4.78427980255,14.3616763651,14.8164657574,-158.356867347
off_to_on,12.5995503404,5.79388588991,2.75828069242,-1.0060700811,15.4801570322,24.5401315369,27.2163341212,23.3570040951,0.11010238643,5.42927098884,5.24622980578,20.0469506891,17.410024892,-139.102161882
off_to_on,8.56278657521,5.31966526011,2.62362788953,0.921706615611,13.355022849,17.0037036854,13.80567387,15.9383225805,-0.0179442025235,1.7173865661,3.26975741247,13.2920230036,9.30098845458,-102.637914649
off_to_on,0.262129593162,1.62132226439,-0.197332855546,1.84783712764,3.15698917921,-0.00701438896269,-6.79298896654,-0.794362522698,-0.0729808450448,-1.53764292223,0.369856048606,1.67306499154,-0.812395726183,-79.3208015889
off_to_on,-4.6320057415,-2.53521692994,-2.26555813079,1.14628119259,-6.35805593964,-11.6441804234,-13.3936478145,-11.1449803667,0.0335052907034,-2.21338622777,-1.67884944426,-6.35985710324,-5.97440554825,58.1882518486
off_to_on,-5.42818686597,-4.71209529575,-1.65484639803,-0.387009744248,-10.4934943987,-13.6765723008,-6.74684146518,-10.9596385952,0.103063116782,-1.8065888166,-3.31787862845,-10.3207817446,-8.19437532278,266.789662874
off_to_on,-6.32468529036,-4.59170271349,-0.11577118017,-1.13357522383,-10.0031515876,-11.2597250612,-3.64525544893,-8.1791347943,0.0282231244536,-1.92492518303,-5.23190625427,-12.841976258,-10.8021407758,270.479770308
off_to_on,-6.89645054647,-2.52953088768,0.319885717932,-0.337427878194,-5.51300225318,-6.1609283228,-7.59379959378,-6.45671594696,-0.0387925115558,-1.61533539481,-4.82699788687,-11.3086304691,-9.84804027741,-22.6720461466
off_to_on,-2.28024031471,1.01893729008,0.186882661621,0.803274582935,2.46099775709,3.36943641729,-5.33385154778,-0.692168843254,-0.00757818931643,0.310214492314,0.626269397509,-1.94016391229,-0.726387585589,-297.966231231
off_to_on,6.62292715835,4.03703788777,0.651792402471,0.526164538624,9.08712670813,12.3006661433,6.5915712987,9.17888945897,-0.0296709909685,2.30470878952,7.44424083131,10.3066003851,10.6831441868,-244.172003722
off_to_on,10.9880018359,3.78567823755,0.996234661432,-0.94353881829,8.33692957667,11.203866471,12.7574332255,12.7924195829,-0.176300208893,2.01981287943,7.93340275141,14.7955511914,13.1805586921,9.29638599081
off_to_on,5.71222784465,0.565516325896,0.08718138565,-1.41536981019,1.64708059422,0.978536174309,4.19356803564,4.56113201035,-0.206695911475,0.219532235128,1.02051789486,8.88557834302,5.76890686064,119.58830113
off_to_on,-2.84993558167,-1.77297979095,-1.10889868489,0.135222828275,-2.96554215437,-5.90960858178,-5.3050823095,-5.62944262163,0.0778359652526,-0.200321000936,-5.2107506397,0.747018462992,-1.44376464033,46.2249118497
off_to_on,-5.6714400559,-0.856623948765,-0.763767858545,1.77243842347,-2.05878291611,-2.90967419013,-1.08035432591,-5.91532011382,0.425975607169,0.988528719505,-4.59494458848,-3.21104313082,-2.77130009085,30.6806334596
off_to_on,-2.83668458224,0.922322662206,0.759420908972,1.20036002003,-0.584776065394,1.90374821697,8.2678521476,0.582469174192,0.387889347949,0.756577558361,-0.921094574209,-5.57366433717,-3.37091846952,130.265503448
off_to_on,-0.719940001353,0.340138094827,1.26289340643,-0.830332435737,-2.22491135697,0.0409988732684,5.04943174292,2.3956395614,-0.0777383590617,-1.97243818204,-0.412844890141,-8.97319384391,-6.89790610733,122.29374049
off_to_on,-1.08026942393,-1.6377544884,-0.00476307083252,-1.53717472164,-3.13133146941,-4.22646780085,-8.5912305481,-1.94641997483,-0.508968111769,-3.70982222487,-1.52776117721,-8.46841489775,-7.26396102413,-76.997972679
off_to_on,-0.299248045466,-1.83668412065,-1.353310091,-0.161948881641,0.0987469729396,-3.02308175984,-14.3800409373,-3.87959009523,-0.473983951517,-1.35565704686,0.907786190047,-0.140329375446,0.120655477914,-223.7607098
off_to_on,2.02602080052,-0.263277232117,-1.19835334612,1.08456925491,2.94694351933,1.01331977851,-6.37353759012,-0.72034947403,-0.0180617960117,2.62169324321,5.0259420922,8.88542693194,7.53219602721,-124.247641395
off_to_on,1.72912438194,0.317070304881,0.0269192363569,0.518017720392,0.402146279673,0.453250991273,2.94780847269,0.917791924477,0.437949937295,3.26566538826,4.00541173224,8.43514387464,5.45150091578,60.5557764312
off_to_on,-1.58865232803,-0.395374258091,0.988693512164,-0.646851127671,-3.25224305854,-2.53283477466,5.20941594438,-1.32442393746,0.501327180393,0.216554397686,-1.96168183839,0.380622795778,-1.74101813411,88.6801428001
off_to_on,-2.25945660671,0.312332780405,1.11519012184,-0.562618448765,-0.682293145076,0.282444976049,6.35019442283,-0.757915206182,0.120252303398,-1.97200399403,-4.68350868248,-3.91906251583,-2.18152105818,10.5827265852
off_to_on,2.22395955289,2.80805524335,0.552319463788,0.328982800206,5.49417910845,7.44944436286,9.85789372919,5.279126317,-0.358001760115,-0.663823764915,-0.788738198135,-0.579976796167,4.11743079883,25.7330863614
off_to_on,5.88527169731,3.43619498575,-0.374620773894,0.396528489564,5.70772618576,8.31126108868,7.43271104081,8.37078514488,-0.463171874792,1.41995577124,2.7918263959,2.42194152165,5.14844714732,110.689770885
off_to_on,2.86576814623,0.235544498925,-0.997665765932,-0.288277301777,-1.09690093415,0.263714812809,-4.26086627022,2.13851573778,-0.095604338586,0.961344839932,0.23479330868,-0.357700186818,-2.95877129659,71.9676532082
off_to_on,-3.43719522042,-3.26688294938,-0.611395253823,-0.268214135198,-5.28419201561,-6.52642181296,-12.3791212377,-6.24691657194,0.300539943439,-0.98095334221,-3.67513162713,-3.24069882413,-8.75644226972,-90.8812784389
off_to_on,-5.56719648345,-3.03066746849,0.396908348373,0.534354720588,-2.03663140925,-5.3486705204,-6.45203202142,-6.616229381,0.260995923162,-1.30784274821,-1.76084036064,-0.484558453905,-3.60386869934,-159.923598015
off_to_on,-2.97530073103,-0.514415939364,0.668479979186,0.583790646242,1.14372168631,-2.54554932259,3.14503719801,-1.44721318826,-0.0674563705721,0.00915683587425,3.45898016634,2.79953656327,4.44244943047,-53.4110991924
off_to_on,-1.14263084649,0.0846299265072,-0.196328925573,-0.504770918557,-2.24161869043,-4.49659732537,0.77740398646,-0.524529298804,-0.13971327466,0.391481348455,3.95384001281,-0.799987783452,3.61911347743,53.2732558971
off_to_on,-1.43515321196,-1.22112238877,-0.840076349906,-1.06206708603,-5.92355394846,-5.29826232924,-8.22732111566,-3.92126671752,0.140616971787,-0.702504277717,-0.672461028678,-7.16907928736,-3.10966379659,31.3219431749
off_to_on,0.658945035821,-0.55967617613,-0.156280897103,-0.0601220786427,-0.979622665428,2.70943009311,-5.16756517327,-2.21503193535,0.233267649859,-0.952397944734,-3.00674494131,-5.5147453239,-3.7563917648,-10.0603907167
off_to_on,6.2260848765,2.86274316255,0.916656775834,1.08540973699,8.47354767455,13.2568979883,10.9004841193,6.54638030105,-0.173174082991,0.721217826005,-0.227271304044,4.7943355398,3.26248012107,46.1485570431
off_to_on,8.91982070645,4.84269955526,0.817359242157,0.70925051327,10.1747281795,12.9379382816,19.0880128457,11.8464030319,-0.556975653601,2.19711712776,2.03427249546,12.1059891902,7.50283687444,105.065643148
off_to_on,3.76741617737,2.45539004864,-0.222626540787,-0.510249432489,1.84642929086,0.901732141493,7.53794413846,6.2082217539,-0.271005579203,1.48350482311,0.0117518607257,8.4637179009,3.47020907659,35.4817950732
off_to_on,-5.00311894042,-1.68068184556,-0.665064336031,-0.788563493259,-6.01517866676,-9.65926258479,-9.1783981318,-3.90272670853,0.434469107264,-0.314908523185,-2.104553601,-0.846157339435,-2.32288724748,-85.8422117747
off_to_on,-9.29251661862,-3.6035802928,-0.126190864224,-0.0879561325735,-5.97494430417,-9.86201437067,-12.444896614,-8.2562399017,0.682094916717,-1.06300243426,-0.345045690456,-6.83066664737,-3.61476082226,-95.8659468387
off_to_on,-6.98553217893,-3.26197783802,0.255887029531,0.176255774667,-2.51009164905,-4.59441560517,-5.1788745883,-6.39880783791,0.192482742519,-0.889974844634,1.68301389029,-8.21711702751,-3.36267551255,-12.4919592032
off_to_on,-2.09962960859,-2.68058408208,-0.116937408119,-0.196281540631,-1.97681813423,-1.43844181347,-2.24091240148,-4.18098459156,-0.367995363213,-1.27357922906,-0.540028711753,-8.09705516509,-5.35836251117,17.0247649318
off_to_on,2.29798810924,-1.47592693623,-0.45218947301,0.0588682678909,-2.40056639695,0.142273429395,-5.20328682039,-2.54955122109,-0.392113645375,-1.87499489703,-3.58125550789,-5.35112205649,-5.40947337121,-22.9270652098
off_to_on,6.03511582356,1.87842630739,-0.128444617953,1.06192935604,0.98065926056,3.61471937963,-2.56026643119,1.80085191341,-0.106275649631,-0.800603385205,-1.1241222123,2.76481806208,1.43330731484,-10.5893635351
off_to_on,7.75292279711,5.50846130717,0.298605749106,1.05689959585,6.05219436577,6.91023234183,8.39479503409,7.45986755888,-0.0195391268914,1.96412211842,4.93844343424,12.031866557,10.1368686325,71.5978015308
off_to_on,4.68934454178,5.18126667346,0.261254851344,-0.728748043242,6.66775680514,5.7840025122,15.4422354927,8.48777847405,-0.0870564230332,3.67351249727,6.31345382844,13.3202012571,10.7285013999,92.58453141
off_to_on,-2.04536064061,0.452476310976,0.148182953992,-2.22694381982,2.11988573175,1.29201550785,9.57039102278,3.58867208448,0.0654608982744,2.28693414864,0.788016673274,4.33736665844,2.19322122521,4.43642917626
off_to_on,-6.49674007049,-3.83641648196,0.340819669537,-1.15940220902,-2.47840047685,-2.10407575286,-2.60897338091,-1.81684767614,0.370685602643,-0.762046157249,-4.60742709131,-6.48146968384,-6.2054304462,-66.5007121304
off_to_on,-4.8506834239,-3.7682317091,0.327244312133,1.4784446119,-3.87038368373,-3.21890190066,-9.4413688369,-3.80511294431,0.369497577691,-2.49401956207,-4.46208813365,-10.1033693384,-7.48828633104,-32.4105995154
off_to_on,-0.471398065033,-1.23208656552,-0.296651610522,2.44665358666,-3.36379087505,-3.86362178477,-8.69332757545,-4.33441994452,-0.0217822426393,-2.05487914412,-2.06523333023,-6.68495622634,-4.23539400101,13.7811900102
off_to_on,0.908022758131,-0.380991884959,-0.813550788584,0.56506908713,-2.53859474169,-4.10468190873,-5.7556394666,-5.58593838931,-0.340195028307,-1.02455076335,-2.09932472504,-2.47301752152,-1.9105552726,-27.3933444611
off_to_on,-1.00679880048,-1.35114824324,-0.436885721492,-1.77212189302,-1.16157345113,-2.6331228991,-3.52578041163,-5.29252765342,-0.273048112421,-0.567593977096,-2.19022405906,-0.397166663347,-0.812031295614,-80.333713855
off_to_on,-1.41133972044,-0.630184201327,0.295310853832,-1.82883704171,0.498330376844,-0.202191659476,-0.458449085289,-0.8775482124,-0.06154326297,0.0310352242696,2.44098782034,1.99577544763,1.92819456616,-21.6279142836
off_to_on,2.16278605402,2.9276936967,0.337626991064,0.129077418119,1.44579412391,1.73564771624,4.31932107829,5.45254013541,-0.0154559106401,1.55472226245,9.2135823125,6.23307764917,5.94586104649,102.012101105
off_to_on,6.10440630262,5.61608611112,-0.138321991894,1.6203671588,2.30764421168,4.09469112751,8.9398818905,8.98776830829,-0.0302454145116,2.9030224463,9.74813904679,8.7719224127,7.22292803177,130.13567574
off_to_on,5.3894780284,3.52680924584,-0.102076121822,1.17669954281,4.111575008,7.25485268467,10.4627316492,7.55651962297,0.116441288759,2.16600337343,1.13776359143,5.07724160886,3.19971738643,22.2097492429
off_to_on,-0.0898241806573,-2.14929238398,0.51005314585,-0.337110475273,4.72348220282,7.11892133911,6.18890504875,2.11998053736,0.295579167311,-0.650724949688,-9.46741942358,-3.67003726069,-3.88111966521,-95.4257804211
off_to_on,-5.43135289041,-6.11080356932,0.677889097922,-1.28346138781,0.913693575919,0.0484052760793,-3.83704342691,-4.92453740509,0.223631542628,-3.09294849518,-12.8858373449,-10.1318929777,-8.54077083217,-106.048908248
off_to_on,-6.23329687951,-4.75542208397,0.0503063316814,-1.03814291833,-5.39018640541,-9.16960043817,-13.3183307234,-9.67067582219,-0.0478391251175,-2.86793014645,-7.12056624242,-8.00695418889,-6.56264542276,-22.1849935856
off_to_on,-2.903509235,0.168316938681,-0.509651107728,-0.0743533454934,-7.73980857554,-11.1147460183,-13.0814350071,-8.04298381306,-0.207900672721,-0.387384584822,2.55797837545,0.793430466724,0.800370441813,67.9794159787
off_to_on,0.66065454825,3.80547862025,-0.446682003728,0.873272980268,-3.80184574519,-4.29939730442,-2.20513046632,-0.708151893932,-0.167696719908,1.85443003105,9.51241912509,7.45158037636,6.84183954525,87.3297891623
off_to_on,1.82506747724,3.32338295192,-0.326312426716,1.23850606297,1.27391509193,2.78335640008,8.17123770026,5.59824315222,-0.115106371534,2.08882307228,9.99490601515,5.52651921941,5.62238561546,10.2532475401
off_to_on,1.68968502584,0.321322829329,-0.55788768787,0.719133960264,2.69400323762,4.13236614784,7.7539795483,5.42181070581,-0.113711940752,0.754507317684,4.36918042008,-1.9600378367,-1.11135655485,-101.75542757
off_to_on,2.56694214675,-1.59733001031,-0.461179123049,-0.424826889533,2.53908077256,3.63527498342,0.585504957865,1.53043876757,-0.00693946031821,-0.670495200676,-3.08372009953,-6.13666731639,-5.42732565716,-118.07349848
off_to_on,4.04244634559,-0.89949599877,0.514697005331,-1.27666882903,4.4297557131,5.9942551217,-1.3677615325,0.444900848151,0.215348944023,-1.31894147329,-6.78904548931,-2.47220799163,-2.65432487545,17.099202294
off_to_on,3.1853702805,0.763335040505,1.5245274954,-1.01065298698,5.86268196372,7.19295821408,3.96281438089,2.58108220461,0.29365683506,-1.041663216,-4.74027853783,4.61582318165,3.19083002094,169.915572812
off_to_on,-1.0967329373,1.12167629385,1.32612745729,0.123915895744,1.83679421758,1.12057320366,6.2778756355,2.17381621399,0.0939977362657,0.130634605886,-0.483243864081,7.50913916397,5.12055360297,151.354064123
off_to_on,-5.65147291284,-0.0849297705888,0.0100536993185,0.941318040358,-5.8643673374,-8.56329979767,-0.689829767227,-2.92581906305,-0.146863765594,1.61977158822,1.18347155875,3.53732461329,1.71781370827,-29.8601932428
off_to_on,-6.35084753254,-1.41361420964,-1.22933048692,0.666512666597,-9.43070840616,-11.605182133,-9.37598310119,-7.15826328114,-0.165218687959,1.96181144647,-0.201298893019,-3.5811553601,-2.72511149576,-165.244505296
off_to_on,-2.79783336078,-1.71913489243,-1.62405211974,-0.15951004252,-5.33747692978,-5.16223993278,-9.52303314361,-5.22024245301,-0.0406412966126,0.201839634308,-1.12192525808,-8.32380984336,-4.53092214575,-122.769635586
off_to_on,1.70433702717,-0.966877669644,-1.19839769477,-0.449522381534,1.52764521425,2.99734096107,-2.13352246601,0.534014507637,-0.00316777174049,-2.32115884193,0.625936459898,-7.57388850949,-3.58805791333,-0.789797465349
off_to_on,4.22449042689,0.402164828444,-0.0715815419722,0.00365375918906,5.23009809568,5.96444289146,4.03082486809,4.12535433124,-0.0531749972228,-2.9091995687,3.2834641414,-1.81303289425,-0.998665302871,50.5513330553
off_to_on,4.4930175375,1.81206886261,1.4118986238,0.389779607425,5.35653340984,5.2445590077,5.18738132795,4.02712333095,-0.0340414844122,-0.745793322576,4.04244237517,5.36667137216,2.42043840682,37.2994863478
off_to_on,3.36094278443,2.37180147731,2.10294815379,0.128549425682,4.1617714399,4.57343469627,4.59712011212,3.08608663851,0.0440838643862,1.91016355279,2.479098027,9.18737778534,4.96811248907,49.6357719135
off_to_on,1.08065715944,1.4062190849,1.00581301704,-0.36795219239,1.73602127559,2.81808702489,4.31400318907,2.45290616836,0.0449516299638,2.52575265424,-0.0307853537891,7.10945427164,4.50192019998,78.2662727492
off_to_on,-2.03439098586,-0.593954135627,-1.00594402162,-0.434816193356,-2.41357268219,-2.27699802144,2.22156702014,0.253718753665,0.00652845835743,1.25000719894,-2.69392115627,0.858460125164,1.0508578188,39.8355784021
off_to_on,-4.58708513671,-2.23832729685,-1.77684187239,-0.109285538485,-5.89743939203,-7.55548681088,-2.46740962848,-3.79925788192,0.0900043678343,-0.0207660611213,-5.24513558634,-5.45252617691,-2.91822109118,-56.4245460739
off_to_on,-4.85941939573,-2.55232019203,-0.652069335787,0.130093573039,-5.47096299266,-7.23280315757,-6.49120276408,-6.35165581516,0.222589301256,-0.57901675833,-6.17388888023,-8.52767639154,-5.13071387859,-103.285516763
off_to_on,-2.27635915213,-1.4720729807,0.591674853821,0.182381052432,-1.37215385879,-0.831717755129,-6.61570144729,-4.25627166029,0.116356193599,-1.20844968831,-3.27573083627,-6.78276804093,-4.64419055801,-57.8769490064
off_to_on,2.00655596242,0.627483439632,0.34618954468,0.271065400361,3.09082567362,5.80200701901,-2.76790773455,1.47047724427,-0.251806643627,-1.91678006024,3.04077680732,-0.402360645006,-1.08906844909,5.0071144967
off_to_on,5.3046925909,2.78566265564,-0.532367707692,0.31241953248,5.23522479182,7.04123962551,3.02916539817,6.32507961912,-0.475093133924,-1.41673537447,8.31287517868,7.0110256696,4.16781421635,22.3852613501
off_to_on,4.69199765601,3.13608855264,-0.249699455043,0.038113627911,4.2093962664,2.41998148713,7.26799536818,6.04201976316,-0.231369189655,0.556565988385,7.75032228843,8.93965036245,6.57586656336,24.3926225496
off_to_on,-0.0342145809064,0.581191082503,1.01711559824,-0.331944384784,0.288528088116,-4.01096052283,5.55741740634,0.280183386186,0.248560449111,2.14879100685,1.67419614427,2.5195350153,2.54175705188,47.935596829
off_to_on,-4.53345876301,-2.79539790822,1.37290474559,-0.291032150197,-4.23455903366,-6.78197184556,-2.11559608449,-5.91315191738,0.463886735707,1.76509875779,-4.18326087181,-5.7875323324,-4.13901601467,58.2675734011
off_to_on,-3.64256033785,-3.11964950562,0.11196352354,0.0340627328196,-5.11431712993,-2.79246744654,-7.40683572808,-5.70094491183,0.261045647855,0.298512568203,-4.89615886021,-6.21965513894,-5.08066511002,16.0983264469
off_to_on,1.82910329319,0.180879509934,-1.25721511652,-0.00286878942557,-0.731067942388,4.94056166853,-2.11396035717,1.66306743966,-0.0709297746793,-0.414812224977,-1.94797818339,1.30155228976,1.01327374651,-41.6201816476
off_to_on,4.74095496935,2.7446440452,-1.22867512232,-0.342257838339,4.26121226378,8.3602486819,8.25265074226,7.72237197319,-0.235538933608,-0.400217089266,-0.858969513722,5.76143407085,4.91024301936,-54.3346644586
off_to_on,0.585376048429,0.952356459286,-0.212699762503,-0.101774882677,3.78925531523,2.72516886118,8.24136541637,3.86267981211,-0.205385215862,-0.997116977575,-3.41867377717,0.0916865473233,-0.195969132114,-28.5886346997
off_to_on,-5.57791804058,-2.49781288114,0.441773617711,0.802656936062,-1.30693414262,-6.54333959891,-5.73555135685,-6.50452828297,-0.0881263325239,-1.95214985604,-4.81041021327,-7.74058498841,-7.23413776095,-12.20997118
off_to_on,-5.1855974076,-2.0482641649,0.365512908799,0.999541963431,-4.02544140907,-9.15588043247,-16.4041132522,-10.2269211142,0.0346805838712,-1.26306589225,-0.0485824200721,-5.20240256568,-4.38620086576,-9.26665075518
off_to_on,1.94903550618,2.34543964611,0.237142100797,-0.339941021438,-0.990871489676,-2.37124780922,-7.40873837947,-1.20806659174,0.0920764781218,1.48289318066,8.48782286096,6.28698035137,6.73978967114,12.268982787
off_to_on,6.91879980516,4.47780411604,0.470440649698,-1.71396396259,3.01859916167,5.80617654851,12.2994130515,10.3658846898,0.0484871750618,3.51166849709,12.6372140946,11.8988183584,11.5123931559,45.5033965431
off_to_on,3.82029822651,0.685993736683,0.670380440092,-1.03436486068,2.4269983187,6.93842785256,18.2930781821,10.4504543814,-0.000876850960807,2.07340287037,7.41669232045,3.39989680536,2.41932188497,46.2341071908
off_to_on,-2.55101795413,-4.54974521519,0.276626392628,1.17822910925,-1.35791118235,1.69870335792,3.31990056628,-0.821103474841,0.0650187629749,-1.71899480631,-3.74958479009,-9.45297578772,-10.0191353669,9.32410624008
off_to_on,-4.16418782348,-4.65165671992,-0.717849115166,2.11441368354,-2.97169444322,-3.11197066275,-13.2268684323,-9.98682319484,0.154810493703,-3.87266315506,-12.9100299387,-11.833290452,-11.3743534389,-19.338269049
off_to_on,-0.750436955071,0.173839186874,-1.59438494779,0.504180397266,-0.96461352176,-3.55695600065,-12.0757131276,-7.89835867006,0.0449915887062,-2.17064445864,-14.4838506194,-2.3297442415,-1.66899116157,-17.5582920409
off_to_on,1.50774769313,3.8998170399,-1.32844914277,-1.57873002592,1.48757389294,-1.15012930907,1.63209419584,0.503380796352,-0.227940890041,1.44557110459,-7.88496489354,7.53947682467,7.1645363666,-15.4756801863
off_to_on,-0.0253199547064,3.13694419599,0.366717019086,-1.63990760196,2.10119894135,1.24778816044,8.94940264907,5.39541012443,-0.308622236879,3.36664265591,3.61438819808,8.89147532174,7.82908155648,-30.7067926728
off_to_on,-1.55255578458,0.437668816944,2.20251818469,-0.0565108648623,1.50154804163,2.1978607792,3.52846057216,4.46098638255,-0.0229825383988,2.1775212856,14.070088373,3.68175174829,3.68840420224,-31.1440906941
off_to_on,-0.0506524840477,-0.886076574874,2.22556894633,0.942772721694,0.333756949961,1.17806357289,-3.77536062881,2.04194215693,0.297298765271,-0.471398263293,16.7096698659,-1.82304185882,-0.108352559294,5.30745757115
off_to_on,2.05627970801,-1.10584477784,0.11597859844,0.58807762442,-1.58232342429,-1.23712504997,-3.37526106784,0.567322868609,0.248856705184,-2.14958079526,8.49185922197,-4.91616277543,-3.17693229624,42.0684455125
off_to_on,1.50673770845,-1.69183524747,-2.07086672476,0.0937533487352,-2.97515207916,-2.70877886315,1.3594490735,-1.39878333316,-0.0590815360223,-1.99888209409,-5.84715476062,-5.75046463375,-5.9226318645,37.1711196815
off_to_on,-0.603976917069,-1.91315679778,-2.20984197876,0.23949944443,-1.74913251333,-1.36483291663,2.62378416154,-4.06887412839,-0.183994690769,-0.869782789781,-16.0660108421,-3.87555286309,-5.75371195504,8.01399254398
off_to_on,-1.25975385235,-0.425579817895,-0.574567060667,0.290896052434,1.2474274947,1.28169727979,-0.221369110463,-4.66464947855,-0.0232415858719,0.20803456617,-14.619687928,0.719755208424,-1.08738005974,-3.46248106769
off_to_on,-0.399156669384,1.70717977028,0.914376332302,-0.320796176887,2.45046582285,2.08917316547,-2.10123629596,-1.58655269014,0.0800587072405,1.06776279028,-3.2332718838,5.29137057231,4.67870554245,-0.160568532959
off_to_on,-0.0599572679984,2.2504356994,1.30510916635,-0.825285579967,0.780157053323,0.78366371169,-0.605598693897,2.88537666319,-0.0615968554647,1.81481984417,8.53917223289,6.20905702878,6.67608422601,-12.3577023596
off_to_on,-0.378427321766,1.07194341499,1.1446439707,-0.442083470147,-0.634126023321,-0.0641811477107,1.63515292768,5.19731205109,-0.174107141917,1.8398761676,11.6142919284,2.73632259093,3.95968948529,-32.7891511514
off_to_on,0.195013923934,-0.0927978715136,0.742129925501,0.253081132814,0.433559169997,0.466882570089,1.39079185007,4.01210376423,-0.00161475349588,0.378423343683,5.35820742211,-2.33912449811,-0.68610002177,-26.7462191442
off_to_on,1.47541021646,-0.48144047961,-0.323462359113,0.298626017826,1.72838512171,0.475826481962,-1.11586823139,0.64108643187,0.242247629553,-1.84899746479,-2.18917087112,-5.15041469611,-4.07191965499,3.40461643264
off_to_on,1.47061868034,-0.764955928874,-1.63675557506,-0.079197092873,0.4800609685,-0.797759867713,-2.44993068239,-2.44453771124,0.201187503434,-2.68385073289,-3.08715199007,-3.50234462326,-4.09139601378,20.7841005597
off_to_on,-0.333942100568,-1.10264404922,-1.66993554915,0.0471969561874,-1.97201570871,-1.42559530007,0.0861113505337,-3.35645390081,-0.0645224106757,-1.07087814803,1.23855809347,1.09817042297,-0.717062533515,16.7836240792
off_to_on,-2.19477011353,-0.897611042742,-0.04203118808,0.669865260053,-2.68647634772,-0.710657532749,4.1175954552,-2.41175655894,-0.192283753577,1.221282299,1.85615213206,3.69197395463,2.49292753445,14.370171743
off_to_on,-2.67118753427,-0.362566247354,1.39640800739,0.795718094568,-1.86956639981,-0.947715271913,3.42731204589,-1.75843884276,-0.0818615985684,1.64357035757,-5.05404853898,0.644567806716,1.04026465496,12.3435846254
off_to_on,-1.66027809126,-0.235957884161,1.04528126042,-0.0251749113296,-1.31488128839,-2.6625951759,-3.6887298935,-2.00268845153,0.0150946910292,0.210926748543,-10.9760916474,-4.74472500124,-3.78517582899,-8.60743187396
off_to_on,0.916139085525,0.0490781192237,-0.075134139714,-1.03975274427,0.0245120912415,-1.74964883192,-9.18961860953,-0.40509480577,-0.0368970597363,-0.692035215665,-5.30851608208,-4.5727776403,-4.42483618099,-24.5870912789
off_to_on,4.5699578222,1.61481455536,-0.0770207663508,-1.29468254089,4.05562859569,4.29484532566,-3.91972852198,4.78409753142,-0.0558035844225,0.156582327397,8.78862186974,3.31743384754,2.75503115575,6.25877750704
off_to_on,6.20234116893,3.28936989859,0.626238265594,-0.611068039294,7.7342018903,9.76358392492,8.48165715444,9.14814496485,0.0887970949385,1.21323131052,15.811541096,10.45152154,10.1725467758,46.1166453254
off_to_on,2.23613177544,2.18292256444,0.0732471537452,0.542527965697,4.88209961458,6.2166975033,13.2789004317,5.79748367535,0.212621654473,0.744831767835,7.23959932218,7.32802728035,7.70718917515,5.60507349769
off_to_on,-5.57551674556,-1.8071645737,-1.63052883289,1.47724920537,-4.47017701712,-5.36185147054,3.37138928185,-4.60220290569,0.112752314094,-0.636486045421,-7.06075575299,-3.91892741813,-3.15691710129,-93.265869105
off_to_on,-9.75091282097,-4.65504578106,-1.93601412755,1.45497525823,-11.4194382164,-13.48337841,-10.1669384898,-12.0489028726,-0.095565132066,-1.28018622903,-11.696142636,-11.5126367611,-10.6143655456,-99.3012211033
off_to_on,-5.3629702186,-3.25784066166,0.239535292253,0.196837679344,-8.30454999519,-9.48505491856,-12.0313137024,-8.63875524561,-0.163630391794,-1.05806931623,-5.05110578851,-8.53878098753,-8.04192159467,41.506600806
off_to_on,3.40520355291,0.317480684523,2.436622861,-1.41586319519,1.64720739387,2.16024192707,-2.25619486178,1.48334391578,-0.0813883095038,-0.909849314702,1.51879841106,-0.232240747972,-1.14990934144,157.896978413
off_to_on,8.11584127412,2.06671098902,1.93862395957,-1.82326468796,8.5435382254,9.92015984879,5.9061768759,7.64673228172,-0.0270166493652,-0.635514682682,1.29598596707,4.71461905016,2.4073377203,84.2743718745
off_to_on,5.99650165305,1.72329543481,-0.449936508102,-0.528688006682,7.5925229658,8.533174962,5.05072314538,5.8839669075,-0.0381605608215,0.790295963506,-0.0743033195186,4.98309756612,3.40670819501,-74.1422793591
off_to_on,1.47719076105,1.94910407465,-1.74352871528,1.11134336234,2.55020118432,2.47651670614,1.24744173909,1.71711016651,0.0122315137158,2.7715743103,3.77312965378,4.96654045469,6.10827709732,-89.3626871028
off_to_on,-1.30722632872,2.84151710088,-0.933023195855,1.43681403885,-1.40424358618,-1.98005347547,1.58113972988,0.497625497495,0.135111823951,3.00879148233,8.70540706494,5.73592566941,8.39546967577,28.4298538569
off_to_on,-3.06717079563,1.33618856993,0.228996383847,0.448447170747,-3.3979407614,-3.49279816027,3.13916773605,0.597250838968,0.167647892691,0.539759337268,6.10848428287,3.1892376705,4.18666263581,46.348678132
off_to_on,-5.3312501523,-3.1313422156,0.292738046025,-0.476031337749,-4.57789853429,-3.95316000698,-0.373655778469,-1.87566411662,0.0423335698331,-2.64122081826,-4.19720382715,-4.63614500425,-5.96109045396,-96.1627382044
off_to_on,-5.98758676402,-6.10990650575,-0.0921896806454,-0.552909440271,-4.28951878705,-3.95374417933,-6.87365081403,-5.85102173501,-0.0930987083331,-3.84105132447,-12.9410350594,-12.4401494014,-13.2676559713,-158.958176152
off_to_on,-2.06572905588,-3.61878659505,0.129542790242,-0.343824483921,-1.32984524262,-2.32929928448,-7.80870460067,-6.36307917479,-0.105620912305,-2.42284717473,-11.9162202879,-12.0751883926,-10.6774852211,18.3840743091
off_to_on,4.81804539334,2.19247003697,0.6258983242,-0.440455616434,2.93864401748,1.18161852762,-0.331398589271,-1.27442082203,-0.0544872905452,0.346120850782,-1.50930522329,-1.3705273407,-0.238043650686,231.658603776
off_to_on,8.963049981,5.55647118442,0.515474254885,-0.398282882154,5.32990307074,4.6996762406,8.09425779593,5.75664712113,-0.0405623178196,2.86919267728,10.8432375819,12.1754867818,10.035679462,200.48298855
off_to_on,6.54881764045,3.98235542754,-0.103107141983,0.366231138936,4.18891971326,5.58908053116,8.37082168081,8.73982069621,-0.0330670582031,3.69110296739,16.0413025256,16.8882826528,13.1647823213,-21.7621410335
off_to_on,-0.585579044407,0.0916215303049,-0.482507213978,1.25552094516,0.572953099017,2.65713034161,0.138279495768,4.73334568092,0.0266309273382,1.84033238093,9.04128630491,7.6011885966,7.08344678761,-161.541690872
off_to_on,-6.98292503746,-2.64206607033,-0.434535793366,1.04330474938,-3.22639853577,-2.46640747189,-7.9150972513,-3.30125995831,0.0777693285741,-1.6599631748,-5.85750250564,-8.04899189725,-4.08370830511,-139.491753594
off_to_on,-8.14591065528,-3.20532010113,-0.298047676619,-0.322546891951,-5.01507775921,-5.89790961364,-7.31908515972,-8.31263061578,0.0480481795557,-3.58576533972,-16.0197529344,-15.6589522205,-11.4935739946,-99.9054633005
off_to_on,-3.58313041031,-2.07899341977,-0.134296483422,-1.38322765669,-3.37665691001,-4.47995062153,1.12933628795,-5.45018279849,0.0090593065021,-1.80393105845,-11.912814441,-8.56543627573,-8.57051705565,-76.5399997265
off_to_on,3.02874101751,0.231253863676,0.20617119008,-1.00865689187,1.06687708628,0.894270197357,8.08520138139,2.34199723486,0.0546495616569,1.59028365347,1.75447875016,4.77093415594,1.30774052506,58.461181359
off_to_on,6.5952648798,2.5432687283,0.48829719083,0.113512705901,5.01739663512,5.40951047411,6.19292443343,6.78290674656,0.0984858633539,2.45376908027,10.7984343943,10.3700738684,7.47160159471,265.257104268
off_to_on,4.83669999838,2.87822128381,0.347636130152,0.513677295113,4.80625163976,4.71826031003,-1.41077587098,3.6362278081,-0.00969068073055,-0.0205087484014,8.11478311199,4.57764895931,4.44066060827,269.33605835
off_to_on,0.175938686842,0.648302056231,-0.00599776589945,0.056123082892,0.197142326989,-0.659349045543,-5.83653652652,-2.50081644964,-0.198904047841,-2.2512805685,0.331858739426,-3.39204864734,-1.82787251393,-22.7645256896
off_to_on,-3.17035888679,-2.04400233378,-0.0609257053338,0.0174211929064,-4.81279690354,-5.66463423518,-4.34834777423,-4.66484142907,-0.227218717893,-1.2720430782,-3.36969027026,-4.50636142665,-2.98507663442,-297.922756185
off_to_on,-3.55651739777,-2.66183666971,0.0956834157611,0.930864358763,-5.66225906341,-5.49949508172,-2.13516792085,-2.14619477943,-0.0406671248155,1.35715675622,-2.54670165678,-0.409878785337,0.413913005016,-244.430541673
off_to_on,-2.31983079678,-1.12371704979,-0.114118115815,1.44694207717,-1.57131854279,-0.130238229218,-1.73801573975,0.648538205617,0.137644737511,2.15057191734,-1.6298105502,1.61956556698,1.58991877526,9.34571734399
off_to_on,-0.642136214483,0.703077566866,-0.682515110092,0.191418550641,3.83925235376,5.68701873827,1.48442591109,1.67236615377,0.149818911193,0.56356176267,-0.941323817228,-0.185708137427,-1.12855752938,120.246683198
off_to_on,1.67824245404,1.66678936154,-0.783809871364,-1.90520740633,5.94470134896,6.76299136104,8.81555927641,2.6196315145,0.111308044715,-0.906384644008,1.52139342975,-1.07479785447,-2.2695603629,46.8283778038
off_to_on,3.9744094424,2.01598812978,0.0608489575934,-2.41974401524,3.18418275897,2.23259595662,10.9711966475,3.47791132261,0.140328210397,-0.721723938608,3.1467515686,1.58903083301,1.2084411615,30.6262207133
off_to_on,3.78333111727,1.78756478518,1.12141144083,-0.596531310559,-1.73090236259,-3.74241136439,0.60647858318,1.42133029553,0.099620246998,-0.0452679092831,-0.171997910617,4.05967853662,4.56913575889,129.843736652
off_to_on,-0.0079365308762,0.289222771946,1.22126380202,1.56390663732,-4.48667171543,-6.10838164584,-12.8812512554,-3.32122858794,-0.151762927854,-0.271775801408,-5.18942649439,1.9020626762,2.36882384065,122.080572483
off_to_on,-4.50210134442,-2.27822573752,0.146030525079,1.91119385418,-3.30458691954,-3.70149995132,-13.0509355708,-5.64412924007,-0.398775409375,-0.865135447175,-4.04500831792,-3.61678730946,-3.46264503853,-76.9786917043
off_to_on,-5.3889332023,-3.97137255058,-1.06261114108,0.743500933558,-0.369311166,0.347765518967,0.0127539950654,-2.63453596403,-0.283395011327,-0.601423849261,3.21803355537,-7.06112048997,-6.40271665634,-223.817867078
off_to_on,-1.83292591927,-2.8995836745,-1.20701400831,-0.158714222602,1.10444610058,2.57423566901,8.82445645947,1.67632406853,0.142404826267,0.398872156045,7.16521714825,-4.95957086372,-3.73620702065,-124.389437024
off_to_on,2.79921532742,0.534505556905,-0.190185580343,-0.226511001072,0.690157674592,2.48194692165,4.02160384309,2.37851721702,0.399330394017,1.0550343655,2.86040319229,1.28002198524,1.44330927041,60.5611660455
off_to_on,4.83453799167,3.82275735051,0.855692959601,-0.388152424771,0.632255606835,1.70449631785,-2.72086890736,0.935892254815,0.212930885547,0.972885636609,-2.77245601046,7.24508838237,5.16804608065,88.8420213487
off_to_on,3.46527975743,4.59964073857,0.773509658584,-0.986775636743,2.08764746788,1.21396972817,1.21493753582,1.64685148493,-0.115740963323,0.615561795968,-2.43385994546,8.77466667991,5.9580712775,10.6996005946
off_to_on,0.288314866301,2.44500230916,-0.251031266957,-1.0804259999,3.08496182372,0.562785281281,8.72325093744,3.60565494816,-0.156089140819,0.238414890426,0.161659622039,4.49827633925,3.79108747387,25.7544021321
off_to_on,-2.54167611556,-1.09223160084,-0.821050965567,-0.197909897843,1.21967568569,-0.665119333184,5.05280647399,2.12998801696,0.0534822984191,-0.35788247013,-2.00416337131,-2.97714078617,-0.736354981759,110.73427031
off_to_on,-3.37056855744,-3.72367586126,-0.0961584168009,0.675795169437,-2.6302135472,-1.95074682162,-7.59229209507,-2.78748851505,0.121274315179,-1.11244854244,-5.86196472618,-8.56874885505,-5.39244554575,72.0413230137
off_to_on,-1.87639868938,-3.92262555038,0.975667234476,0.689570708361,-4.81814030902,-2.46322294377,-13.0332826553,-5.64360164175,-0.0911354650747,-1.50325479216,-2.72594518465,-8.6444932464,-6.94902211379,-90.9061624406
off_to_on,0.347669440115,-1.88742395075,0.84605789034,0.490512602646,-3.12566039752,-1.77726588598,-5.75860432997,-3.70512100609,-0.282401848124,-1.11996590147,6.13735418198,-3.72370001625,-4.21166894116,-160.06743199
off_to_on,1.11808295611,0.716424976737,-0.451383009776,0.865964271525,0.741428176676,-0.030050566227,3.0576944551,-0.414402239962,-0.165854512433,-0.018732269302,9.41295134163,2.71125341393,0.6752776393,-53.5476767782
off_to_on,0.239754599021,2.18020993802,-1.27091969045,1.02124216848,3.23215842045,1.85705149412,5.15928620433,1.10604062572,0.139737984723,1.35038976283,2.64555724172,7.14731674378,4.49938094027,53.2227648898
off_to_on,-0.238929370897,2.13058569747,-0.649869680382,-0.227493188888,2.72271194726,2.36222856003,5.48501365777,2.39099878589,0.301605032338,2.18752238789,-4.8643265191,7.54606310026,5.58417782237,31.3329240218
off_to_on,1.02866977206,1.53350771122,0.430187100576,-2.06102194675,0.677562650704,0.933288546741,8.0921466127,4.68198927721,0.197947886155,1.68650592768,-4.31676286234,3.82939409439,4.09799760463,-10.0011352569
off_to_on,2.6518446316,1.32579897134,0.650419096737,-2.26575658285,-0.481087424472,-0.681200442186,6.27765674021,4.88504501889,-0.00678068649877,-0.020416071135,0.12209319058,-1.51493352433,1.22689231807,46.2570698124
off_to_on,2.35837569613,1.1238417027,0.236849443147,-0.361977486266,-0.0323930910136,-0.202326192944,-4.21019067211,0.715016947248,-0.133624899141,-1.56180753311,-0.231210922305,-4.64421347931,-1.54005972432,105.151942839
off_to_on,-0.118830940493,-0.396984094001,0.220889470239,1.56330584275,0.558722351371,1.68326394797,-13.4965076459,-4.22089170134,-0.16754184567,-1.75228958186,-4.25405082997,-4.1997418173,-3.42596488724,35.4772444883
off_to_on,-3.0587146349,-3.42673811278,0.515548260235,1.72029465872,-0.391756548719,1.46660853209,-10.5356086006,-5.31157484068,-0.155889974118,-1.05870278277,-3.76876758024,-2.92504524427,-4.78310675788,-85.8688629366
off_to_on,-4.65535780442,-5.5364180966,0.11484348837,0.783861339175,-2.48061625627,-2.22962087551,0.162625458242,-3.59807604046,-0.0751025599762,-0.67288498098,2.72754835449,-3.22318569164,-5.36301581472,-95.8172670223
off_to_on,-3.73636609872,-3.46348275131,-0.944940381173,0.256223288796,-3.24798607842,-5.54352202304,6.41664101754,-2.33554177562,0.100259233435,-0.392805861249,7.8654780419,-2.52380486973,-2.90676960288,-12.4499789897
off_to_on,0.0896384966383,2.66482743114,-1.28355523521,0.0664698717921,-0.982707142264,-3.66748722136,6.56730264609,-0.193823924829,0.254008479896,1.0220060339,6.42920774904,2.96983034156,3.7926284878,16.8988779954
off_to_on,4.99728534577,7.7682912751,-0.239312182011,-0.702020603404,2.73659425057,2.37940570154,6.92866052034,5.24640607553,0.193738718965,3.06791947181,1.02590112661,10.1090094552,10.2840580193,-23.1627734317
off_to_on,6.70940465652,6.41468875576,0.996794333305,-1.61830659651,4.25760948633,6.18930837835,6.15554281002,9.38889859542,-0.0835470131068,2.98649999106,-3.97869935535,9.82314344234,8.96170263269,-10.6823264565
off_to_on,2.66735574819,-0.66685097715,1.05976411525,-1.30179185868,2.00756356018,3.90848526056,-2.19361021299,4.80638227694,-0.293047733568,-0.487774544108,-7.24549073436,-0.749560915622,-1.19674645599,71.7356108795
off_to_on,-3.53675551671,-6.50709384891,0.266256316799,0.198540037998,-1.43322292476,-0.914147550042,-12.7739764432,-5.80634509914,-0.16857809153,-4.21676237117,-7.44117729226,-11.5964507038,-10.5862451688,92.7600087071
off_to_on,-5.17872559516,-5.54364475884,-0.185194502744,1.20490269903,-2.32807325708,-2.36481786467,-11.1476282979,-10.0301750637,0.159006616329,-3.79071825626,-2.23136234335,-10.6537312466,-9.06090865044,4.49178792297
off_to_on,-1.00828889431,0.0485263523876,-0.148691180776,0.882341740184,-0.367180913922,-0.125315045666,3.03334438806,-2.75182773762,0.271776272941,0.633191629485,6.13247887144,0.626096317697,1.21938453736,-66.4606255863
off_to_on,2.48542336033,3.44886897473,-0.404449731035,0.311678719716,1.06888100541,0.716790575294,11.5811943057,5.51808819081,0.0160311985478,3.95843960634,9.78017346949,8.59938286584,7.90479151412,-32.2370837514
off_to_on,-0.0701970012961,1.67419606437,-0.906389307499,0.452953624208,-0.508406599223,-2.44886801108,4.02584253418,3.6116149836,-0.252235909112,2.42634330239,4.56343963159,4.82714132489,3.89412797052,13.9608127219
off_to_on,-4.75910978875,-1.51824998354,-0.602420136526,0.526918701706,-3.15106228389,-5.45629738333,-6.19965941177,-3.91130086557,-0.146546106227,-1.66345291329,-3.4387792172,-3.79174843002,-4.22152106789,-27.5789815961
off_to_on,-3.39790801945,-1.39174710022,0.683966743167,-0.441934010006,-2.74855392905,-2.87027513393,-3.04906736899,-4.26594394326,0.183473867151,-3.11070653465,-5.6601204506,-5.30070712908,-5.61294838082,-81.0947616508
off_to_on,4.42886426913,1.67949431261,1.47566911743,-1.60593404046,1.53155504584,4.13505175409,6.96724706863,3.75700500988,0.249587484791,-0.475233446209,-2.21865517654,1.55864392005,0.870064181047,-22.5020664956
off_to_on,9.59997793694,3.44156632093,0.59294733452,-1.3484248594,5.54955203441,8.32612255394,6.16923427115,8.19992740936,-0.0597801148066,2.55524402994,0.129595617824,7.06148138899,6.53850411932,102.213300872
off_to_on,5.18673224626,1.51874182003,-0.9613634894,0.180097962264,4.71115369334,4.96982172197,-5.62657360439,2.20473637975,-0.305287470264,2.29779552044,-0.970462987864,4.0999639241,4.81615723872,132.180188765
off_to_on,-4.3809650601,-2.10577111888,-1.1999135538,1.16765798696,-0.552639149018,-2.47401782117,-11.398522766,-6.29353214585,-0.138443385865,-0.513701988907,-1.08184833677,-3.4669920207,-1.43623516253,24.6328718581
off_to_on,-9.05638799619,-3.93725500551,0.100404602417,0.76527298906,-5.004010462,-6.51024954517,-3.55461556149,-6.7884987889,0.201101988292,-2.33376159311,2.28668301489,-7.0049459263,-5.12140472198,-96.0582781583
off_to_on,-5.33926858878,-2.59693439078,1.07013013302,0.111233727863,-4.42302398497,-4.10780962809,6.70649728258,-0.24504739631,0.261917999177,-1.41882039498,4.9617130074,-3.57437792127,-3.61729183847,-111.093019368
off_to_on,1.1732036955,0.500983094171,0.378158715053,0.297191973795,-0.191135947345,0.751398945911,8.48789565309,4.58298544699,0.022760578104,0.598763519225,2.60380174731,2.13100022952,-0.186159720972,-27.0801263369
off_to_on,4.09307221141,2.79902876035,-0.915904757916,0.635686383247,2.7075647294,2.61716803551,4.27338317598,3.49079451634,-0.154558781659,1.2917825258,-2.64516263182,4.16574052847,1.2340016459,70.4471091947
off_to_on,2.88971028793,2.61204003203,-0.905145941731,-0.0866923088098,1.64837406909,0.671368987181,-0.430673010076,-0.547284655029,-0.0948171194301,0.259833755066,-5.26541159035,1.3299344164,0.244581429947,97.498191072
off_to_on,0.853808375976,0.466425386353,0.454175499139,-1.44910520982,-0.960536533477,-1.49005513673,-6.04653529616,-3.61954546022,0.0119362739331,-0.900350703456,-3.24573301092,-2.45396203757,-0.572682311151,17.7073958374
off_to_on,0.119197931319,-1.26630048103,1.2961201999,-1.71302407814,-1.22076519523,-0.793603078045,-10.4781172762,-3.79543826224,-0.00120757444357,-0.665916524646,1.01906391102,-2.33605746126,1.01164298722,-107.703284484
off_to_on,0.474267065617,-0.853507998527,0.466605240985,-0.192376149604,1.25910606632,2.0379539734,-5.30584609925,-0.0211090411756,-0.0382471945758,0.814153893289,4.4284713177,2.35894536311,4.12576343158,-133.709863666
off_to_on,0.816386842208,0.591189237729,-0.909968240319,1.66795544712,3.09820510935,3.80056090276,9.13320287195,5.96747746506,0.0110384720525,1.91468816137,4.91013218973,6.52338664772,5.00071241785,8.65713804022
off_to_on,-0.0275443757846,0.450576596831,-1.04852615594,1.92490456217,1.56237540204,2.2499918693,16.273426969,7.87213963234,0.0534023812359,1.1564941186,1.44826541725,4.0280857032,0.740117419178,179.312938908
off_to_on,-2.39364370616,-1.60961337275,0.0715020596257,0.349221682841,-2.05383288714,-1.80983962503,4.3220768336,1.16507473174,-0.00757723644309,-1.13831119888,-4.23986229042,-4.67509679046,-6.40066340554,168.880719691
off_to_on,-4.30533842009,-2.68402297565,0.849878373344,-1.38672190102,-4.03413430643,-5.08627165966,-13.4712445963,-8.73800748916,-0.050567575815,-2.83284773491,-7.14716504768,-11.17609668,-9.70499148929,-23.2860178269
off_to_on,-2.67311661039,-0.486949865177,0.386657470637,-1.57360556267,-2.49038278822,-4.49265057898,-14.7729768209,-10.7721442378,0.0742603526539,-2.05886028345,-3.59315609285,-7.6660576803,-4.72727883516,-174.951547339
off_to_on,2.28609051737,3.0783290747,-0.411767596595,-0.214371766109,0.851008476203,-0.153996267112,0.529637058325,-2.15305336095,0.244356322809,0.593480930612,3.61861012345,3.5809028426,4.95288414976,-135.417853988
off_to_on,5.68780640803,3.94923939086,-0.355764303464,1.15419128926,2.91343025984,4.19853445269,11.5186251576,7.58351864382,0.169957470772,2.5209847418,7.54835157933,11.830362805,10.5645475586,-3.28510226859
off_to_on,3.60242938936,1.03789468637,0.299769191562,1.20610906488,2.44610331941,4.70827047171,7.24649514695,8.87599745716,-0.203789280955,2.02939336427,4.94656402928,9.52179030622,7.25433082014,55.5510807805
off_to_on,-1.33945854139,-2.52754831482,0.409511726742,0.124746653044,0.62623023931,1.42970384831,-1.18533766749,3.15334945284,-0.547421827782,0.1934588739,-0.778905712427,0.0326452242131,-1.06726699747,39.6936925735
off_to_on,-3.21030584643,-3.47789131823,-0.264184503843,-0.894662123987,-0.841178169651,-2.00125677469,-2.54143217027,-2.03609188993,-0.453999805337,-0.799297004637,-4.68609584692,-7.29156677649,-6.69846297688,48.4937442502
off_to_on,-0.97914256815,-1.90461134873,-0.741601659388,-1.061280048,-1.39479490672,-2.79188212262,-1.62871811303,-3.88131127864,0.125122368478,-0.559993094702,-5.40385826136,-7.59975849685,-6.37445603163,80.8026155744
off_to_on,0.561658388798,0.0949470349512,-0.298736565679,-0.510844221528,-1.36660896156,-1.67089720759,-5.09503350891,-4.64497746886,0.741234299836,-0.579784010773,-3.95630314422,-3.65258184024,-2.89930132329,46.5975303262
off_to_on,-1.29560708409,1.55337039411,0.564722104954,0.304989577445,-0.863878643413,-0.5741474056,-6.41610395949,-4.37897938094,0.787769423012,-1.45271366397,-0.559999216278,0.118561542775,0.248045729001,-54.4599694203
off_to_on,-2.76010873098,2.73382050252,0.904733280715,1.03421750421,0.329634712119,0.486341133955,1.85209249331,-0.396475049635,0.112858834965,-1.53977277562,4.51020947791,2.91201409221,2.88849341701,-110.527004227
off_to_on,0.211767179642,3.051264974,0.478045391473,1.1993495381,1.78237227165,2.33815986526,11.4891399108,5.99672879041,-0.697216280254,0.567344777162,8.2265592345,5.63613965776,5.68453193977,-66.2251161477
off_to_on,4.70929219458,1.13709170048,-0.265301542785,0.396339586274,2.12491707071,3.5699393234,9.1781111488,8.40446197398,-0.84617212571,3.21352563684,6.32291383239,6.55206485036,6.32545277056,4.60020184535
off_to_on,4.37109636417,-2.60067957541,-0.854316687313,-0.885394745793,0.420008270615,1.43516563187,-2.52119711482,3.20689533951,-0.229501440859,3.05283182575,-1.54684736143,2.40634100349,1.54251856476,27.4182235224
off_to_on,-1.21582444791,-5.13841347994,-0.99242034842,-1.38304615473,-2.26353554293,-3.57574908604,-9.34255815932,-5.25713665453,0.415640664457,-0.544831701252,-9.72828455326,-5.77089236432,-6.88551742167,26.7455365003
off_to_on,-5.38211105371,-3.75189678494,-0.453524176997,-0.608035406274,-3.35034298027,-6.55581655493,-6.82631985355,-9.5156250983,0.429754913164,-3.98284540727,-10.9974643186,-10.9310062685,-11.2828108277,47.0973868226
off_to_on,-3.36348922436,0.769361572851,0.605162896426,0.378598899264,-1.36653697016,-3.50806645023,-2.98841801368,-6.4807998408,0.0412349783123,-3.41220033956,-3.34991628571,-6.76768912059,-5.84546458597,60.0077787789
off_to_on,1.63724422874,4.68826578353,1.36607813887,0.491559535497,2.13202418376,3.2764286897,-1.14559453322,1.12533093135,-0.0644656226183,0.576094042541,7.54840340394,4.15894051974,5.63185048302,20.4701106041
off_to_on,3.51546987803,4.96813624174,1.01523399285,0.221812722307,3.85470643962,7.2646722057,4.03399827295,8.06406777654,0.218438918797,3.60772319858,12.8303191118,11.6599979222,12.5564020469,-41.4100294976
off_to_on,1.38575398963,1.88747214448,-0.208525590944,0.576974914747,2.25384096303,5.02897673457,11.4135678882,9.71803129173,0.311162675553,2.758124988,8.16871074127,8.64854460838,8.75067958863,-60.2931240834
off_to_on,-0.579576334217,-1.75787122582,-1.11363652091,1.00513557087,-0.76590955597,-0.272024026693,10.2525670874,4.70126528366,-0.105104501387,-0.308985734731,-2.26994564407,-0.998681646819,-1.20580294318,-33.793395336
off_to_on,0.0146751712927,-3.47186247589,-0.908660095216,0.0818586855287,-2.16404210658,-3.36645875425,-1.80892483673,-3.36714464074,-0.568902410206,-2.01210858218,-9.8435229165,-7.3707833196,-8.04342113231,-11.3103905608
off_to_on,0.778623765774,-2.9671997577,-0.0749143698004,-1.71406563977,-1.42453242821,-3.15795838024,-11.5356832418,-8.40897082973,-0.507625263025,-1.3595242401,-9.59672128468,-6.18087606546,-8.04420125718,-5.90805274446
off_to_on,-1.05037718965,-1.61827674643,0.371629255063,-1.91386555377,-0.801484643828,-2.76791742333,-9.17255577287,-7.83440301375,-0.0224618766014,-0.352467279619,-3.87046637947,-2.22509431247,-4.64983570327,12.8334264439
off_to_on,-3.93758627443,-0.439431488184,0.162444511267,0.347142143631,-1.6571974446,-3.85569344601,-2.41250735705,-4.20296690749,0.349669496844,-0.43650679884,1.99312470305,-0.929495152458,-1.35560834224,45.0116480152
off_to_on,-3.74724128801,0.910651815664,-0.0788282914407,2.41830361447,-2.03653355991,-3.48664781796,-1.21878897232,-0.142637198684,0.38127332879,-0.504477801799,5.49899429153,-0.748684984012,2.51383531157,48.79567739
off_to_on,0.777686173879,2.82873838012,0.163903789512,1.49344492001,0.553601866071,1.57186890238,-0.573353750162,4.85201826027,0.260379743498,0.832105999371,7.14036496036,2.7194756915,7.55008943724,12.817624988
off_to_on,5.95386255499,4.08954208115,0.604189504777,-1.2762775149,4.69999289451,8.7381108121,7.79420232767,10.163545946,0.126973600394,2.49446753381,6.64332005244,7.92683305198,9.86552685013,-20.2757396288
off_to_on,6.90310924464,2.72617125638,0.598010281434,-2.18512381255,5.8114770017,10.8211385804,15.9253401244,10.7104795584,-0.0590928580555,2.11607762246,2.46669405836,8.08890877433,5.1233397052,-22.3266954003
off_to_on,2.5522147464,-1.09362396033,0.00673196919438,-0.139912815396,1.92577785313,4.31005784745,9.44542558056,2.90279948781,-0.240922450256,-0.475663483058,-4.52404672887,0.911816538673,-4.31602418803,-18.2290857677
off_to_on,-3.59184519999,-4.32370397526,-0.652523320034,1.88516365277,-3.40011063092,-5.80677533123,-7.65093350157,-8.19112088365,-0.269376130904,-2.67650974823,-9.72124015692,-7.33255419216,-10.5306881974,-29.5535066466
off_to_on,-7.16478642718,-4.23190328413,-0.858483831922,1.14180965631,-5.55512261205,-11.4269602101,-16.4073577227,-13.2446351132,-0.202162072424,-2.39173322542,-8.96036460399,-9.5870789542,-8.9684469079,-30.0377086242
off_to_on,-6.56671118184,-1.56333697656,-0.617667931955,-1.15729593158,-4.33258434198,-9.83415268805,-10.619390846,-9.63456017606,-0.211028556187,-0.508436113075,-2.84923188671,-6.00119718381,-2.88671399464,4.40025361069
off_to_on,-2.89199841033,0.768495314444,-0.224949567067,-1.7967627698,-2.47822816742,-4.24606274779,-2.75099601522,-2.65441267973,-0.161810232662,0.770179255911,4.33210170898,-1.17274502944,2.27446279395,42.4525741068
off_to_on,2.22550836731,1.57490976095,0.263803704587,-0.00601432789165,-0.357644039915,2.39172444824,0.177413951794,3.68425793555,0.251734694555,0.924547409015,8.8454170395,3.05441473334,5.35175019956,40.7331116567
off_to_on,7.10286314483,2.18031221794,0.939935223605,1.80361868587,3.88770579819,9.4280456005,6.43737224864,10.0282220389,0.81978723352,1.07214292194,9.22527836247,7.35856695278,7.61915623926,10.8738022408
off_to_on,9.01034467644,3.26239577574,1.43714879265,1.42510109003,8.62841940317,13.9248827022,17.5628588464,14.4212427346,0.789647556183,1.52572918382,5.27079568026,9.61898291414,7.62059058514,-5.08941935073
off_to_on,5.36996413573,3.06493213859,0.967931252106,-0.54809122509,7.92654831493,9.96690302482,16.9777890175,10.018300441,-0.109851834053,1.16092477862,-1.95323215912,5.89426158593,2.60988952459,-3.9562406362
off_to_on,-2.62716134463,0.0777797970695,-0.59887813268,-1.83994586327,-0.536414173073,-3.11211699748,-3.80262766084,-4.23283405434,-1.04481469785,-0.488613052245,-8.9237371817,-2.60886147002,-5.42596046847,-13.7928377788
off_to_on,-9.27109345442,-3.90972033226,-2.03387149829,-1.22166720655,-9.87559058365,-15.4017238327,-23.7093126617,-16.7340937542,-1.00713622731,-2.02421278291,-10.9219924885,-8.84617408734,-9.91408212212,-31.9212850829
off_to_on,-9.36086752279,-5.3100686285,-1.83083094094,0.437146389962,-10.7753190871,-15.3589625293,-17.8372149283,-15.1415826899,-0.118784408687,-1.96419942579,-6.13935774152,-8.41962401992,-7.34939574856,-26.7283617804
off_to_on,-3.56165957895,-2.9291858211,-0.0559972939761,1.41585117322,-2.80645877083,-3.53725397477,5.1010452167,-2.33792993285,0.587312570505,-0.718381463027,2.11755562537,-4.48362647279,-1.36039416001,2.49556828982
off_to_on,2.86456210208,0.879355587699,1.54198877875,0.972937623514,5.2942248026,7.92207883431,14.4785787477,7.49517402835,0.576954685053,0.290535312327,8.21949062274,-1.46848296311,2.79140341816,21.7526175682
off_to_on,6.07419639083,3.21524724722,1.55127102197,-0.0773085485007,6.69903492209,9.9998510154,2.93004548004,7.55772500265,0.320748780349,0.741703787633,8.89991334641,1.66917448606,4.56164735242,19.6147228604
off_to_on,6.27897671803,3.35894356145,0.432193326694,-0.507771190163,3.42210426358,5.56672933876,-5.80572792244,4.44753583193,0.288571791558,1.31664618213,4.96712966339,7.30216507684,6.02958611097,15.4935580869
off_to_on,4.72775889161,2.24689457564,-0.411678459144,-0.202216162368,0.853388696421,1.73644954196,2.53935043713,4.55037121711,0.177197610958,1.84214849169,-0.541703067892,11.5804369181,6.21580363058,10.3909732222
off_to_on,1.23578451402,0.687224283661,-0.496787940516,-0.116447153035,-0.0703040310768,-0.408851722372,10.6725372756,4.08025976829,-0.395826845418,1.15070858126,-4.8121926674,7.70561337796,2.17004554123,-10.3538119763
off_to_on,-3.74554256315,-0.958250300221,-0.404649994255,-0.662946904508,-1.6827902944,-3.61289946305,0.963987101129,-2.09026600383,-0.96555108237,-0.829130348061,-6.35129799133,-3.40513514097,-4.76493075893,-23.3432099634
off_to_on,-7.04736928272,-2.14182758572,-0.432543545245,-0.90535373138,-3.62610670216,-6.36115928608,-13.4259735222,-9.18941724247,-0.70669978751,-2.25880540856,-5.01659579268,-11.8956682286,-8.46807641701,8.2500739235
off_to_on,-5.57790445121,-2.28861794586,-0.179814725373,0.0170045868798,-2.96204198408,-4.1350054402,-9.40417107951,-8.34864035839,0.303299103478,-1.61843071086,-1.65410450056,-10.4642006099,-5.42915814685,44.8229116224
off_to_on,-0.542744708381,-1.48962789798,0.393199166684,1.31907800881,0.335161956882,2.07564989344,7.99819511041,-0.19046062855,1.00446781295,0.151045279925,2.32573999011,-2.53580373959,0.616322611157,1.30538276219
off_to_on,3.45450575419,-0.423190988133,0.530689369456,1.4660980424,2.40681095559,5.19498402601,12.7501571818,5.5646271816,0.688203978693,0.883616310049,5.1452582201,3.57900621552,3.57846890668,-95.8105102417
off_to_on,3.63313133732,0.400616527345,-0.139385379433,0.331305925179,1.0380829903,1.69112297293,-1.94322274324,3.5531483087,-0.12706124754,0.105237653218,5.01133602862,4.70528121796,2.24113731418,-96.6027962365
off_to_on,1.61044400692,1.00027235493,-0.753845530183,-0.735653511194,-1.17043175328,-3.30884091329,-14.3489758097,-1.20702098161,-0.471181041021,-0.5158594458,1.51236496971,3.58634110178,0.283810082886,47.4803087585
off_to_on,0.505182933097,1.62266222579,-0.316178652556,-0.955773467848,-0.805781943474,-3.23664112642,-7.73651017959,-1.85640516757,-0.188793196727,0.344198416165,-2.85969633973,2.84757725739,0.751521988383,161.70168847
off_to_on,1.09583108614,2.25227577784,0.798878112699,-0.878161778681,1.64802168837,1.42660640072,7.53297101444,1.68672306644,0.0384782923459,1.82667155811,-4.02569251804,2.51922228204,2.99906195068,82.4871559092
off_to_on,1.5977293703,2.26744504696,1.26465246849,-0.803585701642,3.05110505266,5.06702138966,13.2208761648,4.87829010158,-0.204142718748,2.00045992796,-0.786710702776,1.97851366108,4.21896768067,-79.5783262335
off_to_on,0.215895637582,0.709311539671,0.528636202202,-0.0131706982761,1.84530367675,4.4397888809,7.70229389283,4.5884245013,-0.465706233712,0.182318623282,2.78656199757,0.402521325344,1.90924564191,-93.1890605345
off_to_on,-2.80998187951,-2.43029214219,-0.653735398313,1.51027503704,-0.892832661361,0.720213333646,0.208648626201,0.371273933972,-0.13132890378,-2.29533574348,1.67352158554,-3.58838332106,-4.1340331527,29.2537093134
off_to_on,-5.1662284504,-5.07515113685,-1.3379491048,2.02809893292,-3.39484519066,-3.8043203866,-6.26639850014,-6.23930566563,0.612717634458,-3.31657606261,-3.2647689773,-8.84059000218,-9.98528156117,49.5450496392
off_to_on,-4.27793350648,-4.35218003611,-1.25604161382,0.310005426768,-4.27878451295,-7.09693570905,-12.5658530671,-10.6992551384,0.907387317349,-1.82124213503,-5.39372632714,-9.51588344665,-9.14519829751,-94.9595986105
off_to_on,0.0365533212308,0.0409658385106,-0.514028789462,-1.93967570534,-2.61564163999,-6.52351610004,-12.6988820413,-7.4840815969,0.30234010453,1.14990401376,-0.711344991152,-1.28609376371,0.430733150915,-160.448026778
off_to_on,4.61246013647,4.53650861918,0.69637166422,-1.89320008345,1.06812635725,-0.873139902064,-0.936441144937,2.88200190263,-0.619961901215,3.11391441578,6.11393201793,10.2652009521,11.2197484421,17.7420815148
off_to_on,5.74262336101,5.15550133093,1.73441342513,0.384921483143,4.27445277062,6.41465144422,14.0327236051,11.5871828685,-0.904199139851,2.41476392009,6.97101970637,13.494709621,12.4866717287,234.118807627
off_to_on,3.21022290652,2.02056968045,1.64546435399,1.81345097162,4.71540262154,9.41998742415,16.4065443631,10.7108740134,-0.342468089441,0.0616867064423,0.669515729595,5.13977030388,3.07186519471,203.339685417
off_to_on,0.209649254447,-1.07204736737,0.285043407364,0.627430525424,2.66851237305,6.01400084827,4.72853166753,2.75682671605,0.351325471523,-1.33639869476,-5.3770658639,-4.78150629248,-6.43339838321,-22.5152392547
off_to_on,-1.1623374687,-1.65524520851,-1.18815700428,-1.1932185399,-0.18462086653,-0.465107075305,-6.43753388946,-3.51568091406,0.480604466485,-0.753872010604,-4.63688908529,-6.35834346848,-6.89705182376,-165.541635149
off_to_on,-2.37731300352,-1.28629555376,-1.56526120444,-1.01229160456,-3.18271244143,-5.92981790951,-7.75035759641,-5.02923596604,0.157757434553,0.0542457298355,0.523958290547,-2.66860491095,-1.80629687741,-142.50835397
off_to_on,-4.97120948894,-2.26560564007,-0.94792677261,0.622047833218,-5.74309916295,-8.73179781728,-5.51522289464,-6.08189808402,-0.0335204596327,-0.735604246441,2.76124695111,-2.94006735335,-0.57961866316,-99.3893754576
off_to_on,-6.46314759796,-3.46280492465,-0.234940529192,1.10923629809,-5.24118294231,-7.66354080226,-6.64408871535,-8.17664023737,0.0841054258014,-2.08684643247,-0.236385795621,-6.75528804626,-3.96846379628,-74.1398248507
off_to_on,-2.79814648522,-1.72026089807,0.30143111668,-0.152005718892,0.282343804319,-1.21864311395,-5.55805028012,-5.6267275739,0.123595948135,-1.38808165078,-3.22729815153,-4.35085885528,-3.40460778986,60.0617432823
off_to_on,5.24717624792,2.98762309322,0.988252765814,-1.06937911529,6.99955809854,8.28477541661,4.6942235548,4.74069316422,-0.166246335164,1.61672531024,-1.12978417187,6.86645286731,4.75441506194,265.610216505
off_to_on,10.9945677045,6.28632179257,1.51374052382,-0.239195278947,7.44743187878,13.1852738798,16.5530540944,14.9650357853,-0.446539038733,3.91494755331,3.95760065177,15.3792394168,11.8422447946,269.423044537
off_to_on,8.60637319552,4.37681296543,0.941899673559,1.03848047858,0.242463998567,7.55929260625,15.0527771747,13.5435362736,-0.266800774075,2.82693773885,5.57238529365,10.0780495331,8.05689308804,-22.7122457503
off_to_on,-0.515875569108,-1.19706478068,-0.667157087177,0.934181344102,-6.28331054865,-4.89515374838,-1.4470965527,0.121584643403,0.23715590943,-0.743067850488,1.24695526672,-4.42417408391,-3.79051618143,-298.351543454
off_to_on,-9.17058385192,-5.23802541752,-1.72968602365,-0.279704076294,-4.27582622961,-13.5104660547,-17.5302344276,-13.0315077344,0.462389092703,-3.52965011226,-4.50952038775,-13.5893111484,-11.5766993612,-245.251691617
off_to_on,-11.1600318916,-4.68897108732,-1.04978553645,-1.0225460153,2.58218215542,-11.3964390657,-18.618757525,-14.7325760089,0.136626578137,-3.48890531042,-5.80168682258,-10.7975141229,-8.92868481272,8.62957720668
off_to_on,-5.86846509054,-1.26032890626,0.441764101249,-0.820931563911,3.85193103898,-1.3541676908,-5.60812228807,-5.81772040609,-0.302305189163,-1.22061992982,-1.99185312335,-2.47629081817,-1.10433932361,119.779466927
off_to_on,2.53302072567,1.57360243995,0.875897629854,-0.442670613027,-2.56542064599,8.47081886401,9.56094664253,4.6410368968,-0.270455395434,1.43769278005,2.45350509952,3.41480376422,4.16099383958,46.6494194749
off_to_on,8.75711151874,2.54786036591,0.0207777937997,-0.0928769765994,-6.74133291076,12.1064439373,16.7397299042,9.90431819478,0.193639890944,3.00430728334,3.73696433194,6.46120078545,5.77040192259,31.0752075767
off_to_on,9.67550069402,2.72390472849,-0.501192187649,0.851808249083,-0.66701061662,8.79431659944,13.6173833152,9.61331336864,0.460047451628,2.82072090922,2.47575468446,9.15004241652,6.60565519627,130.900182329
off_to_on,5.49362073368,2.68097219629,0.306340356879,2.06366423528,9.5182158873,1.39946095169,3.87203598626,5.92271472917,0.111944577998,1.13749009343,1.26910080752,9.28043616507,6.19145580693,122.912697051
off_to_on,-1.44796173705,1.24108377465,1.26887067317,1.79716154928,10.4906713803,-6.50998191492,-6.88938076422,-0.301862873578,-0.491830773265,-1.01570545592,0.290651480744,2.32280571688,0.971437530599,-76.9769294131
off_to_on,-8.44797006995,-2.42462829612,0.69818572127,-0.716686214498,-1.14421454967,-12.4824465504,-14.625144981,-8.46307591944,-0.62594399354,-2.62429970141,-2.4507573937,-10.2969566914,-8.67499121819,-224.147368063
off_to_on,-12.4070926877,-6.20865964595,-1.1048139212,-3.3330601984,-13.8833610017,-14.3612579133,-17.5417958395,-15.0503073709,-0.0924759742557,-3.28260387034,-6.35782889678,-19.3449029319,-15.4666054859,-124.445370703
off_to_on,-9.35832530736,-5.95423249506,-2.03434636845,-2.98827554021,-14.0869723587,-8.52410069147,-13.0830149951,-13.5873741906,0.525719600072,-2.60248989438,-6.44179091036,-15.2769551025,-11.2334777358,60.3307469594
off_to_on,2.26624504507,0.10485972268,-0.832399461313,0.367448507814,-0.528691498682,7.11440781051,2.27983935961,-0.198834279471,0.582941451534,0.130075771117,0.986081751397,2.56593082603,4.19412366719,87.8724799913
off_to_on,16.1934117387,7.99250573013,1.29230958671,3.2370346881,14.704016805,25.231318996,24.6903186989,19.0398034121,0.131813460505,4.324118703,11.3535871377,22.9598545802,20.2595089067,9.75494656645
off_to_on,19.87782813,10.429781537,2.09540440124,2.66651968845,17.8160215277,28.7132819517,36.6310114359,28.3362197811,-0.245480403898,6.66160473401,13.9697281418,29.1447122382,22.7754390127,26.0413052608
off_to_on,6.59655810371,3.90097047545,0.872579160608,-0.187147355578,5.49373753512,6.90873878005,19.8540304787,15.1256199184,-0.235123152432,3.655787523,3.38788964953,12.3181134264,6.47430416585,111.924364963
off_to_on,-14.3674920735,-6.84141220509,-0.941331778578,-1.77984028096,-12.1522353095,-26.6253678496,-19.933817482,-14.4007745908,-0.0948700715997,-3.50585939043,-12.7095276583,-17.5166625062,-17.6788358232,72.6789835051
off_to_on,-24.4221548516,-12.4974490976,-1.60398724355,-0.852945045552,-19.909883822,-41.4688024195,-49.3570648042,-36.0948084722,-0.132918905623,-8.6079052442,-19.6211140015,-36.2834755577,-29.6089591886,-91.1277459356
off_to_on,-14.4289042185,-8.04405804148,-0.892439782703,0.362077729485,-10.8036000224,-21.5769993379,-38.5468196537,-29.2981025824,-0.229977467163,-6.62358095843,-10.1708392562,-26.6267643429,-18.0496751661,-160.041756802
off_to_on,6.07004223958,2.53879612141,0.135106052167,-0.146376747751,7.15815419374,15.5185830515,5.16045639165,1.79380598701,-0.0887740369225,0.648754997768,7.97112083442,4.36031977572,7.81786466403,-52.9393276292
off_to_on,19.6364421432,10.4165647232,0.691774463581,-1.17935158216,18.1692596272,36.7759587092,42.4491622818,30.8216603181,0.268457459136,6.66153383969,19.5862230557,30.5373536479,26.2592695012,53.2477274101
off_to_on,17.6740382217,9.98682440374,0.898435264275,-0.470738216447,13.3932241722,27.5308019326,41.8616734015,34.0706127914,0.513736494205,7.03271717882,15.5947945256,31.1505829873,23.1696175833,30.1890973646
off_to_on,4.79890847945,2.74729782111,0.934792609686,1.47349094567,-1.59122953334,1.46946970414,9.05306027951,11.4287966637,0.408683217785,2.81987827714,0.0983914687905,8.96856695483,3.81761150593,-11.0991079125
off_to_on,-8.88464957812,-5.28395205578,0.414265688194,1.90446016563,-13.3699911694,-18.9836732791,-23.7144528721,-16.2225894533,-0.0173527537554,-2.18112453895,-13.9675798797,-15.2176884301,-14.436485557,46.3612189279
off_to_on,-15.2611778454,-8.56346029009,-0.810854376342,0.020883458331,-13.0034150464,-22.7859693361,-30.5042041266,-27.143686229,-0.541214717629,-4.98445521589,-15.6301117311,-23.0803436199,-18.5832470218,105.83448847
off_to_on,-10.9857215454,-5.4550154531,-1.75695575795,-1.66843834958,-2.26276443709,-12.1115059308,-11.9354308941,-16.0539556478,-0.778955951259,-4.35145464782,-4.73035418335,-13.0068614428,-9.16637031284,35.6833970112
off_to_on,0.576266788259,0.988833240473,-1.1875814228,-0.993860983734,9.23440942054,4.15022293921,10.8748352016,4.29649663563,-0.363863144073,-0.93066705661,7.97105794177,2.39721371759,3.34624667272,-85.7630007664
off_to_on,9.75406572252,5.20897616013,0.59302202636,0.779891219489,11.7725172316,14.2242350929,17.090809836,15.6260781964,0.530832971048,2.41798049298,10.6119083047,9.52781947639,8.72657705426,-95.0127326581
off_to_on,8.44942593048,3.8602427179,1.74600950604,1.03508007731,3.26855439303,9.89801145859,3.72073649126,10.0020742158,1.02257373177,2.56232081859,2.02959878387,5.32010607736,4.95830334282,-11.6514635549
off_to_on,-0.395941511299,-0.675765950137,1.1097658108,-0.345999215828,-8.14581228192,-3.58031642087,-12.771179901,-3.68109582671,0.426906374302,-0.0824333085529,-6.91401511398,-1.7265757431,-1.27853447759,16.3888001991
off_to_on,-5.41149032243,-2.69783219019,-0.334401307116,-1.1742677988,-10.9667640887,-9.77725820023,-13.0650838627,-9.28261146563,-0.675010286732,-1.37975432346,-5.51343079686,-1.50683583936,-1.92648730807,-24.5441647639
off_to_on,-0.99049651908,0.0278467707839,-0.855043020226,-0.40430638742,-2.34296314059,-0.472080483042,4.27066709884,-0.891859363074,-0.936040343714,1.05911310235,4.2550937612,6.06976440692,3.5406459493,-11.2337914939
do_nothing,5.52616923468,3.35699052959,-0.247921742902,0.677364346459,8.09525363825,11.9713806023,20.3245032601,10.5831257659,-0.0201987746341,3.87697424742,10.1515653249,10.5111546315,7.22205429547,72.2843960716
do_nothing,4.29574825905,2.19102926854,0.199475049587,0.802590602402,9.14763101504,9.99548923124,16.8150329965,10.3813273766,0.826900392236,2.14280440698,4.53671358472,3.28311954359,2.25177251386,92.984988593
do_nothing,-3.47755056165,-2.53499258802,-0.230853690992,0.362023072903,1.2107155482,-5.01548932936,-2.93067330916,-2.31202204994,0.476213692075,-3.34813894107,-6.6507955904,-10.6067620455,-7.89919745,3.94074280112
do_nothing,-7.93338982616,-4.93652456693,-0.732714276238,0.108293788961,-5.39496453219,-14.5805519285,-18.4371226826,-13.5615665309,-0.47587862324,-6.31899788838,-11.540124011,-16.9059716705,-12.3928254003,-66.4022697458
do_nothing,-4.41161085318,-2.08109839582,-0.322355053177,-0.158192090524,-4.38933804753,-8.62839053481,-16.1968199897,-11.7275601588,-0.629514629142,-3.1083615505,-6.15293062423,-8.39742284838,-5.69907214105,-30.9423941482
do_nothing,1.54009898963,2.22166094003,0.719405901598,-0.673582639142,-0.342419675933,2.4762092295,-3.31024170946,-0.617198098244,0.11653861633,2.6000885685,2.62525953675,6.41786825117,5.5331651171,14.8613922717
do_nothing,3.50231386169,2.88796947662,1.27220658342,-0.784875183213,0.032588850253,5.19825263904,4.60942826774,7.07122877255,0.508638752458,4.83220079233,6.63746425655,13.0823401761,10.1813173093,-28.4404703951
do_nothing,2.38968376801,0.316075144054,0.739513826944,-0.0758699201836,-2.13664836629,1.41902751989,3.34184297538,5.82981451464,-0.0191471388509,2.63937619048,5.08818179033,7.41796529214,5.33252236171,-82.3816698191
do_nothing,2.40243874078,-0.96974303052,-0.472960817166,0.586459691664,-1.12000291427,1.60521086612,2.2220593333,1.88198117873,-0.470936734235,-0.160990995354,2.58926019367,-1.3559032107,-1.60254773777,-22.1913963779
do_nothing,3.40099400674,0.81386783331,-1.45504567889,0.347409336662,3.509082816,6.66508970453,8.2045207645,2.32632506251,0.0276364402867,-0.959526843138,1.73287380814,-3.24106347586,-2.97628567513,103.366542778
do_nothing,1.94326383041,2.49369473465,-1.3733411518,-0.129783643801,6.04136257749,7.45157915968,14.5642694873,5.19829671852,0.730910359026,-0.850368610631,0.617797726575,0.8458281093,0.268569409673,131.588230574
do_nothing,-2.19876687684,1.03336295737,-0.0143985924339,0.192706733641,3.22333689287,0.184514983971,9.37357874918,3.38707913808,0.419200098864,-1.33428831428,-2.77350677774,2.35300710538,1.57168462447,22.2611341517
do_nothing,-5.20085546106,-2.08116793367,1.68388133044,0.769663191115,-1.56140819519,-7.8288486336,-7.51469855665,-4.42896021599,-0.622120703893,-1.65263193249,-6.46441277664,-2.47064962939,-1.74733358851,-96.7082633187
do_nothing,-4.68241224785,-3.31700583618,2.0293814492,0.277547908469,-3.95118377519,-9.36063888846,-21.5339803073,-11.1807704606,-0.960130338509,-0.63788672664,-6.33934076173,-7.79700630729,-5.3228924294,-107.729891687
do_nothing,-2.28911418178,-2.01218042602,0.304322223537,-0.980919316605,-4.0748052307,-5.99508862958,-19.3144253154,-10.0044656182,-0.150644969456,0.890899067004,-1.4180275367,-6.57252958642,-4.19485502502,-22.8441643103
do_nothing,-0.0824730201679,-0.374814746548,-1.9830995337,-1.2763752153,-3.87782505372,-2.40423045008,-3.82043310771,-2.0875145287,0.676767740358,1.31644656061,4.33121261321,0.173805230302,0.657097448032,69.8073356025
do_nothing,2.36760257949,0.500916678969,-2.40187205938,-0.156817030092,-2.45858873344,1.47501653129,10.2786390719,5.78459543454,0.56599410111,0.665934941817,6.15052037955,5.48432122297,4.22278352677,91.0814938334
do_nothing,5.50145083676,1.74737941072,-0.389405362564,0.830340945798,2.00632190629,7.33925246858,14.1277645234,9.1455733895,-0.00978945790777,0.223966821117,3.63119800534,5.87844794064,4.0960466411,12.2325231275
do_nothing,6.8084130674,3.51861290041,1.93519315678,0.614192958141,7.15697474722,11.7817524181,11.6251652556,8.49881920993,-0.160062497742,0.324539641025,0.496049976924,4.24873001148,2.32372497797,-104.818398638
do_nothing,3.2469499267,3.46930131005,2.17347144686,0.091327767657,7.50822450348,8.90455820582,8.62172203806,5.32625434596,0.0357269269093,0.121895560316,-0.46061767693,3.33011270676,1.07477062747,-124.083424463
do_nothing,-3.80681158279,0.188185915254,0.354215451106,0.261290693895,1.46386843069,-1.0517713384,3.17916281434,-0.395759766347,-0.0532192005421,-0.595044434202,-0.432731603916,1.19984474367,-0.231794275244,14.3469954418
do_nothing,-8.49730614029,-3.67422415007,-1.34295839714,0.450182563655,-5.58419827761,-10.3241113089,-7.70227127484,-7.26513652436,-0.37481119218,-0.867701024174,-1.80148833758,-3.9043899403,-2.27645892624,173.462706033
do_nothing,-6.44833467334,-4.18387973026,-1.27791539188,-0.274923179592,-6.99248397638,-11.7162708683,-17.3013459839,-10.4908569601,-0.312215070382,-0.191570618252,-3.97789133501,-8.0913798948,-3.2539115569,157.309853942
do_nothing,0.223333216793,-1.36711526822,-0.0392531255876,-1.15722987846,-2.38052962173,-5.53344415381,-14.7371258904,-6.53025489901,0.177023355,0.505822274746,-4.06626215245,-6.12045829446,-1.63175058633,-27.3413944206
do_nothing,5.01436280249,0.894075342294,0.65887801442,-0.857017687173,2.37188857965,2.00149813308,-0.957577528926,1.31507531623,0.431133064835,0.176078676106,-1.11505941298,0.18820065046,0.296651364335,-167.265794713
do_nothing,4.04174125392,0.437470692286,0.147852905786,0.282203134686,2.30971773528,5.26403662116,9.93892259905,5.59090390031,0.150196078178,-0.802068073332,2.43119756305,3.36699938565,-0.82127285531,-125.983759522
do_nothing,-0.0545741527831,-0.358359717555,-0.624068887632,0.798406089023,-1.06412802256,3.69931552991,8.49891109432,3.53928339096,-0.173236252782,-1.11205222088,3.83231663096,0.936396306765,-3.45464249322,-2.62362316344
do_nothing,-1.74991475927,1.28824819084,-0.505098744835,0.479780684345,-2.22666068106,1.25898677069,1.59475350573,0.18509165616,-0.105985797357,-0.161530751814,2.92149789175,-0.71247134571,-1.9639026235,49.8491055051
do_nothing,0.652850511267,3.84186959334,0.426765282483,0.364875196419,1.25176649839,1.85965425203,1.14709698745,1.16790064322,0.0962809137368,1.34779842837,1.38656126377,3.95264869274,5.24195354065,37.1852472739
do_nothing,3.39814663993,3.45766784616,1.10683748682,0.547900385486,5.57365309388,4.77155222941,7.04539921875,5.18514294135,0.0507496583799,2.27964089255,0.635774709177,10.2765648196,11.5890773205,50.7468394932
do_nothing,2.44879936408,-0.281341942753,0.866358813696,-0.0352722044679,5.28605645807,5.01621463812,8.5513714554,6.05179841732,-0.102460256012,1.93218743921,0.820242416247,8.70588447157,9.21472825133,80.6057888024
do_nothing,-1.53693251802,-3.61966530291,0.0808943325621,-1.30661912507,-0.146972579331,-0.632640623812,-0.117640178315,0.688462748403,-0.057614795964,0.217145368907,0.549811495122,-2.4624254393,-1.66280150523,41.6708536791
do_nothing,-4.68419775687,-3.87167363489,-0.596824215678,-1.52502896388,-5.83788577701,-8.85373182522,-12.7611382733,-7.5941149351,0.0555701348796,-2.27572867919,-2.44721928132,-14.4373846702,-12.8232091113,-56.6020600375
do_nothing,-4.87881088345,-2.50123416403,-1.06163970015,0.0230381429085,-7.16044946827,-12.5654116373,-19.0730135847,-12.8663629524,-0.0562267231182,-4.11148867779,-7.97722012435,-17.6357041179,-16.3061057537,-104.93435067
do_nothing,-2.98866443538,-1.62273624603,-1.35904223813,1.52277658174,-4.03367896155,-8.06854063371,-13.7478940855,-11.0462785155,-0.23831068108,-3.53566952081,-10.3392002846,-9.8913403775,-10.1096057334,-59.4738735991
do_nothing,0.111365963393,-0.158231670114,-0.958432368537,1.15138563256,0.7316646322,1.92424515105,1.51195211327,-1.60009911013,-0.0958165335171,-0.0397230455315,-2.75284000661,4.46619287128,2.62411306106,4.11732854254
do_nothing,4.44512449756,3.61770395181,0.616779084146,-0.23959588349,4.87080337503,11.331958101,18.5889581314,11.3592884837,0.298671572761,4.38283810011,12.2002038684,18.1755704378,15.6152339432,22.1063017296
do_nothing,8.0570049422,7.19097470041,2.40801134592,-0.580652230648,6.83439414839,14.6760427994,25.2555921668,19.1513086529,0.43756325885,6.19276533041,20.4241175361,22.4895287358,20.534980488,24.867731035
do_nothing,6.70723084588,5.45762887205,2.41163884118,0.22065875012,4.86717836115,9.3463594867,14.2153349298,14.076960663,0.136407873975,3.38101006338,10.6323158529,11.634735775,11.6880037745,49.2524882958
do_nothing,-0.654182043606,-1.93412707998,0.0740597265821,0.413952593312,-0.832516458622,-2.20486482963,-7.11332803504,-1.90516115973,-0.219334245551,-2.18538054276,-10.0485966948,-9.06128273183,-6.57779612257,59.6747537175
do_nothing,-8.14578398174,-8.24158241477,-2.41288650278,-0.635465151144,-5.88866874126,-12.0563926582,-21.2303153395,-16.2745821026,-0.287779643844,-6.01881821385,-21.4029376826,-23.3660290933,-20.1754250768,16.5750628194
do_nothing,-8.50066296606,-7.04674045448,-2.43073258109,-1.48588675975,-5.37917049603,-12.5453403831,-18.3115556548,-17.3433768827,-0.193149927258,-5.11625325924,-12.9565535549,-18.9584353466,-17.8423082882,-42.1824278447
do_nothing,-2.04862168065,-0.161088014483,-0.204199483469,-0.829427592428,-0.300517253237,-4.45792675554,-5.17147131659,-6.16188021023,-0.152771070974,-0.718989508253,4.25366336771,-1.39217766343,-3.13353008205,-55.2535014096
do_nothing,3.49972858686,4.72752307501,1.49573546137,0.814076305164,2.93240875138,3.31971478945,5.66188108753,5.55155705739,-0.0795759576369,3.23054483148,12.2630399068,11.9520878259,9.62533976283,-29.4269381002
do_nothing,3.01766735247,3.56272829006,0.970837736008,2.00420626596,0.865892341538,4.37189369512,9.74824889074,8.81466645362,0.156762556852,4.03506232996,7.24386458782,11.6836074007,11.2433004954,-12.9233935576
do_nothing,0.0485125273548,-0.0304693795792,-0.427194028128,1.83843404982,-2.33122575663,1.93260313455,9.48880165165,5.47319281725,0.37017272543,2.20462491891,0.0285243799005,4.59301420493,5.71820266745,-9.55101688024
do_nothing,0.661415287107,-0.729003040475,-0.532187559136,0.255643347958,-1.09756593114,2.56545710209,5.82391602746,2.54543718143,0.301597698589,-0.0762610442514,-0.960634320904,1.17818023037,1.75808468943,12.8551318548
do_nothing,4.27210876481,1.44392457906,0.616938953863,-1.91263812843,3.35415009721,5.81155264206,-0.978932507807,2.3962629291,0.0407058727662,-1.38786874238,0.99014896897,1.77556402062,1.07868085945,46.6914850919
do_nothing,4.64457860776,2.20166756541,1.15833174676,-2.90602274914,4.88924109168,5.20246612178,-6.09862710715,1.52634822224,-0.12579084014,-1.70697933777,-0.558657958946,-0.273205963713,-1.02749955417,47.0989456981
do_nothing,-0.779219421132,-0.498103364796,0.195631978548,-1.41781088565,1.21094549297,-1.39971799919,-4.58879508365,-2.59477567816,-0.165525062188,-1.482269448,-4.73549996721,-6.22523391555,-6.11275436666,9.38285543874
do_nothing,-6.75693134617,-3.78105374325,-1.11707297416,1.41812133266,-3.36684909269,-7.95194641487,0.156131401778,-7.08595160011,-0.258434631921,-0.891575905699,-5.66924437075,-9.52580570188,-8.97924822842,-19.7094692592
do_nothing,-6.82434147138,-3.79952981047,-1.29246371753,2.75352787851,-4.16602064583,-8.04289277799,0.625295001919,-6.93837127843,-0.36264861601,0.103376728014,-1.28894436952,-5.26113281422,-4.74286374379,-17.97047067
do_nothing,-1.18547927007,-0.369263275422,-0.2787392935,1.4837325859,-1.53113157871,-2.42809062231,-2.53357227659,-1.10867949519,-0.197756376716,1.36732108594,4.52588500131,3.32381490667,3.99876215588,-16.0745383325
do_nothing,4.15079979754,3.15041247604,0.785117477354,-0.389189088351,1.17434053374,3.24584490192,-1.55954670785,5.75928575395,0.26529294876,2.24241493863,6.87867964287,8.95893169859,9.46396062136,-31.5173603441
do_nothing,4.62473204025,3.55427153038,0.908778818895,-0.808705555133,1.92317593906,5.03414928442,3.98935525177,7.4860473138,0.615882155635,1.67297941164,3.87483472096,7.57116401557,6.91307142986,-31.544970774
do_nothing,1.27496463086,0.690158403267,0.0746051966042,-0.490290596219,0.733566506593,2.85102368432,4.37169050135,2.24299887548,0.476656824892,-0.693299626535,-2.77603864738,0.552146464433,-1.01748042834,5.84514550632
do_nothing,-1.76570994785,-2.60847728582,-0.804889431284,-1.05825860994,-1.41274860353,-1.03504346062,-3.9921663144,-5.18869199717,-0.0300758130222,-3.26847257818,-8.2855452234,-6.83252561627,-7.35209390977,43.1287077404
do_nothing,-1.76486996954,-2.97186616935,-0.640107995043,-1.76690876592,-2.37297412911,-2.99777948052,-9.28314786301,-7.2916482498,-0.448542813701,-3.29798531431,-7.24987645311,-8.20005030882,-6.81172826463,37.8861481226
do_nothing,0.824928323417,0.355266008098,0.63244854585,-0.574136087309,0.14333759326,-0.0965091443939,-0.370196188464,-1.06871536823,-0.487006944712,0.107226940951,1.0615503651,-0.982730799634,0.204244930019,8.12148727794
do_nothing,3.28174487109,4.16960980415,1.59930502105,2.01910024243,4.85276126018,5.60765073019,14.4497747326,8.08299453241,-0.212937930091,4.09989785991,10.0654779241,8.89080009216,7.65859857428,-3.64549294559
do_nothing,2.62638311557,3.93454299878,0.815203145315,2.95843159758,6.16247773962,6.84239023401,16.0022165429,10.659797113,0.124833850454,4.53428226579,11.2916591855,10.439123451,8.19246319852,-0.534623703365
do_nothing,-1.78551232693,-1.17585878973,-1.19768477893,0.972184759951,0.529291152744,-0.65780849289,-0.378525414427,2.45675243145,0.306742919708,0.586855236685,2.98886584663,-0.299044813734,-0.0845721610476,-13.0560956402
do_nothing,-6.5719160867,-6.3667321815,-2.24943474324,-1.50251167035,-7.42136453509,-10.7201847457,-18.3055416452,-10.1265550895,0.243840654065,-3.98946010632,-8.15510889763,-13.2193563742,-10.0920338628,-33.4990857894
do_nothing,-6.48929524151,-5.82392607731,-1.13267296458,-1.85725961662,-8.99128191462,-12.2033495553,-20.362175471,-15.2308464242,0.0247283139211,-4.79591495648,-13.5557043974,-13.739740788,-11.2797514328,-26.8356297667
do_nothing,-0.0948171426639,0.571193792335,0.886135897818,-0.73095753913,-2.06454366631,-2.52464329458,-6.43895998465,-7.15879235014,-0.142022106093,-1.38734462749,-9.56093247314,0.129435451691,-0.939361464402,3.96085167964
do_nothing,7.27008625124,6.51654795234,1.79058396472,-0.258323268809,5.87351329262,8.62140426501,10.1413460904,7.18572311988,-0.121666885869,2.63264916471,0.957798347627,14.3367239377,11.148501267,21.3400657162
do_nothing,8.32575976195,6.12074846418,1.1861912502,-0.512365297812,6.90265099996,10.927463353,17.5715789022,14.7015969018,0.0170644323174,3.6724124219,10.9428918608,14.387501357,12.3802508422,17.041145797
do_nothing,2.1395991382,0.431754737096,0.133848072526,0.114901671683,1.8670063146,5.0256410388,13.1537633421,9.49492030661,0.107285989428,1.57386022468,13.4163094183,1.40273075173,1.71168984227,14.654858903
do_nothing,-4.48842810887,-4.18769908433,-0.604109062079,1.72353770934,-2.13569532958,-0.732036433174,1.87090981366,-1.44670938769,0.0696352038915,-0.95370786664,6.67926393792,-10.4290083168,-8.92240536876,12.6202784412
do_nothing,-5.12495892769,-3.65823427179,-0.984232496298,2.35483530646,-1.38935956017,-2.00577615344,-7.90975208932,-7.13357753274,-0.0498413241652,-1.60885676265,-3.68097579652,-10.6224258918,-8.90328847123,-8.98394821721
do_nothing,-1.16408779226,-0.276469070645,-0.842220197615,0.809873624994,0.866330945123,-2.12859177182,-10.3667712208,-5.1665014199,-0.151329924229,-0.695830066153,-9.81315003291,-2.47777909121,-1.03905740291,-25.5594495226
do_nothing,1.15556162205,1.28898098844,-0.0202207165734,-1.63689999411,0.312197513082,-4.53614836401,-6.93833666217,-2.1418846413,-0.135236505387,-0.071680155952,-8.90569574442,3.95208470006,4.03476437029,5.93247218176
do_nothing,-0.319915701348,0.158770296301,0.752350625372,-2.80808390273,-2.39032760478,-6.58906456614,-2.98955063439,-2.37386932919,0.0208394151568,-0.420436714625,-3.86693874334,4.55719482473,2.58098577875,47.0048571637
do_nothing,-1.56287888637,-0.602790013316,0.476416492041,-1.82694124439,-3.22751768124,-3.65354039692,0.329823818192,-1.93256295804,0.170836133013,-0.444806519942,1.94058643451,3.19133941789,0.700903555421,6.24311859251
do_nothing,0.458468736824,0.734545564901,-0.436318226173,0.480227800809,-0.79073276522,3.22720846059,5.61639538243,3.11928638672,0.112223578064,0.823642408544,6.69323741984,2.99346156673,2.54765437283,-94.3386934407
do_nothing,2.83169015196,1.88924890471,-0.463562949615,2.36335604396,1.92085829512,7.48626920604,10.0429914919,7.77329621981,-0.106016710699,1.9009090659,7.43126231643,1.247536273,3.06471999552,-100.819433003
do_nothing,1.68887935518,0.348665043317,0.62907749093,2.21754380141,1.87039038108,5.10742843849,5.53160640381,4.1786515302,-0.149665202616,0.589081072002,1.56845272808,-4.6543451008,-2.90043375058,42.1314259895
do_nothing,-1.12772910529,-2.2445376363,1.12462360793,0.0527035281465,0.149899931871,-0.284512352639,-7.0235017234,-5.11871393015,0.136857577921,-2.2931468564,-6.59842279715,-9.94387819801,-9.64920369548,160.464971263
do_nothing,-0.887709017684,-2.02327804282,-0.0679026174336,-1.8923810796,0.116199641311,-2.2963723615,-12.8283271496,-8.2570576697,0.390238135695,-2.99475479492,-7.13699316725,-6.58310106363,-6.67624620417,85.5107515681
do_nothing,1.97323341019,1.33570388631,-1.49350969999,-1.32170075466,2.15586310082,-0.127497340174,-1.99634762247,-0.437248908018,0.157541969188,0.225346939759,2.594337186,5.19701512957,5.52380473768,-75.8600406353
do_nothing,1.99836404707,3.5917432197,-1.12526990458,0.964835586116,2.7794828373,1.05282712626,13.2771773502,8.28380606737,-0.402542332777,3.97535873172,11.1344186691,14.406113025,13.7723372925,-91.3817910274
do_nothing,-2.33314089783,1.61039310332,0.655282434302,1.66091416056,-0.174216652686,-1.74056046342,12.866660778,6.64359840394,-0.626657719547,3.63955010702,6.27764258692,11.2797518808,8.72032586063,29.0175618213
do_nothing,-5.15802338613,-2.26868689011,1.61127085679,-0.506258468912,-3.76357604969,-4.5576227408,-3.02932444839,-2.29564181311,-0.223530301256,-0.510885527789,-7.54788411705,-1.18069910391,-3.46078736267,48.0214859909
do_nothing,-1.77239499281,-3.47806514377,0.750222399171,-2.58268001424,-3.80405665911,-2.64105698441,-14.0777705659,-6.73864290336,0.33323087858,-3.68201686845,-13.8867155111,-11.2322234235,-10.2056871528,-97.0566161723
do_nothing,3.66023067267,-1.32313516879,-0.689828219726,-1.35298509446,-1.04349975912,1.63679203626,-9.08314330845,-3.62680560425,0.476018249266,-2.97564660295,-6.04174880436,-12.0026533113,-8.20832288948,-162.085776102
do_nothing,3.73818918792,0.772714878848,-1.28359308375,1.91087738251,0.0952286938009,1.94132041488,0.312709848282,-1.00679980747,0.257915414867,-0.609040810926,4.996393781,-6.64293872123,-3.82441559151,17.5914317169
do_nothing,-1.27349420719,0.642805590801,-0.944749509662,3.04198794315,-1.17857258013,-1.68667511583,1.05725325759,-3.05924856052,0.0879150414186,0.285758663843,7.23580031778,-0.715437241802,-1.1157036258,235.427505273
do_nothing,-3.80726870838,0.0884812519733,-0.165146043123,0.76126921963,-0.333733272503,-1.78824574413,-0.956530899748,-2.93294424796,0.0369763045402,0.297560984573,3.33706058427,4.75759603102,2.59127184361,205.034904056
do_nothing,0.0500657068828,1.37434148587,0.851148475465,-1.80202952763,4.90025637032,5.02698734965,6.14935542937,5.09487596802,-0.144322049557,1.77996571505,3.07976614437,10.400529949,8.78446724787,-21.394849861
do_nothing,5.37374240931,3.38153940626,1.67972352801,-1.77321356488,9.16609800781,11.0807962304,17.216488588,14.1899067814,-0.434276030843,4.01391529396,6.67416488387,13.2419960235,12.442450012,-165.281842845
do_nothing,5.5405131084,3.02465714781,1.43695962748,-0.154485683816,5.63057479601,6.8617150067,15.394260765,12.7577623515,-0.460727773359,3.526764972,4.85597485452,8.7952528296,7.94405670762,-143.192050318
do_nothing,0.11773637402,-0.646582043866,-0.101468552573,0.517830921076,-4.43336780345,-5.98333497391,-3.01235639418,-0.425123401594,-0.0909647978836,-0.803109296242,-5.9833580881,-2.81889925602,-3.50318465296,-101.010208705
do_nothing,-6.30993228363,-5.17968238435,-1.80401746689,0.0278052221872,-12.255423157,-16.0224905768,-22.533541991,-15.1001711926,0.310849597488,-5.53254297128,-16.8446028751,-15.3841034122,-14.7425218152,-75.9116464715
do_nothing,-9.21374336219,-6.84407572778,-2.26887187398,-0.0620573484655,-11.1592142793,-14.6987352538,-27.0027296506,-20.6531069523,0.392153391027,-6.32294031287,-16.000543008,-20.4110083523,-18.0876481244,59.68252811
do_nothing,-5.88321433861,-3.37457443317,-1.16862492122,0.502847450855,-2.3760663277,-3.21329769535,-13.5304188767,-13.1171107078,0.250798916301,-2.32042233301,-1.57607080363,-12.1746859188,-9.29763094734,267.371770775
do_nothing,3.33112410371,3.8185174063,0.757615178472,0.527355822247,7.72503264728,10.9639593808,10.1647000775,4.62647813659,0.146691726985,3.47376523763,16.3099219195,6.8600993852,8.38674180527,271.980146294
do_nothing,12.0288123309,9.08124595405,2.32596237628,-0.124723005708,12.5008684548,18.8429752887,30.1353028833,21.9310799402,0.0612550980024,6.74455114082,23.0928962509,23.1839285175,21.8664952213,-21.7283552635
do_nothing,10.7104334921,6.53556121799,2.30060726225,-0.224483060391,8.20844585733,13.4277285415,29.3651470142,23.3887126233,-0.157194004659,4.74674975553,11.3066847762,20.7507061099,16.964039623,-299.775445216
do_nothing,-1.54866261317,-2.66983739627,0.312375410842,0.394008703069,-2.50285635248,-3.33059523568,2.81477756691,3.96189925249,-0.402194586488,-1.23748064018,-10.4818469183,-0.654653184732,-4.06667058666,-247.482988206
do_nothing,-11.8737222922,-9.06897008331,-2.01789261405,0.280437335101,-9.96214697493,-16.8947432394,-27.2381813966,-18.7943861868,-0.402605736153,-5.76727402144,-21.989507116,-19.3875805827,-19.3795808767,7.65632898501
do_nothing,-7.64551955884,-4.92260105499,-2.16003576376,-0.97335730678,-6.09404664252,-12.7127724546,-28.1538593205,-19.9088356277,-0.133587233543,-3.96961618086,-11.3362500745,-14.2152597519,-11.2057648189,120.312672334
do_nothing,5.72090750991,5.11950204457,0.0942764432841,-1.50227264276,4.4963920152,4.48167187848,1.81545612001,1.48764563646,0.159312138896,2.29976618919,9.3226811858,7.82583580178,10.0535665376,47.4369474676
do_nothing,10.1049972258,8.38626458741,1.76977493472,0.00977671630032,7.92993391083,13.1108915267,25.2410278923,17.7317478202,0.313415192259,5.40382800661,16.0771016311,17.4169760438,16.6427379963,31.4714575035
do_nothing,-0.87566621402,0.304282049616,0.572951349046,1.83262844879,-1.14303737228,2.12116186649,12.3040832073,7.6653629912,0.354864179821,1.10767767278,2.40223565308,0.601907260472,-0.740462455114,131.498723552
do_nothing,-12.499307618,-9.13141788753,-1.62046970277,1.43303368937,-11.1875499654,-13.1689205241,-18.3277846839,-14.8158900538,0.275488310865,-5.42535740328,-13.1045292784,-21.5503844468,-20.1935957178,123.936936268
do_nothing,-9.16285344037,-8.27133273593,-1.35424674123,-0.683200411629,-8.76371033739,-11.7183824925,-25.1964966173,-19.889443179,0.012206627926,-5.94121180492,-11.8785577778,-20.2655814728,-17.4306055487,-76.6412150992
do_nothing,4.6621772089,1.37433672436,1.13025745468,-1.57440910281,3.42997761862,4.38260696377,-1.00601248085,-1.87383992992,-0.301847954873,0.179023776075,1.81658788743,3.39732446089,3.57788558275,-225.405506014
do_nothing,12.407351278,8.52305376672,2.14008249711,-0.175736292405,11.3857143322,14.7454993265,21.4987560295,16.4546075079,-0.370872653585,5.621804789,11.149366681,22.3421966007,19.1184253864,-126.29392775
do_nothing,8.42105336982,7.35081440955,0.241094824452,1.22657664855,9.19265395692,10.3284401794,19.1608804967,17.5671397366,-0.146917574962,5.24541279128,10.6701376255,20.1691708923,17.2804418927,59.728137165
do_nothing,1.69728936733,2.48165733191,-1.5019388263,0.533158623768,3.69006833011,2.32391108044,5.91244322702,8.63059134834,0.0558888114406,1.72196780438,7.39940486561,7.25324983898,7.14346869107,88.7494700636
do_nothing,-1.28875225075,-0.725070203669,-0.432481812965,-1.08876354544,0.310316044288,0.0412675940707,1.59171164628,2.35682870483,0.0201466921803,-0.382993937343,3.30620407929,-1.61643886858,-0.991717058497,10.677999716
do_nothing,-4.66267681587,-3.26798433394,1.44536667739,-1.13410856235,-4.3718496788,-3.17872863534,-0.656034935512,-3.74564308744,-0.0499619621718,-1.45195736085,-7.11323274504,-8.01494913938,-8.711253988,26.2356284294
do_nothing,-10.9785818904,-7.02781616685,0.713784187842,0.458562524263,-12.005375527,-13.5501918948,-15.5801319189,-16.1546556863,0.110454925188,-4.02672888346,-20.3952181721,-18.2911279424,-18.0971498865,112.191585368
do_nothing,-12.5291039936,-8.47594806193,-1.93185551237,1.35509079527,-14.550094995,-20.2526471424,-31.808466403,-25.577543177,0.352133153726,-6.37258843239,-21.0149920514,-24.4533089082,-20.507299207,73.5400545082
do_nothing,-2.70593736496,-3.36754595144,-2.67324530317,0.352890105608,-5.05384204081,-9.34817809608,-23.2273518923,-16.0668012031,0.306640700394,-4.01283648874,-2.52901101675,-12.7919485755,-7.46548322012,-90.7322712403
do_nothing,11.2272157789,5.42626202275,-0.317347612757,-0.980000683358,9.82224674364,12.8898884862,10.347707999,9.46526583268,-0.0484851892631,2.86115935728,19.3570877842,12.6843515075,13.6112895444,-161.122241583
do_nothing,15.9284267559,10.3060804433,2.23640351981,-0.731706849195,16.7785075954,25.2417489991,37.8162735248,28.6323087932,-0.34211479354,8.14744519449,24.7385748664,30.4204363594,25.2229102118,-54.5900747363
do_nothing,8.94230292636,8.08870079563,2.4685739537,0.649448289044,12.0810594917,18.1027703512,35.1080977533,26.1951997297,-0.320029207203,7.11003540723,13.0493996478,26.3232458926,19.5448775035,52.7167997851
do_nothing,-0.616304809047,2.25376182392,1.15813295309,1.15167048082,2.86350901587,2.04506173647,10.3814234944,9.07942493511,-0.112684850748,1.58124665523,-1.20203037284,7.53637947783,4.3628912389,30.8840091925
do_nothing,-6.07573783138,-3.15272920069,-0.024981266283,0.0495297579792,-4.95473817792,-9.80339075386,-13.6967651629,-7.68045740847,0.0536551656148,-3.43608135132,-9.6390321917,-10.6972786401,-9.27562469349,-10.4450134841
do_nothing,-8.72782191123,-6.98068763064,-1.0580830006,-1.22784915343,-10.837525912,-14.9302256681,-25.5661497995,-17.6917507341,0.138391034655,-5.41204895031,-14.5909627883,-20.8992582158,-16.7851321494,46.5498236727
do_nothing,-9.53941170682,-8.17104826914,-2.14270894481,-1.10922456247,-12.7584764107,-14.67595274,-24.7687336173,-20.5238143767,0.169823564736,-4.72841427888,-16.1088679198,-21.8761173781,-17.1214200509,106.33824934
do_nothing,-5.32946572145,-4.8296784475,-2.0800582829,0.164121134274,-6.76836093115,-7.58056035009,-12.3234756642,-14.0532223317,0.0937646706067,-2.18802439383,-9.0449771804,-12.5353415177,-9.45933472358,36.5755275063
do_nothing,3.27910326645,1.68647926058,-0.210794748323,1.06345781073,3.92537017723,3.76763332359,5.78003559031,0.414741096378,-0.077998900322,1.13035796497,4.77502848142,3.78086896863,2.86359505716,-85.6725382554
do_nothing,8.40171630907,5.93343744771,1.64541293776,0.748595937312,8.89044057903,9.68389581264,15.8142300506,12.4535946235,-0.14230810275,3.08993703027,13.9665050152,15.6114829749,11.4314755004,-96.1984214886
do_nothing,5.23349749696,4.76670125717,1.48609256394,-0.114141543246,4.4571312745,6.00102591214,10.9616764661,12.8488134886,0.0492984335557,2.45343699217,12.3656760379,14.247323064,11.2380241838,-12.8168312151
do_nothing,-0.0476177051223,1.61859320325,0.228597471468,-0.441836512723,-0.115135405648,2.00364075414,2.70330164331,6.30547201597,0.301666172562,0.98848868972,6.68524437777,5.44907627372,6.52056894696,16.4238064685
do_nothing,0.665814200268,1.16520516747,0.141101938718,-0.0762695618777,3.22798322393,6.32261295248,5.01450427123,4.14767359725,0.250213232189,1.14736037335,3.79767716084,1.529253967,3.77422360318,-23.9725987586
do_nothing,4.86384897792,2.33815470008,1.02469760369,0.253685649981,8.20705797319,11.5726720343,12.3912117424,6.74143715391,-0.170264352727,2.13803074484,0.0635525189301,3.7904014293,2.55374323844,-11.2842195861
do_nothing,3.64759616107,0.740979950028,0.684511130468,0.0163858824217,3.93552831891,4.7389111892,7.79515131104,3.91347948576,-0.587625452907,0.995826227376,-8.53854138713,2.40936006625,-1.54958080602,72.0066605837
do_nothing,-3.99106228252,-3.67531097263,-1.08955838542,-0.496741064008,-7.37499355742,-11.2486243275,-10.132285666,-7.21373157079,-0.568396428798,-2.47183562768,-14.4940781388,-6.4779998723,-7.74653755253,93.6037025419
do_nothing,-9.7156286244,-6.25783169369,-1.99482838888,-0.638494905142,-13.2058077601,-19.8417914835,-23.5193519172,-16.3210450148,-0.0566743210858,-4.79709524017,-8.84653577881,-14.2978790264,-10.5983655522,5.08773912703
do_nothing,-8.64100338719,-4.83952218746,-1.10566239465,-0.181387523261,-9.23313281736,-14.3179932166,-20.5287505482,-15.2131229358,0.568956523535,-3.72922177704,2.07317431832,-13.6996834736,-8.81397450579,-66.2321517289
do_nothing,-4.86594776718,-2.3054396317,-0.287693269085,0.509425042509,-3.443753484,-4.86510700792,-8.8999928421,-8.4450130371,0.816799976228,-1.13958276579,3.95231325285,-8.429817329,-6.30246810303,-31.950008848
do_nothing,-1.774217416,-0.605774546806,-0.545624098931,0.882922713108,-0.555765505522,0.879905360567,1.0483624777,-2.38128557449,0.485671575959,0.566057021266,-2.46048985029,-3.25788473946,-3.25932243283,14.1331538011
do_nothing,4.49826391101,2.90338359134,0.0678193315295,0.644978059188,5.44384866481,9.55808808563,12.0721113177,6.63178030703,-0.163303814382,2.23442013553,-0.547104076018,6.50893488875,6.04111619839,-28.1492020647
do_nothing,15.7117197912,9.61147946223,2.70800599361,-0.0439249957298,17.2008828872,25.1521333804,27.8038584707,22.5320205165,-0.631107073598,5.34844609096,15.4622978977,24.3384652553,21.5806478565,-82.1323180399
do_nothing,22.0068689497,13.6558051887,4.42199775001,-0.658874880157,22.7856043765,32.5061698728,35.9781194824,33.8915723988,-0.630048540239,7.44005180149,26.6083279799,36.6128490451,29.6267153157,-22.8657235906
do_nothing,11.2191684195,7.24446806939,1.81615522051,-0.727022364632,9.39048836703,13.4356639935,19.5578387144,22.1004117164,-0.299466139624,4.05558764033,12.5711943078,22.3952510904,15.2597155359,102.673159525
do_nothing,-13.1217034063,-8.10992804958,-3.29930750714,-0.302988093797,-16.2153535073,-24.1911134566,-17.5453587289,-12.728113274,0.042626273934,-4.40006544679,-18.9924675848,-17.4356399259,-16.9597782281,132.113015889
do_nothing,-31.1915207852,-20.1642430948,-5.5157303532,0.0964217147372,-31.7340798846,-48.364522636,-48.3640308988,-44.6043068723,0.258262691306,-11.1197781403,-38.729434075,-51.9935745693,-41.9632492644,23.5956222679
do_nothing,-26.9524588316,-17.8810239118,-2.90290383817,0.154893057978,-23.9788002791,-37.1192345847,-48.7139679097,-46.4123666616,0.394836126462,-9.89669278599,-28.9810043992,-49.7228194493,-37.7530073926,-95.9124490241
do_nothing,-4.3381302478,-2.83742277877,0.924710097137,0.131386819168,-1.52932244664,-1.27042668588,-18.5651289857,-16.9339030994,0.442232659607,-1.84169121444,-0.58956949209,-11.6278263822,-7.34899173395,-107.845426523
do_nothing,18.5978742626,12.8255946442,2.39197153529,0.342172588016,17.8324742926,30.2024043683,21.5294610148,20.568894181,0.298138248463,6.38382931578,23.459422904,30.9575483433,25.2348280782,-23.3278045987
do_nothing,27.4274356412,18.3557326038,2.1918205695,0.540075190319,24.3771283989,38.858955806,47.3914660817,41.6259214485,-0.0242972687588,9.52775573349,30.8528879092,48.3619434756,38.2483223599,69.0504934062
do_nothing,20.5455237185,12.6784017724,2.31798145555,0.261087478757,18.7957163169,26.4091040306,44.972655798,37.7745170187,-0.345539735145,7.2651544054,23.3572654894,35.9166666327,28.4004474913,89.8661656864
do_nothing,5.10303477613,2.17618853294,2.01228126192,-0.339799026406,5.5882158802,4.48556037034,17.5241899026,15.9340670441,-0.514354964924,2.19148955298,7.19288282263,8.61991777702,6.92141420856,11.3511835225
do_nothing,-10.3056847727,-6.67586424445,-0.370400144538,-0.577006700324,-9.2758782014,-15.5777619551,-15.7394387419,-10.3248967727,-0.491263627472,-2.99585434455,-11.4462731029,-16.8924077737,-13.5114925051,-104.104684289
do_nothing,-19.1642597575,-11.2528748236,-3.33066505129,-0.244864565587,-18.136581185,-25.5996478079,-33.5832192715,-27.9857489658,-0.232787011238,-6.21571995959,-24.7231806504,-31.2058395659,-25.431786576,-122.052434467
do_nothing,-18.4044052374,-11.3874534585,-3.55576229202,0.0469126092478,-16.312681901,-22.6095890638,-30.099739903,-30.0068100322,0.262557799549,-6.25562097082,-25.4746158889,-30.8202010484,-25.6063506577,15.74750999
do_nothing,-9.57921326426,-7.21041818812,-0.853533585398,-0.156586470876,-7.19379954008,-10.9740660017,-16.136151593,-18.5853455608,0.716272802057,-3.6176309542,-13.5194513,-17.1461465353,-14.470102493,172.994190192
do_nothing,2.0148401176,0.241247145134,1.41068869771,-0.376816353856,1.43421335577,1.30052811616,-3.32561286222,-2.37806357419,0.677036415779,-0.222849828832,3.42024781745,2.60219982407,2.32830794766,155.852939829
do_nothing,10.9150249093,7.65157013355,1.2270910772,0.0815977187087,6.14105026278,9.94960818814,7.27518867273,11.023522622,0.0882959451029,2.49071869615,16.3326658965,18.5777349781,15.972662605,-28.2875149466
do_nothing,14.5220320277,10.947693159,0.433906223579,0.947408218168,9.42867530879,15.8613962448,18.4889620601,19.2594180296,-0.486959682544,4.45648239182,20.9744156816,24.8090322806,20.8248541196,-167.409477511
do_nothing,12.9102675662,8.78581330556,1.13791858582,1.15564062444,12.6741625027,19.1705238668,26.4534106462,22.1968226095,-0.50764375208,5.52119702245,17.6837714577,21.4049803021,17.4936871964,-125.826610773
do_nothing,6.96559502195,3.40132798614,2.14511100073,0.212957325704,11.9640242579,15.9195930727,23.3659519236,17.9611208629,-0.14509463787,4.36137981877,8.19945394957,10.8371843008,8.92535273696,-2.22470587584
do_nothing,-2.05294684702,-2.32099806786,1.03619250533,-1.0981160693,3.40865182386,3.13623179814,7.67361234734,4.86551874005,0.028085606416,0.22514105816,-5.17565149845,-4.48083161749,-3.36593074399,50.6215169149
do_nothing,-11.2820378667,-7.13425521618,-1.7307979377,-1.53668779497,-9.80741825115,-14.5759515418,-13.5404068113,-13.2811769911,-0.092599065442,-4.82323327265,-17.9234797877,-19.6573008552,-16.543954047,37.7905535294
do_nothing,-16.0949862431,-10.0630333037,-3.21228977226,-0.670585657633,-18.692726962,-26.3480720494,-30.0231347645,-26.6329816579,-0.0688737755473,-7.05539294419,-23.1835101,-26.3225146497,-23.204487755,50.4962907251
do_nothing,-12.8921779645,-8.83342518407,-2.00849742221,0.737145810156,-16.6778325829,-23.7131965206,-32.7157438002,-26.1311514892,0.266795910974,-4.84639009504,-15.9203859624,-18.8125998074,-16.6855241454,79.7912213402
do_nothing,-2.76120177191,-2.21219205533,0.22926222799,1.42162522103,-5.26987893768,-7.80583550743,-17.3800541008,-11.326261865,0.472464722971,-0.274930993288,1.12202920955,-1.23504122999,-0.11864077278,41.2112108088
do_nothing,8.35001530956,6.57597127499,1.45803455429,0.752678466435,8.04812981632,11.5311447412,9.35645909043,8.73628697302,0.212397772377,3.37520898036,16.7520436985,14.934021972,14.55775665,-56.4775843961
do_nothing,14.1520660572,11.3825330798,1.55775465878,-0.576254202183,16.0157574801,23.2857173515,30.1549273183,22.485610644,-0.171937530207,4.68911568657,19.9730010873,21.1298937618,18.5307124832,-104.755178099
do_nothing,12.7671094194,8.98314063047,1.35975756151,-1.11209507782,15.6775339774,22.5574838702,30.8910994065,23.9237642287,-0.214555897957,4.15727781575,10.8009972227,17.4562633969,13.5181522644,-59.4145620894
do_nothing,6.67565416345,2.03305129245,0.898982713319,-0.240854045214,8.35602243882,11.9446371941,14.7143216528,14.8215070788,-0.0746778288898,2.35272507273,0.0677126816795,8.37927507122,5.70397866264,4.43155276301
do_nothing,-1.01816429283,-4.26686984937,-0.200682980027,0.932694286709,-2.1996449447,-2.3922788104,-3.25353232155,0.878500360536,-0.192167422552,-0.476047024721,-3.54432998409,-3.07993413011,-2.7387540669,22.6175473503
do_nothing,-8.43948327584,-6.97586854594,-1.42973447052,0.846035423224,-11.2913333452,-14.7573744509,-13.9209454204,-12.4414909159,-0.426069028815,-3.32615850404,-3.4245315694,-14.3092544734,-11.7641128252,24.8975715706
do_nothing,-13.3270230387,-6.34521046972,-1.70935573506,-0.454864151801,-14.7094185604,-20.8644531493,-19.4676046984,-20.6695587453,-0.204355526232,-4.49707940231,-8.02875687428,-19.9117753458,-17.0942054881,48.6009056418
