label,COUNTER,INTERPOLATED,AF3,F7,F3,FC5,T7,P7,O1,O2,P8,T8,FC6,F4,F8,AF4,RAW_CQ,GYROX,GYROY,MARKER,SYNC,TIME_STAMP_s,TIME_STAMP_ms,CQ_AF3,CQ_F7,CQ_F3,CQ_FC5,CQ_T7,CQ_P7,CQ_O1,CQ_O2,CQ_P8,CQ_T8,CQ_FC6,CQ_F4,CQ_F8,CQ_AF4,CQ_CMS,CQ_DRL
off_to_on,-4.89481092993,-3.35968511897,-0.95148261051,-0.508938002383,0.548202874663,10.901046567,18.4912828988,12.3685247192,0.0105961068786,5.90203888798,3.37622685567,-1.57249694769,1.92930592727,44.0691570109
off_to_on,6.09358237576,-4.25633483125,0.0279118227636,-0.656952299334,2.02568198024,21.172166681,19.8323028287,13.1888029994,0.0884786585499,-4.29940950549,0.293072727528,-7.3373032829,-6.52065854968,16.6615727874
off_to_on,9.85447270645,-3.74315083955,-0.18836413872,0.0249683155545,0.207661407597,7.19213882056,-1.90592585253,1.04080634338,0.10231881821,-11.9027496073,-4.0027318328,-8.21752896198,-11.4254841949,-47.5030550707
off_to_on,6.10905702661,1.34585100615,-0.10450492358,0.583837278848,-2.4669733761,-15.437383227,-23.7494321647,-11.9090853671,-0.0477807518999,-7.48841529701,-4.94515797305,-0.291381075951,-4.48750817456,-55.8122153642
off_to_on,0.115292779378,8.69718287065,1.7871506253,0.657192341223,-2.03680727896,-19.6230630775,-19.3670136902,-12.0407381747,-0.176775232418,5.26910936063,-0.698334461813,9.95359977072,9.54556098511,-3.50736741581
off_to_on,-6.20949554514,8.11857332388,2.35050565949,0.52997695834,1.26078610617,-3.44711219869,5.52929072056,-1.14065010593,-0.122035220408,11.5017148817,4.21140741149,9.33764385678,13.918737054,24.8284166311
off_to_on,-11.4908154811,-4.42595719453,-1.77160246592,0.223760555425,3.20480462962,10.3730497203,20.5513954304,7.27872189021,0.00129683086964,3.6718135645,4.04223728154,-4.20367419422,0.96476194451,2.07088705448
off_to_on,-10.1444525645,-16.6351328627,-6.95383451589,-0.480417117533,1.17213133391,7.77332054769,9.70514163182,5.40079523315,0.0248951713056,-8.56724239761,-0.705375455735,-15.5775493871,-15.3772550771,-5.76304414649
off_to_on,0.855030515933,-12.8317664648,-5.68722405653,-1.23838628159,-2.5152309333,-1.29598409709,-11.2189573599,-1.73360061606,0.00593675850821,-11.1378481609,-4.18623228272,-10.5803833462,-15.7569684277,30.9752211107
off_to_on,13.3101355575,5.16814112608,2.61659427659,-1.22326540794,-3.47997812304,-2.9180515362,-17.5987366638,-5.2498034724,0.0737821475328,-2.50624768528,-2.90485039959,5.74012519198,0.496427029015,47.0987351485
off_to_on,14.591606336,18.9070161884,9.3315570993,-0.191354858345,-0.463493772606,1.28660827055,-4.38817925962,-2.2632033162,0.153246734932,7.485350522,0.849425923131,16.0913531463,15.7967876491,-1.16003454376
off_to_on,3.47962453101,15.4028196999,7.38239422231,1.07579471188,3.29749339489,2.43480649827,13.2617902885,3.94212144157,0.0825987436838,11.1546171965,3.32141024772,12.3525558403,16.4358203815,-52.2303231228
off_to_on,-7.86909199894,0.586613886461,-0.126969890733,1.58471205215,3.72684915277,0.39636770417,19.3094528669,8.24297394782,-0.0828278103556,8.31762510416,3.5101608931,1.56600674315,5.39955673903,-36.7822864769
off_to_on,-9.38163254224,-11.2611775717,-5.29762925421,1.0379020224,0.368571138532,0.597390167297,10.0784797143,6.47515938722,-0.134321344668,0.818124451667,1.97136101603,-7.34837671128,-6.79219433754,10.9793796099
off_to_on,-4.00530373114,-13.6555988019,-5.60829938381,-0.120474414941,-3.21510963065,1.5956110608,-6.93790972126,-1.86681910512,-0.0434335512893,-9.54791416094,-1.22890190503,-12.6149803428,-14.2412246423,16.5028972
off_to_on,-0.230541271625,-9.00887005044,-4.07784466609,-1.14917837246,-3.48153180858,-2.39977413253,-20.1657587594,-11.2326466945,0.0110022762544,-16.6350956732,-4.95495046598,-13.5524550737,-14.9079868023,-11.8615690304
off_to_on,0.115946920647,-0.566323540303,-2.01453474216,-1.39584248807,-0.708320169297,-8.85443034017,-20.4546704513,-13.1640404543,-0.0397191219322,-11.7717643311,-5.76015313686,-5.88163389772,-6.45255564675,-9.03948626934
off_to_on,1.09575819855,8.83650206056,2.11084350048,-0.683294300417,1.88078351362,-7.73291312127,-6.37951507096,-4.54940462943,-0.0508580133842,4.94839820798,-1.44525587681,9.78040410263,8.99842225305,27.5580812995
off_to_on,3.65735067782,13.1588334344,6.69391703006,0.425543920519,2.2331345953,3.35797270858,13.6037240051,8.35721864737,0.0568964235566,19.8475481112,4.87979829454,21.035440326,20.0170673295,36.2396360078
off_to_on,4.30323830509,7.16682138366,6.32418592281,1.02070742944,1.2812188463,13.4056677714,25.3555571529,15.4674565221,0.139760603616,18.2208645901,7.17745651993,14.859710521,14.9315119217,1.23490136912
off_to_on,1.89638834704,-4.81552311887,-0.258973882155,0.728650136217,0.516998158762,11.3015785746,18.821457555,11.5214277543,0.0715635842498,0.870192369351,3.26277785937,-5.0587087842,-3.32126533385,-23.591675229
off_to_on,-0.388894248127,-10.9003046582,-6.29477902942,0.0264927156706,-0.342286978545,-0.568983229168,-2.63097473034,-0.515226139591,-0.0434098598955,-15.9968300695,-2.7834231819,-19.6967339638,-17.6665562656,-12.2652146951
off_to_on,-0.907681686453,-5.34819317472,-5.06724604751,-0.410005324559,-1.91720729791,-10.2134410928,-21.9325458739,-12.0438224905,-0.0520842079841,-17.5214983197,-5.42727388597,-15.4162935497,-14.8667478485,-4.65938558068
off_to_on,-2.07670442204,4.23307066672,1.11856147955,-0.376773444749,-2.84850520224,-10.0204921042,-21.775921438,-14.3945951389,-0.00118644336318,-4.26569217473,-3.27090782971,1.55181697173,0.517063314163,-21.1397562127
off_to_on,-4.87803935403,6.60429125893,4.31323080055,-0.0577153832926,-1.20351394838,-2.87848997025,-2.65784373317,-5.48703244185,-0.0253303679649,10.2040763724,0.704605623956,13.5705430807,12.3216578781,-19.1314253672
off_to_on,-5.37926825095,0.335006110696,1.53638664663,0.301441333749,2.10439635095,3.61698393067,15.1760281009,6.8733109671,-0.092291008807,13.1212034326,2.89620735014,10.7336241374,10.220417181,21.995038034
off_to_on,-0.400098431803,-6.15242853296,-2.54392404272,0.373244498114,3.62489699164,5.1485423965,13.4286474628,11.2369977811,-0.0612654812618,3.54826817557,2.04363729986,-1.24312006605,-1.35691356174,45.6939476542
off_to_on,6.3390537194,-5.59804878191,-3.06543920867,-0.138698143907,1.72384343371,2.99456203079,-2.38061448154,4.6979007014,0.0578998279663,-8.05488756538,-0.490810659803,-9.47609696703,-9.797851342,8.53840960033
off_to_on,8.02285226921,1.07327209696,-0.499450660147,-0.907104220812,-1.25666929082,0.855781035951,-10.2900661751,-3.64941439531,0.107844658049,-10.1289685451,-2.14817802978,-6.75527190252,-7.11835757357,-35.4707632346
off_to_on,3.36100764801,7.64139637058,2.15842855998,-0.913349910877,-2.24634789731,0.335130733348,-0.980807289077,-4.25819133146,0.0410231919442,-0.985610295099,-1.23940942372,3.12244658151,3.29488584617,-16.1276660461
off_to_on,-2.5655260999,8.61505114081,3.51926479458,0.326833361438,-1.25254982767,-0.330740546845,10.7266131119,0.916557074002,-0.0178455266408,9.6941587395,1.46128919042,9.91634356443,10.7596488643,34.4632069031
off_to_on,-5.43306078035,2.52993906429,3.06069775233,1.68837168753,-0.393264012624,-2.6048593435,7.87201130976,2.6033201839,0.00358857303248,10.6835320661,3.20712177359,6.52850423727,7.73250537483,32.0014663838
off_to_on,-5.41497578712,-6.96157922821,-0.179851644173,1.47569581667,-0.33829016152,-3.9834952061,-5.32326283909,-1.86874706326,0.0193519672175,0.549638943792,1.93230714758,-4.25163497851,-3.04442078419,-22.2065252032
off_to_on,-3.50300072604,-12.2755174021,-4.97654213717,-0.34522773045,0.187541890669,-0.964532432897,-11.7378463877,-5.38182749571,-0.0324066062716,-11.1531021695,-1.52909305954,-12.0900578884,-11.4794987956,-50.0987092051
off_to_on,1.02371801514,-7.51076841132,-6.45164061734,-1.84411463088,1.62613751579,4.33866733701,-6.11495774631,-2.32328190775,-0.0686744398921,-13.3931852093,-4.12858990178,-9.03280172115,-9.99910800421,-28.5779293103
off_to_on,6.85919506362,4.70606203053,-1.31448495217,-1.47978349159,2.37997869399,4.93218339774,1.2217413768,3.42668868106,-0.0229083855989,-3.7404224724,-3.46683928806,2.60269944719,-0.200051085472,-7.12917356666
off_to_on,8.35176412582,13.6767035227,6.22490038522,0.0483518433023,1.051036839,-1.37801198256,3.16419921952,5.01278850684,0.0183149602376,9.81376250568,0.0483853829961,12.4092710331,9.51332752829,6.3806894969
off_to_on,1.6467225262,10.5278278941,7.84689829997,0.996055282813,-1.43506854835,-7.07323466765,4.36169733549,2.18774169547,-0.0272878947741,15.5907574398,3.57096235232,11.6685028136,11.437247956,56.6176365104
off_to_on,-8.10818526771,-2.31201083047,1.2362789743,0.906199848063,-2.81979674798,-4.02752984958,8.06881426591,-0.28680793333,-0.0604346843076,8.027183161,4.21281988011,1.06144702717,4.2340992118,110.851732325
off_to_on,-10.525689001,-12.9055046283,-6.45300243216,0.647362503952,-1.96378012839,4.97264553002,7.37908171471,-0.75869707804,0.0501624464985,-6.69328374122,1.52259792812,-10.2052321692,-6.31533223607,54.2410707158
off_to_on,-2.15332755177,-11.4290754683,-6.99003456162,0.507644934771,0.266186199936,9.12461075648,-2.64268239988,-1.81885255202,0.206717195727,-15.1625952118,-2.06531470445,-12.4447922022,-11.3939805843,-111.997125423
off_to_on,8.48652951108,0.378595677363,-0.582531123384,-0.249957317875,2.02817940775,3.39369397055,-13.2167761155,-4.19430424129,0.164898658358,-9.58635392643,-3.46543395175,-4.00815535562,-6.40148710855,-197.135035235
off_to_on,10.2549893724,11.2183182859,5.29705977793,-1.5734210257,2.00329498429,-5.78586882305,-12.0925595364,-4.50878026936,-0.107035329526,3.72558240586,-1.83690488796,7.03839638348,4.07607285853,-67.0545579925
off_to_on,1.8857151595,11.2779916216,5.15176930237,-1.82569711891,0.40443150814,-9.28123432061,-0.445691342595,-0.275211436965,-0.319730876616,11.2313277516,0.895477814253,10.524151603,10.0452951316,135.44065852
off_to_on,-7.28323178047,1.37949499371,0.732104386327,0.0243739448814,-1.11536895154,-4.98838727414,9.65599415794,5.99856870744,-0.201219695293,7.34573167339,2.27655831847,4.32554595762,6.3757493592,169.962598147
off_to_on,-8.20739884626,-8.59115733382,-2.77595312911,2.27795057376,-1.05857934357,2.68542416504,11.1749663745,8.98164875392,0.145683470119,-0.906427227657,1.51301719277,-4.05830062509,-2.16713935085,32.6752805898
off_to_on,-1.3407513486,-9.96440041334,-3.04009871736,2.1717572248,0.152998212113,8.43158315536,6.42971472285,5.27047846264,0.33082756694,-4.8046476269,-0.477898427823,-6.57813361053,-7.32071762049,-68.5171782202
off_to_on,5.31906738237,-3.22032373878,-1.60557264716,-0.391049488083,0.687226148992,8.52830468576,-1.41978588069,-3.78010186476,0.123810639363,-4.0372875045,-2.16111964817,-3.03556796429,-6.19938370283,-44.376364106
off_to_on,5.40328686152,4.39135455629,-0.32961613223,-2.3451209801,-0.161851596595,1.90687203869,-10.2628465649,-11.8461530932,-0.248363844052,-2.75638648193,-2.10946067194,1.24109575646,-1.52243453452,-19.8044764668
off_to_on,0.0892256928899,7.18257936315,0.770227154528,-1.34306921818,-0.980440680378,-7.31108009154,-13.2264405967,-11.1921862534,-0.320231266767,-1.01272401005,0.186394955583,3.14839622117,3.79668218522,-66.2202323562
off_to_on,-4.36271671035,4.97967234776,1.98405207058,1.13693836231,-0.449179951373,-11.0438668633,-3.4837465849,-0.249239139888,0.0582773260343,3.27485391232,3.1814964424,3.25930956924,7.68344183664,-61.1272405463
off_to_on,-3.51894779505,0.307991416648,2.32167127409,1.79437824734,0.606157816067,-5.22902228032,11.9873406276,12.0266833362,0.459723751341,6.67638436456,3.8153056785,1.43682370453,6.58497967486,70.1178749665
off_to_on,1.22968018653,-4.43089932289,0.913894792761,-0.0863436059821,0.64470384463,4.71666585344,15.379949423,13.5977306777,0.329735310852,2.95668529845,0.662205803867,-3.12171432315,-1.35425492567,164.583438719
off_to_on,4.85871989977,-6.373658322,-1.0371523162,-1.83167281345,-0.0302033179672,9.68945720469,1.34238524897,2.87976222059,-0.280556751986,-5.82704150244,-3.73884529451,-6.90453201973,-10.1502573341,56.6012792799
off_to_on,3.92629421623,-2.96972488179,-1.57090388958,-1.09789691162,0.0671450806122,6.72205790969,-12.9812058197,-8.82420301928,-0.661337556436,-8.87575680769,-5.12632969036,-3.53446622723,-9.66753701185,-129.682720843
off_to_on,-0.631248923165,3.86164819813,-0.932954455945,1.11220492406,0.80895340715,0.01484194483,-10.2275926908,-10.5428812685,-0.298639122247,-0.99185176155,-2.15622243856,6.38380910149,1.30438039524,-141.320415498
off_to_on,-5.06084518737,7.24199464021,-1.07242930354,2.02949082267,0.483051918141,-5.49170953523,3.56093648092,-3.42426123282,0.41555411241,8.86346574649,2.36916902279,12.1172046642,11.0461565257,19.4011328958
off_to_on,-6.08324775651,2.76162387886,-1.84055142548,0.739251954951,-1.08405483538,-7.20287156687,9.36415736739,3.64780642779,0.644315733616,8.75690556849,4.83514334609,5.10118655191,8.67886727981,107.760989203
off_to_on,-2.82459132964,-5.0599934516,-0.437281603826,-1.04835078024,-1.6868271229,-3.72536236698,2.8167503639,5.80692942508,0.185094479282,-0.786829736208,3.94770757473,-8.61377908899,-2.11132756624,24.2987259563
off_to_on,2.97709700995,-7.50012971673,3.61230283874,-1.52534586404,-0.148626553104,3.26787877952,-3.4169531463,4.34842865669,-0.3247289218,-8.72439896341,0.574693670629,-14.469949872,-8.68949341466,-55.0030872732
off_to_on,7.64369975383,-2.16026119273,5.63096606881,-0.765052885696,1.4224580173,6.84357585819,-2.51599650014,0.553565596696,-0.340204063074,-8.10132602813,-3.44183283549,-6.91791518443,-5.77197004974,2.88686557183
off_to_on,7.37298050483,4.90068007738,1.47015257056,0.100651278021,0.664267327232,1.60880944661,-1.8225352915,-5.08175106976,-0.0814745581582,-1.91140786045,-5.47187018779,5.26847549684,0.637053613858,72.1720266231
off_to_on,1.25990495837,7.21909759839,-5.38723461343,0.562050156558,-1.1926119753,-6.49553926621,-4.99090540171,-8.04992985417,-0.00960403248388,4.37025444864,-3.26297318028,11.222385573,4.1026108444,5.50159095879
off_to_on,-6.83119370025,4.04968970264,-6.96185047452,0.812762944694,-0.994201907468,-5.23783703572,-2.63670057837,-2.49044642049,-0.056634840532,8.45415255697,2.12388502383,8.9882112003,4.64736996467,-101.047548026
off_to_on,-10.4004672099,-1.72106645218,-1.34508629893,0.813004513625,1.40297618829,6.06274809685,9.49417022788,8.68009817972,0.126880057101,8.36765534083,5.86640438412,2.6602578506,3.67938223748,-69.4395087742
off_to_on,-5.67291381644,-6.90713928305,4.58373146231,0.270165082918,2.62908653043,12.402623082,16.6223820084,13.2607932342,0.401238832813,1.63726250394,4.17014410675,-4.50372473354,-0.0959368295712,57.7654055997
off_to_on,4.41656806848,-7.7607257877,4.78736381387,-0.559728953427,0.68763414534,3.15126270641,4.03774037591,4.24802755575,0.250877163412,-8.62435540388,-1.0243428509,-9.619923357,-5.71568936355,89.7313732011
off_to_on,11.6337234641,-1.65611194794,1.61315105099,-0.904058239715,-2.17910592489,-11.4797617261,-17.5858705225,-10.0069524886,-0.310239211633,-12.7284585293,-4.26387344604,-8.34631925047,-7.14506931024,0.670972447816
off_to_on,8.93785616828,7.42708047926,0.135982647718,-0.498203200284,-2.79557603113,-13.71370612,-22.634916881,-15.4561359851,-0.573860135323,-5.29060343007,-3.18768114797,-0.142024297018,-1.16989612651,-47.6624860709
off_to_on,-2.64933186519,9.664830755,-0.503204399725,0.0530920012418,-1.19493229714,-2.69250984442,-4.63176054659,-8.51556734021,-0.138980426005,6.315709185,-0.489086961739,7.38016611695,5.92683049903,8.93021058594
off_to_on,-13.1504816993,0.961794160645,-3.95439566813,0.211474325207,0.399444283718,6.51518463621,15.6845321955,2.99937640034,0.436868901081,10.1769481451,0.823485124794,6.14491818378,5.78800092496,43.0844840484
off_to_on,-11.6729484734,-9.23119548535,-7.41434495225,0.220396348992,1.21643859903,6.34928983217,18.5795067211,11.4528469433,0.410776098465,4.46444560623,1.16899366726,-1.13956162886,-0.325781930623,-23.6828117498
off_to_on,2.21875740675,-8.10348409163,-3.62250530917,0.444371453166,2.09377299028,4.8310359474,7.3325250845,14.3105938522,-0.0923267789089,-2.02194571733,2.04838388763,-3.92058090931,-3.66550866766,-80.0084827601
off_to_on,15.7892270901,3.57627159883,6.81275278176,0.523292597075,2.64197205443,7.34895385767,-3.44835469315,9.62015535246,-0.335905732292,-2.82450073657,2.58556404093,1.48839659629,-0.730186410002,-22.3961889288
off_to_on,14.7898426024,11.5510124555,12.7315183887,-0.061416855261,1.09354204342,5.32212443179,-8.30147485393,-3.3907162502,-0.0797146602518,-0.689470035303,0.974632370333,6.70378294279,2.84080904406,63.6861645875
off_to_on,-1.12360038484,6.12611421317,6.26833202605,-0.817177237793,-2.3512698821,-7.50001972841,-9.9752112335,-17.0006438384,0.176428795905,-0.505874600497,-1.97533065509,3.27041693787,1.74785546779,51.0000165561
off_to_on,-16.8523971549,-6.3027126213,-6.09404090418,-0.607296441273,-4.39197531386,-18.8555378882,-7.85596568491,-17.7310634609,0.0650968371767,-1.8763512079,-3.45220844604,-5.82905117048,-2.04376028676,-18.9563296268
off_to_on,-17.3066041752,-12.5332165836,-11.713268295,0.573860475678,-2.46726493051,-12.2728875231,-0.0151985309126,-2.60921016842,-0.129890079348,-2.034443397,-2.42910725521,-10.8025779237,-4.13233788372,-22.2507786869
off_to_on,-2.73998922116,-7.79942927177,-7.24142915112,1.13812193528,1.61079241333,7.57742944816,7.81692519962,13.531543575,-0.0477242037505,-1.27132791369,-0.508892025779,-7.18385228897,-3.79731107228,30.3765544952
off_to_on,12.9078329226,2.32467897649,0.191616470254,-0.0202971226072,3.64615289676,18.5398213873,7.47167105783,14.4047188909,0.145169228546,-0.973227451578,0.967996284067,1.26998286537,-1.8691472557,25.0910643333
off_to_on,16.9114121721,10.5066032392,4.62011119668,-1.62284559511,2.0894012712,10.0067125189,1.26301498874,2.16598505755,0.095537215057,0.491554310794,2.29474452239,8.89006989344,2.57629008419,-44.8590496433
off_to_on,8.29710581306,12.4829745038,6.56936235768,-1.36972405819,-0.613489116331,-4.86559463584,-0.908477720162,-6.78356512246,-0.118961407534,4.83204455635,3.39691383345,12.0514206762,8.5728790916,-65.0901777511
off_to_on,-4.68036838965,6.42746628223,6.86864174611,0.846800429402,-1.58539720611,-9.21874285044,2.64926927288,-3.77076706839,-0.145160474122,8.38827448607,2.79470715032,8.43272605942,9.96517250491,0.981462977224
off_to_on,-12.9387937395,-5.47469698883,3.10733757502,2.40592307093,-0.721072910181,-3.03523879653,3.04121438977,3.16288368824,0.0433130535242,5.01298859945,-0.128409145068,-1.65880583889,1.92095258551,52.3495728553
off_to_on,-11.7954793703,-14.8748327429,-4.39243192637,1.26636027034,0.223326716027,2.67346000473,-3.88237090983,3.11026218747,0.132576916788,-4.98010678085,-3.42266711759,-12.220351043,-10.353666799,24.5029849526
off_to_on,-2.48586741531,-12.9250056666,-9.04728630744,-1.25611115468,0.308865244613,2.70316700241,-10.0619350701,-3.313729683,0.0112345868074,-12.933481888,-4.56417482052,-14.5390694338,-15.1438691354,-13.8108569397
off_to_on,8.05010343937,-0.422667631163,-5.63172321888,-2.183521012,-0.0245429027347,-0.144366086934,-7.53622051111,-7.55631824457,-0.0802088551423,-10.8047040725,-3.09345077225,-5.90734829446,-7.37448141234,2.72775000081
off_to_on,11.1109268145,11.4497587881,1.86017453648,-0.74734773116,-0.345890513447,-3.4928588455,0.397015936778,-5.1848432442,0.00264896760343,0.159848299965,-0.194152363073,6.68413929174,5.75889351301,24.15995252
off_to_on,3.96737988948,12.6642400452,5.04287926947,0.93347744636,-0.736477373626,-6.27664780577,6.05810218313,0.994038010212,0.0756188885319,10.8841112482,2.99432430144,13.1123390604,13.1837059117,-7.07366271627
off_to_on,-6.16677411933,4.14076383994,2.08566098899,1.03363597052,-0.855971537302,-4.32082081203,8.0819862749,6.49983932721,-0.0177954820197,12.962319338,5.15666712755,9.18930580489,10.5283628491,-39.1053935985
off_to_on,-8.63586945456,-5.17622617486,-1.05502602524,0.228799757256,0.167754538991,5.18108275994,8.4077153404,8.66365903553,-0.121558935078,5.2787682822,4.33511203657,-0.835766680384,1.59263353416,-6.21552732399
off_to_on,-0.810863249929,-8.04724999171,0.158921196061,-0.00418545874541,2.13141305259,14.9903436841,4.93308161372,6.13559471764,-0.0443561002293,-5.61026870017,0.0843091241731,-8.51992678575,-6.78587978297,36.1714205651
off_to_on,8.54339369232,-4.06042367239,3.15265727674,0.175795515488,2.90710395673,12.6407914885,-4.1624903197,-0.462142670411,0.105876662688,-10.7174558854,-4.44688122671,-7.72499503473,-9.34285136248,-3.73497601369
off_to_on,8.54530236066,2.04840276196,2.89406022734,-0.293059742846,0.603473964549,-3.36648632706,-12.6207002999,-7.33872447372,0.105099681677,-6.26655879466,-5.12194266389,0.225663345692,-5.08223542335,-78.6009194514
off_to_on,-1.82632867454,4.64980242425,-1.24712780604,-1.05367366979,-3.34242804597,-18.6598620324,-11.6624470204,-9.87173626466,-0.0217450743938,2.57452535716,-1.76449408777,6.89811748526,1.79975929637,-48.5965317564
off_to_on,-12.1224970878,1.60395408885,-5.24157524861,-0.626436679567,-4.68476086411,-18.0805530852,-2.01616375405,-6.394425565,-0.0699915281903,6.91230573645,1.67685525679,4.8973686428,5.22447875561,93.6496139531
off_to_on,-11.1785953596,-3.44822051936,-5.22202609301,0.968266629587,-1.15018772755,-2.10113260611,7.10889671162,1.16816629934,-0.00136154736008,3.59925977563,2.30595332013,-3.39254288879,3.2650969993,172.769347551
off_to_on,0.818560314701,-4.53761425585,-1.1916379605,1.69172556483,4.01048580326,14.3842482062,9.82451603446,8.55954005688,0.030086277969,-2.39172716493,1.24679320664,-8.20200669304,-0.507664623676,56.6292556352
off_to_on,12.0386206445,-0.410489336992,3.19913331074,0.320702493567,5.00602971767,17.1137895933,7.17345773815,10.1223758489,-0.0306064758481,-5.12173941822,0.6114290573,-4.43090328149,-2.33906368705,-153.521156374
off_to_on,11.7064156024,4.07939499215,4.20755955813,-1.58467886918,0.435931293579,5.10354670123,1.06965519812,2.71372845491,-0.0605524610667,-3.61692807589,0.258780467066,2.85802650233,-1.9894677548,-229.625915487
off_to_on,1.91459609463,4.89067406942,2.05154841956,-1.68224925511,-4.42875624856,-8.9933222377,-6.23414128014,-7.88302722482,0.0029918764862,0.572506668499,-0.49367293471,6.88669271099,0.0132603470434,-79.0756134997
off_to_on,-5.90871113334,3.41544550614,0.577022327017,0.0610503544933,-3.75765510301,-10.8171092087,-8.00189160453,-9.35087789894,0.0570893161101,6.56703159944,-0.448634945458,7.43043706294,4.11507445409,152.533397657
off_to_on,-5.80044857167,1.48992416332,1.46686693966,1.53966869174,1.45926639535,0.245137506041,0.152487330031,1.84777601229,0.0286131448713,10.7575167894,1.11382034849,6.08100628562,7.32070441002,236.18217708
off_to_on,-3.33870365285,-3.19045315059,0.924996650298,1.31247973198,4.48059115069,8.74925798993,8.55822101692,11.6487685334,-0.00529209217265,5.54866242486,1.49128638497,-0.398174916781,2.54021363022,94.7361346566
off_to_on,-4.29681946298,-10.5339837489,-4.06940787027,-0.0111295560497,1.54685029405,1.94096844629,2.47049476703,4.76814846375,0.0209078609039,-10.0832109506,-1.87797844218,-12.6787363409,-10.4260647525,-119.057551131
off_to_on,-3.7225801299,-11.3248137932,-8.12035087003,-1.04650701471,-3.08766354923,-11.0619936244,-13.0529503672,-11.738988618,0.034632619897,-21.3558595446,-5.58535421767,-18.719271039,-17.3217078301,-185.917245151
off_to_on,5.16400716691,2.22212362418,-3.05104356161,-1.10941472632,-3.00132718706,-9.54342856884,-13.6279458507,-14.6254907133,-0.0303981160041,-11.0621446182,-3.19599358589,-5.05648587142,-4.40195957442,-62.4197505582
off_to_on,14.5020734825,19.1895716115,7.78839920314,-0.296221540893,1.24849935246,7.5610174138,8.43216394248,2.35173354635,-0.0923673619447,14.5678269285,4.59552233275,19.1055477299,18.3000215251,78.7078713111
off_to_on,7.75357880711,16.8005663354,9.77400959636,0.828829062728,2.7192489035,15.7673569337,25.122017355,16.3325752639,-0.0512283065867,26.0526778843,8.27034689761,24.49586894,22.5564365422,77.1067154434
off_to_on,-13.4369631495,-8.13400425683,-2.49446314231,1.29650187285,-1.49344851639,0.540150192522,9.46476096011,7.33324095653,0.0381833661252,6.87219114518,2.03303545916,-0.509245387906,-1.18590412917,-11.9412496005
off_to_on,-22.2432172759,-26.690141461,-13.04123166,0.424966546487,-4.75410171155,-16.1433529161,-20.3508672981,-10.5440181756,0.0581419939773,-20.1625973559,-6.41526347778,-26.8231083646,-24.7986599969,-25.5450821891
off_to_on,-0.18411884114,-11.5868825869,-4.13474382737,-1.08652356955,0.159175203882,-5.16596831391,-21.5143279455,-8.59832518594,0.018893775894,-19.1278143477,-5.3338008628,-17.7898317245,-15.8432156555,48.8485646342
off_to_on,30.4525366314,22.451242185,15.8229702351,-1.56429634425,8.89733820883,21.7156783145,9.89493179582,11.7383288791,0.0145505500324,9.5879729417,3.8444577845,18.9137264901,16.329545938,63.941685116
off_to_on,27.8235138843,31.6084486705,18.9959324111,-0.388200779224,8.77655798096,21.7202657298,27.9609596335,17.6803418354,0.0401756855307,26.3800738621,7.27483366271,35.181007894,28.5671256502,-35.2431405894
off_to_on,-13.4593648433,-0.225629885521,-4.0365926679,1.12480874392,-3.96110827868,-15.7596935785,2.45985183909,-6.15399856905,0.00851054130432,5.56897169601,-1.49937936006,5.00740270326,1.45577986834,-109.410677596
off_to_on,-47.6373151461,-36.5739613301,-27.6048485199,1.43941023143,-16.0286774696,-44.9514770474,-33.5343222125,-30.766566181,-0.0695758534015,-27.6381190676,-11.0260158615,-37.6341271903,-31.972588901,-45.6686983235
off_to_on,-31.9146103704,-33.1091367881,-22.3951457384,0.629504167583,-11.9709962859,-22.7188600838,-28.2443303866,-21.0275992547,-0.0802579439191,-29.947395674,-7.35484963562,-40.5158555488,-28.932016196,60.1902147934
off_to_on,18.7311544733,6.2286589012,6.3974345254,-0.256191735811,5.58553088015,29.1356629557,14.5989946555,14.3726347632,8.35696338491e-05,2.21292102492,6.03804947983,0.297187222945,6.90915421771,60.4637140731
off_to_on,49.5735472219,36.6200436058,26.5902007428,-0.835854032082,17.7777280981,49.9488442294,40.7656408975,33.8184472599,0.0552659994867,30.1676814238,12.7950424774,38.2836513073,32.9081204854,-12.1092777376
off_to_on,32.6056717346,29.7862535339,20.1631492295,-1.27614990033,12.2721996479,19.6187220938,21.190572229,18.1917621896,0.0187597183958,25.869596,6.03426685367,37.0806699118,24.5073848202,-19.6883157873
off_to_on,-6.35868586033,2.21087389084,0.855705354255,-1.14000945886,-2.81099013614,-20.6032509054,-12.9173340684,-8.30966370138,-0.0229143131326,3.38719671868,-3.85257402105,8.82403759103,0.447323118359,39.6432170209
off_to_on,-28.2924316265,-16.3465497926,-10.5443789556,0.14551209143,-11.206257612,-29.2816685896,-20.9775948423,-16.3437024049,0.0119836854021,-9.84235855406,-5.68451336578,-13.9368848487,-12.1675988105,39.3281193425
off_to_on,-25.8530701443,-19.9834672713,-11.8722453179,1.745088092,-8.46502169842,-14.0157639795,-7.77984778139,-8.34230231395,0.0594614507314,-11.3739129715,-2.26343839886,-21.2389381234,-13.5210441929,-44.0330479875
off_to_on,-15.8978445223,-19.3029535432,-11.9549990638,1.87051123595,-2.94568164603,-4.3197906602,-4.17960056727,-4.68428457955,0.0260447936048,-15.6619525352,-2.56323800828,-23.4702161957,-17.2840621515,-82.7646234628
off_to_on,-5.87195767182,-14.2044682815,-10.4037946805,0.208860548552,-0.66517484877,-3.23649173673,-13.8221255034,-9.01003794128,-0.0475084334902,-21.3197030009,-6.03420209901,-21.5514922218,-19.3508351122,-14.3913449621
off_to_on,10.1392755785,3.968091769,0.0522846392039,-1.39032540962,1.53692777603,6.40800770163,-10.6252950147,-6.49221943431,-0.0567016648276,-10.6662299018,-3.94502051761,-4.24137813536,-3.79629199542,54.5766892563
off_to_on,28.0802097413,28.0853312047,15.8025495841,-1.31897345292,6.65516668883,22.6434227269,15.1609363878,8.76454900857,-0.0062014264203,18.3675452989,5.66913831021,25.6293806933,25.1699486469,30.7960276208
off_to_on,29.9401680262,34.7890889341,21.8049863116,-0.191432089403,9.86421677254,23.2880665028,37.5343173973,22.7590055718,0.0124395668433,40.4872058838,13.3709803358,43.3316878009,39.8260266585,-18.3832463106
off_to_on,8.83711195252,13.7688582637,10.8919179956,0.422644699548,5.37848248111,3.07533375785,29.2961733378,20.5217230264,-0.0159014744385,31.6049882448,10.4445914663,29.3392990956,22.6026166696,1.75901349039
off_to_on,-17.5816582426,-16.9391554652,-6.78316187044,0.239506896374,-3.95391486032,-15.9154232054,-3.48707936237,3.5927837873,-0.0149794772349,-2.50825587964,-0.676548601321,-6.77750130973,-11.929885383,45.5838093382
off_to_on,-27.6837729822,-32.0567026896,-17.0354282511,0.0860393824233,-9.78541119959,-17.3704581556,-32.3466716387,-15.3469718711,0.0364572966433,-33.9462644967,-10.7665973823,-36.8754348447,-35.2832661473,16.7392229142
off_to_on,-19.636131164,-25.0931593365,-16.1650755161,0.205866914443,-8.62385970969,-11.126253662,-38.4308648743,-25.700204496,0.0628121600377,-40.9132210264,-13.6601254912,-41.2865457483,-33.9249146508,-53.7387419333
off_to_on,-6.24889701541,-6.7703767746,-8.45187491988,0.115348642193,-3.79008577436,-9.78953092974,-22.8313020285,-22.4205043726,0.0215585515457,-21.94025735,-8.81757350454,-20.5287848774,-13.7830996708,-57.3307791318
off_to_on,4.78017795062,11.6832595415,2.46160801514,-0.140991974536,1.37699575202,-5.80003186536,4.01967518966,-5.40264096835,-0.0282818471916,9.19257003061,1.18936752617,10.7712182172,12.1554690328,6.56425406122
off_to_on,14.0975869283,23.3491940488,12.9582351635,0.0390170841687,6.38511684819,11.0788958209,29.0995091195,17.045884111,-0.0300403127576,32.9433793461,11.1124919491,33.2285104685,30.3085670039,35.185582603
off_to_on,19.6812160951,21.9062024559,16.2811365631,0.52559279032,9.58415600983,28.3646914493,38.0322784783,29.4925689115,-0.0141212992324,33.9055530666,13.9686638571,32.6517446804,29.1714018714,0.933623998261
off_to_on,15.8274799747,6.79150816125,8.68274404441,0.388113306134,7.33962088814,24.3625830851,23.8156589192,22.1990187985,-0.0243977369098,12.574734862,6.97262386678,11.4265562134,8.98214410185,-12.3251844543
off_to_on,3.51442176466,-10.054398645,-3.34855837054,-0.557752974082,-0.311312139156,0.492404100901,-3.81741807,1.52190117378,-0.0338538888379,-12.6636297086,-3.98975107165,-11.3411290049,-13.4886143367,30.2301180612
off_to_on,-8.49226089434,-14.5179399054,-9.37721711098,-1.21486437903,-7.43970695382,-19.9849447277,-25.6283706618,-16.9209660213,-0.000703559793727,-22.5276039606,-9.79926183405,-18.5006525645,-20.362589509,48.7600439544
off_to_on,-14.9128207065,-7.87365963178,-7.7706654877,-0.720282507836,-8.70657948508,-23.4603829891,-30.4798261863,-23.25553153,0.0460828820901,-15.7432624217,-7.81956027467,-12.3811975395,-12.2639568456,-6.78400545472
off_to_on,-17.7738552869,-3.80435673241,-5.46805942276,0.384312774369,-5.15409682631,-17.1020266559,-20.8029892168,-17.7282856078,0.049359930811,-5.660006677,-2.90516989269,-7.34365041777,-3.99524856349,-60.9350238552
off_to_on,-16.755971346,-7.01070589893,-5.45369399101,1.0463978301,-0.926098469426,-8.04848370386,-3.51269312341,-4.54188552565,0.0156124709057,-0.724964656823,0.490648606159,-7.97823988638,-2.50287311528,-35.8811363373
off_to_on,-5.6240380724,-6.41389177251,-2.5012265607,0.983834437429,2.6206466449,7.27206667025,15.2338570298,10.9460852265,-0.00520580364381,2.81254828345,2.69135730171,-4.77548528602,-0.309332667984,20.9041006175
off_to_on,15.3496902501,5.87609230891,6.18329926651,0.485841095571,5.94994265563,25.6379169202,26.5798943704,20.2913124947,-0.00606960626318,8.94625884937,4.76408330913,8.02586028653,8.06327489905,22.2891307872
off_to_on,31.091861365,19.7722445114,13.5648486153,-0.281500425036,7.19736718651,28.6839523952,21.7751286217,16.2341633764,-0.0194332754499,13.1760638894,5.02745587667,21.0363217876,15.3362753808,-14.2106503383
off_to_on,25.5967482316,19.9073171373,11.4149337239,-1.01192083371,3.91387597564,7.24401776982,3.87795478113,2.042233469,-0.0422056226856,10.2342271625,2.24210010392,21.3106929869,12.8987650956,-9.93301401946
off_to_on,1.78226142377,5.87094404953,1.64550749734,-0.994987254921,-1.87636259495,-18.8903931103,-11.2579933014,-9.39109477595,-0.0349609644923,2.76670903154,-1.15509730386,8.09859227264,3.53375158726,31.8981619796
off_to_on,-20.5967928333,-9.69051676866,-6.90663888032,-0.0533055809449,-5.0837793671,-23.207931411,-12.6014491664,-9.72527631628,0.00431445692319,-3.79912247802,-2.30619210339,-8.78474173676,-4.9534407271,36.4187848741
off_to_on,-26.4228405499,-18.2329004785,-10.0447243732,0.7607191274,-4.32305257513,-7.39549719721,-7.14509510577,-4.28389587201,0.0308323460779,-9.41764005148,-2.20602446443,-20.7234981829,-11.4990841234,-7.55334688844
off_to_on,-17.5876764315,-20.0095194404,-10.1743799058,0.41992640642,-2.98870124893,3.91681805123,-8.04204075729,-3.04237099509,0.0257622968864,-15.4760722457,-3.34995808788,-23.9242614242,-17.8435207464,-31.2486524375
off_to_on,-4.08397050434,-14.3835488917,-8.21386316754,-0.485919647604,-2.80133314215,0.0187520167952,-13.7663900191,-6.30078672675,0.0186677112121,-16.6778765579,-4.62340875897,-15.8950919436,-18.0692649066,-9.88462780143
off_to_on,8.38246321088,1.64682998928,-1.12280549735,-0.51377532739,-0.970040945925,-4.04888326561,-9.30013400217,-5.14516264268,0.0237732420408,-5.59336535851,-2.37173886306,2.69514062525,-3.98961389698,1.39794840436
off_to_on,17.7684926353,22.1760179986,10.4194244835,0.487647649367,3.96615148229,4.47560738401,11.1020022542,4.82413324869,0.0130475259761,14.4739464793,3.55928538249,22.6178157959,18.932388154,-20.6773781052
off_to_on,19.8608520231,30.5342466342,17.8986077999,1.19866451693,7.75613710037,15.4157403834,31.5809327543,15.9655299804,-0.0237247689993,28.2034332633,8.26946172894,29.9017297257,31.5708148781,-20.4872275859
off_to_on,11.1405339154,16.5204305241,13.2050786043,0.785201614794,5.72421525875,13.2467857847,30.6932201719,16.8211798035,-0.0470681435367,22.8272501092,7.2510127521,18.3486859753,21.2631933232,26.9263581045
off_to_on,-3.93468518403,-9.45974311245,-1.31304923791,-0.217061469613,-0.308335843107,0.986742094983,5.66056754114,4.84793373651,-0.028993432892,1.05907468208,1.17106785344,-4.24779960594,-3.97346424623,52.6226540881
off_to_on,-14.8511345498,-26.1382067202,-14.5441381111,-1.11651179458,-4.5547645662,-7.49181909071,-24.3919922907,-11.1689802072,0.000857238020139,-21.5384842012,-5.50186258589,-23.042602805,-24.5287366804,6.79366972801
off_to_on,-15.4641552466,-22.8720087237,-17.2928467806,-1.76223125526,-4.9828952339,-9.68824065613,-37.4814828178,-19.7444260119,0.0075768238269,-29.4505035137,-8.62516801934,-27.0833528624,-27.6045703359,-44.6391388172
off_to_on,-8.9267934569,-6.71574355592,-9.13083700641,-1.629482676,-4.10197902499,-12.8817350494,-26.8085782418,-15.8779434558,0.00699744783362,-17.8148258854,-6.49542823487,-14.8719439103,-14.1657660139,-21.3023790932
off_to_on,-1.62596291854,8.79413848348,3.43181596,0.150567951465,-3.02566730015,-14.7960449753,-1.62378038481,-3.00915009678,0.0254615941442,4.94465043331,-0.26487202421,5.49267719616,6.04657852083,36.5366965094
off_to_on,3.96579801821,15.5240733694,12.256852114,2.82340122146,0.0786522888877,-3.94391510356,23.0361165669,11.000050825,0.0411403376623,22.5923916206,6.08512720204,20.3034128297,20.7781599146,33.5319952333
off_to_on,8.54735002382,12.6359987131,12.1021993268,3.59399956243,4.82470153051,17.8650386539,34.5078116267,18.5369445094,0.0189136859134,22.6850689512,7.84812692906,19.4253554432,20.7494283049,-24.2229314237
off_to_on,11.3176110027,3.90850990859,3.9951420016,0.888309689816,6.81883663625,29.4026524503,26.0810052129,15.2060163142,-0.0222408827403,6.8443080323,3.77705676231,5.47744183171,6.54183304407,-48.921921476
off_to_on,9.60332390237,-4.1714766303,-4.77270411766,-2.88681811812,3.568793922,15.6011799554,0.981202339439,2.20262015754,-0.0340756573452,-10.535266538,-2.26528389572,-7.95102530826,-9.58772073604,-21.8088652813
off_to_on,2.72549045885,-6.07630253033,-6.76352451198,-3.8050481938,-1.40291765528,-10.8922627571,-25.2976780157,-12.4933111819,-0.015985125639,-15.5597455842,-5.11048326708,-9.90054504583,-13.9383016531,-2.89810247307
off_to_on,-6.10801030317,-2.49313679001,-2.04127265599,-1.28280686108,-3.40276107447,-24.410615427,-33.1933917993,-18.0144217402,-0.00867026918426,-7.08985050256,-3.34701391585,-2.71509044544,-5.19538804811,3.06165651204
off_to_on,-12.1909620642,-0.0248013102845,2.06667921372,1.50101314806,-2.74746581321,-16.5803758669,-16.3815108551,-9.83841919256,-0.018004132643,4.0923651812,0.192390902018,2.50303096807,4.69157229469,52.498394492
off_to_on,-12.4655185391,-3.13411318766,0.0623496130295,2.03208274297,-2.57938316417,-1.16196489905,9.91427594408,4.52191222645,-0.00731671195332,6.94058618051,2.0898871203,-0.63271311925,4.48828247684,112.077015541
off_to_on,-6.49574035904,-7.69498721777,-4.82508055547,1.10778169328,-2.71663999551,7.81231274409,23.0617953171,12.2635910407,0.0287909767658,0.449544425106,1.31418676959,-7.18883509805,-3.89842171443,55.2893448299
off_to_on,3.63736044452,-5.32213921743,-4.92250442937,0.460287971459,-0.308611529968,9.98835174566,15.8728862536,8.6706119785,0.0449687246982,-6.39976098507,-0.71203935429,-7.2183630657,-8.56635699379,-117.712721517
off_to_on,12.9486721312,5.58543849761,1.79192021192,0.0215267275617,3.90192994981,9.39030231026,0.832660224974,0.654024498764,0.0188993852291,-4.51634791996,-1.68057460423,2.66897897507,-1.95362198259,-203.764960952
off_to_on,14.5209994238,15.3381230882,8.53565055563,-0.899173192913,4.90506427649,3.97113433716,-8.04972792727,-3.90169615296,-0.0113197343187,4.72868128763,-0.423509577055,13.9534636179,9.83713635744,-64.5838501921
off_to_on,4.77982243723,12.1246347196,7.49961840419,-1.4653620426,0.68892508096,-7.1824964599,-9.44846666179,-5.07871467245,-0.0121502025516,10.1257304065,1.72132009675,13.5309672929,13.3054674304,144.736871992
off_to_on,-9.78288081524,-3.34204180335,-0.582930140071,-0.525951370924,-3.58371891347,-13.7742751747,-7.3022697463,-5.44238643894,-0.00631982239903,4.43905633095,2.28413982832,-0.826746250517,3.59410948315,175.01341152
off_to_on,-14.4201888872,-15.1265488741,-6.49053174958,0.929734566188,-1.83790738403,-3.6975526342,0.459566908881,-1.70454387,-0.0220042131644,-4.66011639467,1.06049262271,-13.8839076229,-8.08680055805,30.6331240664
off_to_on,-1.38632743965,-9.06350812117,-3.23774874847,0.839633605963,4.17171121665,16.7563575856,14.0399970161,8.8135937675,-0.0352463578163,-4.15932532086,0.37572776437,-8.91320745817,-7.59061663283,-70.5170886818
off_to_on,15.7345047299,7.40969795438,4.17102262176,-0.619734545063,5.84745164406,22.6331717232,18.5682636196,15.7393392027,-0.0117045558969,3.74854347356,0.564554204681,8.07938154491,2.0592176873,-43.539409147
off_to_on,12.0993059458,10.5629588783,3.2713764359,-1.04622762874,-1.75846691159,-1.53211079073,-2.57504102408,3.33870934995,0.0273268244919,1.59853049392,-1.84565390077,10.7915961638,2.40718063466,-21.6542525201
off_to_on,-16.0578571074,-8.2609186362,-8.93736262958,0.486846064069,-12.3020831681,-36.4973030711,-36.3441498399,-23.4561177563,0.0349298830204,-15.779016112,-7.6007470807,-11.5484611428,-12.8298213748,-72.4207221775
off_to_on,-36.5206465398,-24.5539709888,-17.3295639011,1.87089797661,-13.1498139502,-41.7152889338,-40.6701781685,-33.3737030593,0.0133888252102,-24.6909922241,-9.07609018693,-30.6728531821,-21.4715317152,-64.6256080112
off_to_on,-14.5728708028,-8.3672240468,-4.74321459038,1.08541388189,0.735902957692,-0.381619206339,5.81650120675,-4.16214879082,0.00323113452502,-0.565738564296,1.47677555026,-10.6398954909,0.504915117331,73.5248577977
off_to_on,37.3040781144,30.9928926,22.3418427478,-0.900997157942,18.5450589,53.6181290346,63.8097934535,41.0347473588,0.00985659826291,40.3905066682,17.2733373773,37.9353480369,38.4820601214,169.359101315
off_to_on,62.27213338,47.1709084101,34.3366229524,-1.78380010803,22.2614658141,64.7706613218,67.2165914614,51.6390341381,0.000185763014681,49.7162668578,19.5864807721,58.754571586,46.4460416777,57.4426583343
off_to_on,24.635600624,13.7173199362,12.7776521224,-1.13178372273,5.89557354767,15.8511592686,1.9942444605,9.90519610553,-0.0284833877833,6.83272806034,1.04558849571,18.1158772907,4.83357579452,-129.483112368
off_to_on,-41.9435115661,-37.8911698659,-23.5556179072,-0.219558959666,-16.3072198174,-49.9552924167,-69.9320913414,-43.301711808,-0.0367583270706,-48.0437507631,-20.8589613553,-46.8093340305,-47.2247709327,-137.935379964
off_to_on,-72.0833665523,-55.9956033986,-39.7693752365,0.421440758333,-24.9812644842,-74.8317895569,-79.9452953192,-56.5000939584,-0.0121292619282,-60.2711190635,-23.5449208193,-70.6984148756,-57.3217960552,21.5380103231
off_to_on,-44.9202847239,-31.8715353599,-27.3343020596,1.25523014557,-16.5778353606,-45.6112979343,-29.0592479186,-27.5525617555,0.0082445603439,-26.5961257318,-7.97266457088,-38.3596898298,-24.1755289752,103.344043299
off_to_on,5.20636784531,2.8665794956,-5.91571877778,1.86510691889,-2.0008942443,6.73123908302,27.9574309651,7.08857061915,0.00595539150552,12.9070262663,6.3333328508,10.6160221508,12.2154781593,17.564560527
off_to_on,48.5750462627,33.8313028079,16.7453535856,0.973922406385,13.2452083903,55.7122433048,60.1638917557,32.9819936853,0.0149870224792,39.7880703807,13.0076794524,48.1330260772,36.5187718595,-56.2126574942
off_to_on,84.4960574448,72.1962042061,53.2476901489,-1.21296051223,31.9030846479,93.1067467711,79.0662011639,65.7942190898,0.049460689653,68.6972894496,23.9400746932,79.8531896717,66.9299280361,6.25527769732
off_to_on,90.171770906,91.6505595616,84.7126463097,-2.49638584437,42.0033295597,89.101710113,74.4391310158,86.4302596284,0.0524239679586,81.7262307076,34.3450569892,86.5960165266,84.4345984363,73.2097651358
off_to_on,7.32897900074,19.7316163114,41.8311944048,-1.43479707733,13.7956143085,-5.70614391859,-5.44449475525,24.3286583746,-0.0210707263833,12.8462388473,11.136752804,8.06784838032,16.8865860244,3.92891454517
off_to_on,-153.305349767,-143.004841163,-99.3193572465,0.70455503691,-53.7695745964,-164.577313977,-152.368853639,-131.258485571,-0.103700962293,-139.640671574,-52.8485501169,-149.164428369,-140.852696043,-99.164896836
off_to_on,-234.053117979,-235.790383981,-215.029872925,1.7262290988,-97.2262769613,-229.718801511,-220.906684258,-233.724080025,-0.0791727059539,-225.267583021,-92.6239990368,-230.123965366,-232.488358311,-63.9332297474
off_to_on,-73.7913155761,-84.9157192542,-124.685061249,1.15232961683,-45.2077571028,-58.1253187283,-62.7018628786,-102.478235661,0.0497840553397,-78.4959854335,-33.7783467327,-74.186386563,-83.1711202443,59.5302834078
off_to_on,238.952052842,230.844654876,160.295078403,0.0509385852353,75.8463067067,248.874257113,235.134369272,211.999438734,0.131816469314,225.71885935,88.6760087488,232.417923966,231.769899478,85.2084875766
off_to_on,373.091316,377.243580297,357.704200821,-0.74677749516,139.191055455,368.469214209,357.821365652,387.451586667,0.0489886147029,365.712777883,135.299998816,364.05137143,378.331062025,-3.45353231912
off_to_on,123.525764414,135.3725402,202.95598892,-0.965592493276,62.1130688033,111.741535595,113.14008621,173.310877436,-0.113939311149,129.71677955,32.3659962321,120.313388483,135.054707275,-46.8437033541
off_to_on,-288.419074534,-283.072347328,-197.055833883,-0.287445112072,-77.6886472642,-296.345240178,-283.007584268,-260.193029613,-0.146823048521,-277.056945352,-109.14934578,-280.081967723,-286.390218813,10.1209523913
off_to_on,-424.759026842,-433.191150061,-428.925140948,0.98865201785,-127.580291636,-426.093784179,-408.703140882,-459.486913835,0.0283621797704,-421.835674761,-119.607213633,-409.310056151,-437.214754688,40.3609935667
off_to_on,-144.42908405,-157.284638025,-242.559499754,1.27460704958,-50.4716505482,-141.685354527,-131.255603092,-209.430667972,0.223696651483,-151.070042076,3.14927517956,-134.399439471,-157.510127146,-25.9256967205
off_to_on,233.352734171,231.241642379,152.135904528,-0.471518437208,39.8579919338,239.491594433,234.897208774,210.361673744,0.168697469717,228.316265121,88.5204687275,228.823693106,235.548269885,-76.5218459146
off_to_on,331.243604668,342.040468574,349.328360296,-2.449610286,46.5650407035,339.990734531,321.342235622,373.325210853,-0.151190679682,333.954671569,33.5085267261,315.264614454,346.227075817,-16.9729399232
off_to_on,141.596577653,152.437930575,220.85165817,-1.68448797423,13.190799411,147.532383543,126.156122265,197.86971026,-0.394507631344,145.058840884,-54.6029888506,126.235022415,152.215429065,64.1257268129
off_to_on,-60.6155477287,-60.386083279,-10.6341881985,1.61280305982,26.579791867,-63.2854058407,-73.0947164481,-45.240059035,-0.203342223935,-63.7996454128,-27.5726414842,-65.3222679041,-63.7176604885,47.7309913894
off_to_on,-118.55833409,-125.2764665,-124.068172908,3.56050221985,63.7193596586,-128.163386175,-120.389480356,-140.375925302,0.326361295898,-123.767522386,74.7508574823,-111.462100998,-127.367904815,-19.5842987145
off_to_on,-118.067049598,-122.473244548,-137.931853592,1.62988029622,29.9787137043,-126.829884077,-107.846715745,-139.839100387,0.627358749542,-116.426036076,85.0842487696,-104.87290115,-121.968000611,-20.3188797855
off_to_on,-139.129102752,-140.270128435,-150.851088854,-1.8153457276,-73.1072132429,-141.972439784,-123.702217419,-149.995420296,0.257343859488,-132.212643735,-32.4225836871,-126.85192733,-139.449996213,29.1089061008
off_to_on,-99.6116153092,-102.52219839,-125.662523529,-2.81068676959,-124.950975078,-97.4902732745,-88.2305711655,-115.553533919,-0.508464814633,-97.0076890254,-122.972827669,-93.536434615,-102.712129239,20.4284125257
off_to_on,64.6218105843,61.0690406781,20.250549368,-1.0719342177,-55.2191606324,69.4530842506,67.3590301659,46.7579822282,-0.862143479119,60.3899619819,-70.1636475474,61.7343444403,61.3200694189,-46.3373074815
off_to_on,222.087327565,225.141903486,204.89554761,0.450229644233,53.9811341037,228.857798393,216.537764237,230.080082469,-0.344453749383,218.557997155,41.5353513554,211.23837901,226.658984672,-61.1741577956
off_to_on,196.460635049,206.758753185,238.787973025,0.411034518834,87.7424756385,202.878686871,184.724702686,235.930672082,0.575321249452,198.306858365,69.5758948617,183.193219944,207.635309679,4.31790434094
off_to_on,17.8276898509,25.6273458823,83.3508236078,0.461505246879,49.4087089668,19.3098677109,4.14044140397,53.3322868365,0.96489496981,20.1051597367,20.7585306132,9.62983770204,24.2857932996,50.9264266644
off_to_on,-122.128489866,-124.366965268,-94.3483133391,1.53996845645,19.4262199646,-127.225917349,-130.221807791,-122.762271805,0.444261467343,-124.314644391,4.414058008,-120.96807113,-126.278939221,22.2377318854
off_to_on,-131.340845237,-139.416688751,-150.768101841,1.80612034081,14.5393139401,-138.744985195,-127.922179684,-157.505155737,-0.428520962781,-134.351129851,36.8122219352,-122.586232103,-139.447922551,-12.0722736523
off_to_on,-90.3899869822,-96.0225322727,-120.099627833,-0.170733419898,-17.2327458432,-94.8924334346,-78.0109723941,-112.144839478,-0.813082076095,-88.929056509,26.5607248285,-79.6378191133,-94.6997391392,7.21818858761
off_to_on,-67.8589706532,-69.9427333563,-88.4963864514,-2.43859326082,-76.903524855,-68.8497022418,-55.6418871104,-78.5460311197,-0.463326304527,-64.3800753522,-51.1087966025,-60.1010101568,-69.6245806641,27.4490643415
off_to_on,-16.1806947071,-18.1115114278,-40.3648842708,-2.17125051352,-89.3898836983,-15.6497582067,-10.4854735754,-27.1151369856,0.14803175433,-16.3956802391,-96.4626181588,-13.6827567667,-18.9935175839,-7.95595272878
off_to_on,94.8820426978,94.519893257,69.0272963433,0.145413367775,-21.1460260016,97.1289307197,94.5382226573,88.1482185155,0.441864056806,92.063840861,-41.6249943863,91.8302806,94.4936749639,-48.4279131826
off_to_on,170.534938344,176.229843607,173.644804084,1.50245352469,57.8816093027,175.754747931,166.433695179,185.872576289,0.289708671108,170.93364522,41.6629266255,162.918711053,177.623315421,-24.7898367693
off_to_on,114.726198749,124.283859993,158.112563741,0.792797975659,72.5631692739,120.767414607,107.125446347,148.756347249,-0.00393989022395,118.505786524,56.7963283582,105.39129609,125.104215417,24.6424308492
off_to_on,-18.0782164737,-13.3647102988,29.9816485904,-0.0920544520047,40.4644181284,-15.8257584327,-27.5496609831,5.3976103272,-0.0968158273973,-16.9853054841,22.7875616258,-24.6930032748,-14.3579739586,18.9642294687
off_to_on,-97.3883971563,-101.39709963,-83.8658406304,0.243646468066,19.4522708267,-100.377530582,-103.315171859,-102.597878449,0.0674083923952,-101.188498142,16.5558377579,-97.8285337118,-102.762663026,-23.2812797983
off_to_on,-92.8999726862,-100.063648452,-110.121470961,0.640223339395,9.24841972438,-98.076505781,-91.2490340386,-113.52385245,0.229676371883,-96.4564625682,33.902428382,-87.2973114971,-100.225740054,-15.9902789158
off_to_on,-73.2813740844,-77.4531754931,-94.0349938286,-0.14986689559,-26.7879773437,-77.6300794194,-66.4695874705,-89.7811102915,0.0731239032635,-72.5983703286,8.4674016543,-64.9623698165,-77.0864143383,43.1384168246
off_to_on,-61.3530448838,-63.1238665744,-79.2962898875,-1.07478318834,-72.5821443812,-64.4500929081,-54.5854772381,-73.0495761779,-0.400422841084,-59.1601347785,-56.6324650793,-54.1159284344,-63.3901274929,62.3098880487
off_to_on,-7.43472763646,-9.23220496643,-32.1147685564,-0.610793345249,-68.9318739729,-8.79115867718,-2.31116359976,-19.4468391127,-0.738999234878,-7.21467176904,-79.4584404739,-3.72000602292,-9.36884898467,2.27819831654
off_to_on,87.8364075658,88.1602033659,66.3027067177,0.479161976538,-8.86859751499,90.1859384445,92.1111905291,84.7980609456,-0.438850674219,87.7885927125,-28.3741922858,86.8520177469,89.4066175826,-63.9547859371
off_to_on,135.295142311,140.525014914,141.777078832,0.34211532557,45.03034584,141.344744982,136.555885279,152.37097734,0.428151185574,137.516070501,30.1095485347,129.639171003,142.176892984,-63.1256869815
off_to_on,82.2050703555,89.1038032219,117.079182347,-0.749560683688,50.8654186756,87.8784826481,76.7685290385,109.241477803,1.11722484893,84.2199585604,38.807058571,73.9772966381,88.9915142249,-13.2325039799
off_to_on,-8.97481171844,-6.38709828304,24.4420267892,-0.684025553687,35.1771300965,-7.73009592479,-19.4423160617,5.67520997443,0.918465502724,-10.8277356939,26.0832034711,-15.7644376515,-8.27320563409,29.4713451636
off_to_on,-56.978122805,-59.2503187188,-45.9397691347,0.963980223659,29.3218119205,-59.6373884689,-65.0847552465,-60.7820267553,-0.0650425695319,-60.7603986443,33.29263202,-58.8451471579,-60.6600376901,46.015301812
off_to_on,-66.805132716,-69.6579275033,-70.0965489578,1.93939271516,15.2930387837,-70.1363420157,-67.4423879474,-76.6832918001,-0.98697260349,-67.5959541394,35.289838873,-63.2701767499,-69.3950868534,39.458692331
off_to_on,-78.7633212384,-80.7479900406,-85.682022494,0.642636312956,-27.3519252149,-81.5229235285,-73.7836513356,-87.7387822859,-1.10202782263,-76.5097317869,-6.366473026,-72.1533552175,-79.9978417156,5.44935508066
off_to_on,-73.7312683324,-77.3283125529,-91.3156058661,-1.39565272376,-65.7170393264,-76.5750261696,-67.4018254604,-87.3146895097,-0.42644628629,-72.8979095317,-59.7276883446,-67.0532929127,-77.2313602503,-37.681162271
off_to_on,-9.70521511371,-14.5106733668,-41.3441427284,-1.73642839374,-54.4658749157,-11.67521156,-3.66219376978,-26.7648418042,0.41371735918,-11.5244971277,-61.6694433199,-5.31679394119,-14.4349446856,-41.5163443511
off_to_on,80.4516397685,79.5075280068,55.888581235,-0.415939293499,-6.33022792583,81.6586768738,85.3788949449,75.1126042823,0.81248151685,79.7717717222,-15.034679763,80.9108630608,80.3004441524,2.66964198238
off_to_on,112.139721755,117.450497604,118.01219335,0.574414380837,27.1492133258,116.22565342,113.092816604,127.156922287,0.616535648393,114.599696263,20.2283395813,108.236051377,118.129601452,33.0923762597
off_to_on,64.2923208112,71.2329938982,94.1073361728,0.426560612883,30.1783740109,67.8993140707,59.4664365919,87.0888210196,0.112426615874,66.6959479275,21.0239030931,57.7647018899,70.7764509637,5.98246748469
off_to_on,0.00991437852801,2.97912122748,27.1744027131,0.225657788411,29.7262764137,1.06578608334,-7.44646964184,12.870569969,-0.270331169312,-0.594698970217,20.7771646256,-5.78473446795,2.01326299841,-30.9829445934
off_to_on,-31.7369847322,-32.6649931638,-19.8474323223,0.612377992004,35.0911723973,-31.9343451834,-36.6997594954,-31.0739318853,-0.311366697614,-33.6233170006,34.8050808065,-34.1908767066,-32.9036800494,-13.6963764311
off_to_on,-46.8948688493,-48.6086059404,-43.8327136526,0.644897243583,21.764363727,-47.0142675836,-48.0508478465,-50.7668499765,-0.160984476506,-47.412919445,31.3235126812,-45.7286137286,-48.2995390184,31.343028582
off_to_on,-64.1280537244,-66.309141885,-67.2844231817,-0.333046053737,-16.6651574385,-65.4153633164,-63.532003975,-71.4319124259,-0.118432597244,-64.1862748895,-5.36483767601,-60.5437806685,-66.4879918211,30.2686119737
off_to_on,-58.9575214253,-62.9379821087,-74.812854945,-1.1933202396,-46.3405858416,-62.5155849843,-57.0774451471,-72.8056348303,-0.222663842457,-60.3636508436,-38.8504939429,-54.1710282262,-63.4841078792,-14.4752560269
off_to_on,-14.0746582567,-18.0759449912,-39.0677299164,-0.590268456538,-41.3845978398,-17.7340158981,-9.43148659663,-28.5974386381,-0.191842371222,-15.3069967454,-36.4996036509,-9.35095159572,-17.9056627993,-29.83793189
off_to_on,36.3883417391,36.0276430568,19.7608084489,0.833870017233,-18.4005962106,35.8372746101,42.687160234,32.6342160356,0.140445812844,37.8200842499,-16.8703391981,39.1537749037,36.9643564422,3.90521422979
off_to_on,54.0261315801,57.4118534996,55.3206305524,1.15417654932,-1.83568524705,56.6177599148,57.5875017148,62.3458496343,0.494850627488,56.8578291096,-8.89520298045,53.1895651652,57.9552930586,23.8959724467
off_to_on,49.0867536132,52.6972712814,59.6571874846,-0.165772698243,12.811748334,52.1390741949,47.4044828017,60.0437249401,0.462110821963,49.9482922932,-2.27890701378,44.8972465962,52.4163676809,-3.80642213096
off_to_on,45.5128283186,47.5110066678,56.4920708146,-1.49657886694,34.9407912584,47.5245520367,40.7619152495,53.8672684895,0.0601712613717,44.2545887248,22.4396842159,40.1361524771,47.2738735683,-27.9517080408
off_to_on,28.4889939966,30.1486291909,43.2578749195,-1.15190672315,46.0267236365,30.0070170261,23.853869296,37.0708949764,-0.284281205898,27.9007921421,45.130248502,24.3073401323,30.3771784606,-4.8711487387
off_to_on,-23.3789335478,-21.9357002614,-4.12843194908,0.56928722656,24.6557131592,-22.4781133689,-27.1497743643,-15.9512212261,-0.306455296092,-22.7227957346,32.8705693519,-24.9832413967,-22.0852205209,25.9583327182
off_to_on,-78.3877970736,-79.6395124329,-69.0878506093,1.86013465224,-13.0359305974,-79.6174881773,-81.0367847392,-81.1471202459,-0.178348407219,-78.8875287151,-3.22165339034,-76.9096068809,-80.6314993429,13.172557463
off_to_on,-80.5796155792,-85.1548664731,-93.7008081121,1.44239694916,-32.1190464073,-84.0773163075,-80.059141382,-95.9897737996,-0.133883562116,-82.7939060753,-23.4026883653,-76.3259188893,-85.9335042371,-17.8887674221
off_to_on,-29.5891006584,-33.9253309704,-55.4154017278,-0.243810931593,-27.7794387089,-32.8998272023,-24.7200162622,-46.0597603846,-0.1033618764,-30.6816592946,-20.8028929602,-24.2216767274,-33.4495747563,-12.965999301
off_to_on,20.4318406766,19.6424116032,2.36930339008,-1.62071891513,-22.2630756355,19.5615228536,26.8228545427,14.7481705229,0.0762197390503,22.0479508103,-21.7569723145,24.2370757167,20.741208408,16.2228158676
off_to_on,39.9712581794,41.7098332578,35.6346819026,-1.49122058856,-19.850767674,41.155111182,43.5663941744,43.6602195827,0.296784809252,41.9408763581,-29.0175813985,40.3423970982,42.1775171637,16.3973248272
off_to_on,49.527285727,51.2202581043,50.9971806021,-0.143038499178,-2.04499974665,51.2083311365,49.2351645285,55.2192353046,0.306272176,49.5044005386,-14.103270093,46.7459646821,51.0942698713,-12.3143029301
off_to_on,59.3874456847,61.1671202618,65.1576618952,0.958935452047,29.9869988628,61.1896751119,57.092109943,66.7740786457,0.105257247061,58.6749015429,25.4414235621,55.1710152042,61.3062057193,-19.5392186779
off_to_on,40.8744428514,43.955111994,57.4600133346,0.760309163633,45.071030979,42.9884839274,37.6458717631,52.7082449779,-0.0633766540864,41.5876426623,48.2603549182,36.8687324905,44.2082218879,4.92680901159
off_to_on,-16.8584524146,-14.1322251905,6.1906469634,-0.166270583482,26.7249523891,-15.4116274807,-21.1748736251,-6.34568061974,-0.0993650844792,-15.7852565006,28.8267829397,-19.4470022847,-14.7150315553,15.9082355904
off_to_on,-68.3252321211,-69.025299013,-56.7657830401,-0.394763761497,-2.15284091226,-68.9109633178,-72.2057009987,-69.3046406898,-0.144251340329,-69.209680907,-4.10844082759,-68.4485784771,-70.2543833468,-4.61565626925
off_to_on,-67.2687407564,-71.1020543363,-76.4884662805,0.398106029182,-15.7191991845,-69.5505376292,-67.7087793233,-79.6276512986,-0.253457625726,-69.4206540141,-14.4177972786,-64.6257918914,-71.5479564485,-17.2142278746
off_to_on,-28.692544785,-32.1106241886,-47.4921411948,0.955785644805,-19.4187435767,-30.9078824972,-25.1515959549,-41.4508169192,-0.24297921891,-29.4016203381,-10.2843446787,-24.5683564276,-31.3233975596,2.22220265909
off_to_on,2.27341131671,1.19031549249,-11.5650387622,0.250381778588,-27.1191861376,1.13973996679,6.76978421591,-3.60259531519,0.00207935837091,3.33110813243,-17.1619148632,5.73796089615,1.88898178546,19.928397125
off_to_on,17.1571805365,17.1094257037,9.19703295244,-0.970517526981,-28.3780833428,16.8302173742,19.8594886033,15.7400245877,0.280436301794,17.7727309187,-26.988502897,18.7582114146,16.8649736721,6.00217172113
off_to_on,36.7426789854,36.8196506902,30.5582489083,-1.20802810623,-6.90949919477,37.0501063837,37.8252811588,37.3479458071,0.321401897054,36.2335486952,-14.1524595367,36.588011471,36.8386793861,-13.2514416539
off_to_on,55.0728487545,56.5473054131,55.6075934235,-0.314363435009,23.773472798,56.3110047692,55.435909634,60.8514273331,0.140029035832,55.2640183535,14.2396465116,53.2394187031,57.9881924209,-4.8316416767
off_to_on,41.2091035663,44.4470695047,54.9955958759,0.447920106934,33.908280448,42.9755573426,40.142361599,52.4813186552,-0.0363809896,42.8451387606,25.7554119957,37.3864729492,45.7148077715,11.8111994551
off_to_on,-4.06402581609,-1.49845030389,15.8799781316,0.357541617369,19.9663761047,-2.92791324448,-7.23806038564,4.75229309615,-0.0925334879972,-2.92897113795,14.601058057,-8.81320904858,-3.16954493616,2.24332985607
off_to_on,-39.1001318348,-39.2407376492,-28.2349323748,0.126559537344,5.13078353466,-38.971678568,-42.9339617358,-39.3871925232,-0.0904117186218,-39.9782374443,6.62686706362,-41.5003406282,-43.3335667982,-18.8025727232
off_to_on,-39.1854529062,-40.7952522269,-41.9665371465,0.48682987209,0.0595295967663,-39.2819506607,-41.5824685061,-44.706420815,-0.0905105691253,-40.8545224672,11.0690329972,-36.5561179985,-42.7544846625,-13.0099556191
off_to_on,-25.3737768857,-26.4305239657,-33.2618018544,0.894905056617,-7.73649228348,-25.3117189811,-25.7504225362,-28.7146411695,-0.101482853045,-26.1182084947,6.1618448906,-19.346394467,-22.8034487177,12.8202379056
off_to_on,-20.6581749978,-21.7593718507,-27.3428222509,0.426789413832,-22.3477566091,-21.1791524521,-19.0409178293,-22.4469232394,-0.147836923919,-20.750157164,-17.185284601,-16.472935801,-15.1610332795,18.1195391376
off_to_on,-12.6712584023,-15.298075798,-20.8292181535,-0.675287316815,-26.4168626956,-14.3473081659,-8.54406734573,-18.8279868844,-0.187182417434,-12.9807856369,-33.1452623436,-13.8570441941,-12.6136875049,-1.38758582142
off_to_on,15.9138499574,13.2004476712,4.62810371372,-1.28008725395,-10.5799997175,13.5536407643,21.4795028882,5.83788052345,-0.0300354592739,16.0113331249,-20.6739454625,11.3675485288,7.93227326914,-9.42658537625
off_to_on,47.0102587104,47.516037218,38.8581216258,-0.912230399978,8.25548639069,44.8230684504,49.8307451027,41.444948438,0.389384533142,48.3845763088,3.42187749177,44.3706554211,37.9917770853,4.94014411157
off_to_on,47.6933712972,51.8857318978,49.8138009727,-0.149289200323,13.046391034,46.9156105812,44.5343176967,53.4530926547,0.693371690859,49.3819391716,13.2820388351,49.8646295965,47.090367138,10.5064734869
off_to_on,17.0046414298,21.4696346141,29.6607598769,0.425819691624,11.2196799406,19.8797548681,10.6277589155,32.9524079583,0.375136809459,17.3558037594,12.2575609584,21.7398050469,27.6391935025,-6.79721663293
off_to_on,-15.2399979535,-13.7986113255,2.64427894103,0.800577863452,15.7825790111,-7.8052119621,-18.5871484714,3.21244248519,-0.44974310377,-16.2266477348,16.799998372,-13.1263256085,-0.217235395572,-17.9487784987
off_to_on,-28.88671414,-30.6372559191,-13.7107374455,0.971448102602,18.7961045869,-21.6342676566,-27.3212122747,-19.4552629834,-0.962466988152,-30.1438351237,20.9125055667,-32.9436057329,-21.9428963621,-3.66055508796
off_to_on,-28.5699256579,-31.6947193897,-25.7341636293,0.66057303612,5.32422928473,-30.0156504207,-26.4673481501,-38.4039936749,-0.577847705615,-29.8836164472,7.05046872712,-37.0915565447,-38.0578238258,11.5422109213
off_to_on,-22.851281479,-25.4730800936,-37.0482303794,-0.07686421763,-17.1414018298,-34.9818576849,-23.8327722222,-49.4797989573,0.293907083322,-24.0815222423,-17.6211338883,-28.7537008105,-43.0065954803,4.48222762342
off_to_on,-11.9150329075,-12.4670372346,-33.9035411871,-0.648927852833,-26.3009790296,-24.1401570903,-13.4641017584,-34.9768247203,0.749899272387,-11.2949742646,-26.6967106594,-7.98999450891,-24.4679518284,-6.51212436657
off_to_on,2.52491317782,4.41132199274,-9.83036724546,-0.72904359988,-17.2250202058,3.27014957585,4.90343346372,4.31772499549,0.47986507645,6.27682354658,-14.1521752694,15.4521249138,10.5321772569,1.50240716749
off_to_on,14.1155877495,16.0836519273,17.6474906196,-0.6645034066,-5.32145435206,27.1265837198,19.7190558668,37.9815103626,-0.0322666733071,17.9973578251,-0.778165916817,25.0063650309,33.98686015,12.8591325331
off_to_on,21.8460714595,20.573511759,30.1718563243,-0.668933361097,1.11736194852,32.4870495923,24.9983270492,42.0781089384,-0.285899889754,20.3762793106,1.04937798783,19.3507629766,31.536309455,4.0469684563
off_to_on,28.2442871473,24.3801431753,30.8950772728,-0.276206869073,9.44043565733,26.0090188493,25.1010307109,26.5598140008,-0.277646593319,20.7781066704,2.72376377664,14.1142828791,18.9330649892,-10.4402971126
off_to_on,26.6009309573,25.68074177,28.7366633474,0.754639007058,21.0655169864,17.3685915017,19.4275896349,12.3980040869,-0.185388869458,20.3083589148,12.8367336301,15.6366540257,13.367429863,-4.82691301311
off_to_on,6.48977505876,12.2639802535,17.3360311118,1.57620651307,22.825594606,2.59526262559,1.33715898024,0.621668951645,-0.0112266914236,9.23170325194,19.6001147953,10.1691935386,7.5616352311,7.62763100998
off_to_on,-24.6659157433,-16.490560083,-10.6407812555,1.18856335339,8.3532501264,-21.0968548868,-23.1196836995,-17.4264451139,0.220732739467,-13.7783516141,11.8322925983,-11.9538092786,-12.1156340815,-2.30958432469
off_to_on,-41.9945204635,-40.1747540054,-40.0489781871,-0.080235781787,-9.04515141642,-38.7638504463,-34.2472438511,-34.3633864188,0.268101576516,-32.7711964995,-1.94270172129,-36.3483070829,-36.5671229502,-21.8204912441
off_to_on,-31.9027715709,-39.6963726431,-46.0604395197,-0.969690977328,-15.4879167135,-33.0203862931,-24.3451389498,-33.9157740676,0.00414160168624,-33.5194289505,-9.23728253308,-40.6096473757,-42.3226776511,-12.6672031393
off_to_on,-7.3090849576,-18.4770780372,-25.7616919755,-1.00662689844,-14.5292118378,-8.59663911833,-8.13696848708,-16.5644204408,-0.27564611042,-19.4184386729,-12.4776874239,-20.5298230714,-22.3329735713,20.2146114234
off_to_on,11.9958198538,6.79504541721,1.42198157731,-0.807899399193,-14.6561661778,13.1128468699,0.929906193051,2.19405853097,-0.217300897082,-0.967418338745,-17.2914391098,9.58935886887,7.85562472755,31.0457117783
off_to_on,20.9915127418,25.6511142804,21.2112303688,-0.657774469248,-11.6375040923,20.3530257941,8.87942530414,15.5182950858,0.0709149489187,17.9482870801,-15.9956883051,33.8150420874,30.8783018398,7.81101601593
off_to_on,23.9758827789,34.7565269899,33.6782822993,0.000978862898947,1.94822856868,19.4370908715,24.3115655953,28.2582291697,0.200982388579,33.987105811,-0.448618793103,41.938685688,39.9206198728,-10.754677907
off_to_on,21.0090056983,30.2230821343,36.9387009393,1.20797291242,18.5332104792,19.0068195089,37.3891929435,37.5660460547,0.0987954660683,36.8231042132,18.4725722847,29.1446440582,32.9833468285,-5.53522675419
off_to_on,11.0248886217,12.0292919501,23.0747051886,1.76079884501,23.0184823354,17.6720448213,30.6627082492,29.820594857,0.0327709916689,20.3598768075,22.6472822728,1.34157219831,10.7109498447,-6.85956386576
off_to_on,-1.17571536121,-9.62985619601,-4.45381195691,0.752438591005,13.9859340982,8.76635175906,2.89740811392,1.58598321902,0.0842231241597,-5.97303048918,12.0746918131,-23.6513982343,-17.0758931229,-28.4918926183
off_to_on,-11.7054252189,-23.3813074234,-26.8852860803,-0.907866438951,2.83635837299,-10.0352110918,-29.9013319218,-30.5829588507,0.0161153936068,-27.3238484341,1.34122424109,-31.3328949628,-34.3725523773,-29.3059893129
off_to_on,-22.9892019737,-27.8981212341,-31.7370055916,-1.52244937392,-5.26370625066,-32.4499529342,-50.1888854562,-46.7064788302,-0.235662764931,-37.4933601917,-4.36105750373,-24.3373934552,-33.2859409367,16.2617992919
off_to_on,-32.614270376,-25.9952658748,-25.114932534,-0.731739583506,-14.339847437,-44.2142926943,-46.1970751054,-39.8458318029,-0.346298901818,-34.6029835672,-11.2380487131,-13.459959552,-19.0966739263,58.2291521693
off_to_on,-26.9935083659,-14.8810861275,-15.8005524101,0.338724018998,-22.154768674,-31.2083614467,-14.65131224,-14.4747369241,-0.0943988246193,-14.4512931504,-17.5342884906,-1.33341799706,-0.65515209708,38.168231978
off_to_on,0.281188950868,6.39719369179,-1.44666762437,0.739926598812,-18.1067758035,5.13393248457,29.4148760169,18.6390222054,0.251051929922,17.8345657781,-12.6475250419,13.9979031083,16.2249218161,-18.5756232719
off_to_on,31.6264336925,26.2041446373,19.3880325686,0.49236158982,-0.863987588841,42.0321142714,54.4556580565,42.1594545222,0.312879602466,39.6819882768,1.96532157575,25.5671120871,25.7581455366,-41.2219159256
off_to_on,42.3265825572,30.7894283208,34.4428186951,-0.0906355256924,15.4172829939,53.16077694,41.4591223325,40.6000917372,0.130948903824,33.1635878854,10.3293190696,22.8964220129,23.1012397732,-20.5006395748
off_to_on,29.2124540184,21.9299024773,30.7639445987,-0.729585012218,18.9047312738,32.9183036869,7.09880672687,17.1113280759,0.000336774871571,10.0276708263,6.395683904,9.28665374573,11.7336738571,-6.53842733439
off_to_on,7.90690286233,10.806961733,12.607150738,-0.783128470807,13.3780269319,-1.74906353739,-16.995934425,-7.51202839401,-0.0220204070979,-3.82904103251,3.25078405573,-1.35872998196,1.38859338494,-11.2153641208
off_to_on,-12.3096992429,-1.59644795699,-6.05952064406,0.267784057669,7.37811949503,-30.143192229,-22.1439099669,-18.6500413954,-0.0991400224011,-4.92598422478,9.3897912999,-5.63816360588,-4.86372700543,6.6268928738
off_to_on,-31.6578678324,-21.1841026141,-19.9116959797,1.60253667016,0.801032281695,-40.7427434474,-22.1726011062,-20.8209586035,-0.222595851205,-11.7048685945,12.8204441203,-13.1360297398,-13.0298776212,48.1507975574
off_to_on,-41.2946715592,-39.3547860616,-30.1466961052,1.50301535287,-8.95314473638,-30.5975501985,-21.8610464885,-21.6842810758,-0.211529188439,-27.989423692,1.46598522518,-24.7961727585,-23.9552494694,49.6548994791
off_to_on,-26.1450026246,-35.4551253103,-30.826497398,-0.354347398471,-16.4156060959,-5.97489418341,-11.1898723413,-17.0059449938,-0.060954285733,-32.3051633803,-14.8154951507,-25.5152546406,-26.521411122,-12.9201449059
off_to_on,7.81322237409,-6.43959239248,-14.1450061368,-2.08038486342,-14.4891173709,15.7925976173,8.08234680397,-2.35108476185,0.0655697913683,-11.7192350639,-18.342648122,-6.62751427672,-12.2113194681,-66.3661160969
off_to_on,31.0804379692,23.7705055637,12.1805615179,-1.87202990895,-6.00801913379,19.2772986517,17.4920706013,12.7276825511,0.171343142516,16.4492739008,-9.45578350879,18.027911439,11.1043581941,-42.1408366021
off_to_on,26.7884790153,33.5981506147,28.7253213965,-0.223705612282,1.18124506678,10.0273979281,12.2204607802,17.1446874446,0.362220797306,29.9302910116,-1.4447369758,29.1992587085,27.7524065901,19.9767969876
off_to_on,11.3768689652,26.8883723061,27.4810843238,1.12251725268,6.35175559406,8.02406934463,10.7532115715,15.8549053683,0.434793963512,29.0644132324,2.78197455732,24.4711413554,30.5347919855,36.5052209158
off_to_on,6.19559192765,16.6012834809,17.7427741999,1.52181817106,12.909635422,17.3367720136,20.3290807602,18.4022926746,0.0244382858601,23.1677811237,10.2899658094,12.6512918983,21.2228718858,6.63403484089
off_to_on,6.17196271219,2.56066946442,7.37294020617,1.39958976422,16.9438216185,17.5253469383,18.0453205164,17.298816649,-0.669405631186,8.14036007203,18.1561213301,-2.74264454691,2.49050373343,-4.02869575995
off_to_on,-4.86266837151,-18.1305685752,-6.42528377682,0.66328705277,10.6394594891,-4.84992224532,-11.6087879834,-1.65065625505,-0.835973153625,-19.7546236852,13.9292625772,-19.8900634846,-19.8086764348,17.5088795716
off_to_on,-21.9559779109,-32.4180555176,-22.7206521798,-0.995623033491,-3.57130064216,-31.1929590557,-41.7661484943,-29.8401572998,-0.113206490558,-41.2523386519,-2.20868888149,-27.6741644897,-32.0173614509,16.3236026596
off_to_on,-25.735375106,-25.0420721312,-29.0695334259,-2.40710709247,-13.6669722584,-33.7840653056,-35.6115679731,-39.2201964345,0.735840369668,-32.6808012988,-13.8349686258,-16.6653439785,-24.0407005585,-24.0926823124
off_to_on,-14.024315878,-4.43007864301,-18.2850217746,-1.64125911562,-14.0716176434,-13.478061777,-0.955768509933,-19.6302223044,0.741354901348,-2.48799746494,-11.8868176774,2.41512138378,-4.33801667355,-45.3879218537
off_to_on,-2.44876154815,6.99168917285,-1.13934048717,0.984031859434,-10.4963300593,5.25857684168,20.6910303784,7.32633081959,0.0315856962279,17.0252668633,-5.96119552386,9.32673589013,8.62309377306,-11.5769285425
off_to_on,4.35448401854,6.01694433699,8.96078452899,2.50580428956,-6.9008233879,11.4459690489,14.492504462,19.4500621722,-0.420798117535,14.4254357664,-5.30430719158,3.22625349767,9.97089992648,29.5648142927
off_to_on,16.9889540945,9.99805854506,14.0113278044,1.08425670139,0.731373437748,16.8319197352,6.46616185532,19.7675145392,-0.219201648482,9.69043381965,-3.93630750303,2.89882780335,11.040886714,25.0938919145
off_to_on,33.2754484325,23.4988117508,21.4465163405,-1.35356388763,12.7267392566,26.707757604,13.9306551331,19.7197753615,0.0416026187573,16.1128744793,5.12921817688,15.3748798229,17.2981268183,-1.6449463007
off_to_on,31.4172279743,27.2213310861,25.0989954468,-1.75333683021,18.9052651271,25.5449595822,18.288665568,15.4656796602,-0.111727050969,19.092115994,14.1590508299,23.2941288891,18.4130480893,-1.4055877126
off_to_on,2.78443429638,8.65888905656,12.6765631661,-0.035633416926,11.7477968044,2.86621771245,2.27876517148,-0.546034765556,-0.279425477846,4.80555173024,12.3568948888,11.5546026646,6.23823708307,14.7697360527
off_to_on,-28.875779208,-16.9494839467,-11.5455576076,1.3052581024,-1.49505659451,-24.7579715295,-17.3964095012,-17.7745476393,0.0285621604756,-14.3569711649,3.5747634351,-10.3459165422,-10.8189187076,2.99768533721
off_to_on,-36.5425046406,-29.0832144165,-28.1906874147,0.964773983073,-8.73162970347,-33.3419000837,-18.5568485993,-19.5924261006,0.473076113356,-20.9553000739,-1.55110860784,-24.173707001,-20.6456180151,-28.5355079672
off_to_on,-22.845880338,-27.7926280118,-27.2946889094,0.0274269248751,-8.94534583721,-21.7799448965,-10.4674343847,-10.3783425883,0.390630937423,-19.5087364969,-3.74788631494,-26.5909540219,-23.1772782314,-30.2450931316
off_to_on,-7.416810143,-21.5967081027,-16.5414888288,-0.464622479635,-8.83755458931,-6.83607466472,-13.2355311406,-8.15618789845,-0.133194145569,-20.7451835597,-10.1673221375,-22.4779433827,-21.8771138702,3.31772246324
off_to_on,4.66341197667,-6.0428240988,-3.74219473354,-0.861416865755,-8.76499259082,3.76053562636,-17.3463833508,-12.4560114109,-0.396420243904,-14.7792304789,-16.2691708183,-7.761491139,-10.2369321999,24.0864168649
off_to_on,20.342160191,23.4750915177,12.4652401801,-1.24723961455,-3.32410035575,15.3801717992,2.03920303017,-3.40198646433,-0.161921511258,12.6872033045,-9.81630794973,20.8045145632,16.562213681,10.8371787474
off_to_on,33.1963784319,47.6310989607,28.8836897131,-0.56603780191,6.1748866334,27.0490906994,36.9494147547,22.7612763306,0.083049341283,45.3422857514,7.29933317491,45.3336272759,42.0173279269,-1.95393862826
off_to_on,25.9483385844,38.4668073805,31.0557489759,1.32422130998,11.2413041206,26.6984734218,47.930695482,40.0500880244,0.00642255085017,47.2050948415,17.670876102,39.2510361462,39.7529991953,8.75981251208
off_to_on,-0.3584416478,-0.704990038153,12.0700625785,2.39221642744,8.91993476105,9.76908117891,18.376478739,26.332613895,-0.0865199724398,11.0362973364,12.3040983468,2.78455061946,7.31069254968,14.9820932677
off_to_on,-21.559448416,-33.4475240878,-12.7296067382,0.957990826751,4.9379856793,-11.3605012495,-22.0363933348,-6.41383550476,0.102716546876,-29.1912219418,1.59579081088,-32.1357533096,-26.9346907226,-6.9262602705
off_to_on,-21.5146505461,-33.9695817726,-22.713169777,-1.56856280462,2.45201891992,-22.6659024313,-38.4688415751,-29.3636850648,0.29917142432,-40.9895528758,-2.81969340408,-38.3500249978,-36.1683275189,-29.1685006171
off_to_on,-10.9718374599,-14.1497241041,-16.8036567281,-2.31285207433,-2.37602763596,-23.1685375103,-30.1916985102,-31.403422352,0.135538392678,-27.0951192239,-3.55757704938,-20.5388760659,-22.0906147847,-18.3586939325
off_to_on,-6.84376149745,0.512586563088,-9.21330939414,-0.732549727931,-10.112620619,-18.5147196854,-15.0681919256,-21.2571316941,-0.19723275403,-7.9584597629,-6.89385412562,-0.11686870112,-3.64681233019,8.16734248428
off_to_on,-7.6338648634,3.87845201502,-6.14430323487,1.03630410342,-13.034272925,-9.11274630041,1.57417434992,-5.9497358974,-0.252555928461,7.81410940993,-8.93177874478,11.7953889361,8.1830235873,13.7719644758
off_to_on,-1.30229687294,5.87442374345,-0.958377401517,1.36456225826,-6.31455544975,6.96107905943,21.4426920547,13.420413956,-0.0371882052485,20.4704100539,-3.5748853654,16.3057017124,14.0632095731,2.7550230723
off_to_on,13.0439589638,10.5609888596,9.38370307816,0.72656777929,3.41531876616,24.4166394916,33.0767323389,28.4953332854,0.0678627206477,23.8116613073,4.23229676128,14.468812947,14.783079247,3.93325048828
off_to_on,24.2130890848,13.4502345999,17.4197511305,-0.0128834714695,7.44501178237,32.1163193306,22.4184500652,25.9992028962,-0.0295703962912,12.8898167144,5.40866993525,7.24009914538,9.77924090803,13.5127320719
off_to_on,23.6426851555,12.8640991616,16.9622486541,-0.850073585187,6.60057703484,23.0517214967,-2.32303723558,6.79970882349,-0.0406071135066,-1.87634163456,1.56366634198,1.03002870299,3.36136995334,4.36919642049
off_to_on,10.6350659674,9.34728119866,10.2521327274,-1.45796322447,6.18176183591,0.0360407058838,-17.7494242557,-11.4524236195,0.134424372131,-6.43055105697,1.15761391071,0.37576325073,0.64012529795,-16.206702561
off_to_on,-11.1769844441,-1.08857312443,0.389340674589,-0.693236118215,5.13063733186,-25.2007362226,-15.571804778,-15.5009571488,0.212190869494,-3.83117379654,4.34255584962,-0.998563767552,-1.40818114579,-11.2962574642
off_to_on,-31.670425597,-19.0636671095,-12.4940653349,1.35575162803,-0.542267174011,-36.6026923081,-8.05899375373,-9.7091224981,0.0266313394277,-7.03138583296,3.58376473093,-10.2285801633,-8.77531841669,17.3899232726
off_to_on,-34.183478842,-30.7926955796,-23.2821853371,2.36157127251,-7.32118690036,-24.2911647064,-4.56088098173,-4.44250806459,-0.171702962729,-15.0972688159,-2.04622858511,-19.9113236584,-17.3126780834,18.2230841667
off_to_on,-11.5171568738,-20.28265186,-21.0987382829,0.614131888162,-7.51824262661,3.4919612215,-1.22402193224,-2.15638819978,-0.122149503893,-14.0988113683,-5.10223885476,-15.4827113946,-15.4458640579,-29.8895411912
off_to_on,19.2421465887,7.0211841114,-3.95171392126,-2.08172457599,-1.97963092042,23.8341397879,4.03475565346,-0.564371856065,0.0436230052548,-0.8294200568,-2.96525848446,2.86728878804,-1.27399452791,-67.2096592281
off_to_on,30.9076064791,26.6200783257,14.0446233431,-2.41001006192,0.585195098821,21.63904533,4.88806929861,0.18216513411,0.048914920428,11.6702176907,-1.51870066739,18.3132297062,12.9669679825,-22.8415060936
off_to_on,16.8671504363,23.7457591823,18.3763870404,-0.0564684721501,-2.18223654378,5.69265435439,0.975404881674,0.756554212364,-0.0957589893523,14.4868406565,-3.2705570929,18.9520088415,16.5383264321,81.1430047269
off_to_on,-3.21267947416,7.82780882355,11.0290676692,1.90864629347,-2.59544210921,-3.98955611828,2.5473825686,5.30841200366,-0.1556398221,12.512667873,-2.55028112779,9.64675981472,11.5166215257,132.783488829
off_to_on,-9.91524751459,-4.81054639572,3.80073992947,1.35155142305,3.63209518917,-1.01731125034,11.9584304592,13.1862821432,-0.0245850225383,9.65519705872,3.24434700877,-0.11388033977,4.77376113394,49.6567776747
off_to_on,-4.57878292298,-9.83908623332,0.763595277752,-0.326392418646,9.48606887548,3.58275317667,14.7191376254,14.6205462094,0.19493117388,0.822910304074,7.39713568731,-7.93443688372,-2.32182649615,-114.018862094
off_to_on,0.463946605075,-10.531064257,-2.71627783172,-0.769522687374,7.40015066238,-0.0629800153271,0.411579683119,3.13753408236,0.343549291341,-13.5013281553,4.67237490252,-12.9312279924,-9.91672275745,-196.149771165
off_to_on,-0.011110256169,-6.91553942495,-7.56419942101,-0.0150121913457,0.369294895936,-8.74567333371,-18.6547385574,-12.7530941334,0.264790518344,-19.6806891809,-0.044276001637,-10.2802476969,-12.9534097894,-87.5936447351
off_to_on,-3.51373878536,0.46006910513,-9.02694938145,0.256561591433,-4.1255292523,-13.8979042784,-22.6142932219,-18.9518332604,-0.118717499906,-9.47063137804,-0.659465362645,-0.0943804639245,-7.144472382,126.51119873
off_to_on,-7.87694114539,4.33353645564,-6.41977194674,-0.35899219972,-5.26639592229,-11.738741498,-9.95088093815,-13.0227738994,-0.572468882952,5.14393472407,-0.0191867486915,7.028157517,2.24300808627,224.822681922
off_to_on,-10.2757363755,-0.432179008774,-4.34354253673,-0.648796629817,-6.50734837689,-2.70755746362,4.63078802099,-3.5141988639,-0.588354899806,8.18904009502,-3.24648584611,3.18392963735,5.69163916388,92.9520117069
off_to_on,-4.72544015094,-6.58111879371,-3.05260349107,-0.000915281136641,-6.57492353395,10.6100124903,11.8919761136,4.14545511875,0.0184251835489,1.9263401377,-7.13571679068,-4.34759883904,1.84676257813,-122.941204808
off_to_on,9.39386922924,-3.28702576479,2.60604608343,0.686313745709,-1.54594921634,20.5102738933,13.6602978615,10.7540720446,0.680899698981,-0.28461136045,-5.28568585999,-3.49100041199,-1.916093798,-179.676301533
off_to_on,20.5686950096,7.86438638306,12.0729758133,0.530625869067,6.04761912182,17.0979108896,10.9641471046,14.4088168151,0.651832161054,4.09111381723,0.574570536668,4.99131853195,-0.0284126112934,-40.5600251719
off_to_on,16.8255716756,15.104362149,16.1360931291,-0.116556772398,8.6988626276,0.748038033958,2.13249443533,10.2624153161,-0.0208507085516,6.73076851535,3.81361050451,10.5036900026,5.93926885911,89.9150249314
off_to_on,1.62439919012,12.1328039686,9.37638819892,-0.417568328874,4.72103321434,-14.1783249438,-7.32456975352,0.608519523014,-0.523272579168,5.20268249225,4.24787096262,8.76333039807,10.9440071438,59.2260643621
off_to_on,-11.0932375836,2.33019458956,-2.19529172252,-0.187961253512,0.229422335285,-15.0136260227,-7.62817055437,-5.39683742802,-0.357078216988,3.73193878403,6.26594545563,3.44576143847,9.75594681915,-33.2685826419
off_to_on,-15.0787405761,-9.82835681169,-10.4295263839,0.152765874275,-0.705653203588,-5.66205286211,-0.528045839459,-5.14494472238,0.0705243238488,-0.0961951597402,7.68859094326,-4.69260513236,-1.13143537895,-19.2633130524
off_to_on,-14.4887127196,-20.4999057815,-14.286623747,0.223903956084,-0.969841351277,1.07551362938,0.750582207851,-5.95543617915,0.159664530792,-11.9228279822,1.81461391995,-16.3374977654,-17.5169844019,68.1671790253
off_to_on,-10.4653308499,-21.1722264604,-14.4807372862,-0.0427664686821,-3.41265157752,1.32954616291,-7.99488889664,-10.9845657387,-0.0272184814244,-23.2188286204,-8.94516353014,-22.174395137,-25.0815819934,62.3498077459
off_to_on,1.1943019271,-5.21941936582,-7.37198318847,-0.372192765372,-5.45460606602,1.31951353955,-13.5581749102,-11.7703995805,-0.0364019036654,-15.9497717107,-12.9188625747,-9.3184400238,-12.4565934798,-52.559091219
off_to_on,16.2952002966,17.5172630548,7.13659862095,-0.270218685638,-4.08715932828,3.7672425782,-4.38463280144,-1.63310319997,0.162552684463,9.5321591881,-5.7472009724,16.2817909468,12.0400295214,-109.474302191
off_to_on,20.1138836892,25.6804634254,18.0535060196,0.363648259755,-0.963880791041,4.20572388778,12.1833885045,11.9294275836,0.176909982417,28.2385435442,3.21300326871,29.2358958637,25.9567934827,-27.3279097957
off_to_on,6.96547170279,12.106847963,14.5138255982,0.768233710742,1.35231822358,1.48401818975,20.2462639589,16.8429156422,-0.0869153352926,21.7877182294,5.46731200585,15.5916966619,18.2029541873,64.4301133565
off_to_on,-8.5065709803,-6.13938391238,1.53163755346,0.156935832534,3.69424704219,1.20951912287,14.9370042115,12.1467859861,-0.243105084247,1.591390137,4.34126827984,-7.92155385338,0.588584989687,42.4853282982
off_to_on,-9.65819375465,-10.6836414238,-5.99326187561,-0.924122078586,6.64795845188,4.87186408848,2.82957996529,4.99878922155,-0.0639656325526,-10.5476339079,5.17988028668,-16.5111086482,-9.86461270674,-21.72671646
off_to_on,-0.0903584894872,-4.40592774306,-3.6586087575,-0.996293355457,6.75546058892,4.73358366314,-9.95389688988,-2.47120487883,0.160845815862,-11.4326956377,4.48488402254,-8.56713573259,-10.473944577,-5.47507329544
off_to_on,3.5501444789,-1.42455497822,-1.0771778179,0.262483879761,1.45408890176,-4.20776569157,-19.3926856439,-12.1657720984,0.112998683923,-10.9823699011,-1.87810960291,-0.646182547826,-8.05634346037,52.0653796626
off_to_on,-3.8563428507,-4.18187428267,-4.59528225732,1.32046347098,-5.23372496873,-14.0471427881,-18.7528068656,-18.9886871771,-0.0703963940486,-9.3197380144,-7.49895594628,0.110395202602,-4.34997476376,29.4642408633
off_to_on,-10.8685828828,-4.25382082436,-8.1751764338,0.842536409745,-7.29710206954,-13.2769150543,-4.84199720722,-13.6406255625,-0.0851448165294,0.423294375331,-4.09383257181,0.831549523871,2.23490061142,-56.5690094508
off_to_on,-7.72499606918,-0.232680655272,-5.27981540545,-0.470038828981,-4.83926062267,-2.03246794226,12.1529055405,2.13452206849,0.0364756796744,11.8064772875,3.40947974137,3.69677751056,6.4206517536,-74.9841766562
off_to_on,2.20044246246,0.978702951039,0.688847570627,-1.02740074291,-2.26737661542,9.18494550054,16.7216105301,14.1117147463,0.0451649037924,9.58850013881,3.01070175557,1.36506581133,1.5162771713,-0.754057864349
off_to_on,10.703717721,-0.380188800006,4.06685057442,-0.573854642336,-0.442990101734,13.0586485724,7.27348531458,13.0978950849,-0.0658110883365,-4.05793044894,-4.98964158122,-5.43414159293,-6.3796517193,49.1679245205
do_nothing,14.0164129527,4.05714887661,6.30283949278,-0.0537234184757,3.02115364175,10.4342262148,-2.35421773696,5.1075204135,-0.0728580295336,-8.33413705905,-7.62715134482,-3.82597837157,-3.440944403,15.4792655228
do_nothing,10.6061136322,13.2996716745,9.83657484917,0.198019791173,6.65155710954,3.96346394682,-2.3346687915,0.107423897724,0.0636968095816,4.81513886216,0.556332980252,9.49992312734,10.3047518576,-17.5209262709
do_nothing,-0.442475546103,13.3379055275,9.71323017849,0.631688721774,5.60663702988,-4.63852798332,1.95612497543,-0.846586625701,0.129368595698,16.4147801985,9.34976741446,17.5049266833,17.3302216609,15.7398578032
do_nothing,-13.3968920047,-1.85549085143,0.893665462511,1.00146703226,0.252248716945,-10.6892312501,1.45869384028,-1.79339818185,0.0258696693478,8.16102471247,8.83133039512,5.77512903323,6.2415293135,47.5670181471
do_nothing,-16.4243202465,-17.7316377371,-10.4985033043,0.371169021858,-2.83264041837,-8.44908730203,-3.44120535241,-3.00413207425,-0.0781946643433,-10.773682848,2.40136103223,-14.5180383299,-11.8304035615,4.78600113201
do_nothing,-5.4883286029,-17.4382765658,-13.3079567814,-1.02194662289,-0.948593343165,-0.0165276040509,-7.04723183899,-3.21851359625,-0.0487411320342,-18.6011832138,-2.15928698894,-20.6292712604,-18.5269315228,-56.4854418475
do_nothing,7.77002031379,-4.0189941711,-6.77342940204,-1.47432250291,0.282737188519,4.48847754895,-7.81246338803,-4.79315130637,0.0100041956116,-11.1999024943,-4.77907025672,-8.52676336928,-11.2460697896,-45.2547086451
do_nothing,9.35633491137,6.38609822715,-0.322312577619,-0.212748360809,-3.44132923762,-0.0693991600426,-6.54140093032,-8.54062968826,-0.0231733816775,-1.36207882928,-8.00420418703,5.38557848993,-1.07006695424,12.0282334369
do_nothing,0.290539054753,7.13466489332,1.31435453949,1.21889064265,-7.14157590078,-6.01791216456,-1.06802963236,-7.89258729898,-0.0682197813802,4.59772039671,-7.8671506733,9.34088297315,5.46717648141,24.6119258128
do_nothing,-6.41424633341,4.92745553488,2.89554480335,1.07199673567,-4.06541835912,-3.15470227913,9.16490964192,2.78106808972,-0.00682492235061,11.0608309099,-0.239544063745,7.60453016636,10.3136458433,-6.9179147978
do_nothing,-3.11746609397,4.68936553222,7.35194319603,-0.164368603352,3.40684289066,7.23466126983,16.8382344867,16.439800612,0.0917740046984,16.2578898636,8.57650750916,6.24270770686,12.6816529755,-5.03026838217
do_nothing,5.56134076746,3.53138494609,9.60089173687,-0.765517485576,7.28889959552,14.3666072408,13.2693837619,19.1937530283,0.0865861128802,10.2126057918,8.49038188777,2.84553408446,7.29746429502,37.215902259
do_nothing,11.3407321582,0.205918929552,5.64831023611,-0.39370865903,5.60081441562,11.2904025703,0.0844866516761,7.71460805096,0.00217487383581,-6.24964364861,0.815120574329,-3.87222894534,-3.9992422792,41.5860492462
do_nothing,9.97052110102,-1.07852238432,-0.372059450304,-0.10355219937,3.05062958026,0.469748919536,-12.0118947344,-7.20861416531,-0.0294186443307,-16.2510928234,-3.4363222004,-6.64091620106,-10.0291020907,-14.6999228824
do_nothing,0.888429487631,0.386946010544,-3.58511249203,-0.170111077102,1.48865005519,-11.7875496677,-15.2772072615,-14.8431615239,0.00148649765564,-8.98170973768,-0.140879742883,-0.873384078132,-4.94756228177,-53.578241884
do_nothing,-12.6564786024,-1.51382166537,-6.01423075992,0.238544344657,-2.15677866256,-19.5997315227,-10.3659167301,-14.1966912498,-0.010377422954,4.22296417294,3.03996278557,4.85941229135,2.58137499182,-24.2981904343
do_nothing,-21.5890762349,-9.19246890979,-10.5180240625,1.08389199808,-7.51151711294,-17.0440007201,-1.59438568993,-8.63359174997,-0.0762973602365,5.6310135843,-0.0597584018014,-0.247838700243,1.05917292595,17.7244992844
do_nothing,-16.4722614543,-14.6322841398,-12.5485085929,0.979082350134,-8.38473109641,-1.92722148142,6.55477766569,-0.000424017069829,-0.0861609414244,-4.76894305895,-5.32639308583,-12.0254486269,-8.0168046422,10.6973701434
do_nothing,1.46723275956,-8.79790387413,-5.5853458754,-0.563865655511,-2.23110754408,17.0307309588,9.21581165783,8.26090354382,-0.00102708562875,-11.1176683015,-6.36857318337,-14.7437456892,-12.1718211284,-14.4850280352
do_nothing,19.3460051233,6.62903965707,7.96028073283,-1.88016003786,4.47065257924,23.9562466318,4.8839528841,10.3596818755,0.0799125280227,-3.44582540574,-3.31941714764,-1.1462151925,-3.34648315476,-0.617869108445
do_nothing,24.9875284494,20.9561515785,18.0639698316,-1.26975942966,5.04780202428,12.4528141328,-0.158290229429,6.04193177863,0.0800992830593,11.7240325789,0.791366637366,18.152780769,13.3065185634,32.1749015934
do_nothing,16.4795944234,24.0547314925,17.953586273,0.618450104859,1.89475638261,-5.6241969368,1.6334134909,2.82610565704,0.0425557243952,20.846186433,5.45792073917,26.0371681502,24.358430802,26.4144915997
do_nothing,-0.522698139269,12.0058140811,8.52335026052,1.711046417,1.44034302579,-13.5356175469,7.12072483404,4.61541010222,0.020211193279,15.9511286455,9.24982997222,15.0235700053,18.9829510049,-9.81837538479
do_nothing,-17.8385401466,-10.4483690428,-5.56264677911,1.16862221309,3.6388887077,-8.66584440054,4.99680923218,4.31411309274,-0.0106355380917,-1.10564973604,7.24012221068,-7.56921026097,-2.04928624494,-21.291212738
do_nothing,-25.3105301979,-28.8540297688,-17.8318316233,-0.0540966100769,2.95430430694,-2.05579997539,-7.30701077231,-4.89291714014,-0.0651148022102,-19.9640568927,-1.6316082304,-25.8108462956,-24.4393972472,-4.53038834016
do_nothing,-15.6890989019,-27.3944337191,-20.2758124558,-0.861732216065,-1.9914780668,-1.4333066273,-17.6248378479,-16.2732841755,-0.0841408641404,-27.213334111,-9.42992326389,-26.6301365195,-30.2564016498,-5.65145372011
do_nothing,4.65244158806,-5.69659820899,-9.75657812308,-0.999536442554,-6.28935660132,-2.98678874173,-14.6496198172,-16.8944883697,-0.0319670583295,-16.6845423522,-8.37028242922,-10.0357600304,-14.5560287765,-25.8821631757
do_nothing,17.1919218164,17.0247071107,5.51509488477,-0.553699988741,-6.26903863581,-0.845979346018,-1.8878791335,-5.33060570682,0.0258796566908,4.03887268755,-1.49471411614,10.6247034744,9.0172173094,-14.2843616445
do_nothing,11.7168426307,21.9601350635,13.0547612209,0.300543891968,-3.44368364901,3.63512123893,9.96328449391,7.63204914568,0.0246025389849,20.4662912699,2.65515104381,21.0200411974,22.3598254166,32.5740898028
do_nothing,-0.217092152543,11.2025361012,10.5262983724,0.905238356582,-0.085415031139,6.32087422032,16.7888312694,14.4876812284,0.00673886602389,24.0288894598,2.56444160086,18.1398302727,20.122333099,47.107343807
do_nothing,-1.52355713079,0.709699073074,6.17823387872,0.531179000793,3.78460828084,7.45601852653,18.5640753922,16.5118070483,0.0372531753444,15.459752475,2.87742893605,8.38293511567,9.39807052926,0.006481417945
do_nothing,5.92491603247,-2.54411081246,4.44934709326,-0.489075001403,7.16108950954,8.1176319298,10.5287676548,13.4821198575,0.0762392633511,-0.642968749784,3.66883090285,-2.85999724772,-2.74534706088,-42.1259818094
do_nothing,5.70890622132,-4.89666809965,0.512958775484,-0.893226508549,6.70953478642,4.25215620421,-9.53579021217,0.810563859602,0.0415878663392,-17.3649260002,0.549019825738,-13.2654470554,-13.2302984414,-18.5871909412
do_nothing,-6.29389473726,-9.25726638523,-7.5745493989,-0.124730650502,1.64981217903,-7.37969502428,-27.7191167757,-17.5334620073,-0.0439622446974,-23.7531402824,-4.58488927077,-17.4908965883,-16.9815557947,29.9457377541
do_nothing,-14.8564760512,-8.49639300412,-11.5959346729,0.898602369517,-3.65297915172,-18.9818309077,-23.4766804137,-24.8296747419,-0.0808235350175,-12.2083015865,-3.55606468973,-9.30277395811,-8.49640463327,30.9450854258
do_nothing,-8.96603664437,0.0107458414696,-5.62965820839,1.0328482694,-5.09324845053,-16.8817132454,2.75575382751,-10.9142812497,-0.047920979695,9.00554596272,4.24493505179,6.8112430111,7.0475246742,-7.8824984534
do_nothing,2.08940014774,6.02869883375,2.38301113943,0.23808617702,-3.84652959689,0.460947236065,24.3410085805,10.8999536262,-0.0181058242463,19.3977484299,7.83714948609,15.0026675626,13.8435993593,-30.3290015082
do_nothing,4.9217189258,1.52665375799,1.81228078766,-0.743172589787,-2.9394322955,17.1467904365,19.2104374882,17.7950955462,-0.0197542724048,8.78628742858,0.228168434035,6.19826021718,3.89942451123,-31.2611139435
do_nothing,2.38904761235,-5.14837043487,-3.344681335,-1.32713286188,-1.90122923928,17.5611527641,-3.35621132817,5.72889212764,0.00276907828619,-9.35825166636,-10.017896101,-8.47660441853,-10.4836590354,-35.6234813964
do_nothing,5.04740917874,-1.24311312266,-0.504606833137,-1.18490020159,1.13509294953,4.34078193458,-16.4937375258,-7.323735318,0.0668061032494,-13.766563911,-10.3003214317,-10.506215354,-10.8621663801,-13.1233138509
do_nothing,10.3714518305,9.99497370009,10.2489858168,-0.1097662944,4.39928693867,-7.00779037864,-9.27869023899,-6.27924367606,0.0974689228906,-0.656188284908,-1.07982850957,2.45587124273,3.88739892111,72.5851738394
do_nothing,6.33971175526,13.1401749607,14.3156328357,1.44179780263,4.42064622466,-7.58830640275,5.35605710403,4.03402324985,0.0451136761703,13.944486129,6.97817666335,14.1789031509,16.6287467399,140.969098607
do_nothing,-6.54232715178,2.90071699764,4.28203338461,2.16614772695,1.88364545559,-2.22663238058,12.2014482144,9.85812392157,-0.0312284350884,14.7677542092,8.58057134787,10.8824293145,13.6459395033,59.6146378844
do_nothing,-12.8663441358,-9.28562691258,-8.84284630446,1.14571432218,0.614822578381,1.07534714123,9.3140305057,6.38140453126,-0.0574518368681,2.49794472407,6.96068814333,-3.19590792377,-0.883695087928,-133.105091843
do_nothing,-5.19111307155,-12.1469025584,-11.8751885137,-0.894699522616,0.949676877619,0.733664455497,1.1411618748,-1.71783284071,-0.0479742085957,-11.3576170205,3.83575869797,-13.5497013224,-13.3511429227,-212.742413561
do_nothing,4.49784225591,-7.28776717049,-6.64790625697,-2.22834849641,-0.730497377109,-0.942461545549,-9.85714397778,-9.91041985239,-0.0491258367728,-17.1299499337,-2.95937215595,-12.2829626382,-15.9199343348,-62.0388915788
do_nothing,3.11283484047,-1.61233647812,-2.76481485451,-1.89069850839,-4.9331233835,-2.98921046972,-18.3386498931,-15.2984781609,-0.0435490133746,-12.205024508,-10.7177430024,-3.22537242462,-9.64043933744,143.358970455
do_nothing,-4.69796080464,3.08092392075,-1.43635777806,-0.313769315473,-6.74149144699,-4.49570018365,-14.0788920269,-12.7462346059,0.00755594517874,0.0828224309187,-10.9934963304,5.38726810018,1.0778703933,167.093188182
do_nothing,-5.57283840337,6.9516577268,2.67072805169,1.42326578993,-3.00313501464,-2.5206498367,4.58258613656,0.647089281773,0.0712914866167,12.1314531006,-1.81238102278,8.35419258542,10.8223931645,31.6336705814
do_nothing,2.31389993073,6.58461404571,8.26546258626,2.26028905038,2.56132475744,4.02992363604,21.5987652458,17.1030219383,0.0791325932442,15.7632929431,7.11192338093,5.45713982048,13.3782498671,-56.2713270154
do_nothing,9.06306966205,0.751584117905,8.13644147483,1.47189409121,4.77996459778,10.5926032286,19.2171097601,22.3537080208,0.0331080909513,8.76804192983,6.91700263672,0.371879352232,6.52637661286,-33.6404169274
do_nothing,9.03485494288,-3.42273186867,2.25782255421,-0.617074515276,3.96861026859,10.8553458496,1.13344163679,11.2287773978,-0.00494195892005,-2.42352203298,1.30997252035,-2.08313280592,-3.23702011196,-29.1245380305
do_nothing,5.65044099535,0.977394138525,-1.01582395753,-2.27872691375,3.40893169867,3.51029308175,-11.5046724467,-5.92392278522,-0.0163509201454,-8.60048545824,-0.446643892376,-0.044014239163,-6.04206750449,-86.0153196769
do_nothing,1.1655617639,8.30026243164,1.05574732082,-1.8345280689,2.82759807822,-7.07775392111,-7.94322498474,-15.0714118373,-0.0362854159472,-6.23849165461,2.56540155132,3.4355406319,-0.334381167183,-66.5741680246
do_nothing,-6.92942136334,5.66065181496,0.548636442771,0.287581231646,-0.439310188009,-14.901878372,-0.0964733981139,-12.7497390582,-0.0649047634442,0.131863412915,3.44334149678,3.33309105578,4.51409867403,82.4083319008
do_nothing,-16.4247808757,-8.72718241151,-7.47057902324,1.85714447653,-5.13052761373,-14.8076533732,-2.23737424205,-5.74602832621,-0.0535080978586,2.76567967581,-0.772071515133,-2.40381053398,-0.298945821814,174.518906497
do_nothing,-17.1369093597,-20.5576430721,-14.6945949085,1.47226190682,-6.44039189533,-4.62122543436,-9.40952841122,-0.523639764014,0.00468922994355,-2.07096316499,-5.5479393808,-10.5944568618,-11.3182233216,52.9490179918
do_nothing,-3.59392463279,-15.9273139244,-10.1851934014,-0.0279466140865,-3.14431005905,10.4461778276,-6.68097863198,2.32612152064,0.048515350118,-9.67687939914,-6.69236221011,-14.3166062209,-15.7815645537,-135.640020674
do_nothing,14.648643801,2.60963339393,3.97053243264,-1.07261263026,0.533809031005,18.2006668915,6.22964826906,4.57807207317,0.0423592079253,-9.82981989206,-4.86845960849,-7.44570034096,-5.92121019283,-137.922551327
do_nothing,22.0179246827,19.8531704855,15.1373960632,-1.16777015079,1.53928708421,10.944592086,13.4786224228,6.22331758196,0.025608954693,2.61495427765,-1.39047660826,8.90466295594,11.9809256475,26.3527169132
do_nothing,13.7655034094,23.6494166392,15.516676941,-0.611277376933,1.9726384693,-3.72410018034,7.03572476888,6.23123659695,0.0319067707647,19.1537301256,4.13859588392,23.4815794915,23.4257001393,107.55211445
do_nothing,-1.0958230247,13.2971290047,8.11242600205,0.414232847725,4.09896158381,-10.2515388381,-1.23402084083,4.80347411033,0.0263682061162,23.5165220333,9.68490339866,22.4896523971,19.1996211644,18.5061539591
do_nothing,-11.4044710486,-3.72112199828,-1.0199907782,1.4243098859,5.43245417736,-4.2910722999,1.38753556628,2.79336909526,-0.0240875086136,8.76980646473,9.75163303764,3.76219224556,2.54009176891,-58.1550141746
do_nothing,-13.1607775537,-17.8613236654,-8.93231555735,1.27875720543,2.55516100534,2.61488298441,7.42390353083,-0.320073118562,-0.074066949009,-14.0223687169,2.26197624103,-18.4730600322,-15.1887590762,3.05774654624
do_nothing,-8.52099565928,-21.5304608192,-13.4031034116,-0.370719489,-2.76337217832,0.256667396852,-0.113054985832,-5.89467096155,-0.0604732610183,-26.6803736385,-6.97061979102,-26.4310983714,-23.5361572001,70.7441797599
do_nothing,-1.50924098884,-12.7172798719,-11.3418603807,-1.86770460348,-5.49734242017,-6.23943018519,-19.4155019085,-12.6358746188,-0.00358833081042,-21.0728951814,-10.2750486292,-15.7086301247,-18.4550004183,2.98045543778
do_nothing,3.71906399761,2.6740110672,-3.11165092177,-1.30355568745,-4.2570424424,-5.84367072895,-26.9953195293,-14.8128927488,0.0246931969729,-3.49949405028,-6.45630454256,2.64589506785,-3.12154897063,-99.4555069397
do_nothing,4.51125363903,14.086673517,5.47570814669,0.754874114673,-2.21598188605,1.40701553479,-8.08697721059,-6.74300182136,0.01565711234,13.8608625168,-0.308903898949,14.7868742001,13.3983009276,-63.430824469
do_nothing,2.28876089175,14.4531588771,8.84524919436,1.82576556817,-1.38095633079,6.15532881793,21.1357124535,9.26179411246,0.029400338146,21.3808019528,3.86610559125,15.2271255208,20.3399586611,62.7716584425
do_nothing,1.57872353959,5.89991414454,7.2300911928,0.82386633517,0.0425563126792,5.17344295476,31.6372287723,21.4681767126,0.0765051661867,15.475176064,5.04496871764,7.38078477834,13.1727774213,90.6130498922
do_nothing,4.53990349592,-2.6746778264,4.45599506,-0.760066500679,3.49210561847,4.31351342863,16.1288316252,18.9595124739,0.0697525308318,0.898526539869,3.68854649269,-1.42292238903,-1.03310869736,-1.02005648329
do_nothing,7.59145809236,-4.04207307839,2.46573888967,-1.26777270258,6.5750427232,5.62162395615,-5.65323805212,3.6455027226,-0.0516344295335,-10.5589338282,0.961943224774,-4.79942062288,-9.34670244419,-50.7567280095
do_nothing,5.08749435908,0.578860451923,0.408596148753,-0.802972357062,5.85074744617,2.49523934922,-14.551386818,-11.1678228525,-0.185397954333,-10.054864095,-0.86504504071,-1.88627930225,-6.32863715316,3.91865378508
do_nothing,-3.99976381521,3.03264557203,-2.62128816669,-0.107043547292,1.25206642478,-7.70400859847,-12.1334564411,-15.1294930945,-0.139264413586,-1.82226889361,-0.419889167659,1.20200205284,0.533721790233,37.9837928518
do_nothing,-13.8514221801,-2.57860631077,-6.30170269013,0.800793471671,-4.03679108511,-15.2553057486,-9.39283256973,-10.278182206,0.114293659105,1.80111845786,0.52236992676,-2.0547739488,0.876571026552,-24.8417119282
do_nothing,-16.1800787402,-12.1016645822,-9.28534665479,1.68903985148,-6.88569598657,-10.0261395554,-7.43255002566,-4.56184700002,0.314007300433,-3.41005701151,-0.661433562354,-9.39766836357,-5.59656821491,-76.2760995957
do_nothing,-7.29002776632,-14.4690104697,-8.921653214,1.31378761471,-6.07990888874,3.60173136192,-0.227139312673,-0.715600052162,0.164632081548,-8.38192183846,-3.28648020791,-11.1963315823,-9.7744737926,-16.9982800362
do_nothing,7.8397416778,-3.85205431209,-2.6486040903,-0.758649345202,-2.26182994285,11.9544765433,9.62259138966,3.65909190619,-0.247726020343,-4.22155121902,-4.14739442608,-2.76868920784,-5.17636213952,68.03545359
do_nothing,18.3432268735,12.6688267008,7.78795955989,-2.54163200722,2.28542298988,9.35929572039,11.5623498307,8.19470768438,-0.444055385622,5.7507729845,-2.10107174477,9.14581654898,5.14264912204,53.9249319085
do_nothing,16.1520545083,21.3666908174,15.0801707991,-1.79088751794,4.68372506152,2.3639633011,4.23649694867,8.96141425197,-0.117949940861,12.2369891534,0.988742323281,14.9690412073,13.6269494303,-18.491706181
do_nothing,3.36501375646,15.2116435006,12.7195752814,0.716529517614,3.96365805625,-1.82174258187,-0.270449338128,5.5776132432,0.385903003195,12.2541679287,3.60553491593,12.7022058707,15.4141624191,-26.0239461283
do_nothing,-9.45440329059,-0.366617835707,2.3998304511,2.05240373794,2.08305287188,-2.79874265737,5.02522650432,2.45256545399,0.432699475161,8.2415998013,5.52723374859,5.7998007724,9.21750658815,23.9401937446
do_nothing,-13.0269397345,-13.8553752994,-7.62065975362,1.14691244395,1.2149659035,-2.36172605265,8.92913423691,0.937441403055,-0.0441291503737,-0.206889328448,5.30630983207,-4.15959918652,-3.75138223037,20.7348218145
do_nothing,-7.16710853855,-17.4026340681,-11.2839037064,-0.160603555407,0.795472098778,-0.585005448835,-2.49805113884,-3.48577914621,-0.390178895002,-13.7142705219,0.919996249441,-15.5080533496,-17.606543814,-45.1236843565
do_nothing,0.865922754982,-10.8622302876,-9.10955427317,-0.338855601394,-1.10803798218,0.698053181818,-22.4024573569,-12.1582956773,-0.131321638976,-23.643081115,-5.58567883363,-20.4170505761,-22.0038963954,-63.7570300662
do_nothing,4.21184936027,0.191136537521,-4.34104970458,-0.178046014963,-4.12181312189,-2.39828707672,-27.3629896111,-16.8514411612,0.309918417639,-16.9118753459,-8.0597534453,-10.7095604693,-10.8238342977,2.4835869301
do_nothing,1.84748941764,8.55752517064,1.11115437525,-0.649331196789,-5.39748226539,-8.27673280401,-6.90286672066,-8.95092652536,0.208639474969,5.52969032685,-3.65464585804,8.59238145479,8.76702111297,56.2757216804
do_nothing,-2.1195717681,9.666696276,5.6027440487,-0.880503162377,-3.2978699924,-7.98414813072,21.2049525796,7.53087820095,-0.352810963631,24.0640803422,2.691662705,20.1748988707,20.605253222,31.137193465
do_nothing,-2.66438713924,4.63032408702,6.65636616483,0.0528773520815,0.60344854829,3.18467661779,30.9146226304,18.8786570091,-0.542420070259,21.4257409535,4.41215864384,13.7581886343,15.3989139054,-9.83273671682
do_nothing,2.03229022709,-0.749476333091,4.01082749947,0.936746030826,3.71219414406,16.2128796227,16.8572244847,17.1982527324,0.0049134388425,3.03479220644,1.59651951477,-1.31723602528,0.171498646042,-0.676576360807
do_nothing,8.63775439375,-1.44967213842,1.32928902631,0.195194505804,4.94131816191,17.190070396,-3.82800621385,7.01433134757,0.620662153217,-10.9898965799,-0.564242423781,-8.35671848592,-9.99560409109,16.2780839591
do_nothing,10.5786382925,1.82752790405,1.5547897548,-1.10795027536,4.35335533147,3.99395068081,-14.5463504605,-3.69360608128,0.551548120925,-10.4172220289,0.21505935488,-3.66021506403,-7.87752719048,-12.4384392507
do_nothing,3.72255810093,3.6736184454,2.17706647645,-0.513142372318,2.01047113224,-11.6065774052,-14.6124254222,-11.8311608134,-0.0160647108053,-3.08804003321,1.37054266453,2.145641745,0.376211227161,-39.2635710857
do_nothing,-8.58989300303,-0.00714877117682,-1.23590539005,1.77353938247,-1.4301752462,-17.5909035316,-11.1224198825,-15.973499298,-0.356873221129,0.0476259468039,0.963547032218,0.486598171291,4.28795402843,-3.78807749766
do_nothing,-16.9553795255,-7.35217613215,-7.57685226679,2.56711398401,-4.08709870653,-12.0411569297,-5.66659331292,-12.1803547585,-0.281172162563,-1.54220603861,0.28893425174,-5.39179063042,0.440217392604,38.3654784697
do_nothing,-13.842008478,-11.8959221828,-10.3338899682,0.1540735669,-4.39041966405,-0.764125912585,3.64353050077,0.226320639352,-0.194283471373,-2.30617567742,0.0895898454835,-7.70884357702,-5.87924837419,-2.91317032968
do_nothing,-0.783146931094,-8.47864592332,-5.81447961218,-3.00897814215,-2.81596385621,8.94831212277,12.1468492298,12.3685681929,-0.242315912251,-0.725681995206,-1.4296376157,-4.25668770151,-7.86632585293,-79.5573231677
do_nothing,12.5011011887,1.80400430934,2.32480029423,-3.35387415911,-0.951305103422,11.3499001223,10.8498738354,13.1405359921,-0.0967954783664,0.877918089552,-4.55254425311,1.85917537435,-3.58382823143,-48.9780928514
do_nothing,16.4691236318,12.1318509946,8.14219749679,-0.596195921529,0.64398649024,5.47473824822,0.238073860873,3.13614220563,0.320420047255,2.54146097157,-5.47164005357,7.66038928514,4.16372381241,99.2092808431
do_nothing,9.59035040198,15.4940175079,9.69704536889,2.35320963826,2.38595917881,-2.02318666453,-6.42143168991,-4.99334594536,0.550886604353,6.12475928142,-0.994320154308,11.2010210984,11.2363503531,183.981283687
do_nothing,-1.51430950572,9.98543385533,8.06842459733,3.01706259033,3.91045900344,-2.48021778759,0.340771205366,-2.27628269871,0.31514576087,9.43141727303,6.02275830197,9.73502814277,13.6370282469,60.7884306005
do_nothing,-8.78464843728,-0.76414857133,3.33248207935,1.47859609964,3.94570815353,3.39542541406,10.9784052198,5.33911847892,-0.0336699713307,6.48834540599,9.05710883509,1.63455441316,7.87266827973,-169.123945879
do_nothing,-9.01660351346,-10.9621215396,-4.36560951833,-0.642192865724,2.08667954826,4.94027813009,7.10175773353,5.25083870669,-0.144190993758,-4.41650641434,5.16651829624,-9.68454438175,-5.72855123681,-256.310486702
do_nothing,-4.409689971,-15.4822553688,-11.0389518001,-1.91425172039,-0.602674665412,-3.77007120066,-12.7601850985,-5.12630802857,-0.246494502003,-15.8901594542,-2.24593982518,-16.4500215152,-18.977307415,-89.2587668569
do_nothing,0.856784681604,-11.2834777359,-10.9281448258,-1.76346199622,-3.01429468714,-13.9384236752,-26.7032153209,-14.7180273392,-0.578674135029,-17.154637159,-7.34625702793,-12.5285553735,-19.5997985475,173.3707276
do_nothing,3.34114271238,0.176585682417,-3.6106828575,-0.535240565982,-4.74636321921,-12.7749434932,-14.9571698553,-12.0206651892,-0.679812084672,-4.81321902084,-6.83721399257,0.770173441881,-3.93263452533,268.238683167
do_nothing,1.53157977921,11.1803234221,4.25382957128,0.737899616497,-5.06403392925,-0.418854310377,13.6188668721,1.57083839156,-0.00169770462823,12.3423785211,-1.82164176958,14.0356835143,15.3865467875,105.790557165
do_nothing,-2.66185343593,12.440144694,6.34965312428,1.16416853772,-2.70511809239,11.1024059997,29.8415024762,13.6544055891,0.981281770491,19.879199827,3.31146929761,16.0028069528,20.041758035,-135.118092703
do_nothing,-3.81304474485,3.0466009086,3.70193979175,0.739158113417,2.05177551087,13.7124861156,18.4671660497,14.3810945446,1.13072584338,10.9442500324,4.27750235478,4.0222613017,6.22962255711,-205.602983881
do_nothing,2.11185667187,-6.39762936113,1.96717112533,0.019517291295,6.17229163669,9.95086700334,-5.28118686086,5.56598403611,0.209256910048,-6.01853350355,0.966607282644,-10.7133557577,-10.1125160065,-66.5842195135
do_nothing,11.1744849049,-4.9101677682,3.36094570949,-0.618115052598,6.38506237719,4.10785100655,-16.8276996969,-3.70083422366,-0.713406215593,-14.6434335704,-2.13740226401,-12.5491695589,-11.5462483326,83.2208962664
do_nothing,12.9287936343,5.10429807322,4.33296713457,-0.888022724313,2.76576252746,-3.96353354502,-10.9485624698,-7.52100579917,-0.729255392315,-7.60147366507,-1.06877189946,0.90058690317,0.847255890184,75.6630085059
do_nothing,1.81198388226,9.84753187181,1.12292764018,-0.301045727417,-1.46828373323,-12.8333316894,-1.47700057705,-6.77778932908,-0.232616598983,5.52458082289,2.73848929865,13.8868985641,10.4531209055,-16.6389701428
do_nothing,-14.3337993936,1.10338849273,-5.13543243344,1.05351369598,-3.69625548405,-15.4398059,1.31955012467,-4.13087970982,-0.0684941084195,9.66561605464,4.43552249376,10.1030953729,6.07772649264,-20.3420834492
do_nothing,-20.7588148265,-13.0779386629,-9.7932575319,1.75158160619,-4.04120352257,-7.48627132247,0.858477022673,-0.243707881885,-0.1796563487,1.49827733892,1.85105000507,-7.23992213412,-6.3141923455,63.1728999407
do_nothing,-11.0324983606,-17.5899742195,-9.30156804298,0.402233078193,-3.54184582136,4.77899742288,2.1432139337,3.57431871165,0.089323412208,-8.5676073082,-2.65892765747,-18.9477905305,-13.3793298777,71.5451820253
do_nothing,6.68128386772,-7.22555584728,-3.46553323805,-2.05753176376,-1.9703939991,11.3770294422,2.29634598014,3.59867643469,0.681987718104,-10.1429184272,-5.83037599871,-12.782657928,-9.5949581773,-42.0769827001
do_nothing,18.3611267894,9.01606369104,5.03831356971,-2.82067075414,1.06744352834,10.106616439,-1.11339870229,-1.09856180404,0.775154939192,-3.12057303585,-6.1252630752,3.91222012839,0.564095142553,-120.205156028
do_nothing,16.4138125622,18.4698634958,11.6315392663,-0.647872078837,3.90723828459,5.69855650857,-1.99244906915,-4.37629794098,0.0866965697924,6.12629416967,-2.96661935663,15.7265268967,10.3901712402,-48.9539128851
do_nothing,3.76334575971,15.6190229024,11.7167452569,2.28050656049,3.9151621185,0.879143435961,4.78239273243,0.246597206876,-0.607757946886,12.3535133163,3.07267139893,15.9296575679,15.1784979822,61.6854460021
do_nothing,-9.88656989206,3.67371564593,4.39458534319,2.9366301431,1.13152898728,-4.55866747715,11.5545910328,9.06282920405,-0.586658172504,12.2262175245,8.3377743165,7.8044386957,11.5261939064,59.0617196987
do_nothing,-14.3950359189,-9.4360461394,-5.30114789429,1.03726902214,-1.08344892816,-7.8397777618,6.33208992941,10.6458464853,-0.145579366288,3.56784723988,7.91289842862,-3.62882826584,-0.452429870724,-14.2853625636
do_nothing,-6.28185986479,-15.4715721103,-9.99175405753,-1.10495786313,-0.304246895207,-4.9720223446,-8.77012778661,0.691935610085,0.0232974866887,-10.100576717,1.5793920324,-13.59695287,-13.3020950818,-15.5581353359
do_nothing,6.76972098872,-10.7734784178,-7.03118901398,-1.73873443349,1.39556940359,0.96494702206,-18.0473423401,-11.3086074441,-0.0911232269635,-17.8058799247,-4.7309180071,-15.3762482684,-16.4268899335,48.0068846572
do_nothing,11.1858624753,0.0549312421634,-0.979467877162,-1.23731593931,0.125463305703,1.6468766907,-12.3457526233,-13.7764944943,0.0213633488793,-11.2480270304,-5.84957747286,-5.66907999654,-7.27339683443,42.4949673154
do_nothing,1.54299801117,7.3441638352,1.90976938614,-0.590934430048,-3.99570464607,-3.75365383709,0.801044540345,-6.55691659337,0.422800785886,3.79091003748,-3.29808603697,7.56554634551,4.92412314814,-48.508006612
do_nothing,-11.8671532468,5.83032357258,0.572553439871,0.111244675825,-6.11122715136,-5.48777599951,9.97088885223,2.03699688158,0.582263763079,12.5737739948,-1.56031258789,11.0348293538,9.38109682653,-87.6446650984
do_nothing,-13.5308372798,-0.118228835784,-0.833979074957,1.03147581069,-2.66789177608,2.55540893523,13.1587843022,7.26944511662,0.206905963959,8.68904742429,-1.07567937223,2.55321984309,5.22891756265,-14.9247891863
do_nothing,-0.322258307939,-2.3620364955,1.0933482593,1.51691464985,3.69541621185,12.4728838296,12.7143202808,10.0830459687,-0.326513127332,0.24059223278,0.88818791292,-5.2772246012,0.0180765909378,54.8061792432
do_nothing,15.1943265108,1.54372368262,5.03170072006,0.781269912765,7.08223390666,12.6013159899,6.23034142243,9.69884879699,-0.52310588405,-2.70204240631,3.97743457791,-1.74062402289,-0.647513786857,28.5445454272
do_nothing,18.9271085673,6.77193777044,7.07792679676,-0.698697268157,5.10675415089,2.88942702589,-7.4868196803,3.06571830159,-0.352599231992,-0.266943010398,4.51625985815,7.68938071551,1.95845865525,-19.6318083584
do_nothing,8.59514212979,7.41777591062,4.969952441,-1.42051558473,0.660580925234,-7.30640797153,-18.6378187519,-6.97754700475,-0.087217953492,1.28993853254,1.75256336614,9.47498716791,3.73696903872,5.02230071392
do_nothing,-7.32705191107,1.57994815084,-0.636016437781,-0.626168050382,-2.58221792483,-12.5414534427,-14.6892068493,-11.1619723492,0.124108884471,-0.0915877878648,-0.564340027405,0.138293223587,2.28354710003,49.997042457
do_nothing,-18.6380205781,-8.22947785278,-7.32218186533,0.735102272766,-3.85524604619,-13.5386071237,1.62061304566,-5.62120792861,0.27400272411,-2.01203823701,-0.365408665802,-10.7523947017,-2.74043002447,17.2339228855
do_nothing,-18.9300782998,-16.0223519537,-11.6494145466,1.09311623848,-3.92328120196,-8.93617521574,12.9761879898,1.76935450133,0.306586080539,-3.8697022153,-0.570527782521,-13.7281155008,-9.44005017969,-56.1485270951
do_nothing,-7.34269963938,-14.3968514872,-9.99263079054,0.0495795925515,-2.62187453996,3.88468921003,8.97904412047,2.1458268391,0.173087255711,-6.33540045948,-3.56395921982,-8.35329225218,-12.5585476451,-58.3252692153
do_nothing,9.59490621474,-0.746038358616,-1.44133461884,-1.1885495827,0.222801208043,18.302986176,-1.62114582836,-1.96152412978,-0.0232667093746,-6.15450761815,-6.12809207517,0.876054256961,-6.57445498716,7.12552803418
do_nothing,19.8442742357,16.676494033,9.43790203518,-1.16224964903,2.88191400947,19.9783116914,-4.54496168895,-1.4856882742,-0.137329154075,1.0814691946,-3.70748170817,10.183452888,7.04379937471,34.1888371117
do_nothing,15.3394165423,23.1403432591,14.8007702978,0.212309814644,3.16678856494,4.76447304247,1.48271011263,4.94885269847,-0.16771447622,11.9932785914,2.57175717153,15.5477965342,18.1158322921,-1.36825212639
do_nothing,0.680625275257,11.8717769474,10.3636292904,1.52481089904,1.46399012947,-12.7774456854,6.20983365357,9.24941055978,-0.181426425248,15.8265042142,7.08507079651,12.2724216686,16.7799523106,-12.3328943475
do_nothing,-10.8669119227,-7.54082528276,-0.216670797301,1.40546896862,0.24683548039,-15.9438118628,3.06567733649,5.95319422921,-0.143801616956,6.87214530147,6.6859574292,0.435235417881,3.68153359063,33.0663092258
do_nothing,-10.8880905536,-18.4613579724,-8.73398035878,-0.00572400303762,0.454256427547,-5.55514968462,-4.3206152411,-1.1125944773,0.00413016364418,-7.86267205653,2.91840137951,-12.0607118517,-10.9419490413,50.6652387554
do_nothing,-3.02063377753,-13.9955503404,-9.98523455798,-1.30296806717,0.378699598697,4.172446394,-8.92490176779,-5.95941498479,0.168989787891,-16.3142202504,-1.73057709352,-16.0171815683,-17.2660419481,-7.94994311169
do_nothing,3.2944827933,-1.71253857921,-5.41881415755,-1.36584152976,-1.23775049264,4.87981591556,-7.47989640315,-7.84630204637,0.193261483202,-13.308476422,-5.73319316974,-9.54960297535,-12.8637520613,-62.7101853909
do_nothing,2.95580686213,6.91417115265,-0.113116775724,-0.349848522956,-2.94381062678,0.606838936652,-1.18391597856,-8.17762946194,0.0885666277816,-2.63134543301,-6.88615986703,1.64165800068,-1.7304987885,-35.6479058783
do_nothing,-1.85600908251,7.4312146528,2.35344096894,0.771705358884,-2.69069948746,-2.26232854017,5.86422454103,-5.27648120921,0.00591926925802,8.51429935998,-3.25870690873,10.1743943225,9.27882902219,22.0830751667
do_nothing,-5.53075425055,2.76965397658,2.0170525405,1.17653079621,-0.762268289749,-1.99930471171,8.72971893881,2.4620830565,-0.00881551690234,13.4472661615,2.86221165811,11.0877882737,13.1438900566,22.2582396427
do_nothing,-3.58940533129,-2.13157146191,1.15488855024,0.624857311196,1.01103767549,1.56441450976,5.79702136157,10.8310177547,-0.0485130507436,8.49118422652,5.67433770536,3.77255294324,6.9367030628,-15.1006334754
do_nothing,4.19538861228,-3.29701749553,1.81623275177,-0.516083096124,1.9761145064,7.80256020293,0.765412019554,12.5729174561,-0.129454933491,-2.81449346506,2.69549556425,-5.90049232643,-3.8369294141,-10.1309403061
do_nothing,12.3724223867,0.98060297071,3.99386433596,-1.33096502474,2.71598846055,10.786914818,-2.27732929593,5.76344521929,-0.135261450537,-9.91483969049,-1.79131219506,-8.12443649095,-8.44775982681,32.264804755
do_nothing,12.8161076073,7.55993256958,5.3166665402,-0.909785210109,2.88147660023,2.92538572024,-4.06507495319,-3.98953852783,-0.0261068685772,-5.45966473762,-2.35450957537,0.498299108351,-2.18226292818,36.3486153079
do_nothing,2.34149259242,8.80858024039,2.96061237246,0.599549758422,1.16774189945,-12.3990661666,-6.45686315045,-9.68095099572,0.072258890474,4.96164656424,0.81777754544,10.2049396409,7.19056438392,-7.67274921965
do_nothing,-12.3314860681,0.0584640962505,-3.17356306329,1.75544284867,-2.09102828811,-19.6011858605,-6.14284455281,-8.683518546,0.0693924292333,8.50908353365,3.22600219698,7.78896062991,7.73890764852,-30.5748694836
do_nothing,-19.3289261891,-12.9308183443,-9.21825941561,1.26435601505,-4.18456060368,-9.00181457813,0.939791697973,-3.03555223402,0.0438809256912,0.86224340217,2.20112542733,-6.3281007869,-2.44145682931,-9.3576638513
do_nothing,-12.4333657285,-17.7194475132,-10.1665784165,-0.42717811919,-3.05465827454,9.31726068402,9.53744878771,2.86579809316,0.0748495428869,-8.89658968432,-1.0690143702,-16.8461260978,-12.8313230973,0.307042271355
do_nothing,3.12095946156,-8.19335792834,-4.47593744467,-1.60440048584,0.041230244343,17.1585056435,8.38282604281,4.76791325132,0.0849475202547,-10.3202079051,-4.23963647315,-11.7188270914,-12.5908103106,-22.2650437117
do_nothing,15.3602133473,8.27846859689,4.23749089663,-1.34827863039,2.08395600907,9.86464734754,-3.37327004344,1.83779514674,-0.0129882343111,-3.14355214943,-5.47352533471,3.87381729804,-1.81828376013,-19.7493200184
do_nothing,15.6597095384,18.2355555903,10.1370821767,-0.398762266189,1.81932868196,-1.50324145215,-11.4602110389,-1.74001187824,-0.129013388345,5.61410717501,-3.24396749698,15.1591628293,10.2933019935,29.9261081482
do_nothing,5.33523879846,15.0686603932,9.75587683905,0.239702456186,0.574443063494,-6.75860927708,-4.49340512279,-0.848098201447,-0.117694688664,10.729432042,2.21133987444,14.5118277305,15.2833557106,53.8994254777
do_nothing,-6.1220392988,3.274048219,4.15770146836,0.674049990315,0.00894874492324,-5.9698052421,9.6127351899,4.06983137781,-0.0109816632639,10.6155153635,7.14933653725,5.70272203536,11.1298713015,3.73455463634
do_nothing,-9.57839958322,-8.03232956784,-2.56459277148,1.39302815671,0.33229443745,-2.72834099265,13.3919480316,6.86591979043,0.0392565803155,4.41155911035,7.03095835411,-4.46491693386,0.936583638277,-48.8594964586
do_nothing,-4.36229959467,-12.8626507605,-6.5545690345,1.80056830767,0.759988705326,1.67077783063,2.31593895186,3.04221216828,0.007611033657,-6.33358485054,1.76464335251,-11.6742299422,-9.83246105256,-21.2109416597
do_nothing,2.03759618455,-10.3405231127,-6.49448760454,0.687837651595,0.625320130049,4.30887486599,-11.1560345989,-4.82004783236,0.00815558202762,-14.4230141824,-3.92371514395,-12.5082657591,-14.952101555,41.4941269798
do_nothing,2.720291609,-2.88010604237,-3.60286969588,-1.70054093505,-0.278794759108,0.234011501811,-14.459480871,-10.1150450631,0.070449582348,-11.8888216759,-5.87074299861,-5.07107903991,-10.4708851748,38.0089899531
do_nothing,-1.47885230555,5.14666304216,-0.108989897996,-3.154651176,-1.63924560797,-8.2014491379,-7.05771145541,-8.80334771685,0.0831647344027,0.241825329369,-4.12219536267,6.19193732612,1.01603983468,-24.9530057047
do_nothing,-4.72556921181,8.55792519557,2.10398093166,-1.85122310614,-2.50555978885,-9.14963969237,4.36678639498,-1.90765019429,-0.00195377173905,11.1114412171,-0.970590243396,11.5050520193,10.5113622832,-54.0051709429
do_nothing,-3.8155670105,4.71447689707,2.15004481761,1.21186032784,-1.86697171396,3.50178480324,13.4945083373,6.25982423264,-0.0743154796189,11.1134496332,1.85192195891,5.72049963489,10.0700338906,-27.0448165668
do_nothing,0.0709949469617,-2.78704341623,0.736324413262,3.01070813916,0.194474859031,17.7784475614,14.593408492,10.5564494453,-0.0455490853889,1.66467825338,3.05233613643,-4.85649324631,1.10362766179,-4.9874746173
do_nothing,5.4415181273,-5.73764887294,0.246710204704,1.84232831919,2.30858311965,16.1112158159,4.32881675618,7.83891048417,0.0110972840887,-7.23900909345,1.7523525843,-8.75387244956,-6.27846284621,5.95797213329
do_nothing,11.0076925656,0.417180232269,2.62740181854,-0.769421835925,3.07881303579,-1.6753938913,-10.9720971519,0.109283166839,-0.00256275935288,-7.2654215908,-0.579133160715,-1.72200189753,-3.81219739817,60.6741704849
