label,COUNTER,INTERPOLATED,AF3,F7,F3,FC5,T7,P7,O1,O2,P8,T8,FC6,F4,F8,AF4,RAW_CQ,GYROX,GYROY,MARKER,SYNC,TIME_STAMP_s,TIME_STAMP_ms,CQ_AF3,CQ_F7,CQ_F3,CQ_FC5,CQ_T7,CQ_P7,CQ_O1,CQ_O2,CQ_P8,CQ_T8,CQ_FC6,CQ_F4,CQ_F8,CQ_AF4,CQ_CMS,CQ_DRL
off_to_on,1.38417728876,1.80800536852,1.0457301844,0.701533887177,-1.53736411028,-0.0587200916466,5.50145102169,4.96653101066,0.14455491109,1.0047972246,1.61411227902,0.202085634571,0.936321937905,91.7560252258
off_to_on,0.312835341268,1.09293470338,-0.0288179978322,-0.591694790205,1.64765076994,0.406695030152,2.0055029226,-1.53924007731,-0.115846217249,-0.906651161423,-0.858101857848,-1.00657786487,-0.0379720712799,-249.516503125
off_to_on,-1.30876038786,-1.46493018126,-0.507492819992,-0.144051314452,1.97280950615,1.13281321347,-4.4623039979,-4.55460594162,0.230864811941,-0.827498379477,-0.835462103777,-0.402887368409,-0.913210910856,20.8143324477
off_to_on,0.122241587328,-1.37762593344,-0.367636882532,0.387990398716,-2.50812695905,-1.56083301914,-1.66824863998,1.78099750552,-0.235659807208,0.409714199212,0.856844075606,0.670952125446,-0.540309653336,143.128565445
off_to_on,1.28634002911,1.67638361347,0.762557108223,0.100751959365,-1.13896735751,-1.1463541584,4.07748202566,4.65163516703,0.015257458505,0.99033824794,0.618878955,0.696207174838,1.62491433295,54.7948715163
off_to_on,-0.756142534364,1.05433894335,0.0122602198387,-0.43682773369,2.51542074267,2.43094712647,1.37277627434,-2.46531072233,0.122737430584,-0.2076336387,-1.05737700267,-0.846772209166,0.29085849482,-203.430744202
off_to_on,-0.798930555274,-1.3355271268,-0.538483126689,0.142585633093,0.279435026556,0.800024070559,-3.60465766584,-3.920953909,0.0167477486632,-0.739173366857,-0.160827257713,-0.0443207219459,-1.77436812486,24.8680675758
off_to_on,1.12332469271,-0.919095605316,0.382709515474,0.191827047997,-1.99915782561,-3.03198558858,-1.53545472369,2.33932690563,-0.109486410053,-0.390883270208,0.849872006282,0.242114925544,-0.0410156317149,107.838638736
off_to_on,0.0312283229397,0.812355368474,-0.0662456339731,-0.0623443219474,0.262763753113,-0.131778525607,3.44305878818,3.25487192771,-0.0902885165929,0.533196258054,0.0161439941119,-0.588798370958,1.51966292917,47.1165032823
off_to_on,-0.963578392483,1.00372413563,-0.506669595248,-0.0932280385576,1.45462348555,3.04499205828,1.98745936206,-1.54530248884,0.265055429174,1.40796346701,-0.583310911216,1.00422437663,0.0690113146587,-150.443815363
off_to_on,0.460028562869,-0.342715698183,0.627892765453,-0.221121186637,-0.90726274273,-0.43502772566,-4.06081869699,-3.27821247928,-0.154559210224,-0.899921218926,-0.294269085171,0.675721893694,-1.15906947002,4.14020310739
off_to_on,0.859306816297,-1.04451026424,0.832537547207,0.562092009975,-0.274581848131,-2.4551391045,-1.50650316121,1.08513763756,0.0644907774149,-2.12746906095,0.934991917741,-2.38932098248,-0.178600763647,83.2956082853
off_to_on,-1.2859679662,-0.468565925231,-1.96001577625,-0.284834363827,0.532881101248,0.219381636222,3.72857436235,2.92406535162,-0.242642636943,1.24989405469,-0.163861126095,-0.276984704654,0.223121490282,39.3426566703
off_to_on,0.188583977978,1.9172988375,0.138962773549,-0.21083302043,0.0218246966808,2.42041280486,2.02189503766,0.305816905112,0.393636969785,3.1630746121,-0.414579211339,3.98738936158,1.65726399033,-92.6628409941
off_to_on,0.747968019132,0.0806710041625,1.93696098808,0.0252244902911,-0.789066318096,-0.604832909478,-4.38749992598,-3.94606182493,-0.298597642074,-2.74104956338,-0.377392570114,-1.58534951339,-0.916372634155,-27.223603256
off_to_on,0.0976968510052,-1.67351610477,-0.139597478034,0.672055689072,0.876570031714,-1.3324835157,-1.70152940508,-0.459434938264,0.242712240846,-2.52399021631,0.984525169778,-3.59847475529,-1.92976031616,68.2590914993
off_to_on,-1.33670467652,-0.475830858535,-2.61381174146,-0.805395854354,-0.00897787528782,-0.470737966104,4.28473344808,4.13624791734,-0.403937094777,2.75308360602,-0.260500153909,1.99698564333,0.879223173064,28.3506237366
off_to_on,0.859929395617,2.36335715921,1.21959521572,0.181341811265,-0.387649361758,1.88563181631,2.55623355007,1.51930974978,0.506748282498,3.14237437797,-0.255984171376,4.27859206914,3.22650083725,-36.5190497681
off_to_on,0.18785973713,-0.890268371707,1.46172336399,0.133845650564,-0.538334828759,-0.237942905999,-6.12657792165,-5.91989661678,-0.421345016874,-4.46879082628,-0.564400114817,-4.17369797016,-2.81714702423,-61.3422094949
off_to_on,0.24018344235,-0.670481993282,-0.242357603749,0.430137856902,1.19452932272,-0.521059768717,-1.12153420681,-0.490555272025,0.412552169793,-1.52167409267,1.20322110466,-2.31006134845,-2.07709472736,62.9031992291
off_to_on,-0.893029015447,0.185151122235,-1.83607056467,-1.02221707925,-0.579877899521,-0.965580792769,6.15520338204,5.95235664849,-0.554921749063,4.22665159073,-0.492928413379,3.91729546326,2.93463787426,15.6793142091
off_to_on,0.222025339028,0.37927397234,0.341207405921,0.814684970444,0.168082115286,1.00159299907,0.92589716255,0.637603714458,0.59136288439,1.16261581565,-0.149141854148,1.88020560108,1.94356381438,3.99028612526
off_to_on,-0.176227885379,-0.907570702881,0.764507360511,-0.301324368309,-0.513260438078,0.251677947588,-7.76346506383,-7.4400652706,-0.506036379006,-5.31669363349,-0.515407680554,-5.08904270109,-4.28178429302,-79.559093198
off_to_on,1.66779034368,2.13448196796,1.86770348259,0.331228752621,0.312227986255,0.675866096238,2.00844703296,1.71207523568,0.556183731597,1.43286735019,1.28897337347,0.8554476878,0.420985115132,57.5073926037
off_to_on,-1.37568101094,-1.26801417701,-2.50180908244,-0.729266611847,-0.129565081085,-1.94513267048,5.92109845326,5.93270512959,-0.704608805806,3.68142179843,-0.851482319248,3.43504997182,2.86562592215,0.864456320436
off_to_on,-1.24607080417,-1.82965769181,-1.460457207,0.817768284027,1.45983255078,0.131592237138,-2.05538483592,-1.69043077293,0.687430004106,-1.92108264732,0.0226052503068,-1.41187997855,-0.438642708325,31.8404182351
off_to_on,0.98027007639,1.09304734802,2.05038830607,-0.611766059155,-2.20480759284,1.24945994075,-6.01388003418,-6.20851845287,-0.581351712297,-3.44980269841,-0.151304962544,-3.17770132604,-3.29998115851,-81.7273088102
off_to_on,3.01554288711,3.86732157289,3.28121893156,0.546003985626,-0.020559739813,1.4464655225,4.15553840966,4.09872880215,0.657060119798,4.38940083369,0.956903438424,3.89913624413,2.65041281047,48.3150834844
off_to_on,-3.53767704252,-3.91636952494,-4.4941778363,-0.621540636864,1.79390859109,-3.23932980043,3.06884368379,2.87336515458,-0.813487783067,-0.286480265146,-1.24770009579,-0.583460642123,0.636298509665,-12.6564267146
off_to_on,-1.34429405078,-2.34059384227,-1.52997388725,0.69206546539,0.715335800955,0.011001348437,-2.98080623031,-2.82914281415,0.776143521153,-2.62481541754,0.785200530587,-2.06555742481,-1.34263185777,48.4637492013
off_to_on,2.91519252933,3.36797792914,3.34052351388,-0.906665778523,-3.52785373876,2.21511738395,-2.50994789271,-2.1053495112,-0.652343017572,0.632506975146,-0.437210220193,0.874956643783,-1.05743155314,-72.4154343536
off_to_on,2.31546578627,3.63601933857,2.91999696846,1.10385974298,1.42484502303,1.2619978404,3.72566714527,3.51795330468,0.710571709707,3.13711673032,0.722350616473,2.4201606614,2.58449489112,36.7363758503
off_to_on,-4.87791727131,-5.58767679616,-5.10804140324,-0.744132833784,1.84821630468,-3.89221151792,-0.867615393421,-1.45339076645,-0.852522870255,-3.42010911594,-1.00515792148,-3.38129365216,-1.21308145143,-22.9499245076
off_to_on,-0.258949910651,-1.73976855104,-1.16514878467,0.160376308485,-0.311773538569,0.477280004893,-0.567453345917,-0.231736183023,0.829964162478,-0.0996814000638,0.682361801468,0.721208812337,-0.57958216311,54.687203006
off_to_on,3.50767064763,4.4769770933,3.53716696501,-0.454043235866,-2.88059642619,2.35623492062,0.479237564977,0.959144378148,-0.723725649608,2.21069655207,-0.45346115223,1.5429891837,0.0664041147124,-55.8355809512
off_to_on,1.39907239871,2.8679718763,2.6445725757,1.39417464503,1.77456265441,0.916312845366,0.23226293437,0.0538215555901,0.748523244904,0.288635412516,1.07237991577,-0.157219227701,1.65488501931,24.6550399097
off_to_on,-5.135457836,-6.31972472604,-5.09364780219,-1.36896285251,0.921864673954,-3.96645963222,-2.60134503757,-2.88572684513,-0.84436941912,-3.36481942757,-1.54602259162,-2.1432683493,-1.74629116121,-29.1423970129
off_to_on,0.523560647918,-0.611254281908,-0.919165962832,0.299524827434,0.186160705567,1.12110480706,3.37594887934,2.89392413457,0.841520957783,2.03212555445,0.680931978368,1.68768012905,0.230212596678,52.2011513093
off_to_on,3.59411020905,4.4631598301,3.42011293742,-0.105336968631,-2.44276275904,1.96599539689,0.593341107215,1.2144480653,-0.781228250275,1.20568307938,0.301303696785,-0.222005716304,0.26502604694,-35.9266933727
off_to_on,0.646052333214,1.84891249247,2.31206170727,1.21575286555,1.1291332751,0.280828918984,-3.01835248577,-2.0295160288,0.779156199598,-0.722590929579,0.50924992822,0.638443999723,1.01463376139,11.4503808105
off_to_on,-5.11882722977,-5.80835952348,-4.89694922742,-1.61021996064,0.902576164748,-3.20228626578,-1.42313002454,-2.69929746562,-0.80026491847,-2.1374065851,-2.04763973493,-1.062396414,-1.74740561627,-22.1230507504
off_to_on,1.46144476477,0.111171045954,-0.327096965742,0.58858655992,0.469411147624,1.60477435672,4.56486805031,3.6376119793,0.777891065985,1.91308204906,1.68796177451,-0.312236554383,0.588573309231,25.6791809873
off_to_on,3.22249652187,3.94263801285,2.90409882669,-0.115654955309,-2.20933487759,1.06655783653,0.164244314524,1.62115923503,-0.755872369013,0.344230642803,0.169003968536,0.202046402419,0.374590692276,-1.79479115079
off_to_on,-0.359720442685,0.940950249763,1.67418868818,0.992899783974,0.807323488252,-0.247765650488,-3.03954993919,-2.02405570125,0.781856781818,0.429540309525,-0.593682237951,2.70618559978,0.818557066701,14.3838078115
off_to_on,-4.18694159023,-4.92659657798,-4.15477095396,-1.34507788788,0.57543925619,-1.9927257565,-2.70149188381,-4.19350124854,-0.813335804194,-2.41605605502,-0.957302136826,-2.8623574782,-2.18820503277,-68.2901269323
off_to_on,1.99526844162,0.887487383131,0.25545255765,0.419544500663,0.891076809143,1.95329979714,5.19783187559,3.87376607201,0.787606686113,0.480164694847,1.91352812241,-1.67092177942,0.886248200528,72.460355472
off_to_on,2.273331473,3.00749972074,2.20148309194,-0.0836500085819,-1.93988786508,-0.241679239878,2.18594863075,3.79332502957,-0.702252189098,1.99380999508,-0.985503973977,2.89210339953,1.19552899169,-15.6192624493
off_to_on,-0.537078884262,0.111568014604,0.814770236382,1.05016926513,0.432216947236,-0.534668184206,-4.72860735144,-2.9787321046,0.641623406325,1.19994281782,-0.0975624325882,2.94907344069,0.104195333818,-6.85115348795
off_to_on,-3.54921842562,-3.91384961478,-3.13874556431,-1.44741656674,0.30801566783,-0.435415602876,-4.60709841905,-6.47244096149,-0.707054114034,-4.96907251659,-0.217447424418,-5.86282974326,-3.19971849943,-19.7677834258
off_to_on,2.12850758511,1.86324944215,1.04970717959,0.514763571248,1.19427372885,1.86389519518,8.07307537805,5.72707666586,0.821687686945,0.979470311415,1.15733421793,-0.606607418384,2.2486415276,11.5906201094
off_to_on,2.06779986824,1.6737808971,1.11381477158,0.00971573457611,-1.64467990141,-1.75262918432,2.78166983904,5.55276842236,-0.744945360014,4.56995315098,-1.35158738739,5.41704152025,1.94717367401,36.6430414773
off_to_on,-1.14373534822,-0.66009198582,-0.0697041467204,0.689095728139,0.166878401957,-0.100652715248,-8.03991992746,-5.85279322687,0.484284610967,-0.664574817586,0.721560443365,0.901147085928,-1.86213816281,-52.0951281583
off_to_on,-3.23001839072,-2.39508312115,-1.68407362865,-1.19457228351,0.13916957733,1.0102127807,-2.85645089305,-6.32608509953,-0.417992101454,-6.38353499671,-0.0918856710974,-7.28926412271,-2.95888402376,37.0161759758
off_to_on,2.92892274975,2.0262550749,1.4240211702,0.732880982247,1.02413429915,0.64308841517,9.48166533384,7.92682289012,0.67568837398,3.07896020887,0.100329887076,1.52204252698,3.74176623471,-42.7773973072
off_to_on,1.74966317382,0.835218790562,0.0390867012951,-0.230621801093,-0.948196533798,-2.12706656764,0.529098587214,4.20055223262,-0.794989693171,5.05074390285,-0.665419632309,6.19726507408,1.36480015236,52.2056473263
off_to_on,-2.50928454567,-1.15142543529,-0.552277609421,0.223570366611,0.0136922961165,0.845132296268,-7.80864051425,-6.97451049885,0.477937897516,-2.84944756757,1.03343008555,-1.55743203813,-2.95075386904,-31.9909826732
off_to_on,-2.0662590368,-1.49775063167,-0.538524528758,-0.358923542219,-0.479009805171,0.905923260853,-0.687810915361,-4.14686711071,-0.196935248373,-5.38871969859,-0.663276171738,-6.68519384249,-1.96690930668,4.03444730595
off_to_on,3.90046620839,2.2797902424,1.54996990468,0.636128487964,1.19629953346,-0.189583582106,7.46540540521,7.30279750263,0.404745449548,3.91011626384,0.0540962467225,3.0626601343,3.82079140632,21.6690939326
off_to_on,0.228954393085,0.413014177557,-0.577029841896,-0.985230840222,-0.257728947132,-1.31786105321,-0.134702734321,2.68000616614,-0.684613334935,4.12792942289,0.0140224901613,5.3167961906,1.00074185625,-48.8910966461
off_to_on,-3.00682662212,-1.70180473485,-0.974828674077,0.663964729745,-0.489552362653,0.93066517531,-5.60536097803,-5.70108796296,0.478940643447,-3.19080156121,0.349693073547,-2.70867605146,-2.91638899049,27.1223886812
off_to_on,-0.306359426849,-1.093803083,0.0832080280957,0.208479999646,-0.639008535438,0.254615998533,-1.04686032764,-3.31811102187,-0.113763318972,-4.39028750683,-0.605228375577,-5.38930714819,-1.88216157391,41.8851526697
off_to_on,3.50535591373,2.74735977359,1.91226869215,-0.265336120081,1.33262524593,-0.214315612873,5.53077520512,5.89659341678,0.189120518613,3.75028527363,0.624379898589,3.64916745393,3.661574365,-30.0028184866
off_to_on,-0.810673519804,0.483814540294,-0.903518737259,-0.633832469185,-0.112592412412,-0.433372570059,1.14901424965,2.69888888345,-0.473353245264,3.40214425897,-0.34204344615,3.95859478648,1.44357913143,-72.4273443907
off_to_on,-2.70660063613,-2.7053476629,-1.69400103245,0.886107606459,-0.539729927929,0.618783385159,-4.84625796589,-5.19211474393,0.38088922007,-3.13269070515,-0.24080381845,-3.08574658861,-3.36269328363,61.3908967719
off_to_on,0.61647185471,-1.06822684852,0.660315117489,-0.0824015614449,-0.500433242846,-0.591970602522,-2.03847657937,-3.064828502,-0.0691882189627,-3.45226530629,0.375703264496,-3.74904373304,-1.98627193209,87.6725797043
off_to_on,2.9754418613,4.09815171602,2.50913179892,-0.304962344421,0.745259574467,0.188085255166,5.41760568588,5.71450814373,0.0693687322513,3.64598338571,0.446267433014,3.70341166164,4.22233363723,-96.2646870531
off_to_on,-1.1654457506,0.213015334568,-1.47561821996,-0.184308163641,0.386487320938,0.720528547882,1.57115935049,2.30330863605,-0.265449096546,2.09378406369,-1.03841671849,2.06689491585,1.20766820676,-76.0344525646
off_to_on,-2.77564287572,-4.55280208486,-2.37859668636,0.383724897882,-0.345335089305,-0.558929786444,-5.06944966121,-5.54607452044,0.197502352757,-2.82553288462,0.210422790547,-2.89122367498,-3.99750607319,81.4118393373
off_to_on,1.5043851932,0.504862530057,1.77688583591,-0.0358824805683,-0.92386696701,-1.09336217146,-1.46348872624,-1.88600307188,0.0312645480636,-1.34092755343,0.82623841865,-1.02537617848,-0.853096993064,131.46611333
off_to_on,2.6592513449,4.8000343902,2.3256886603,0.00649768766409,0.713980936065,1.36397975643,4.83150677439,5.65045633429,-0.0332324266781,1.76824873943,-0.351584964897,1.82552045611,3.66120754051,-148.972065134
off_to_on,-2.14913895123,-1.57499176107,-2.22316784025,-0.189328962718,0.812216021487,0.864294789012,1.13553665175,1.22310244803,-0.0833965316982,0.914480970498,-0.707696136804,0.291039791929,0.511932357012,-85.4181824741
off_to_on,-1.88932001039,-3.99716298405,-1.77446362701,-0.085610895695,-0.943005889259,-1.84049574589,-4.15833625896,-5.7161553684,-0.000649455285221,-0.344560718517,0.432451006141,-0.403591903834,-2.89438875904,95.9107760305
off_to_on,2.29219800376,1.95314164608,2.35116208819,0.359849338732,-0.332440342371,-0.425008258214,-1.22339187432,-0.324954750057,0.16145919207,-1.32096312971,0.64508228784,-0.171764667144,-0.628880393429,173.614092019
off_to_on,0.862616424294,2.62465186143,0.708506895511,-0.116171825885,0.809484387665,1.837683182,3.43032908698,5.50234003117,-0.140509489218,-0.776413587807,-0.747706360414,-1.08908064049,2.03176214189,-189.985647765
off_to_on,-1.60289574575,-1.05087601821,-1.42122710863,0.0583178175608,-0.159269743304,0.369898049653,2.10050021976,-0.509494572064,0.0809994784925,2.43156536186,0.0431166627365,0.948735046216,1.35254894573,-97.0656095415
off_to_on,-0.39451811148,-1.9899911871,-0.303796064375,-0.422653143683,-0.607398336507,-2.18518732629,-3.87956534529,-5.30219420823,-0.188538850987,0.812130358473,0.169897187152,1.64211845997,-1.77783372246,103.655743249
off_to_on,0.824502816494,0.0808987129078,0.465081985985,0.235079186938,1.15464190417,0.253905754391,-2.14905138596,1.87355338851,0.301219733539,-2.92990520425,0.0811565034467,-1.26211281514,-1.70001007595,207.67023434
off_to_on,-0.0149341407616,1.29671878422,-0.167882324394,0.320847798657,-0.831243646746,1.78022352299,4.09857047272,3.78507578464,-0.257827971277,-0.964635557941,-0.166937176118,-2.55319505814,1.11358134354,-208.139115894
off_to_on,0.829928013571,1.89866865256,1.49780656159,0.198153277209,-0.668798493153,-0.0973255985702,2.50914837246,-1.64898086252,0.233863023977,3.76396402146,0.343809751899,2.3814553409,2.83631977454,-120.849661397
off_to_on,-1.40151250722,-2.39349585558,-1.16921072579,-1.23410759893,1.10867238859,-2.31917506343,-5.57103385774,-3.40479537951,-0.352796706166,0.0303185452275,-0.706703513395,2.21193854912,-1.65702022601,111.49455601
off_to_on,-0.545086421992,-2.07256732529,-1.76887483861,0.669578651371,1.0138450575,1.27407388221,-0.722673967348,2.17576001506,0.432212125806,-2.91915122483,0.54639362554,-2.08437405897,-2.55040890596,231.011591333
off_to_on,1.3976399385,2.11043986455,1.46312244232,0.788860337218,-2.41115187053,1.26467781366,4.99550718874,1.87615114107,-0.380601003145,-0.872146440124,0.028259123119,-3.45825774761,0.690230312298,-205.816761465
off_to_on,1.43155631761,3.49884160637,2.99616705927,-0.248965400636,0.245613179416,-0.910648464733,0.0899135854636,-0.771495527174,0.379013634581,3.69440820384,0.0826474850638,3.71093639604,3.97375957729,-154.287985073
off_to_on,-3.01452052135,-3.51407472062,-3.57630815838,-1.78394621611,1.78763010571,-1.6853082085,-5.06815439847,-2.56445649654,-0.490222447135,0.163653176467,-0.838838038715,2.62683505746,-1.72333547028,121.100584855
off_to_on,-0.0889964406081,-2.7979398674,-1.51244550614,1.71634906751,0.21787072915,2.22132334744,1.84750057229,1.26239009919,0.541307964834,-2.8422734007,0.985752583467,-3.54785396476,-3.35139795947,243.118543443
off_to_on,2.37132313832,2.92388713735,3.1050483963,0.557086098333,-2.62879963044,0.0898096799646,2.67960532239,1.68919192209,-0.495252649429,-1.24507110741,-0.379784977795,-3.27017732146,1.00625991401,-189.238674385
off_to_on,0.538025841724,3.71220345921,1.78354581164,-1.09682892149,0.936956585663,-1.26741207417,-0.986849838736,-0.182511284063,0.510804912467,4.04124754317,0.140964173114,5.12616430789,4.29972658995,-189.854928405
off_to_on,-3.29885681324,-4.07212592481,-4.11695270207,-1.05235635563,1.48546917191,-0.865008351791,-2.3613248703,-2.62684491255,-0.601284468151,0.0106575385082,-0.501299039023,1.52005758916,-2.16123795942,130.029853325
off_to_on,0.919128833244,-2.33903269942,0.102824765572,2.15108977431,0.0480092572895,2.7294641101,1.54732777772,1.26853006075,0.625987209422,-2.92131513374,0.645181634398,-4.15306223137,-2.95220050365,245.63739903
off_to_on,1.9593169043,2.71664555829,2.32187907962,-0.537405493465,-2.47874032208,-0.807726226986,0.268436138129,1.04716505228,-0.592511004032,-0.825878960152,-0.492639028596,-1.75264066213,1.00159802934,-164.205325888
off_to_on,-0.180613118023,3.22031012944,0.642430651512,-0.638834027929,1.27317720299,-1.78596907731,0.514238992063,0.301242070848,0.620615288337,3.72775831985,0.662276808601,4.74973708974,3.68216350807,-222.036434649
off_to_on,-2.64302774645,-3.55682891182,-2.62426584705,-0.612428961871,0.830870916207,0.242208221398,-1.0725269655,-2.01757252063,-0.684499107874,-0.586572712695,-0.968451189089,-0.0147602224576,-1.93382276396,136.706775681
off_to_on,1.71016527914,-1.5105842621,0.688035862524,1.78223187942,0.208726331368,2.99513476534,-0.102301176448,0.564428097118,0.686562742823,-1.86954589223,0.767376537309,-2.59435150407,-2.02037321256,240.979383027
off_to_on,0.522698940223,1.46026949476,0.30703818011,-0.866359812442,-1.82295003174,-2.13546038788,-0.214213038859,0.572779068043,-0.667307582327,-0.812444259674,-0.409016930823,-1.18826859998,0.231508632175,-136.46118347
off_to_on,-0.147445172297,2.68377762918,1.06966228376,-0.104770381392,0.735150681314,-1.22507799903,1.85225196912,0.955893708065,0.701682125175,2.6776168944,0.624597280591,3.10878589402,3.0889831161,-246.766023652
off_to_on,-1.34476723981,-2.07083075561,-1.02734152609,-0.752788954991,0.255736863833,0.953735417838,-0.945810237193,-1.56654226784,-0.738017495861,-0.346982436578,-0.965498920941,-0.0911583198281,-1.36912417076,140.270713255
off_to_on,1.26440161467,-1.12524210811,-0.190838660895,1.65923783347,1.38386188834,2.04092410041,-0.879901314351,0.307712450763,0.723382332973,-0.773625818222,0.645683908035,-0.931174594404,-1.18077144044,231.635376498
off_to_on,-0.519343681975,-0.2065590775,-0.654133302826,-0.774426982273,-2.12917431624,-1.97830619839,-0.90902799538,-0.62543293466,-0.716652768994,-1.51250629537,-0.302517890057,-1.61709100684,-0.502396635295,-110.457674535
off_to_on,0.59781437687,2.5397017009,1.94713445371,-0.261948585968,-0.297130976373,-0.351587226566,3.1265632823,1.5095053795,0.749839442066,2.05006735246,0.847222436292,1.73273363216,2.18597094666,-262.310322682
off_to_on,-0.873425149338,-0.465365011827,-0.751808592439,-0.518509221931,1.45238020704,-0.0987626313777,-0.343497837137,0.36075965456,-0.760670484832,0.252191107751,-1.35261188705,0.589794989966,-0.450041736077,140.934906359
off_to_on,0.854778468397,-1.00641683477,-0.402106748522,1.72560109813,1.43411912907,1.94493563706,-2.59302805424,-1.24827988636,0.736348680466,-0.190421157089,0.612029164545,0.178757572261,-0.29513256566,219.885934601
off_to_on,-0.987599922204,-1.97940895961,-1.04157873447,-1.23611799764,-3.4340359924,-0.800647961427,-1.13236248045,-2.67366437716,-0.738830700522,-2.37793577884,0.158929468435,-2.58948801952,-1.70682562229,-89.2349886036
off_to_on,0.860226553558,2.82420388743,1.87026959948,0.0199988354583,0.860598733727,-0.91154609594,5.31176446989,4.56963658694,0.763706952796,1.78539941006,0.707075802437,1.01237020879,1.57424392932,-268.999309228
off_to_on,-0.0922330853847,1.15771930349,0.0106990110524,-0.169081852834,1.69307318832,-0.785356103568,-1.2539965051,1.00719311863,-0.752642773301,1.54946764803,-1.81223923534,2.03622396573,1.03255252555,140.224655401
off_to_on,0.0716296822243,-1.82835330823,-0.670878562371,1.14253365793,0.0693430342225,2.39769794956,-4.3885687185,-4.7339213716,0.72497888599,-1.02405127795,0.953652785836,-0.133140759802,-0.457352889976,204.640851334
off_to_on,-1.54831733829,-2.97744399292,-1.80463332397,-1.10938420131,-2.45359462086,-0.365841029007,1.08100622957,-1.31242231034,-0.732664305772,-3.24923071775,0.439265580588,-4.08932715131,-2.85242344508,-63.3310728135
off_to_on,2.2348074638,4.00682652787,2.82689822721,0.370039885666,1.36600494666,-0.742862070194,5.32921420179,6.84816195129,0.743967545011,3.65977440106,0.319724788222,3.03508254626,2.47369656563,-293.769423687
off_to_on,-0.27863419294,1.10131084767,-0.00298207030692,-0.42262739011,0.26466457617,-1.9687700994,-3.36009240872,-1.61533680885,-0.715592230574,1.15829223521,-1.86805115322,2.04107032804,1.18676286526,170.544322937
off_to_on,-1.71991531691,-2.88492993191,-2.0218413232,1.00429865715,0.768191531325,2.50265405835,-2.81732291423,-4.85012920916,0.68911485603,-3.30709184872,1.15871706611,-2.91955581671,-1.46716721167,185.37859512
off_to_on,0.16856186173,-1.63561572221,-0.187644373345,-0.884366926562,-1.59456246861,1.43701747599,2.20743141217,1.24566033105,-0.697698787609,-0.944596983334,0.52479487052,-1.8517442864,-1.86954910965,-98.9218132357
off_to_on,3.19177940689,3.98949120693,3.13234190218,0.387604713571,-0.0807888850979,-1.98377145824,2.77667003337,4.64646207936,0.69272059522,4.83879899473,0.120921462163,4.90406746756,2.80308606801,-216.246156883
off_to_on,-3.07588560764,-0.730399448326,-2.4913415302,-0.566334368413,0.770823607862,-3.18663208934,-2.99019621559,-2.39014782977,-0.652228399234,-2.28937947922,-1.89359763405,-1.67065740615,-0.357077506116,131.980730776
off_to_on,-0.904216324888,-1.71473883947,-0.619515224936,1.01774487405,1.52034673145,4.42982458179,-0.231844497511,-1.76487190255,0.629363310201,-2.55188022863,1.33578365283,-3.05911143982,-0.931084462028,156.802802355
off_to_on,2.7336408473,0.116092511006,2.0234953724,-0.79000503364,-2.62407621127,1.41373323169,0.339173267284,-0.206168363071,-0.634666203495,2.22516562568,0.485372506923,2.32130132133,-0.269399680509,-72.7800897871
off_to_on,0.678835520049,1.61848569822,0.0680379777264,0.29436416758,0.188126880633,-3.80569424627,1.36020077259,2.41226242874,0.613233788994,2.4574475536,-0.176909665929,2.85181071303,1.36028583665,-198.018432548
off_to_on,-3.95869144458,-1.32090378872,-3.02692300707,-0.375065889875,1.45122825956,-1.51365960171,-0.737737536362,0.354246800538,-0.565944525024,-4.00647526247,-1.32895538033,-4.54369977258,-1.24216033756,126.611042614
off_to_on,1.77292251541,0.639907596854,2.70099739341,0.683329143974,0.609357350285,4.3779451701,-0.172830144472,-1.3655801358,0.547251548211,0.0841768914267,1.03736445304,-0.108460609134,0.617285623124,108.246979049
off_to_on,2.12403977447,-0.178137623019,0.833431353206,-0.576617300207,-2.46424174137,-0.124457166091,-1.1028194113,-2.43914940647,-0.545724823191,2.81955390318,0.0484253656919,3.63678021222,0.0909226645163,-30.7814376578
off_to_on,-1.30823308607,-0.188026749899,-2.38848539288,0.389751776214,0.887559795156,-2.21177211416,1.65569942778,3.06038896749,0.509773989162,0.0354504558009,0.435609413883,-0.0210368021406,-0.0751505306869,-179.15613327
off_to_on,-2.22387401844,-0.404814847619,-0.589502786456,-0.55028373642,1.01616139124,-1.22367083984,0.220561182889,1.5125365401,-0.460584749306,-3.60672724863,-1.09163983596,-4.53420752342,-1.03814486696,97.470671499
off_to_on,2.14992561026,1.32636169164,3.33903639351,0.671837048747,-0.117316935106,2.32375825468,-1.15125494026,-2.56990165985,0.445255180405,1.58649125641,0.190043159457,1.9166178258,1.38654090743,97.0092337499
off_to_on,0.645047569366,-0.863752131902,-1.52244960428,-0.442981830836,-1.37497613035,1.10155608612,-0.453664170947,-1.58186902071,-0.434460957998,2.42080464823,0.25008201612,3.15594922491,0.0718579625445,-49.3645561146
off_to_on,-0.619444628071,-0.101814793139,-1.55644555017,0.237795900554,0.883274883412,-1.08846393931,1.58282798586,2.73432067951,0.387421975978,-1.20156303656,0.981503248889,-1.51338474987,-0.810650769686,-45.9636609726
off_to_on,-1.47872051722,-0.0875320435521,1.22843690938,-0.298515269233,0.123474602646,-2.82750431753,-0.743592946123,0.287375040737,-0.340319749471,-2.86838883839,-1.15022068443,-3.41415320413,-0.629769463319,-75.5404008173
off_to_on,0.871301151107,0.376311657336,0.892327106201,0.386029021375,-0.0121245614502,2.16634472588,-0.131022316157,-0.735600766626,0.326742743212,2.13977584036,-0.58438594173,2.23189342721,1.40007018771,146.832250087
off_to_on,1.10201525912,-0.0695903785449,-1.33581921494,-0.390158161878,-0.167877920641,2.35178193064,0.186359756147,-1.18875107465,-0.30567456291,1.996802873,0.764729881531,2.45766917883,0.00481888910971,44.9687204223
off_to_on,-0.017698248962,0.754120362693,0.647777246035,0.345039907818,0.0760424199837,-1.68030599175,-0.150413256423,0.295316655034,0.251822316309,-1.78332620698,1.28354492983,-1.53503207606,-0.622916377127,-140.350392448
off_to_on,-1.94834434564,-1.52272294184,-0.0827820427561,-0.110461863907,-0.868420679313,-2.81960526694,-0.343096990296,1.18121690442,-0.209583700963,-2.19563064417,-1.50822101248,-2.75535764572,-0.667350646286,-74.3760360677
off_to_on,0.384403640235,-0.394208159696,-0.889784356277,-0.154470734237,1.35389432317,1.9923645776,1.26330247389,0.891373887931,0.195882411109,2.33787363639,-0.784688120304,1.78028298037,0.791564580857,171.2474893
off_to_on,1.71750803714,2.30643367501,0.984460835019,-0.0875627212433,0.535117328152,2.27727651921,-0.848744146398,-2.25944306196,-0.165041788181,1.49109061158,1.19574425923,2.27555232976,0.653645487263,90.5821552469
off_to_on,0.171797949677,0.432118570897,1.35600025856,0.636724643923,-2.2275469625,-1.22325670872,-0.798464529112,-0.629675331185,0.108882418064,-2.1408079413,1.08299934019,-1.34575405718,-0.311507216768,-247.961991259
off_to_on,-2.22835363231,-3.65612672373,-2.52451931317,-0.490829801899,-0.12559898261,-2.49928563247,0.98992275439,2.08167736555,-0.0730102683561,-1.18001561469,-1.57612169281,-2.3615913036,-1.37049910935,20.1361289499
off_to_on,-0.288746980278,0.373797848797,-0.892658539325,-0.385724882184,3.30334762083,0.746539581585,0.441848306999,0.883111267339,0.0575066524451,2.14166067297,-0.685730596138,1.49802412467,0.515922196155,143.429163997
off_to_on,2.6127297355,4.43108120991,3.58384329592,0.687864065804,-1.19237100629,2.71438753925,-0.672168570202,-1.75965694468,-0.01874203956,0.516890333576,1.46533330099,1.68086406731,1.69679374264,53.7840671533
off_to_on,0.499314682516,-1.32966262401,0.221277072059,0.0496943606955,-3.47649351526,-0.271494606122,-0.41305431858,-1.43609677273,-0.035517332972,-1.60918586536,0.320410313477,-0.838033395652,-0.725463807311,-202.260691203
off_to_on,-3.35533479468,-4.68088270446,-4.37821714717,-0.565697043952,2.59465071157,-3.0127238758,0.278747361667,1.57829513402,0.0646494471371,-0.21924094997,-0.997584948382,-1.47119203091,-1.82708651214,24.4726436356
off_to_on,-0.271333252398,2.07445624327,0.646658546392,0.0437986597977,2.6876737776,-0.237224031,0.566794399355,2.04011607061,-0.0830758247133,0.973832480148,-0.39443853398,0.0820286643063,0.829092894197,108.051393024
off_to_on,4.19263023101,4.8493958937,5.00970423668,0.572231125747,-3.34535079027,3.76652759153,0.274646357521,-1.55237700533,0.126906657036,0.416870937026,0.862899057243,1.69124808134,2.00508627286,46.3196688647
off_to_on,-0.868355301941,-3.12316220623,-2.22217205553,-0.382232705146,-1.53086144401,-0.113752066906,-1.42862148657,-2.71935603003,-0.175763891503,-0.897153055018,0.186830941293,0.366092634207,-1.23783211026,-149.702067092
off_to_on,-3.82827087563,-4.13642410751,-4.24028742739,-0.0432244346485,3.51556051127,-3.66696058049,0.249106614028,2.26956226354,0.198625981375,-0.16545542296,-0.339155946628,-1.80448495562,-1.47403792438,4.06897035193
off_to_on,1.25440247228,3.33051421683,2.8037534323,-0.0180817417275,-0.125042501863,-0.146917867674,1.27002483193,2.1026964882,-0.22031488967,0.320523489963,-0.580901943157,-1.17335068196,0.780873122561,83.3622103136
off_to_on,3.77453000494,3.85129813112,3.56947837303,0.251321416528,-2.04865371753,4.25734451785,-0.0879582334937,-1.85109269281,0.265779495524,0.635451526555,0.622597108628,2.85544213331,1.63734911228,38.8096357476
off_to_on,-2.23276932983,-4.05494980697,-3.40774290312,-0.2710859778,0.171144730191,-0.710012390243,-1.59825763648,-2.07900435908,-0.306690694436,-0.559036908986,0.0310508522618,0.811479994772,-0.838070968731,-92.3331273473
off_to_on,-2.36676710785,-2.40705963534,-1.98439593945,0.35856002063,1.3917735493,-3.55661010424,0.58770936313,1.94079193137,0.324228704966,-0.329553551954,0.154886739383,-3.01733468868,-1.14716920086,-27.0214016049
off_to_on,1.42329502608,3.21282128841,2.34280034952,-0.573398891903,-0.734528049142,0.616419570455,0.816058118681,1.01233626889,-0.34840538246,-0.199547681432,-0.715113813098,-1.18914728301,-0.215290266963,68.1850326102
off_to_on,2.56204565226,2.38048185392,1.94940778184,0.466470970336,0.409142327658,3.49433024407,0.504284527905,-0.451510620113,0.390334062918,1.56122552669,0.505985363213,4.310495017,2.21171996175,28.0966184859
off_to_on,-1.89483729796,-3.61518309331,-2.34904934501,-0.14618159445,-0.617422734461,-1.42842665723,-1.85341455003,-1.5715108567,-0.416616355727,-0.893573337576,-0.188178390105,-0.0170065361478,-0.377953971677,-36.5662954545
off_to_on,-1.4256207019,-0.864719038271,-0.811741950604,0.277821864049,-0.169521499275,-1.88689414283,0.0561525447976,0.302787278797,0.421704585453,-1.16463108668,0.488929073075,-4.06597671637,-1.82989024249,-60.9147845886
off_to_on,0.678635926893,2.11254261624,0.647346127102,-0.713254755439,0.345462069506,0.312000366748,1.49160703572,0.906668197771,-0.446843012552,0.620244796131,-0.58125599358,-0.0513863148982,-0.445004856884,62.6850522008
off_to_on,2.23481269976,1.40189262509,1.89606310251,0.60688625491,1.29495020786,2.11014418344,0.975827975113,1.38959328122,0.50757577932,2.42744520381,0.170684606208,5.28945244945,3.28556886111,15.7068049152
off_to_on,-1.43034787792,-2.54051723698,-1.16836738636,-0.124477570394,-1.69890611282,-0.855938159847,-3.38460701059,-2.28260081899,-0.565726037244,-2.65581921843,-0.296555701981,-1.99263161072,-1.10459509625,3.62770068336
off_to_on,-1.01973015601,-0.0304327703457,-0.947578565549,0.32621259415,-0.410174723565,-0.430753094037,0.724599641609,-0.853724170556,0.579624973761,-1.06628071992,0.917923151448,-4.00749012418,-2.24428815596,-78.9710235939
off_to_on,-0.138786278144,0.774169458274,-0.473710317443,-1.08016388335,1.05577766978,-1.07341228874,2.8126677091,1.64093938246,-0.55016242609,2.34104535105,-0.792288920262,1.75643926219,0.431675749703,57.1527268165
off_to_on,2.39243257131,1.16977103988,2.52455547028,1.04937116376,1.28230525334,1.53701668955,-0.688001786587,2.17362222129,0.532305526567,1.59027076787,0.14965627943,4.61743715066,3.20930850369,1.16158845056
off_to_on,-0.70440619722,-1.46379700844,-0.454519444809,-0.176261016925,-2.30779313878,0.488676530131,-3.70357534699,-3.11247982875,-0.589102201172,-3.72587482087,-0.329085838575,-3.41487072301,-1.80498189936,31.2262653715
off_to_on,-1.82787343023,-0.175049167036,-1.93549148588,0.0209684856539,0.286640128015,-0.587160479676,2.75124749917,-0.940324195761,0.686599753973,-0.251792693762,1.00094217001,-3.02851084708,-2.07617681146,-81.0313270738
off_to_on,-0.263944398612,0.0863112092241,-0.482416400673,-0.973090999873,0.808120287729,-1.91166553088,1.68902165615,1.94448075176,-0.696664426356,2.99843998077,-0.84789567151,2.70817414702,1.19199583746,47.8318160197
off_to_on,3.5817851629,1.60909235209,3.4735743581,1.40214753391,0.666554547652,2.01353642573,-2.036792421,2.00981785659,0.59480206252,1.18311084678,0.250139023257,3.77756285427,2.8648054753,-12.1160449471
off_to_on,-1.69523742394,-1.52781024998,-1.25254683603,-0.531578002747,-1.56260481408,0.694494447419,-1.53959481805,-2.87232191442,-0.54517775261,-4.73532697176,-0.399196761301,-4.45810866334,-2.75821691646,47.6607919979
off_to_on,-2.40381666435,-0.160490730747,-2.14102655331,-0.114247554832,0.861982108519,-0.934660073989,2.84152958771,-0.667560188714,0.649092656969,0.658745874339,0.888860881671,-1.75260425659,-1.02723602665,-71.6461415433
off_to_on,1.31415835377,0.254800741504,0.419595515147,-0.600429733592,-0.719272214773,-1.74961965736,-0.998650943266,0.912841114026,-0.755871744529,3.60357155637,-0.754042927539,3.33550654803,1.52921633853,36.1270252906
off_to_on,3.1594289718,1.31156583567,3.06886958047,1.42376107945,0.951347364288,2.2385926265,-0.157748868985,2.31313148048,0.712400334544,0.0687908642317,0.482536094987,2.33932053078,1.70921565041,-22.2011300993
off_to_on,-3.30316777947,-1.6922859281,-2.04221753839,-0.9845061597,-0.121346833515,-0.00981095849749,-0.0682984443458,-1.77960858002,-0.629397329078,-4.92683002529,-0.814741712546,-4.74589462406,-2.58246231761,53.7550128743
off_to_on,-0.604987803711,0.569795567578,-0.978027443629,0.181139334917,-0.123195794806,-0.426970550662,0.312329603595,-1.11382310375,0.666067909002,2.26516000054,1.09997838401,0.087423862219,0.216639742486,-55.0161233437
off_to_on,1.56812471387,-0.190747096525,0.325596105024,-0.453119449028,-1.43078230431,-1.22705251671,-1.09877612449,-0.381639414171,-0.734130512495,2.48770150061,-0.630371503176,2.63849027733,0.385065201468,23.9246033497
off_to_on,1.23407624391,0.803370310621,2.00194427642,1.19377217266,1.89426034585,1.29829292217,1.94827881393,2.94600123575,0.689659415354,-1.04877688404,0.106377759091,0.867172377665,1.32101287433,-28.2283723987
off_to_on,-2.2525277484,-0.778710489571,-1.30021990085,-0.963871920321,0.0179414987634,-0.12903630834,-0.779091206121,-0.279304157899,-0.630806257523,-2.72436778737,-0.395818721595,-3.41154070742,-1.22096965728,51.1951644002
off_to_on,0.447926488097,0.366802310381,-0.487127521545,0.175695785908,-0.646145650916,0.645266001386,-0.782324866121,-2.07890756035,0.697384377197,2.1543848877,1.08244434638,0.915759684969,-0.329845668905,-35.0917343064
off_to_on,0.165731627178,-0.896958016339,-0.408858972676,-0.321046002236,-1.31500780891,-1.56800105482,-0.615854618979,-1.91167266361,-0.765419811226,0.134400374666,-1.19014677981,1.21719589828,-0.414402080626,10.7342949909
off_to_on,0.925290488226,1.42491396233,1.80148664238,1.17583544781,1.83624976472,0.427494711301,2.4464079936,4.33558441509,0.67645663972,0.0788198301366,0.545188270344,0.339762165528,2.06955862888,-21.5370791889
off_to_on,-0.90358841939,-0.489505247908,-0.681814764758,-1.14833321956,0.127259543255,0.522513590403,-0.437238230791,0.99111306315,-0.573184481097,-0.714743540364,0.0179626281268,-1.88099409008,-0.808713026868,25.588872634
off_to_on,0.141647909937,-0.398795888871,-0.440498217674,0.235268858416,-0.32571778753,1.02600644983,-1.85195040564,-3.98125118037,0.646273060595,0.292781005673,0.394884201858,1.20693762498,-1.13044014405,-2.03918261431
off_to_on,-0.71162537829,-0.640565703077,-0.832374997979,-0.137681619998,-1.76607912433,-2.03399904622,-0.772273117282,-2.14212879144,-0.754679617495,-1.03259349701,-1.39509150007,-0.390902685113,-0.383664830193,13.843470044
off_to_on,1.36427853264,1.844304011,1.70349622392,1.11156618891,1.61758182343,0.227450473741,3.7139841052,5.80185745354,0.680985973111,1.89993919961,1.42716068077,0.123932446785,2.54264898444,-66.4168686651
off_to_on,-0.442380482685,-0.863311462117,-0.297225714526,-1.32126725568,0.720635541827,0.794689727797,-0.723327711289,0.497202328436,-0.547159050919,-0.0911402946361,-0.187086068173,0.195833236414,-0.879251596177,70.4381709731
off_to_on,-0.146378603837,-0.605176226603,-0.382073607537,0.190173886866,-0.352771584328,1.19361495994,-2.8767322844,-4.57941279217,0.576611299185,-1.37776098346,-0.341778351698,0.671005509195,-1.50434221617,-14.4658700233
off_to_on,-0.961874389193,-0.126105818956,-1.05703784926,0.335000084219,-2.2391604774,-2.13977278158,-0.0972003370454,-1.42438346032,-0.667479156093,-1.03773359847,-0.873124244451,-2.35928909493,-0.153535016801,-8.54705708129
off_to_on,1.42503326242,1.67160459615,1.48253935043,0.719274760357,1.82977734049,-0.162843767396,3.95719879502,5.410682879,0.60881101044,3.05201804362,1.64798628008,1.54939187243,2.79171061408,-15.6160722862
off_to_on,-0.153412853601,-1.24613467187,0.0368340056205,-1.42241826329,0.922461540707,1.2524079813,-1.06353904776,0.325592726862,-0.49220412306,-0.527351651309,-0.36410105323,1.20566036751,-1.49260312323,6.41595823303
off_to_on,-0.282277030343,-0.238342593927,-0.333479970483,0.459059176801,-0.720220282164,1.23418289626,-2.57603046087,-4.06410025107,0.509275437031,-1.80329572617,-0.685811548416,-0.988529001741,-1.1761336349,39.0648671463
off_to_on,-0.896693464044,0.237794074198,-1.07715200618,0.350666920735,-1.78707947203,-2.58964716338,-0.565777097005,-1.3712331131,-0.571388449227,-0.201118094311,-0.548652755254,-1.96731661374,0.598344147241,-51.0291801256
off_to_on,1.09476557115,0.834884580738,1.13095516351,0.504083247512,1.6875849657,0.0838448020246,3.69263479705,4.81734205101,0.508327058722,1.99617073767,1.70741922005,2.05629585429,1.43386824494,36.1052710935
off_to_on,0.0254269984516,-1.06572679228,0.142028016047,-1.30825024725,0.319496010488,1.68188364646,0.494233492271,0.255047778133,-0.409462651424,-0.401166095043,-0.468784818703,0.671602068527,-1.29395377761,-44.5274027413
off_to_on,0.0410051726376,0.52917740955,0.0825097162528,0.495627824829,-0.215668498386,0.428472199838,-3.75543557947,-3.51428792699,0.422846030947,-0.321049322045,-0.770998658791,-0.689348997384,0.127164730815,53.9560407616
off_to_on,-1.03001683995,-0.173899910965,-1.07220316465,0.268189581377,-0.86315892986,-2.3212855323,-1.6176978355,-0.857602589086,-0.456324911812,-1.15022085757,-0.373935733431,-1.5182144399,0.00476297813204,-30.0290213617
off_to_on,0.528829449942,-0.0799372402464,0.275098084925,0.497663852338,0.102346733712,0.686335091378,5.78036824449,3.71116097421,0.38236396116,0.396051184447,1.43977137737,0.730489094227,-0.0388942541689,-0.236584560171
off_to_on,0.484360917415,0.0638645741417,0.607850390168,-1.03940596995,0.32049151222,1.08702306977,0.425921664987,-0.101680600358,-0.294831922674,1.62084532218,-0.188466992873,1.49027199638,0.188659983479,23.3591846115
off_to_on,0.393566341363,0.754416219427,0.873685587351,0.0284997255986,1.31156427581,0.131572568028,-6.21988686625,-2.2261071146,0.306662397524,0.351079278756,-0.72235554472,0.141915886033,0.885401014876,-46.8544493192
off_to_on,-1.45763489372,-1.24588075084,-1.85216292309,0.515265622644,-1.31070864807,-1.51266876022,0.156263176894,-0.634338175929,-0.337434882974,-3.34105167799,-0.690516392109,-2.883974045,-1.6964228031,25.3469887328
off_to_on,0.211641760525,0.0902715312393,-0.398459513118,0.656440407884,-1.3575201236,0.269966235662,7.40325083855,2.33334307343,0.296338954973,0.820777703333,1.43999159567,0.878639520378,-0.0378784988778,40.9530935232
off_to_on,1.02609109185,1.04256212614,1.91177690886,-1.18075758537,1.40709177453,1.03300228958,-2.51140313193,0.0787258692684,-0.231354580431,3.08145806018,0.235767672631,2.52328782501,1.7145745827,-29.0708427261
off_to_on,0.342347874161,-0.0100439660696,0.728080748878,-0.224301015886,1.93590903453,0.192668565089,-6.59764266372,-1.62236905559,0.180674995387,-0.775889248707,-1.00654324033,-0.869696233194,0.0700245749519,-70.7530523349
off_to_on,-1.53567621908,-1.45520198235,-2.87671492148,0.901597309741,-2.05059157391,-1.52971028346,4.12169023514,-0.0415080292959,-0.128509498448,-3.33713933073,-0.73035657066,-2.63432616498,-2.37461000744,59.1376422894
off_to_on,-0.0429408184994,0.65833321149,0.230306536966,0.515340136885,-1.74799472935,0.350645413036,5.42973850943,1.57475277578,0.129568712426,1.39301149038,1.40000207679,1.47330960374,0.924568123784,87.8746140113
off_to_on,1.25997659439,0.974642477676,2.5870531451,-1.17265471065,1.85624310232,1.21065921033,-5.93778763131,-1.02232976436,-0.200326542154,2.46100102133,0.467222514369,1.74481866014,1.75810083797,-95.8915097185
off_to_on,0.309944747155,-0.669719359176,-0.671574747209,-0.360386639669,2.25408842698,-0.44995987156,-2.7249054828,-0.38152854308,0.168989860003,-1.08039357783,-1.21395693006,-1.20167681934,-1.19842772676,-74.5833578249
off_to_on,-1.24133006838,-0.637143875636,-1.98852188105,1.12013410641,-2.20543195553,-0.97815456177,6.21321910458,1.28063265713,0.0438146148233,-1.7256144147,-0.474249068357,-1.08455711089,-1.00422395779,79.3281666331
off_to_on,-0.485018112444,0.655189023597,0.651264692704,0.34204173805,-2.32143567367,0.53818837631,0.00602292992871,-0.642405370551,-0.174202115925,0.411418135249,1.07051882424,0.600852548868,1.14679982037,132.035202451
off_to_on,1.0854324378,0.121303808376,1.40795441757,-1.03959784516,2.32575056211,0.562675719037,-5.31755048656,-1.24138353566,0.0263811909581,1.24779883125,0.44634687562,0.853777176896,0.0680687130271,-149.02728596
off_to_on,0.877528692633,-0.381154678702,-0.327487165856,-0.412497218206,2.35387941699,-0.280458237498,2.25627532558,1.53388999612,0.120209213743,0.269778131067,-0.813070932666,-0.193496581923,-0.568861655833,-84.0526676803
off_to_on,-1.09854173389,0.432873514282,-0.919053259033,1.06330595997,-2.32163148763,-0.279452206128,3.23534938633,0.737488174814,0.0412871058828,-0.81917961068,-0.516983767681,-0.652666725434,0.679032478581,94.1586302268
off_to_on,-1.28975495874,-0.336886774637,-0.418032341481,0.307976978259,-2.50844707818,-0.330096499508,-2.9491122751,-1.8734791902,-0.289671462407,-1.2378078896,0.527282331073,-0.313749517432,-0.498884510671,174.258962062
off_to_on,1.36238952961,-0.374457479212,1.20102969028,-0.775628895423,2.67894626205,0.638127303382,-1.15045164227,0.111542828216,0.263037974273,1.21038992437,0.795150796792,1.01226516268,-0.56708366973,-190.412714862
off_to_on,1.30699984418,0.534210505364,0.4637910083,-0.687528605811,1.84322423606,0.416955267371,1.84538101622,0.869664943331,-0.0920149570064,1.22674443288,-0.650286237132,-0.0142571017064,0.917497901031,-95.7629516842
off_to_on,-1.14183489278,0.7805455187,-1.09461566719,1.18231410141,-1.93854164261,-0.64133804037,0.899942598988,0.385277784501,0.12381448562,-1.09354499612,-0.475306621194,-0.76377349311,0.715776708606,102.496822174
off_to_on,-2.08676022871,-1.46648875146,-0.830481016022,0.154969375634,-2.21866794558,-1.10298415347,-1.19822913269,-0.502749437223,-0.303994259226,-1.33855961895,0.0144284853799,0.00285658121019,-1.6756999532,207.857681102
off_to_on,2.1689730346,-0.00200007379497,1.70300480189,-0.533367105702,2.08916711688,1.81309415869,-0.914909493378,-0.487523719609,0.348475533387,1.53645790785,1.09758771311,1.06788378881,0.0305717281809,-208.469280633
off_to_on,1.37556068743,1.07628522785,-0.0186532770477,-0.730706297848,1.74292070293,0.292277196443,-0.0541807907109,-0.85019406267,-0.276574813015,0.080806521135,-0.542096129675,-0.994448536309,1.18855828924,-119.78261854
off_to_on,-1.94986249222,0.266221359557,-0.894851590815,1.03779754482,-1.28871442076,-1.67307577871,2.81811111695,2.2632040775,0.299989700506,-0.361377671639,-0.397472550891,-0.194980914699,0.306403838336,110.893573988
off_to_on,-1.69874804478,-1.55612630379,-0.527865794083,0.0662269353174,-2.49404183097,-0.547940842568,-0.929352041335,0.416510078634,-0.401389903359,-0.0934832315897,-0.281859296783,0.873536152509,-1.62760431385,230.724393347
off_to_on,3.13749612785,0.650352658118,1.54316319824,-0.22822614001,2.06564383708,2.86871844392,-2.9844000197,-2.59505286795,0.426644642992,0.219030366057,1.04232483411,0.513170798728,0.539832432333,-205.879035095
off_to_on,0.0296227415407,0.40544846654,-0.570889075353,-0.72391706302,1.60393138513,-1.16783008006,0.704707028078,-1.16760233303,-0.400680284849,-1.18724176481,-0.313558620771,-2.27997020995,0.547817659103,-153.596678948
off_to_on,-2.32006107602,0.160286458827,-0.382470796119,0.735791700556,-1.55540475124,-1.8145148356,4.17060743678,4.25462938294,0.43178797511,1.73530357663,-0.109327127609,1.04688957186,0.138119029781,120.994968239
off_to_on,0.176008967232,-0.824340656224,-0.21137767167,-0.0391551573431,-1.7206817445,1.02745276855,-1.59343251382,0.23569995035,-0.486057270907,0.36991286332,-0.880282892495,1.75156243586,-0.856628953956,242.498896389
off_to_on,2.68714555407,0.62917370237,1.12197018828,0.459031066741,2.39359987007,2.08991853047,-3.98509960423,-4.11720632249,0.493591424435,-1.80554466662,1.20951662857,-0.907823979267,0.699928578858,-189.058138575
off_to_on,-2.01670076679,-0.666974647658,-0.921767082645,-1.26815376787,-0.2755665882,-2.24394898894,0.906778704836,-0.851746821312,-0.497665763635,-1.04668790714,-0.132093558627,-2.83558579787,-0.713502530642,-189.570837819
off_to_on,-0.681756406191,0.76666820142,0.117796371253,0.65103660301,-0.721261746096,-0.459309354306,5.32944457569,5.33589986776,0.536716338088,3.44666078713,-0.115121530222,2.76693033061,0.543994641607,130.346426665
off_to_on,1.17897234334,-0.0468330963916,-0.0505610277506,0.288561934253,0.167712545629,1.10954889944,-1.62505180786,-0.125303130932,-0.558391032028,-0.434639846286,-0.947309169501,1.47448240754,0.358590960577,244.81420212
off_to_on,1.06599590918,-0.0492349867221,0.852311347597,0.413269398279,0.455406721127,1.15128326745,-5.10312087879,-4.48738527134,0.54786192958,-2.56323524526,1.13253228119,-2.31481437259,-0.0845230511309,-163.833790848
off_to_on,-2.34692954407,-1.43452532146,-1.19922202495,-1.52715177443,-1.46006753806,-2.06470290524,0.217077305265,-1.32663469832,-0.564340687527,-0.358480362968,-0.223481388056,-1.89730657773,-1.87974891872,-222.139364467
off_to_on,0.612266217778,1.80877173068,0.385139687113,0.937267532655,2.1569425796,0.216520732439,7.65377759111,6.30966829318,0.606940431645,3.66589592982,0.13323737039,3.57297023684,2.06935772405,137.354919185
off_to_on,1.05103462434,0.307718530665,0.211591081318,0.253087164441,-0.532121307848,0.772287786246,-1.82113329852,-0.00990853724253,-0.614130326286,-1.06544852298,-0.738234196529,0.0318732288095,0.58024696462,240.065054313
off_to_on,0.365392227519,-1.24712903511,0.65618207077,0.0987736876881,-1.60812939489,0.841370519657,-7.65210696816,-5.59147285493,0.596275150181,-2.18414878657,0.588055515197,-2.10473910495,-1.51052074237,-135.959229546
off_to_on,-2.2564721095,-1.16065625594,-1.59617443525,-1.20515025578,0.246569293677,-2.01541841522,1.44780844802,-0.774343439095,-0.611349472881,-0.0417785228504,-0.342741229763,-0.678315118311,-1.30284273766,-247.19876189
off_to_on,1.09928847712,2.90496250231,0.934719393349,1.13870557097,2.97377676955,0.740798686887,10.0080111649,7.20275429064,0.642709263427,3.01417823205,0.995673908728,2.84894436204,3.05214311943,141.160190375
off_to_on,0.84556074739,-0.920745303827,0.099308140942,-0.355897669129,-2.51145247451,0.620156452428,-4.66846546876,-1.73732908344,-0.640521737729,-1.25210868424,-1.19113488497,-1.14180488466,-0.776130503209,230.693426756
off_to_on,0.0325959633517,-1.32210293336,0.213514218551,0.338297056571,-1.0700685914,0.0788785394903,-8.39665059075,-5.02556447272,0.626146692571,-1.26666258976,0.16998100195,-0.663993210016,-1.43359665026,-109.854455714
off_to_on,-1.74192554064,0.285157286956,-0.902060319766,-0.787292631141,1.64014363536,-1.36060827849,5.44038794803,1.45048213912,-0.638534454126,0.105066580362,0.117345337543,0.00821005345723,0.22415538957,-263.007667246
off_to_on,1.11410950192,1.79170221458,0.786052986012,0.718169000107,1.59646039221,1.3168106027,7.41689755509,4.10731348143,0.652668934484,1.75537737683,1.03046959931,1.1567708879,1.74796252788,141.979947512
off_to_on,-0.0217983553383,-1.75190197354,-0.764801595413,-0.485766025616,-2.84360558781,-0.520744475341,-7.07294877577,-2.21884563501,-0.641825218559,-1.33536253865,-1.34040053974,-1.51524679993,-1.65099760143,218.943411551
off_to_on,0.642560566846,0.530656768387,0.981334295489,0.727140029943,0.217620366335,0.185511074262,-3.49185865027,-0.666839182214,0.63428562793,0.454645970706,0.202235601176,1.18799884189,0.566090630954,-88.531009793
off_to_on,-0.919341874182,-0.0940610962557,-0.223740332841,-0.924284912283,1.37533906801,-0.365208656012,4.35237295813,-0.968839559623,-0.645323577993,-0.243354348491,-0.0370544076522,0.146268145857,-0.000797974709531,-269.901804975
off_to_on,0.0269398333803,0.254173648329,-0.394213309722,0.544310763502,0.576292678602,0.793294486272,3.11904127093,0.954196637466,0.643479259743,0.0346820662536,1.25425725878,-0.839730981596,0.0879614245204,141.335301887
off_to_on,-0.525014247631,-0.460925257808,-1.01139755795,-0.237289703979,-2.2490340265,-1.15648074808,-3.3582766845,1.99683181785,-0.620437262771,-0.75652766155,-1.25362750359,-1.32428168241,-0.926620839261,203.805536881
off_to_on,1.74124311971,0.85197560232,2.10443931204,0.672202479201,0.927374479957,0.765942827145,-1.70961559589,-0.182899357408,0.608513562255,1.99868519084,-0.227270797925,3.03054269113,1.56194402589,-62.8714348204
off_to_on,-0.427880055285,-1.02423761014,-0.165068739247,-1.19747198837,0.608723661912,0.0797237229259,0.176727479373,-4.69398800753,-0.617242817977,-0.742848453078,0.336803443438,-0.0138782178736,-0.447973159604,-294.085589501
off_to_on,-1.15334835006,0.678145703569,-1.34663328391,0.802379534767,0.216937283014,0.161648866591,4.19724498209,2.66793021616,0.622010541058,-1.58993907778,1.30573701613,-2.85845515143,-0.716550363336,170.849678759
off_to_on,-1.06729283333,-0.51363795329,-1.12622033946,0.093243364429,-1.44356741426,-1.37705756047,-1.32050569669,3.45685739627,-0.60463408102,-0.0769629144465,-1.6954171784,-0.875130973583,-0.850763519049,184.631565448
off_to_on,3.13589744486,0.580071077379,3.00237848611,-0.0459145934185,0.847214361756,1.29742941203,-3.64270364276,-2.16394252014,0.564871987062,3.45560966919,0.0251856982971,5.04659840388,2.53703971224,-97.1844191227
off_to_on,0.1061242663,-0.131265816305,0.171239893078,-1.04350172688,0.0673281139111,0.297301526253,0.930191232627,-3.95530349784,-0.524406671437,-1.5298520704,0.851687493667,-0.892219323271,-0.30451745875,-218.287912994
off_to_on,-3.06694251166,-0.01949183099,-2.69950164835,1.41443010212,0.548548342713,-0.595822452401,4.49749741087,3.25887197571,0.521249452802,-2.82749587539,0.47895590818,-4.63021751423,-2.23433967933,133.054768287
off_to_on,-0.941533263294,-1.24835264705,-1.00068753797,-0.285144403305,-1.21916837278,-1.11601297215,-2.9766477443,2.21674323989,-0.546483195631,0.991733402324,-1.75347090723,0.62458217211,-0.382968936882,155.950579816
off_to_on,5.20011503622,2.00339319339,4.39239893978,-0.490661136559,0.221911746336,1.84519063916,-2.27467115599,-1.89421503813,0.52813263992,3.91937853846,1.03916007671,5.8019299935,3.77728302651,-70.0381028629
off_to_on,-1.17439722646,-0.173615442731,-0.529280054006,-0.526847950165,0.703527184124,-0.344861409388,2.42817765874,-2.59833838523,-0.451459625212,-2.33089267598,0.338532791121,-2.23241381477,-1.07686882433,-202.06943365
off_to_on,-4.32880544297,-1.5446568558,-3.84890344701,1.57518875766,0.526820632663,-0.72259410763,1.74860048682,2.42958523911,0.410382413345,-2.51874120281,-0.227000932094,-4.48956749459,-2.96287356464,128.688454947
off_to_on,1.21116924019,-0.136156265967,0.501911772404,-0.675443967384,-2.01459196419,-0.182002373866,-3.19736192954,1.07499354107,-0.447264543314,0.960067254164,-1.06172260916,1.3125150245,0.392698880196,108.873798388
off_to_on,4.7644526269,2.42544304977,4.45474070722,-0.645300692677,0.903065359512,1.18271001859,0.424741162475,-1.23821187469,0.464226451979,3.30533292229,1.39806506094,5.12921747969,3.90983643383,-30.9099951609
off_to_on,-2.89655386921,-1.12666091917,-2.03554907194,0.0669763987267,1.25504507639,-0.939776321967,1.75452853805,-0.983944642743,-0.400323157242,-1.11889456177,-0.134087878354,-1.90175196711,-1.37114459066,-181.170258387
off_to_on,-2.8078762149,-1.34405280852,-2.9325100041,1.19384768679,-0.83611575961,0.326605501428,-0.283470803256,1.47571450779,0.344925102473,-2.73742703897,-0.791922196565,-4.19973907626,-3.08560829648,98.9793667064
off_to_on,2.36480586337,0.508791659891,1.66472588752,-0.73347071686,-1.55098231605,0.112626919944,-1.97820879697,-0.791490983086,-0.360283898198,-0.303950074469,-0.144994843474,0.748158447125,0.665507792254,98.0840372514
off_to_on,2.01085521678,1.63183841268,2.47805685597,-0.477959962214,2.0367059599,-0.35574901243,1.0207268399,0.107646750333,0.363493113339,3.95105545654,1.40887546333,4.94149889793,3.68193558315,-50.9408289594
off_to_on,-2.29183583303,-0.881193266837,-1.93187425604,0.129826761867,0.00462944152944,-0.347423865281,1.37304739973,0.89695943358,-0.299532556473,0.0392288004597,-0.847332170191,-1.05740228342,-1.30017184754,-46.3579490432
off_to_on,-0.448532544554,-0.896430096821,-0.978226368201,0.962997697324,-1.28934955486,1.43815238352,-0.287196058718,-0.354091607626,0.248527215742,-3.87077795565,-0.521048050534,-4.40536019622,-2.85602075337,-74.1784397615
off_to_on,0.791855235023,0.0413104667506,0.543580266507,-0.69451097785,0.264922618197,-0.604870730363,-2.67398378263,-2.03895082111,-0.25609607176,-0.637183699287,0.285965775647,0.279080586804,0.667063986862,146.512396801
off_to_on,0.405924407001,1.39553895112,1.15634845607,-0.22939355593,1.03726043139,-1.48931819396,1.10706308458,1.54659150108,0.244809288105,4.55718555977,0.940935087076,4.77675119769,2.8423844556,44.6675785942
off_to_on,-0.243997020499,-0.239538118812,-0.223930783864,0.0721462233826,-0.945103409099,0.878146857698,3.32899098452,2.25519500016,-0.180547819268,0.245364991799,-0.743124024419,-0.299689803245,-0.495610219265,-140.832407862
off_to_on,0.0309008749328,-1.16511332008,-0.891274321382,0.42972839478,0.147375533636,2.1405020211,-2.03480579095,-2.07422891273,0.138223215285,-4.18484410884,-0.482020992517,-4.45237778782,-2.34117205334,-73.351826416
off_to_on,-0.697305958915,-0.00601966448243,-0.444380412471,-0.00789367377333,0.408970197799,-1.99999921477,-4.05790631752,-2.83414023842,-0.139968269865,-0.639945315478,0.371608593707,-0.279810174053,-0.41736274981,170.671311132
off_to_on,0.302476534926,1.27062801844,1.34824364136,-0.357948268522,-0.545067703136,-1.9046254949,4.22882110844,3.14964277783,0.11445790696,4.37543669037,0.809097488087,4.80513078249,2.77967745817,90.8275702656
off_to_on,0.712181330052,-0.178545230569,0.101319007005,-0.230541657461,0.00130711898033,2.70155971633,2.64281734739,2.48526903636,-0.0524575518542,0.486090548937,-0.733245496212,0.0491821399892,0.467850704767,-248.495522466
off_to_on,-0.00501070149968,-0.87893029151,-0.99740159793,0.477083328787,0.911339481638,1.64413205794,-5.17866155076,-3.64473837545,0.0217387808136,-4.23169292709,-0.556161069602,-4.59149093293,-2.77535454541,20.8700995179
off_to_on,-0.96479497862,0.0349292092305,-0.0497510710769,0.30574867124,-0.744047799353,-3.55954576727,-0.480632093767,-1.8192206995,-0.0193650342906,-0.182714141206,0.845385051694,0.203725864326,-0.503703812385,142.835056426
off_to_on,-0.225053139642,0.519900710106,0.583817549205,-0.604910336882,-0.693947324777,-0.784982113988,4.62318334955,3.67697313708,-0.0183970624917,3.754156428,0.194623062867,4.03954891294,2.71563401031,54.3280895108
off_to_on,1.27068952002,0.278415580877,0.0979998503119,-0.135875108243,1.15671226647,4.03765499982,-1.37652221403,0.781753529902,0.0776460826043,-0.0306845909303,-0.708207095368,-0.267736961443,0.338286606824,-202.884917971
off_to_on,0.101101777174,-0.425881641494,-0.211494140794,0.375274775863,0.326919703122,-0.608626168146,-3.11679008233,-2.89762318739,-0.0989267671555,-3.33068021993,-0.0137798988543,-3.59191160045,-2.53612554758,25.0602109996
off_to_on,-0.957503218163,-0.265932294965,-0.0981301232731,0.253740302948,-1.16288030408,-3.45665898523,2.70188876093,0.171651950122,0.104555352684,0.690712808152,0.748906869474,0.686017942566,0.254604753281,107.496712935
off_to_on,-0.550140776136,-0.00670271287747,-0.255446618616,-0.352247895406,-0.359107789816,1.48940938996,0.719135912494,1.24887330333,-0.148085584803,2.2339369659,-0.589227331591,2.56456792529,1.53210250512,46.9774010152
off_to_on,1.08678542788,0.617470963253,0.318140018618,-0.041861863406,1.56346644793,2.5546390748,-2.4486745135,-0.159222591779,0.200369521158,-0.902281933008,-0.0186067479674,-0.506121231495,-0.109147908096,-150.364956047
off_to_on,0.357294653657,-0.152630003315,0.175970880512,-0.354969689426,-0.128198259595,-2.1452276059,0.582491909953,-0.0033376974986,-0.214605097519,-1.41691471375,0.248482624566,-2.22776258962,-1.13702609329,4.55575991656
off_to_on,-0.0949163535175,0.0481692803065,0.472406413037,0.893944747089,-1.29972765204,-0.865158691048,2.68706031591,0.304256003983,0.224647304938,1.65235162933,0.142299130164,1.25393923975,0.817603369187,82.9573853284
off_to_on,-1.5800241352,-0.977795927607,-1.38546885504,-0.133950582586,-0.137805003672,1.29029128,-2.50387796481,-2.00110152971,-0.269263438489,-0.289098287104,-0.59366733477,0.928672839739,-0.485668399107,39.2919495535
off_to_on,0.32356996509,0.416028390101,-0.155315600824,-0.731943319742,1.89498782847,0.352039961091,-1.84015651625,1.23070120702,0.311217912044,-1.48568341995,0.389865367371,-1.32131874743,-0.279525964429,-92.8023366237
off_to_on,2.05447830722,1.30966011429,1.94106600366,-0.174047690443,-0.583701671043,-0.877372789293,3.31993767991,2.12840225282,-0.320088756268,1.20157225465,0.167920341091,-0.181747039196,1.2114515778,-26.699397708
off_to_on,0.0373716873949,0.0243903463365,0.403070162524,1.48339346623,-1.48269476898,0.641784017658,1.89964284547,-1.57890281845,0.334713668955,2.34849738688,-0.0212645177549,2.4529040676,0.454801059914,67.9523583639
off_to_on,-3.63736466715,-3.26679946443,-3.7098754951,-0.878389830251,0.34639568811,-0.949215321271,-5.47253016602,-2.9818908952,-0.37673445428,-3.78855366713,-0.784238441627,-2.51133427257,-3.07682957765,28.3181312215
off_to_on,1.46232786338,1.82529785889,1.38815911039,-0.51489011837,2.20918919149,0.520254129466,0.202718586439,3.18972426698,0.406941365203,-1.18844640128,0.973811177815,-1.33855977228,1.18710124517,-36.741952785
off_to_on,3.22934522292,3.13658411889,3.37901095305,0.242422392034,-1.70329880592,0.873187835161,5.49685756681,1.88888429376,-0.41213975281,4.87344107212,-0.291308456574,3.71737839862,3.0839756479,-60.8090071016
off_to_on,-1.52833563104,-2.45337386222,-1.78236885889,1.00655392201,-1.07851563322,-0.436894674198,-1.17281447197,-3.11515063592,0.430389984112,0.80732075219,-0.0397901809582,0.837215648035,-1.70080583007,62.6393601823
off_to_on,-3.95701134059,-3.87120415797,-4.05061733223,-1.02687580122,1.4388265474,-2.10753048455,-6.29299960376,-1.76666206895,-0.466675393712,-7.08842495287,-0.437515462951,-5.96525918525,-3.79363083056,15.663464449
off_to_on,3.26672657593,4.70578105079,3.72856442506,0.136366636751,1.31291631804,2.47396652714,4.04304707551,4.09458305508,0.485064369381,2.01473636394,0.807433050264,2.24196356859,3.6141504008,3.74746608202
off_to_on,2.35717053023,2.02496817925,2.40023820812,-0.0377049781892,-2.90254080767,0.759916093992,3.9744638061,-0.265088722796,-0.487910136135,6.31818847601,-0.656529049454,4.92871027708,2.05219545747,-79.091523537
off_to_on,-2.80877346948,-4.47470038567,-3.32398515299,0.596628669469,0.922676418133,-2.42360748187,-4.10788758233,-2.71811283042,0.507869166982,-2.90446541573,0.48439416631,-3.19007225248,-2.95868125601,57.3042166435
off_to_on,-2.34387770405,-1.69899560636,-2.59009534592,-0.676727367514,1.679104018,-0.761827121662,-3.16485975695,0.380552262439,-0.536048447913,-6.37199178684,-0.401792461085,-4.5872898104,-2.15628384404,0.870749062953
off_to_on,3.83842801797,5.29558526191,4.5947170873,0.404195777914,-1.0743164387,3.73393342374,5.18005635845,2.75211033622,0.543741896023,5.13770776526,0.290449669301,5.1470421499,3.78997998012,31.6051378619
off_to_on,0.263995706444,-0.33369772787,0.768920169078,-0.452250927986,-1.92003046648,-1.32140093767,0.48373238726,-2.19859892684,-0.544930079503,3.67145389592,-0.552546800986,1.64076242591,0.284341172522,-81.362196817
off_to_on,-2.29623382672,-3.47483858204,-3.62828914163,0.668751206024,2.93283791873,-2.44004418347,-3.27022712695,-0.178234142818,0.56249573625,-4.22616155948,1.10227174487,-3.76983164573,-1.99611368013,48.1780559575
off_to_on,-0.724552609107,-0.483924651701,-1.0763176438,-0.715511560937,-0.418826945371,1.07742744275,-0.923050837992,0.861860272599,-0.576183390951,-3.30770352753,-0.938049457291,-1.24775339679,-1.19377880391,-12.6211699993
off_to_on,3.058758943,4.04922008898,4.77919375961,0.660919701672,-1.78831154635,2.82380224692,3.64290457956,0.296728079432,0.569184240251,5.09842488663,0.0673396921584,4.07736689893,2.70115440853,48.2414108556
off_to_on,-1.104392091,-0.677220791475,-0.998543816932,-0.503309034621,0.279279576165,-2.32593403758,-0.094259214346,-1.2516248993,-0.575029454431,0.830961375857,0.0296132439452,-0.927941498328,0.00588733814272,-72.1535069523
off_to_on,-1.39349564314,-2.69983533203,-3.44680802203,0.326733304243,2.41913458606,-1.24540707729,-2.54820130062,1.04857818976,0.617293215714,-3.4581648487,0.962863491893,-2.0996902242,-1.59057298259,36.6556977966
off_to_on,0.488426745959,-0.227740675345,0.901362923635,-0.534930782808,-2.01860649792,1.07589128266,-1.09787682467,-0.678235137541,-0.647473621958,-0.760245756352,-1.3564756564,0.756984166227,-0.654289782497,-22.8875565953
off_to_on,2.06895923641,3.60363129475,4.04526390346,0.927169135875,-0.402898650061,2.28932145386,4.41984638844,0.913456510613,0.605567521586,4.06499691784,0.391068804492,2.18568991588,2.61993756272,54.4854818088
off_to_on,-2.21133026092,-1.3072385122,-3.0679972363,-0.707531396025,0.689869048152,-2.31584808871,-0.847703512689,-0.667485079722,-0.529043732827,-1.78730167636,0.334213202377,-2.59715731345,-1.11716500824,-55.6649260588
off_to_on,-0.258577581381,-2.02246913067,-1.79340950185,0.158666120134,1.0603736687,-0.933305136696,-3.74537680624,-0.589255693452,0.536411733087,-1.9263468504,0.426241212162,0.0441478202339,-1.25053887345,24.6152029085
off_to_on,1.40511816834,0.576702451987,2.31883524366,-0.427956211631,-1.42996529133,1.23196425268,1.21738594526,0.609549494344,-0.654187899341,1.80349418564,-1.48338030266,1.90973115977,0.779481169885,-29.0630706621
off_to_on,0.732749258058,2.39204237436,1.85927654383,1.16989193111,0.271750429211,1.78329498389,4.25929043807,1.77213308077,0.720893441121,1.78284210652,1.19316555478,-0.000150443121601,1.70439464529,52.0342599369
off_to_on,-2.60478586681,-1.7484741478,-3.37952760323,-0.909426088721,-0.212525520409,-2.38854641299,-3.62194555782,-3.05767306179,-0.600592248447,-3.66191979315,-0.0532227723943,-3.13212730904,-2.29486363663,-35.8401053925
off_to_on,0.915273404224,-0.495345269647,0.157341627512,-0.00934733902319,1.06129978242,-0.12267329002,-1.45621033808,0.469662243932,0.448002628524,0.746562280554,-0.164040673025,2.10971314002,0.111559987835,11.4780765691
off_to_on,1.24580167189,0.175856268785,1.63220640864,-0.151591455549,-0.679411550783,0.842442801742,2.56981104106,2.21101075078,-0.515735867919,2.51866113735,-0.778867153439,1.42222534729,1.14219659445,-22.2014005129
off_to_on,0.144090438548,1.43899367237,0.833625159795,1.12001519344,-0.182344087297,0.969662950214,0.875396843683,-0.469830542546,0.709831766064,-0.420359797892,1.24955671356,-0.945477776649,0.59767010568,25.9478449468
off_to_on,-2.18414588937,-1.01602127055,-2.24038625105,-0.995609234749,-0.48376959808,-1.40321227249,-2.69725165869,-2.82564721265,-0.695028963163,-3.48305276398,-0.474030900931,-2.43886065592,-1.95124448824,-2.3387415606
off_to_on,0.632048123988,-0.46827594307,-0.197769129187,-0.0626309330773,1.47465873278,0.163211500155,1.25642274691,2.26867663622,0.475116333716,1.8497468969,-0.124056212001,1.83423250858,0.377972531712,14.80206472
off_to_on,1.2757164363,-0.0409579034865,1.22607798999,0.0692368891011,-0.738352433306,-0.326841989975,0.224834618917,0.762223314183,-0.409533076215,2.29472403055,-0.541092987584,1.46557281321,0.775393696666,-68.0910261577
off_to_on,0.753517760567,1.83856988972,1.72196887148,1.00075166139,-0.317435874337,1.36285223073,-0.538567774709,-1.15343030495,0.569652758491,-0.756459317572,1.18368487387,-0.504633580591,0.992377743716,71.8126523696
off_to_on,-2.68307392737,-1.58280479436,-2.70152220654,-1.17444020949,-0.3050018708,-0.532391167649,0.124634044272,-0.965875499056,-0.615553776174,-3.36247612835,-0.556518523718,-2.63178380702,-1.86668983728,-15.1369605127
off_to_on,0.0343983563764,-0.763773076019,-0.982234740195,0.159784739459,1.11629402793,-0.810037658796,1.27864266959,1.58275747504,0.441504249151,1.41435661441,-0.104947190658,0.971763157621,-0.482960793057,-7.08365761777
off_to_on,2.20315851619,1.46636334876,2.42494915252,0.231119382232,-0.406596930115,-0.291244077498,-1.94057623687,-0.19374096998,-0.358915180893,2.87095533523,-0.487507333637,2.28682432166,1.3924520741,-19.1731979179
off_to_on,0.871614153202,0.879311925962,1.69234588745,0.585674908547,-0.120398815305,2.11428336612,-0.281784515144,-0.448053494346,0.478871829522,-0.442290995271,1.05016611388,-0.0453657914344,1.49170944119,10.3494578789
off_to_on,-3.54886436576,-2.72204305963,-3.79763561883,-1.08554497379,-0.834009229375,-1.21323338677,1.98743074345,-0.435703917443,-0.515890327013,-4.15120316768,-0.330748120681,-3.46489981187,-2.67391995063,37.8172375117
off_to_on,0.378807763213,1.08883929695,-0.321503882471,0.385113531117,1.06332443712,-1.02618460258,0.981825945036,1.23859362102,0.369476383616,1.42979404219,-0.269761333291,0.989720981697,-0.446280648552,-52.3353209303
off_to_on,2.78365974912,1.62308554406,3.09246227408,0.387545186683,0.437664765227,0.883460482393,-3.8826763429,-0.875206462481,-0.301572731815,3.46092134317,-0.401073451652,2.618339981,1.98021138719,36.5268323816
off_to_on,-0.140489136013,-1.41814403189,0.435496154296,-0.0257986583713,-0.711153852474,1.15521129038,0.362779626861,-0.235188234092,0.392421160139,-0.826009236081,0.801816366608,-0.204747147328,0.85884912132,-42.5069464341
off_to_on,-3.02563856411,-1.27595985739,-3.44150590257,-0.908490934286,-1.27836958761,-1.71947249522,3.97814979258,0.625181660635,-0.402380844368,-3.96545565456,-0.0139032190003,-3.21254148306,-2.38186585242,52.3190730986
off_to_on,1.21222770348,2.63495245754,0.810352985697,0.95599490987,1.7720055012,0.330987167267,-0.52142531608,0.618471608311,0.277869196938,1.48354401371,-0.169362487614,1.01179301853,0.044995207332,-31.6116249193
off_to_on,1.37447211172,-0.936936943277,1.97678176576,0.0372276350105,0.669585398401,0.643854954115,-4.99994511953,-1.68934959914,-0.237265198677,2.94215172827,-0.849511520064,2.01675236419,1.06724731075,2.85184501149
off_to_on,-0.455162307817,-1.56016960282,-0.51472443612,-0.548247014292,-1.65280106594,-0.239832420618,1.99584079327,0.247539912653,0.303441158075,-0.705765290444,0.84420280998,-0.310299507962,0.742606163875,22.6413782762
off_to_on,-0.858496226636,1.63780759766,-1.27763942056,-0.299723015702,-0.967291123281,-0.45822628883,4.35065256481,1.63847862812,-0.277309069525,-2.98648271166,0.525501369672,-1.81690825,-1.02626156879,-48.9214730977
off_to_on,0.329346046273,0.963933259776,0.670255639041,1.1057559421,2.50830276564,0.74470386746,-2.11615885173,-0.121550328333,0.167661365238,0.799856793874,-0.514323094608,0.372877046316,-0.630481666135,27.0000766961
off_to_on,-0.404047028942,-2.69838716941,-0.30764039127,-0.368352785002,0.0220348780402,-0.720420180799,-4.41861242773,-2.56035361298,-0.157069346013,2.1600340061,-1.05712264205,0.852857427136,0.184016289552,41.2764648976
off_to_on,0.907764494487,0.658739895174,0.560059050326,-0.778093201217,-2.10983093122,0.269634218192,2.72994661267,0.92163170089,0.208451720421,-0.0417468367641,0.934661368724,0.270259579806,1.46686640399,-29.2361524871
off_to_on,0.528658771579,2.3730237889,0.6239834531,0.361017236826,0.0104899096684,0.433946199864,3.70728475385,2.80183293513,-0.154901935729,-2.21060005427,0.930554881807,-0.519312635786,-0.527305370971,-72.4763956697
off_to_on,-1.48934549002,-1.42591550655,-1.17612069678,0.889593852331,2.34162772532,-0.431470027007,-2.2825859164,-1.31960145123,0.0565614114602,0.270936363936,-0.77142311085,-0.266090162006,-1.0971862495,61.168501018
off_to_on,-0.748028848363,-2.08814429412,-1.05039916621,-0.786515328931,-0.717714754229,-0.45490262651,-3.89975461142,-3.47573274513,-0.0638970761803,1.35027489103,-1.34396810754,-0.434199679888,0.0672521572247,87.3457848255
off_to_on,2.11385007478,2.07684363371,2.10580942458,-0.409757159963,-1.81523895167,0.832193723904,2.21547684358,2.44900814002,0.0995283546429,0.0480159011458,1.08083648158,0.739754369103,0.983654972052,-95.7522479351
off_to_on,0.532678636985,1.4028526994,0.534418859293,0.641433881858,0.912165017327,0.0389636014222,4.13125055184,3.32544430552,-0.0314814101907,-0.695929391812,1.47404144042,1.05616012518,0.350948759482,-76.006349407
off_to_on,-2.19899342954,-2.03408531063,-1.94234585116,0.20054675553,1.35295461944,-0.808715498263,-2.16293318876,-3.16092837372,-0.0506003776671,-0.307019630188,-1.39608361896,-1.03536578247,-0.692817752986,81.16852506
off_to_on,-0.391161553567,-1.00574233322,-0.445404203106,-0.49227827067,-0.926706337146,0.343669266944,-4.61042200705,-3.02343916872,0.0348842329739,0.0449004047891,-1.41875720648,-1.69081700115,-1.06737341347,131.313813784
off_to_on,1.97433049747,1.76809715899,1.44150679117,-0.00992058704769,-1.01420210473,0.377991398328,2.36307039377,3.55350447475,-0.018440136378,0.569535051593,1.59013332548,1.35222150409,0.626019288097,-148.755734935
off_to_on,0.390648755494,0.837958293322,0.863664983161,0.298337533686,1.00768266599,-0.235746599631,5.25355219333,2.81013385295,0.0913744908035,0.567876428054,1.41001165432,2.21062320637,1.80820535763,-85.191408038
off_to_on,-1.69066345752,-1.54158071201,-1.27045768749,-0.293652943221,0.425971568049,-0.225870772162,-3.19208437444,-3.99245221002,-0.153013084973,-1.03780534274,-2.09315855042,-1.84321378144,-0.981321610055,95.5913874362
off_to_on,-0.112295458403,-0.481167153196,-0.947668345948,0.354164613228,-0.546054042853,0.34377783875,-5.2710845393,-2.16235588332,0.135254741186,-0.471472934572,-0.615122442433,-1.95825386562,-1.83995843218,173.612701203
off_to_on,0.619350434492,0.797753071777,0.599703057293,-0.0749308768317,-0.479602224177,-0.422143109039,3.89792073027,3.6950785418,-0.138394078316,0.643629916414,1.66980594029,1.43720674898,0.843424924084,-190.02623049
off_to_on,0.669422541295,0.730501824991,1.64020785518,-0.446048102847,0.567924587117,0.37754511717,5.11115237679,2.10641215675,0.20840383223,0.840127713997,0.355470926813,2.08648194675,1.85905530211,-96.6769557917
off_to_on,-0.088585023856,-0.613209704895,-0.685579012336,0.148455068855,0.183905046443,0.163067400423,-5.01949941353,-3.88825893835,-0.248296367969,-0.471739652739,-1.37976171604,-1.13566697566,-0.675285254235,103.320504609
off_to_on,-0.706435956985,-0.24811808446,-1.29261929487,0.772341836298,-0.0842476054177,-0.323717468563,-3.48195584863,-1.14581850619,0.233029772965,-0.569917957177,0.167351238092,-1.63989757491,-1.22014010742,207.716155932
off_to_on,-1.42514455864,-0.656247864101,-0.490014735785,-0.75771588805,-0.728928114736,-0.590254906355,4.41271829477,2.71301039805,-0.25329753223,-0.976935867673,0.308521647004,-0.355036745443,-0.841568350479,-208.306543688
off_to_on,2.23357547872,1.02915687132,2.18133653772,-0.13287497184,0.628025056469,1.08686376691,2.73069847368,1.39146272542,0.314584454912,1.8671305908,0.457063135792,2.53348127688,2.00793947231,-120.402624594
off_to_on,1.44131261021,0.82417856967,0.642074865153,0.195335235308,0.28728642786,-0.108562317711,-3.95328782517,-2.19437222992,-0.334462404615,0.920730613088,-0.386422079092,0.682037036557,1.30552236183,111.192812125
off_to_on,-2.71167168589,-0.964164981362,-2.23442778594,0.608586882849,-0.199239017672,-0.48299198429,-1.36145033042,-1.10830171848,0.324459978876,-1.85662029289,-0.0406393623128,-2.44691591034,-2.03083185852,231.062719975
off_to_on,-2.30795280184,-1.90026085959,-1.75539634316,-0.721798567011,-1.02610244775,-0.550285600322,1.74856539315,0.591223218682,-0.356665228914,-2.02987933799,-0.655704854981,-1.9385548067,-2.69953281318,-206.027931127
off_to_on,4.54896116003,2.22667526566,3.76809439924,0.212421419721,1.25162593838,1.13621622708,2.1931256152,2.61739165163,0.405031647023,3.12966441369,1.01153140747,3.46980294929,3.51464710363,-153.869238978
off_to_on,1.19769716236,1.37601376964,0.968942957481,-0.358403800329,0.127068316609,-0.153393170565,-1.12677992702,-0.97425262545,-0.408991657024,1.55427473022,0.105939446473,1.79395609786,2.3189228546,120.867055515
off_to_on,-4.57523471543,-2.11960826517,-3.65117962027,0.730393899904,-0.677814931391,-0.110681695219,-2.30363876941,-2.60037023028,0.40588449585,-2.71663978075,-0.429159162722,-2.9874559327,-3.54765495171,243.163191853
off_to_on,-1.18468473673,-1.91567309755,-1.25204348358,-0.253194203624,-0.835391834857,-1.09751088568,-0.102191118212,0.378288714947,-0.443562452283,-2.63001852321,-0.956992782789,-3.14183592158,-2.92249279992,-189.450420166
off_to_on,5.54226582434,3.31466635393,4.6085713412,-0.1296872421,1.7978579745,1.13949004707,3.79878046179,3.70941196438,0.476292957237,3.85185249519,1.24708304853,4.15308894617,4.72829125051,-189.518408093
off_to_on,-0.463688426335,0.544735735159,-0.21181633253,-0.697485843945,-0.313182955009,0.324400219185,-0.964318390067,-1.81329814547,-0.469286811367,2.04286433644,0.222612869343,2.76573273026,1.82065550894,129.885464878
off_to_on,-4.24511266878,-2.29510303058,-3.36692115078,1.39040010633,-0.936769687424,-0.238615861316,-2.78438645716,-2.04198831489,0.473450478512,-3.44914805392,-0.309390042874,-3.97292329306,-4.121958745,245.667909719
off_to_on,-0.0459859571236,-1.26934437816,-0.338563774475,-0.59680593584,-0.512346129013,-1.43379763118,0.0453507355964,0.72010040885,-0.510289055653,-2.85776821082,-1.30254661034,-3.45053224244,-2.15527313806,-164.390908086
off_to_on,4.71458050471,3.30439938302,3.9219508836,-0.293188948524,1.98356887584,1.35956471505,3.19126507243,2.02766727819,0.52647565956,4.92890651874,1.23234655198,5.50547519454,5.07267045682,-221.806253297
off_to_on,-1.19939536897,-0.208391888265,-1.12932657566,-0.237921434715,-0.634804813609,0.287806225772,-0.58358924448,-0.909721676894,-0.513272671072,0.944710047264,0.443921371487,1.32502495574,0.212190978247,136.651591925
off_to_on,-3.10265215567,-2.00808010947,-2.17971896886,1.09120857591,-0.857518435761,-0.189538946701,-1.46054121078,-0.120614871018,0.523655134682,-3.54321927763,-0.194027832999,-4.13058452976,-3.37350544613,240.99459333
off_to_on,0.093855121469,-0.497653027471,0.410219055334,-0.877136956776,-0.481738931733,-1.24735605608,-1.81639290962,-1.66766928063,-0.55429238413,-1.0694218909,-1.50404020032,-0.97023145058,-0.472592118036,-136.605623853
off_to_on,3.91433306027,2.80496611582,2.33622225716,0.276926565814,1.88298531475,1.05303059486,2.80980814295,1.08560773905,0.55481446993,3.51459136555,1.06811521204,3.65488335777,3.36803535287,-246.644503456
off_to_on,-1.31771435713,-1.00366050414,-1.55724249479,-0.242137928334,-0.478319119959,-0.0153901608642,1.97459079064,2.21881640064,-0.53937204542,-0.581477409362,0.603375957929,-0.884017186787,-1.20327430057,140.291765817
off_to_on,-2.63542958492,-1.28130051778,-0.37435464379,0.445003634532,-0.709632501142,0.48199941801,-2.90921479764,-0.903407617449,0.553680283776,-0.714662171915,0.0595443161958,-0.288331412307,-0.67342108854,231.633861599
off_to_on,0.647771593453,0.285102386178,0.349061365615,-0.578649864514,-0.881078084106,-1.06912502141,-3.52426585287,-4.03077250522,-0.574189558237,-0.842629317651,-1.77626816353,-0.684837142483,-0.162954158832,-110.54912954
off_to_on,3.37176458231,1.80245996237,0.74280851465,0.812741095378,1.76952926422,0.195142492365,5.61690819102,2.94763505041,0.56139420429,0.199041630803,1.06321105806,-0.607232661319,0.494782476395,-262.289546529
off_to_on,-2.33631592787,-1.61602880615,-1.19874616204,-0.809367023505,0.171422289108,-0.00474867084462,1.84785409361,3.04929585006,-0.546514238789,0.960412516806,0.519401171826,1.14225903929,-0.0755259612634,141.015041479
off_to_on,-1.65664943021,-0.117872669824,0.711334721809,0.383377153184,-0.750409459497,1.26142345839,-6.08190316069,-2.76002590175,0.561642513557,1.60558080894,0.249554762898,2.42314855991,0.982497324721,219.863596385
off_to_on,1.90535261459,0.646017831055,0.124279657007,-0.313720827318,-1.73603895997,-1.01193920472,-1.19721075123,-3.50242141501,-0.569737825153,-3.38172931319,-1.56161199836,-3.78550998599,-1.63860131389,-89.2629701758
off_to_on,1.75165604631,0.732502369675,0.12840892049,0.749216462333,2.13633451714,-0.614508039279,8.04168897153,4.26541571746,0.546917456142,-0.224693681568,0.629925871195,-0.795980900337,0.281073668226,-269.067127476
off_to_on,-3.45063895069,-1.99225901721,-1.58263316642,-0.628562196994,1.04346577376,-0.157267501786,-2.61856513294,1.19645539709,-0.534154124134,2.94930804385,0.47157715135,3.29501411948,0.722680931659,140.344966248
off_to_on,0.548177764281,0.961279555206,1.42149131458,0.0414910928264,-1.57110172851,2.18514427773,-6.34197640829,-2.56368452839,0.546766983187,0.540016132626,0.508978123808,0.790941314724,0.196622374453,204.60954232
off_to_on,2.54037498253,1.2042551842,1.03853724531,-0.380931520718,-2.22308789869,-0.764811227317,4.22618972991,-1.4727067628,-0.541803872304,-3.68338582358,-1.29094511877,-3.64515831873,-0.995265113375,-63.3507723817
off_to_on,-0.769099913912,-0.70903765215,-1.25946410024,1.22470893569,3.16944457066,-1.88185928611,5.515750204,2.76832932706,0.512593315017,1.0685730499,0.315351393055,1.02575520434,0.968281209039,-293.779270524
off_to_on,-3.56631753489,-2.52907251894,-2.32203134929,-0.74134282657,0.985517079029,-0.141160923857,-7.38612186562,-0.186394169664,-0.502327408992,1.43325334779,-0.00984400754054,0.615728447719,-1.32466424644,170.53059775
off_to_on,3.46190333456,3.03555424753,3.45991484581,-0.370887122179,-2.58551405626,3.71146730601,-1.47505569081,-0.773193636825,0.509437013663,0.34861204237,1.00855554656,0.938118221113,0.911924409038,185.387508897
off_to_on,1.54841321016,1.15080258891,0.818429001625,-0.167945434352,-1.43719279115,-1.44763723184,7.13824294836,-0.232197269243,-0.492260319918,-1.19785713099,-0.695448076917,-0.315014320741,1.05910899997,-98.7580921524
off_to_on,-3.47708318015,-3.26458308422,-3.19592204583,1.45763018054,3.60153619781,-3.1853077987,-0.841892583747,0.497697251384,0.460105541386,-0.676182648542,-0.445303363123,-1.44048855547,-1.07673332399,-216.552455634
off_to_on,-1.11750879414,-1.10851237558,-0.936498058,-0.821346677325,-0.123783835722,1.29802415957,-7.17779252939,-0.889631805051,-0.451758631831,-0.198485509578,-0.507009319251,-1.21266439405,-2.11733020087,132.233515367
off_to_on,4.57337512952,4.82112540682,4.22428328714,-0.684614762751,-2.34363587256,4.12181546408,3.95133884562,1.35315031251,0.451173343972,3.01713544451,1.85200716205,4.03135816842,3.01441734113,156.504903911
off_to_on,-1.02319647564,-0.979387185388,-0.808827621141,0.0348361654508,-0.283936975913,-3.17695063345,4.89318380317,0.377600498922,-0.423823214926,-1.02495100705,-0.198245936142,-0.178460048078,0.717227453852,-72.1613954446
off_to_on,-3.27912576176,-3.92534911072,-2.85802188736,1.60815467125,2.62555974162,-2.39183857925,-4.24267379496,-1.55897797714,0.391593378186,-3.15993910671,-1.60323475064,-4.06666299366,-2.46991428734,-198.781671934
off_to_on,1.20043152186,1.16770595731,0.557359131186,-0.907128207925,-0.884794893316,2.78417391774,-4.4934428245,-1.57600591748,-0.383948645105,1.12171422916,-0.461579061305,0.344028365668,-1.10021570585,127.007636587
off_to_on,2.86369883036,4.08573888586,2.65836866963,-0.947937425617,-0.976416388498,1.75237769308,5.54840802384,3.68653411267,0.374543477665,3.91778481877,2.68983212392,4.49754734536,3.11612633896,108.263258601
off_to_on,-1.87247780923,-2.30093827118,-1.26773735292,0.338178377487,0.0744086629956,-2.90624419521,2.93243489084,0.703593966006,-0.339861353358,-2.37469731751,-0.499080278935,-1.33200247822,0.232605225238,-30.7344131408
off_to_on,-1.29530018998,-2.73947953964,-1.02586965557,1.6657509537,0.857504600707,0.0105116845393,-5.26214831043,-4.03304965257,0.309627778489,-2.83485618063,-1.9422353151,-3.3384242148,-2.18468277276,-179.462981502
off_to_on,0.646933968876,1.58625875435,0.235641397681,-1.24344394486,-0.349378672553,1.12903625389,-2.94421547957,-1.05246201387,-0.301201576333,1.87256485315,-0.191033171999,0.63226047276,-1.01741034517,97.6657290277
off_to_on,1.66332677411,3.01125182029,0.882213955944,-0.87026761911,0.41073168037,-0.0698388420795,6.59025982374,5.52119938562,0.283000443433,3.02677480031,2.49006211322,3.59595545602,2.83265804786,97.2446974105
off_to_on,-0.898747754346,-2.14304305662,-0.304261525894,0.893601428684,-0.891146250299,-0.102257777962,0.896393509275,-0.245287108168,-0.244194381623,-2.53662559523,-0.282522349768,-1.3270760166,0.210580998975,-49.8082760459
off_to_on,-0.964771711163,-2.18858530147,0.283687064592,0.909031090863,-0.177156995346,0.312633928076,-5.95393090059,-5.29186706393,0.217171636855,-1.95985581474,-1.82617306073,-2.48192391679,-2.0183812789,-45.7869587616
off_to_on,0.284815031349,1.81551128197,-0.749831859216,-1.16474438996,1.21681628661,-1.5142693913,0.420098651999,0.765919056185,-0.206576285358,2.20943154653,-0.375736311415,1.02363541131,-0.399069216052,-75.3083152003
off_to_on,1.07502895364,2.00355067527,-0.409718009763,-0.211155655752,0.332918989601,0.785926017344,4.90091205479,4.90935505832,0.180666675608,1.45602659013,2.04098273561,2.07324296638,1.77742414714,146.529944037
off_to_on,-0.584206107508,-2.18979883266,1.02695478546,0.510279320369,-2.0511511816,1.68019697055,-1.68642863505,-1.36160434051,-0.140898691683,-2.45731094592,0.380565703501,-1.64949135759,-0.0518259867123,45.0048060411
do_nothing,-0.0955253447598,-0.784190128247,1.216654879,0.409549960245,0.47359438006,-1.06068690567,-2.58785591836,-3.61682212814,0.117521486906,0.00235835688296,-1.6767231346,-0.388362503231,-0.555235068836,-140.275224205
do_nothing,-0.0821766717437,1.55230260391,-2.13966405784,-0.496628322197,1.87402737995,-2.09845044757,1.28734348227,1.00332625743,-0.103764675828,1.71280680345,-1.01704101742,1.17371198336,-0.476408042405,-74.1886798185
do_nothing,-0.569279644555,-0.115115984508,-1.21126391886,-0.205548790563,-0.740198562504,1.55001389283,0.783150332575,2.40179789585,0.0720659887388,-1.14918710496,2.00272516684,-0.923682563363,-0.272257857049,170.862578484
do_nothing,1.16643370574,-0.490491925838,2.91134762189,0.096196210924,-1.82572410536,2.16501486688,0.0537473932265,-0.126151256478,-0.0338872763144,-0.403646478648,1.08064704274,-0.361613598329,1.32430179456,90.7679748925
do_nothing,0.784420230277,0.654074587734,1.13763956824,0.517110816366,1.17434662921,-1.74641356014,-0.112457771236,-1.28344811185,0.0128595374401,1.62442599015,-2.08475641633,1.85531198973,0.636816536589,-247.947381332
do_nothing,-2.52753347215,-1.01592524452,-3.87052224887,-0.179521328172,1.39559703994,-2.46271231935,-1.38392612188,-1.48980083532,0.00693771866007,-1.14072227108,-1.09422797329,-0.739474345314,-2.27751537573,20.3052436768
do_nothing,-0.246111546436,-0.274382663234,-0.398162079169,-0.715094838625,-1.26969315324,2.24511812466,0.472845967138,1.10329924112,-0.0429591278807,-1.02916978002,2.08539291353,-1.98169071709,-0.371313391296,143.05386653
do_nothing,3.75916081848,2.20933736195,4.46714725959,0.644354022534,-1.00602376707,2.63044617203,1.89179812333,2.85958523552,0.0706115151458,2.08518348719,1.07450155245,1.52847955204,2.91208630237,53.9941320917
do_nothing,-1.26516092138,-0.810752226885,-0.969108360015,0.320816964618,1.16392852439,-3.19902376055,-1.05549821746,-1.44704090559,-0.0757212955026,-0.311378732029,-2.06268162084,1.4180770854,-0.379711724803,-202.278181837
do_nothing,-3.84134647472,-2.54181678475,-4.00575041563,-0.728210063476,0.889946894888,-1.94203310911,-1.65138463546,-3.81970706511,0.0960300550407,-1.79360674682,-0.891349347606,-1.43349297914,-2.86899474389,24.6463978071
do_nothing,2.57889788268,1.84930386496,1.92080279253,0.0240178964541,-1.44314734465,3.59972292954,1.35175189798,2.20655162044,-0.151872501693,1.37471204894,1.66504757251,-0.975553580944,1.09674127141,107.706035984
do_nothing,3.38815711859,2.37176806947,3.28292142358,0.821289997112,-0.0826734115193,1.31282039356,1.17318341845,4.12315107342,0.194201962044,0.81399332455,1.21015083741,0.991323530593,2.42265984981,46.5143436453
do_nothing,-3.84828914088,-2.94180934183,-2.95191728417,-0.72849986379,0.718209742411,-4.27942659395,-1.7177988732,-3.34273284036,-0.186600888389,-2.20686540264,-1.80440580882,0.328101381181,-1.94161144391,-149.74891248
do_nothing,-1.92235163132,-1.11753237891,-1.48445385517,-0.0962306760677,0.286364016427,0.475819315997,0.171450885807,-2.82144032788,0.180656617766,1.30233065259,-1.01434161924,0.515387769548,-0.936422775283,4.24816343945
do_nothing,3.73243963155,2.53517436916,2.40109887015,0.409898231608,-0.713975142406,3.25073400613,0.882375192412,2.92545398972,-0.232942139713,1.21902226377,1.40142563893,-1.02755679656,1.46185456437,83.0965479834
do_nothing,1.3702700107,1.01105812922,0.830443128317,0.271938980044,0.0366895744928,-0.92987760492,-0.669063096411,1.9605076965,0.300234756691,-2.17680455991,1.57700723107,-0.940264936241,0.337729879584,38.9092286817
do_nothing,-4.12398568211,-2.85510235336,-2.26753233074,-0.832310337528,-0.0328685708257,-2.80723217698,-0.546239094184,-2.38166141372,-0.308802659518,-0.594220448823,-2.11475047272,0.950069739185,-1.45451298696,-92.3505854645
do_nothing,-0.00792401403003,-0.133268975005,0.164035541639,0.419862264879,0.812231950856,1.77927944235,1.98001005219,-0.471231894158,0.284115771147,3.41684440079,-0.803226383616,2.13043015049,0.919235394225,-26.862383189
do_nothing,3.03479736625,1.9747744653,1.04254346702,0.00740020599684,-0.536562598558,1.41945758392,-1.37685736784,0.0716928786258,-0.305973078431,-1.36154683325,1.60317513489,-2.03327378828,0.130384502509,68.005980694
do_nothing,0.427651789171,0.874544846625,0.713125259438,0.418861456356,-0.631186528995,-1.09116074187,-1.29171701436,1.01944514145,0.366430915587,-2.40333773814,0.988918696906,-1.53361200573,-0.304765419764,28.0968138183
do_nothing,-3.45669001591,-2.82120221494,-1.66013528148,-0.660734690222,0.354237550969,-1.5935827132,1.70214482811,0.892335613101,-0.389204992231,1.11498934016,-2.00670640464,1.01764232878,-0.683009773324,-36.5382974418
do_nothing,0.294157368803,-0.130003487682,-0.43060400293,-0.0370534330417,1.39466988497,1.59944191303,1.48760408359,-0.956449498188,0.371257699581,2.75665239193,0.0390616761554,2.64580256825,1.11230908618,-60.7971255614
do_nothing,2.72159747836,2.54728418488,1.53691485889,0.242663722505,-1.67318872693,0.782579189735,-2.75189385293,-2.53206551496,-0.381919985526,-1.65775964496,0.836128865385,-0.964354697134,0.210271773993,62.5916833152
do_nothing,0.484533911323,0.375571567888,1.2490515608,0.870237271609,-0.243732780701,-0.997223491531,-0.399680266602,2.35801388643,0.429137177133,-2.02591845902,0.606857439167,-3.14827810742,-0.82025443609,15.6310570241
do_nothing,-3.76471114823,-3.5829641069,-3.25361792241,-1.40856510694,1.08898116312,-1.41526607696,1.90474930018,2.07253254956,-0.450553810915,0.397773526208,-1.22437685118,-0.10581259107,-1.31550333341,3.68883693259
do_nothing,0.51922118874,1.23430624493,0.175795572127,0.219555876513,0.760929693566,2.27425551446,1.30846236238,-1.77227991145,0.436942151048,3.46336738321,0.303949694831,5.49746854485,2.58167502826,-78.900937553
do_nothing,3.17328062408,2.54377617235,2.93656789856,0.593718118675,-2.0783660762,-0.159536742475,-2.78080165906,-3.19743596384,-0.444013074684,-1.07729887098,-0.20002960489,-1.12111374847,0.300096770291,57.1389442459
do_nothing,0.065136602092,-1.12173295084,-0.0355348844502,0.454751613424,0.447106559779,-1.44462678501,-0.753826406359,2.75762580656,0.479713889498,-3.50573157485,0.856489444835,-6.06137964273,-2.68168935467,1.0346190219
do_nothing,-4.4124128099,-2.80870725664,-4.08051935869,-1.34689683144,1.16065854447,0.0774419481684,2.34536639499,2.56407763439,-0.494325154981,0.733166586264,-0.388837889716,1.51176650198,-0.381347309088,31.3061297136
do_nothing,1.61204200445,2.53639313012,1.81966869663,0.505664331429,0.252541797857,2.05854278143,1.53328201186,-2.05763800407,0.482662676502,4.86954560512,-0.297601616923,7.46847732247,3.9484759584,-81.0085654012
do_nothing,3.23518366516,0.777269157084,2.83295051712,0.240456821551,-2.05660788673,-1.80946470093,-3.7171445206,-3.60468748937,-0.488791078089,-2.60236865435,-0.626796447672,-4.07438306034,-1.51732424669,47.8852249802
do_nothing,-1.30060237974,-1.22165235867,-1.38341991072,0.510349246624,0.904449850695,-0.311891234513,0.295940186461,3.51150050734,0.513847368163,-3.49529323,1.58927710952,-5.64527393256,-2.61711329449,-12.2694279137
do_nothing,-3.5138158646,-1.10468822186,-3.25187472524,-1.06925757925,0.926400367591,1.11715434081,2.19228142569,2.07330682265,-0.518662258272,2.29285242808,-0.501214163035,4.01710169486,1.15736562462,47.7459336628
do_nothing,2.59101625561,1.70291394445,2.51861557562,0.391275216929,0.0169435401625,0.503492256141,0.0276672384958,-2.77882883159,0.506678738901,3.41947300214,-0.737756619489,5.17199426942,2.8493486187,-71.6661259477
do_nothing,1.46711492101,-0.389671199895,1.60134638983,-0.14235605761,-1.7672717743,-1.92985563343,-1.85294182782,-1.98052495739,-0.513002477261,-3.35745747558,-0.341945745056,-5.26892491235,-2.37030218716,36.232755651
do_nothing,-1.22785041299,0.10832552443,-1.2690711022,0.927085959195,1.04767221461,0.922334501221,0.929262795753,3.45661934471,0.529807152317,-1.07799922891,1.85427465175,-2.34508548722,-0.876160734074,-22.3626395957
do_nothing,-1.56404685135,-0.580100537864,-2.02025925154,-0.958108901583,0.34466781386,0.698976134427,-0.951555635579,-0.32522397468,-0.525397198715,1.75614710111,-0.963030960578,3.74885920727,1.04454860481,53.8390307429
do_nothing,1.38914228567,0.164774197947,1.66232749067,0.0138539528136,0.397831389046,-0.131528393138,1.4537373688,-1.29406318331,0.511190516664,0.829071437789,-0.757798948393,1.59217283357,1.18369747926,-55.0735437301
do_nothing,0.030082558124,-0.0930923220417,0.707633014681,-0.0529574524932,-1.33059717456,-1.50818010329,0.941426358877,0.0387674400405,-0.515665883852,-1.60494130646,0.243446992814,-3.71482041231,-1.70952490701,24.0669804105
do_nothing,0.745728578886,1.20386330143,0.17095643067,1.02169068555,0.247793123482,1.24556955945,-2.31079677752,1.09339752796,0.524728885203,1.02661931282,1.44984257706,1.04303117739,0.58748866464,-28.3863741487
do_nothing,-1.16822878633,-1.22311255728,-1.95607854147,-0.86310315011,0.370938450798,0.317956819426,-2.00728517174,-1.62293979241,-0.513198820945,-0.845730927032,-1.27446631148,1.0113969308,0.0611736149415,51.2775483534
do_nothing,-0.551149181298,-0.370902891306,0.404225769081,-0.124382780509,1.18981214897,-0.280549776358,5.11707727135,1.4728409957,0.496991061042,-0.279389835941,-0.251962761488,-0.874246717692,-0.0937324330373,-35.165896372
do_nothing,0.581848002284,0.482950036636,1.23993218737,-0.148997222963,-1.64549404804,-1.09294563752,0.24918467777,0.643670167247,-0.497835579487,1.19686032333,0.30688272038,-0.455891485156,-0.29298196149,10.7939654612
do_nothing,1.94118096486,1.40158504714,0.764692102117,1.14603964696,-0.491806765323,1.16748686293,-5.52064066305,-2.04573478353,0.498807461459,0.96627220018,1.05061646007,2.32532040448,1.18005390142,-21.3161558672
do_nothing,-1.98066099084,-1.71956681003,-2.55846236169,-0.771777717667,1.05224865467,-0.0935815930733,0.197991767995,-1.08655788063,-0.481852921449,-3.06168287978,-1.36171972491,-2.09240637921,-1.21275377742,24.9112664574
do_nothing,-1.05483369652,-0.199011897972,0.539056259493,-0.241192194983,1.54820165643,0.112170895928,7.10364378974,4.36504939392,0.464320737851,0.500242315857,0.302184503919,-1.09651658051,-0.187794469092,-1.29919843978
do_nothing,1.38170516811,0.757137630172,1.46346957057,-0.16877247111,-2.40423173179,-0.85480455817,-2.806727946,-0.970199877137,-0.460598557367,2.68231194956,0.221845875768,2.17542797159,0.718938309507,13.8053177103
do_nothing,1.6737191691,0.851126795563,-0.0656302020383,1.12930928626,-0.424205712282,0.369180629419,-5.97013537336,-4.24811368567,0.453591950112,-0.437641637004,0.320910284051,1.35384293849,0.722758207608,-67.2400363433
do_nothing,-2.18665101333,-1.41842356449,-1.54623224544,-0.647468938673,1.64332327809,0.443493126303,3.39427223729,1.55115113901,-0.432670668612,-3.40518289609,-0.75788108717,-3.42560328315,-1.55437005235,71.2324168475
do_nothing,-0.587066814049,0.227350205942,0.741558839849,-0.350483419967,1.12376197014,0.529530966758,6.04806549641,5.07490173598,0.414304458099,1.96714690877,0.684021872895,0.280152656182,0.390305936488,-14.6513397226
do_nothing,1.05245976139,0.160315704557,0.0635915992154,-0.011537180342,-2.62137023372,-1.88035707502,-5.54071629553,-3.75972113951,-0.40562272971,2.01962372051,-0.53157156906,2.31370419899,0.423016158805,-7.75468073733
do_nothing,1.3362422338,0.555910877466,0.462200036414,0.896980268435,0.15185862109,0.753296498395,-3.64570469566,-3.30695854605,0.39132052626,-1.73965891626,0.218939498808,-0.115777436996,0.390134626913,-18.4781235911
do_nothing,-1.46434440761,-0.469968099882,-0.317949519085,-0.715344525926,1.50566029913,1.48584695524,5.28228260356,3.46929029356,-0.367678626789,-1.68583315177,0.162193455216,-2.31910742168,-0.938345666955,9.99935665625
do_nothing,-0.722333018517,-0.006213482708,-0.322360092052,0.15509974625,0.297357869437,-0.942096706306,2.39426634295,2.94335265904,0.348678210531,2.50776796614,0.176911836488,1.22866326347,0.346225634744,37.9818455519
do_nothing,0.423238359203,-0.609465157931,-0.682185358669,-0.282091483772,-1.5599299899,-1.95786812445,-5.28326502315,-3.78048402873,-0.335145102298,-0.223071132666,-0.988584598079,0.481297710446,-0.0135619327064,-52.8488060474
do_nothing,1.80189781002,1.0796762378,1.84817307982,0.401558965216,0.288050641832,2.58489803967,-0.38038985976,-1.72116536209,0.314852344224,-1.38327187297,0.823533096451,-0.46510183987,0.298994314917,37.4657968037
do_nothing,-1.10566269618,-0.0123893047411,-0.380421656503,-0.0548444932469,0.258089558091,0.359306696302,3.57126346048,2.50426505056,-0.289623306228,0.691787166905,0.253741999703,0.051175065578,-0.316864482916,-43.4707527088
do_nothing,-1.5257625495,-0.630746965728,-1.49328962624,0.171954092591,0.636090946805,-2.36858565825,0.0776905159208,2.37967176946,0.269928555105,1.0203893051,-0.443142370388,0.558020844997,0.305675341656,53.1668376072
do_nothing,0.912568684592,-0.704310499727,0.14204789542,-0.741335323573,-0.0507201497829,0.177758426478,-2.87041812797,-2.88424945692,-0.251974976959,-1.89734427624,-0.481095729651,-1.62300792812,-0.648347776528,-32.5753958553
do_nothing,1.94078394884,1.480391377,2.09154380693,0.48029159263,-1.01369618046,2.83443573931,1.11172695774,-1.70024881577,0.227391457128,0.705238857578,0.755333524064,0.856603218103,0.367591992166,3.97781098629
do_nothing,-1.52941726574,0.219517200233,-0.919717727906,0.364238304927,-0.711193335549,-1.81668831841,0.738178677079,2.22637096651,-0.201652186684,1.41227191125,-0.0509366494186,1.70999407247,0.592980042518,21.58158821
do_nothing,-1.44347813975,-1.40631118222,-1.59112790444,-0.190966341658,2.45192826517,-1.72100291137,-0.815430671409,1.71089906832,0.18116931586,-1.26653130805,-0.0953045080324,-1.4317766703,-0.376474432071,-47.9986937818
do_nothing,1.33700016083,-0.452574632307,0.799634046043,-0.741879140586,0.201298897407,2.13669360075,0.658558883066,-2.10627555671,-0.159503925662,-1.36449023343,-0.472950069794,-2.15521562354,-1.16764682378,26.0700964841
do_nothing,1.54054595694,2.11263293139,1.63653852715,0.677373440408,-3.14242879815,1.17723581169,0.894971688029,-0.920833747646,0.132438405994,2.20483093149,0.355224429807,2.61758906355,1.35347460828,42.2507653856
do_nothing,-1.57956771899,-0.160588562391,-1.00961450387,0.246322203738,0.24944168967,-2.66138712206,-3.18296624264,0.903844596855,-0.107131778977,0.528260794685,0.36904015942,1.56155651085,0.619911757409,-30.1542658566
do_nothing,-1.2493668011,-2.25516037673,-1.31756530371,-0.348526360862,3.84435820353,-0.168068697553,0.848181835077,0.864458387767,0.0858920705979,-2.31838814786,-0.293881066385,-3.01240387663,-1.62660856871,-71.6388561958
do_nothing,1.42082395662,0.703184267258,0.670961009426,-0.327285342245,-1.19612142721,2.45648390125,4.7030650355,0.474935269292,-0.0615090028976,-0.0318587329507,-0.451119060609,-0.998627742403,-0.204283618692,60.3645516166
do_nothing,1.3512468423,2.23994910849,1.64291624349,0.338679884321,-3.88872909056,-0.329501450339,-3.35517775425,-1.57457765299,0.0337043476876,2.45062799348,0.502152777611,3.06130255598,1.96633321794,88.1130896523
do_nothing,-1.56565043234,-1.26566446097,-0.734443680937,0.256356658012,1.99295266757,-2.32280336427,-4.80347721803,-1.42358188811,-0.00958987093727,-0.661202784255,0.191219334514,0.501496991817,-0.661335638788,-96.4681930884
do_nothing,-1.33491049894,-2.01029985495,-2.12197253864,-0.279679626288,3.55074138238,0.680789475416,5.71125520003,2.64313140691,-0.0121778637839,-2.2215468065,-0.555321480206,-2.8744641668,-1.70956747209,-75.3237520957
do_nothing,1.78937065695,1.74470007422,1.36820009919,-0.149481121274,-2.49565844877,2.32516853699,3.48032709399,1.72717658203,0.0380446819469,1.26244621627,0.249195338928,-0.0848156256887,1.3469140133,80.5382055586
do_nothing,1.19515010984,1.58972706214,2.19787140418,0.127082773099,-3.09437840029,-1.14476687904,-6.81054857952,-3.54123098662,-0.0650260389708,1.78918288955,0.307457767285,2.47521200268,1.12790764106,131.848307044
do_nothing,-2.03103688882,-1.97201147222,-2.12624817784,0.148096432717,2.84865949558,-2.23666944999,-1.62073474961,-1.61738729537,0.087373864106,-1.87025236391,-0.611001333802,-0.156070230875,-1.66459196571,-149.218789951
do_nothing,-0.967852356739,-1.34653969958,-2.03262644884,-0.0925850497014,2.42625309084,1.56624065387,6.06661178325,3.98376150794,-0.109223847711,-0.959377224205,0.122859012506,-2.03949335632,-0.682204442486,-84.7550847928
do_nothing,2.47214108402,2.54103765049,3.29331858708,0.0828972138097,-2.80949153679,2.30667213526,0.999926987845,1.6118012232,0.135188362232,2.29643753022,0.875576393256,0.483098469784,2.23092329439,95.2147994373
do_nothing,0.0514936192324,0.394779278039,0.672817866608,-0.406596973595,-2.02917709458,-2.5261404642,-4.9774262505,-4.4068925136,-0.160030119946,-0.526570638744,-0.90375457474,1.00890608271,-0.529550204354,173.889921366
do_nothing,-2.0636741233,-2.35037733015,-3.26780667875,0.369730394378,3.10009568933,-1.54875628796,-1.39256683797,-1.3466718657,0.180186438917,-1.54989812053,-0.362578316234,0.10917973207,-1.77840303521,-190.245941905
do_nothing,0.374596484211,0.210992178876,0.291546019734,0.182284261098,0.899991456432,2.84506051752,4.06898345423,4.29491269768,-0.201479289117,1.26529820154,0.856295798521,-0.610200692866,1.12008869494,-96.480265519
do_nothing,1.83068074354,2.2914227905,3.08864613022,-0.178341679237,-2.38169999873,1.04605688556,2.95019803398,1.67543646657,0.226121705112,0.853870512058,0.448320898981,-0.561226007043,1.4980604941,103.188859513
do_nothing,-1.33722836996,-1.50116919075,-1.60324659869,-0.643109227925,-0.626434647508,-3.53104152538,-4.99805794689,-4.89389768257,-0.247785278465,-2.23118387673,-1.31300959293,-0.0624207787537,-2.16790343186,207.765166002
do_nothing,-0.299291205709,-0.769415509309,-1.55409110449,0.907556445217,2.31224008259,0.539588260071,-3.04501025646,-0.983437302021,0.265418378803,1.15403965155,0.17128094274,2.17202240834,0.0235891545526,-208.323341153
do_nothing,0.767462279459,1.3507783976,1.24912949063,-0.0141324486462,-0.51496830346,2.56060679112,5.30919847545,4.26396837257,-0.285385638835,1.12366446528,0.847582226547,-1.15365440837,1.7059101835,-120.408616849
do_nothing,-0.272304157978,-0.101382924919,1.08002920869,-0.571164824164,-0.89909575789,-0.637295326801,3.51692713269,1.45606283735,0.30763837443,-1.56369289659,0.144675949218,-2.1750952414,-0.641643101872,111.268720751
do_nothing,-0.628208624379,-1.51238260142,-1.49430735189,-0.229451780403,0.201159200595,-2.57166899404,-6.83766331373,-4.68792599553,-0.326956683158,-0.561528643221,-1.31346044344,1.6777596985,-1.53062811014,230.925592089
do_nothing,1.62679054381,2.12241784171,0.486407955764,1.17418470396,0.515497976791,1.70002361985,-1.74736130785,-0.843118254429,0.346497858755,2.30310119722,0.653323091517,2.54420460281,1.8551323628,-205.881003168
do_nothing,-1.18211689331,-0.61423820942,-0.206696836989,-0.769413599798,-0.565784764535,1.08308664973,6.18761364719,3.9239883723,-0.370052184843,-1.23020070797,0.457582252205,-3.28826983242,-0.175088695455,-154.04327247
do_nothing,-0.947471692539,-1.78717224942,-0.00819121498948,-0.236513791046,0.850090816305,-0.906100297243,1.14969312489,1.53839303184,0.383195164948,-1.02495851992,-0.109072927018,-1.00269658259,-1.14504684535,121.113773858
do_nothing,1.45639631379,1.38439946833,0.563010838742,0.171923669277,-0.707275729514,-1.24046524302,-6.18301808454,-4.64780377453,-0.371150356395,1.3243164446,-0.935840627303,3.04899351824,0.541031160812,242.87651971
do_nothing,1.24712862458,2.14310593153,0.419221038987,0.776124881066,-0.328013435268,1.4211006972,0.688261303025,-0.623328051617,0.362751415475,0.600828934672,1.12851870048,0.698883843116,1.11474517015,-189.169966159
do_nothing,-2.90205356633,-3.42998987965,-2.23832628793,-0.977147849258,0.374266701078,0.0689264232567,4.24380152464,3.90155659702,-0.410583969953,-2.11449041899,-0.477250717509,-3.90654105883,-1.80102058895,-189.831094552
do_nothing,0.306002969874,-0.198449763471,1.19221436989,0.120152595262,1.19927387566,-0.357429186111,-0.848414243717,0.905136728852,0.488717046028,1.18229667871,-0.241218050987,1.19747960216,0.582074539433,130.268343366
do_nothing,2.2323375334,3.10733799925,1.90431212795,0.324130332399,-1.68395125811,-0.622805117521,-3.27697894941,-4.41801065559,-0.479587437229,0.981812599427,0.346361180688,2.83639271143,1.09719920958,245.263355907
do_nothing,-0.165969681567,-0.301423795433,-1.54226785843,0.396185875801,-0.000377408615085,1.03976248328,2.04799550843,0.642478425857,0.363720616108,-1.1458009497,0.600971581812,-1.43723180377,-0.72052666218,-163.998981144
do_nothing,-2.84312243747,-3.65059347727,-2.34508196568,-1.08846340061,0.755578022096,-0.56154197632,0.391781550465,2.59128225992,-0.329466389215,-1.31605525851,-1.6535723775,-3.11441382426,-1.65696625576,-222.236210311
do_nothing,1.47652928942,2.1837666589,3.12372002857,0.661389387903,0.888870484159,-0.0633564971092,-0.904230051162,-0.0440791171319,0.496823196595,2.58455802016,1.01929213812,3.33208228961,2.48607204772,137.143610129
do_nothing,1.59672410211,2.03299130245,0.701652845093,0.0673424451352,-1.65654665473,0.215297807394,0.861166183023,-2.2006568933,-0.640897636329,-0.143866951107,0.661796398967,1.17014964551,0.109090116336,240.496263835
do_nothing,-0.871313783654,-1.89418547853,-2.36754232539,0.175075893732,-0.122976142624,0.665219930618,0.657341844649,0.643308602457,0.509509152508,-2.07953971389,-0.568734796647,-3.07589033811,-2.27952450029,-136.118704965
do_nothing,-2.10206818551,-2.10402678454,-0.964609424755,-0.962890379066,0.897834362826,-1.77210960702,-3.70359151433,-0.151436036605,-0.304838244795,-0.224387436501,-1.33235261197,-0.673828741204,-0.0704988098261,-247.17429259
do_nothing,2.13535265945,3.23544755916,3.2142811176,0.970087651041,1.15748436522,0.954980833543,2.76736427582,1.70797208006,0.395613225974,3.43417843948,1.78282049985,4.01239507935,3.69821234972,140.870946005
do_nothing,0.400395549839,0.132327790766,-0.650167468025,-0.21274480481,-2.00609674269,1.17556745428,3.0234554708,-0.405488245008,-0.647985650954,-1.58921568034,-0.0502041167723,-1.74110123403,-2.33068765374,231.060832275
do_nothing,-1.20531893022,-2.42616330618,-1.81767084007,-0.0881921231138,-0.448925347363,-0.825125478037,-4.23642260645,-2.30581807878,0.624601028701,-2.5067252416,-0.785906052243,-2.28985697489,-2.43352796861,-109.982200943
do_nothing,-0.412498691133,0.11902111321,0.122036256253,-0.452769565041,1.47264776941,-2.15342080593,-2.95996569363,0.0943782465725,-0.377740131166,1.56181762125,-0.415275307203,1.78749019455,2.68945162959,-262.900978616
do_nothing,1.70771680218,3.10784350762,2.23798565083,0.945730147945,1.55812953959,2.70257582416,7.24986117878,4.30001905496,0.357529944037,3.0731833943,1.21479740332,2.15784828563,2.55259480989,141.660171961
do_nothing,-1.46399600018,-2.39628941009,-1.44498096759,-0.754108097802,-3.06249576787,0.564261439867,-0.613324006361,-2.41806332754,-0.571856571183,-3.47367885033,-0.590937049135,-3.44494166847,-4.86472640419,219.233810115
do_nothing,0.392899494499,-1.06175951563,-0.457188740967,0.276043100334,-0.501151579143,-2.17516318591,-6.68747252453,-3.42997305528,0.594485801968,-1.00661756086,0.234451830156,0.362841020393,0.157522435019,-88.632672221
do_nothing,0.753384436634,2.10810249843,0.520946430835,-0.143673699128,2.75815799232,-0.53300030964,2.81141338643,3.03737362954,-0.392624817129,2.95321896324,-0.551540527849,2.48951461083,4.1505975648,-269.73931178
do_nothing,-0.793632328332,0.616500222634,0.4392581788,0.449954461236,1.15483137276,2.69641090271,5.86422777827,3.23676467378,0.358249067188,0.360990595811,0.368739723161,-1.10173427583,-1.15163734027,141.034627787
do_nothing,-1.02322811808,-2.90205017653,-0.907412756627,-0.796831544012,-4.36208112564,-0.981727000522,-5.73711602938,-4.74735519429,-0.524408133615,-3.37489529445,-0.0919102568714,-2.53883507094,-4.24884835646,203.937569752
do_nothing,2.5625635917,1.5921213657,1.06221539316,0.721672599986,0.400473143265,-0.990423004413,-2.17860047418,-0.75285269167,0.53481964306,1.92623243594,0.678335279079,3.19932669745,3.50568424784,-62.6606733637
do_nothing,-1.13663462741,0.945769925125,-0.778682149995,-0.236315248009,3.8660001231,0.158229329258,5.39099879269,3.77847918999,-0.370585737503,1.29760656225,-0.995271200314,0.279581872391,1.84052584486,-294.530790274
do_nothing,-1.51371620999,-1.16930941865,-0.281174106003,-0.0319757548345,-0.368755235141,1.0446702584,-0.0172821299557,0.13217490071,0.351960011209,-1.95598524929,0.11117605635,-2.85400636287,-3.31602726643,171.320597367
do_nothing,1.31225329349,-0.417427780353,0.708883547594,-0.331663498797,-4.65867491625,-0.546729268614,-4.97476739733,-3.8368019623,-0.474920333071,-0.377914248458,0.333816479824,0.495162920304,-0.770416666954,184.597835262
do_nothing,1.40526583838,1.36935932091,0.59917907058,0.795498384098,1.91193056635,0.166308104,2.92639415276,1.79217998013,0.456079664524,2.61529695695,0.631651847928,3.29706751731,3.70378051262,-97.9898542139
do_nothing,-2.45452637379,-1.2865316099,-1.77510216326,-0.668608496055,3.50438212252,-0.85951798207,1.64849935481,1.58629827993,-0.330111613388,-1.92133190128,-1.12526082159,-2.72996645688,-1.68553330118,-217.246040831
do_nothing,0.631624435199,0.680166461861,0.874407039906,0.228456226671,-1.70636152814,0.786960156802,-2.17502119139,-1.10903282849,0.34487684436,-0.905301583198,0.186019268684,-1.12662858706,-1.45426840677,132.810962265
do_nothing,1.10767156041,0.608528946761,0.666286012511,-0.175883705529,-3.58126281129,0.357586646735,-0.222392043979,-0.978443360298,-0.423029146783,2.05913015968,0.287583663584,2.4534543167,1.64974934776,155.952663726
do_nothing,-0.777658911571,-1.30348053678,-0.546375909687,0.432779740544,2.69321724678,-0.452833956949,1.25244814379,1.06627579379,0.332862772421,0.141502599356,0.543630917462,0.122060899495,0.25932481611,-71.5008888304
do_nothing,-0.605009794596,-0.551069021804,-0.750157736531,-0.446308718401,2.00038370271,-0.846717811259,-1.19294211904,-0.618669245171,-0.194646174629,-2.53894202591,-0.898704896619,-2.57509223986,-1.85883488919,-199.481130087
do_nothing,1.41587318042,2.79365260441,1.28390192459,0.216164671037,-1.8717320793,1.380678609,1.63020593504,1.21054126797,0.265122597722,1.75335764146,0.128575150341,2.02318886074,1.98128380345,127.535937272
do_nothing,-0.917305373681,-1.16574615155,-0.568680731914,-0.137079569388,-1.75611604161,-0.302571623874,-0.551320269239,-0.45884798502,-0.424799826356,0.806358424888,0.212325568604,0.542627840038,-0.13203453987,107.882854711
do_nothing,-0.452144072203,-2.38135478236,-0.398828166399,0.2682557512,1.98813342127,-0.691683625348,-2.27909642249,-1.79474026881,0.369990348144,-1.44982934288,0.315537647235,-2.2119329001,-2.12769271894,-30.2029500854
do_nothing,0.941604261532,1.57461325058,0.501703378245,-0.382689924937,0.373085472937,0.206721588467,1.91370275098,1.07725734229,-0.146913946111,-0.258871995295,-0.550210819172,0.669183858923,1.2223778158,-180.261858865
do_nothing,0.382769795626,2.59857687018,0.46630967496,0.316357866485,-0.635739217407,0.963565365711,2.5220720572,2.69305183544,0.0826842219285,1.52289049314,0.358438305761,2.55946240627,2.39577627278,98.4655032794
do_nothing,-1.53744928685,-2.60935727642,-1.2298642853,-0.0642202668733,-0.248423439655,-1.13326088197,-3.76512470632,-2.89473747011,-0.26328100405,-0.800067464567,-0.37459968164,-2.52294718588,-2.87735700972,96.6493799351
do_nothing,0.544293783324,-1.69393848671,0.464137798638,-0.0539930360006,-0.056054616636,-0.04262855633,-0.866149893374,-1.68340089072,0.390538971968,-0.394481699497,0.222582093682,-1.36806218869,-1.16919139564,-49.2371437974
do_nothing,0.892971400896,2.30995072017,0.798919238293,-0.327024445095,-0.23969062196,1.02873985757,3.40268429994,3.15891204652,-0.220931301413,0.271073353178,0.240553135897,2.64333474753,2.78986744968,-46.5345351232
do_nothing,-0.327353336964,1.73870885074,-0.463819581256,0.744857478184,1.32717448249,-0.357441610792,0.296771811464,1.19430323858,-0.0353686700124,0.522599964347,0.0224599624924,1.22715251093,1.06493714422,-74.5311311944
do_nothing,-0.943770139028,-2.43869537199,-0.857075781923,-0.300942980637,-0.0617165692376,-1.13053031448,-2.7645996862,-3.32519168242,-0.00323056990445,-0.252480278371,-0.80654644936,-3.09006046278,-3.12431914375,145.922671869
do_nothing,0.493962452372,-1.54913037437,0.738553485553,-0.601959469594,-2.08328439219,1.23611942154,-0.298637361234,-0.549056715812,0.244659872959,-0.69325034162,0.365524715592,-0.89721169246,-0.738467312988,45.5535587874
do_nothing,0.697869744892,2.29007195926,0.539296400088,0.522429312841,0.344737061934,0.302882947501,1.95522735358,2.81402450783,-0.214153101544,0.284521642237,0.92127878937,3.19777397992,3.1564664,-140.939569492
do_nothing,-0.513458897908,1.63593494451,-0.571349010453,0.495061881512,2.78153260621,-1.30029044243,1.18771847415,0.645505829003,-0.0945022168475,1.22972643174,-0.633776273884,0.905085828038,0.715902150775,-73.5104397834
do_nothing,-0.333382696038,-2.35713512019,-0.452534823443,-0.783427831776,-0.965547913588,0.417872768863,-2.0075873053,-2.72762730077,0.135736472555,-1.08864304403,-0.889489321532,-3.65501515511,-3.51328772017,170.32869271
do_nothing,0.325760632195,-1.54436598582,0.348087619151,-0.0328134149111,-2.94764586285,0.974014608554,-1.73656934827,-0.500120733475,0.164042686609,-1.04280916867,0.762684676764,-0.415822702597,-0.23581127503,91.245705816
do_nothing,-0.0484506739789,2.34050611243,0.479554759902,0.478213267684,1.44923980527,-1.01436647604,2.16884647564,2.41684458144,-0.191430944426,1.7622370205,0.814212692697,3.79656492185,3.53013910581,-248.5015416
do_nothing,0.147991348001,1.33641344141,-0.0802184378861,-0.0265780954656,2.76672797055,-0.19126123804,2.06229695757,0.339860618745,-0.178991384953,0.345304796024,-0.76620601963,-0.402264838984,-0.473140979072,20.8508282093
do_nothing,0.155910229285,-2.07679259504,-0.669105364389,-0.221276650881,-1.60300141489,1.09469815381,-2.34934087438,-1.69772641069,0.27795080654,-1.9145805611,-0.766854400911,-3.33120617018,-2.85976949452,142.628057972
do_nothing,-0.639878419905,-1.31555676015,-0.133759991328,-0.0767287906439,-2.59485187535,-0.695180897438,-1.93646866824,-0.570688530199,0.0586611150907,0.443585843941,0.668416200287,1.26117617543,0.754686103943,54.3787187598
do_nothing,0.0243779287726,1.90678100704,1.09657763843,0.121183705786,1.69015764973,-0.414213452031,1.91077190949,0.837165510716,-0.127862588447,1.5416604499,0.913959996354,2.05429701726,1.96468594237,-202.702746215
do_nothing,0.891059532686,1.15577940681,-0.107373887912,0.0675310892762,2.25881925771,0.757380846636,2.03999804215,1.31393852279,-0.254391961181,-0.994075701596,-0.893900391679,-1.47705337095,-0.603028191827,25.026620574
do_nothing,-0.247918191698,-1.44678895448,-1.14619096992,0.180433238806,-1.3575439605,0.107267358991,-1.10083282733,-0.0758029467467,0.376297689432,-0.81912630891,-0.586367157908,-0.516945690976,-1.05928076479,107.430893939
do_nothing,-1.0550379254,-1.49696680424,0.158679906187,-0.513336212269,-2.55265889636,-0.875490444999,-2.86340246116,-2.98918848424,-0.0576003091554,0.960469786889,0.572491747461,0.817521342912,-0.134458786395,46.7717239129
do_nothing,0.880733251462,1.78067638593,1.52787819906,0.278445696006,1.84040529952,0.497259510173,1.16441705161,1.07155926111,-0.00423927355062,0.584802650949,0.809313083836,-0.214632838678,0.997322223764,-150.030977314
do_nothing,0.171837511441,0.806495335391,-1.02571078258,0.0354499361199,2.0437630178,0.201457125931,2.67114721909,3.05637667174,-0.33814991739,-1.41565256002,-0.8222523646,-0.727710027798,0.0891137566145,4.46514127578
do_nothing,-0.353288784906,-1.13145965303,-0.837113006687,0.106230550207,-1.76776592431,-0.13452376119,-0.181077551337,-1.42046708569,0.412800945821,0.332719137127,-0.432761673372,1.69689089986,-0.299673270469,82.972738121
do_nothing,-0.0235353845603,-0.861569582743,1.113094257,-0.217561172681,-2.00419422656,-0.339014587787,-3.50644551856,-3.22090658589,-0.126637920847,1.00879860551,0.456971815365,-0.658236382317,-0.685229978856,39.0293287994
do_nothing,0.282442057972,1.22065239934,0.572887754926,0.142769228116,2.55494132808,0.568028753545,0.451461857439,2.6530125303,0.121298114912,-0.294334740594,0.763363773265,-1.57911912697,0.486656595524,-92.4838345134
do_nothing,-0.906262548638,-0.19456932789,-1.84325547212,-0.46984834967,0.57339326205,-0.562131037515,2.77686697763,1.14975992747,-0.425143948024,-1.67547125021,-1.00132972895,0.749775471541,0.0770824595841,-26.800759533
do_nothing,1.14730900954,0.160507149568,0.95486512951,0.82768342224,-1.88978806458,0.154426040633,0.710258571136,-1.38276391295,0.431778309463,1.50361650716,-0.0175266285739,2.34512272682,0.725233732634,68.0215134106
do_nothing,0.29923690432,-0.147275695882,1.01859003564,-0.280075976377,-0.124768980617,0.434756015362,-2.98233936192,-0.395901488171,-0.180467041978,0.990277737778,0.44996713511,-1.92782006458,-0.90340541365,28.0834526434
do_nothing,-1.38481266555,-0.517418198396,-1.22371317611,-0.396755948346,1.79530122069,0.184555072189,-1.08968988304,0.190308987896,0.236468247734,-1.46480908898,0.340413908568,-1.49699787324,-0.614380590744,-36.5243013974
do_nothing,-0.537970623883,-0.364318334017,-1.12812473529,-0.203732305301,-1.06371000611,-1.76518435554,1.97197400086,-0.540969062404,-0.494905610512,-1.31803330818,-1.04345738118,1.59658337516,0.651541087599,-60.8820478793
do_nothing,2.60291362584,1.97952327109,2.63768801019,1.16850050669,-0.374459186313,1.26039377537,3.11431730629,2.42736610123,0.437813554527,2.37875747906,0.640953406239,1.39899316901,1.42300756635,62.7359019091
do_nothing,-0.645737020304,-0.575841166496,-0.437837458646,-0.743106402459,0.575858539604,1.49741538804,-2.47405780194,-0.86998070301,-0.229978456482,0.42132704378,0.242539295074,-1.68402129017,-1.5108387683,15.4893267335
do_nothing,-2.22456006854,-1.95230389817,-2.19915801118,-0.222456695129,0.402035267159,-1.53627144415,-4.10553797451,-3.08009662617,0.336157803872,-1.74729648815,-0.293384921148,-0.249845739194,-0.734602624449,3.84519032164
do_nothing,0.467533336282,0.206114820475,0.485756045726,-0.0745975700684,-1.1350448696,-2.39993184943,2.02945877853,1.37449023425,-0.539829090441,-1.08192705955,-0.658717322645,-0.103564801975,0.738780578055,-79.1222026353
do_nothing,3.05791387548,3.27433711589,3.02772253713,0.83637392858,0.62246675142,3.53923903541,6.72223834143,4.35437775683,0.434193087551,2.4728630896,1.21980205605,1.11152029086,1.48863415454,57.4016928139
do_nothing,-1.76894024126,-1.51249704477,-2.09426119339,-0.52868035182,0.259184559528,1.15834273272,-4.02758997645,-3.38261763001,-0.277039612495,0.417673977948,-0.479360378388,0.318764387838,-1.27957040506,0.770994517902
do_nothing,-2.08122031154,-2.76916982625,-1.86480811249,0.162333470669,0.0928805164093,-3.72246830319,-7.00966925583,-3.23153141193,0.413120875706,-1.65162571184,-0.312870685469,-0.715302082753,-0.780756786705,31.5968321403
do_nothing,1.28861089301,1.24767158954,1.81326580633,-0.887813450624,-1.20289793391,-1.09207318107,4.75144037705,3.15828229228,-0.553721207432,-1.53538323756,-0.259268720117,-1.99981349513,0.121118982727,-81.3551488809
do_nothing,2.71801562845,3.6422540832,2.11160998863,1.09062044107,1.03488972432,5.08498036079,7.99495239217,3.56948788835,0.415873160018,2.72053920661,1.16447231091,2.33598215315,1.89166986786,48.2577364955
