label,COUNTER,INTERPOLATED,AF3,F7,F3,FC5,T7,P7,O1,O2,P8,T8,FC6,F4,F8,AF4,RAW_CQ,GYROX,GYROY,MARKER,SYNC,TIME_STAMP_s,TIME_STAMP_ms,CQ_AF3,CQ_F7,CQ_F3,CQ_FC5,CQ_T7,CQ_P7,CQ_O1,CQ_O2,CQ_P8,CQ_T8,CQ_FC6,CQ_F4,CQ_F8,CQ_AF4,CQ_CMS,CQ_DRL
off_to_on,4.15184696329,4.55758291068,3.12072484963,-0.0536615138644,4.13153366198,2.33502611642,-0.041020309045,3.00152235919,0.829244395079,4.35879124438,0.862877576187,1.85340501023,2.20419810213,58.0525017403
off_to_on,4.99975946422,5.54573467052,1.9710792744,0.355919970316,3.6930186607,1.36458239291,0.0573096809714,3.61032005498,1.12933772354,5.33997245376,1.14471800081,2.02577210083,2.98006218313,45.6876579603
off_to_on,4.73551441732,5.24098170995,-0.203405657913,0.875787854451,2.57439726741,0.361865782801,0.835237272621,3.58913908665,1.310206846,5.26606315435,1.33524135619,1.82196307397,3.16641912704,25.2848895167
off_to_on,3.3477819851,3.59107883436,-2.83046600494,1.38090242446,1.10819182951,-0.443181643721,1.76746069471,2.64846924001,1.33170962439,3.92990849402,1.33611273311,1.02833782761,2.56415489801,3.78441653732
off_to_on,1.11269576254,0.91235566425,-5.11215046664,1.70710417037,-0.361736742482,-0.951117065071,2.18925062682,0.737417560139,1.16121866937,1.44479427475,1.06852108253,-0.397888665804,1.17585463651,-13.0458794847
off_to_on,-1.45208562674,-2.16535954263,-6.28839345857,1.70299094142,-1.56500940785,-1.1863501202,1.60493991038,-1.85407204855,0.789033261601,-1.71148545965,0.519113449163,-2.24058717161,-0.741964746965,-22.1942743892
off_to_on,-3.70791518777,-4.85243245921,-5.89342833207,1.28591710334,-2.34673120513,-1.24291295354,-0.0622313295428,-4.50933443617,0.24339635381,-4.77292703309,-0.232707585315,-4.03027568123,-2.71081281207,-23.8054832284
off_to_on,-5.06343332539,-6.41381761779,-3.91785694037,0.482541786044,-2.66395863318,-1.21308178616,-2.3850955648,-6.43216645431,-0.40231624798,-6.87795177106,-1.02107370913,-5.15991015615,-4.15076291047,-20.4080295227
off_to_on,-5.14462945619,-6.38375720887,-0.823079408647,-0.561910574572,-2.55158421821,-1.13361747066,-4.55569697115,-6.89308833356,-1.03591677453,-7.32908731684,-1.63599769148,-5.08425879377,-4.55954519079,-15.4006164226
off_to_on,-3.91443244378,-4.71530749131,2.59430643412,-1.61194132499,-2.08142196473,-0.973668184227,-5.67830863971,-5.49711584586,-1.52747891735,-5.83775127247,-1.88973131001,-3.53822104501,-3.69296464141,-11.4615805891
off_to_on,-1.70010479725,-1.81472848946,5.44076285976,-2.40156770916,-1.3355436961,-0.667620750258,-5.12487013588,-2.37666773735,-1.76081957428,-2.66625238828,-1.68423041586,-0.69240239803,-1.68102579008,-9.51430986682
off_to_on,0.887492528597,1.55658046154,6.9876296054,-2.70867802048,-0.402927094027,-0.174514347219,-2.81570819827,1.77119007484,-1.66643331235,1.39492380165,-1.05416442464,2.82300506237,0.970160282145,-8.6127737868
off_to_on,3.12495172905,4.48959207124,6.87353334842,-2.42137517727,0.606613796126,0.467538292417,0.68925262175,5.83663480363,-1.24517941567,5.22511674799,-0.167013286236,6.05439935359,3.50449078661,-6.71801854662
off_to_on,4.38913043861,6.1862795321,5.1881191947,-1.57540219459,1.54818541608,1.12232911999,4.33624759943,8.60725375486,-0.574048600424,7.69715815064,0.723485085021,7.99369763642,5.13907177572,-1.97406098743
off_to_on,4.34636342557,6.19251538578,2.4194016617,-0.350313458434,2.24582195244,1.58711815388,6.91982289406,9.14646456024,0.209348546437,8.02921986139,1.35713765193,7.90145325311,5.31618495664,6.10124792975
off_to_on,3.0567469878,4.53355063548,-0.708681397037,0.975252802984,2.52464858469,1.66694984778,7.50477647572,7.11801463924,0.940078172526,6.05000025412,1.55377919773,5.57806113212,3.90001193798,16.0478890922
off_to_on,0.957079167064,1.70855673598,-3.44991173269,2.09622239441,2.26600047963,1.26287236154,5.77621860438,2.94274978692,1.4674890379,2.28385075792,1.27584070803,1.48506313796,1.24731095621,24.7918782751
off_to_on,-1.275515914,-1.45640810129,-5.23191980937,2.76026795632,1.46565830342,0.435492185482,2.1862556739,-2.27751795015,1.69271192803,-2.18248773577,0.643496838343,-3.33799377888,-1.87967060775,28.770220987
off_to_on,-2.93781202428,-4.05353139271,-5.77923353955,2.83062921908,0.26826944126,-0.588223973981,-2.16478343653,-7.05991111054,1.59086153879,-6.01863817665,-0.105028758587,-7.5500362501,-4.53739080615,25.4164965901
off_to_on,-3.52418635409,-5.36191899532,-5.13734313182,2.31537154204,-1.0443655868,-1.47602275701,-5.88039329592,-9.97951448384,1.2117674101,-8.0585560457,-0.695897180771,-9.90109439632,-5.89397473583,14.4046336863
off_to_on,-2.8868136674,-5.05749966737,-3.60629179937,1.35669255947,-2.11787185553,-1.90286164187,-7.73593780727,-10.1121990559,0.660118851877,-7.66816962024,-0.916808063667,-9.62043943997,-5.4966135102,-1.88094528781
off_to_on,-1.27929766503,-3.30021948607,-1.61925873878,0.186084311157,-2.62847292002,-1.67525847696,-7.10075756512,-7.3385155037,0.0625091065132,-4.95248126214,-0.69451622525,-6.67483977875,-3.42461095593,-18.8972128287
off_to_on,0.731036623795,-0.673278370542,0.387179440594,-0.939265306043,-2.39243223037,-0.819114452671,-4.1650850404,-2.40598941922,-0.467318516994,-0.731887790447,-0.124243848568,-1.80871237239,-0.275289459937,-31.3747463233
off_to_on,2.45316598907,2.00432833125,2.07072256871,-1.79940350018,-1.44216739551,0.407274397371,0.111185214468,3.27737025306,-0.853975129049,3.70801976676,0.56110360408,3.65419509561,3.01540188502,-35.1398804768
off_to_on,3.30136205122,3.93145777004,3.22769230031,-2.25680558811,-0.0370166542457,1.58709944401,4.31411656741,8.05910840652,-1.06974337696,7.01475221329,1.07276360247,8.19148562307,5.46102382938,-28.6635907711
off_to_on,2.9868778443,4.56478911005,3.7859438905,-2.27417144681,1.40254655504,2.28498703052,7.04922978547,10.5399967125,-1.12709927187,8.18814603663,1.17124790542,10.529452035,6.32894991091,-13.7467563276
off_to_on,1.60906650584,3.77169983596,3.76624301538,-1.90468189309,2.42137169033,2.20513974242,7.41065656483,9.99767035352,-1.0599606263,6.88659149807,0.757876200471,10.0187547473,5.36325276331,4.95148333374
off_to_on,-0.382866662357,1.85225032736,3.23875897444,-1.26278828058,2.67743902435,1.30954495848,5.28490656829,6.6032894265,-0.902827147048,3.52383067166,-0.0804304418678,6.82226834493,2.85616134885,21.4200061663
off_to_on,-2.34237170066,-0.570957791811,2.29583614957,-0.487914973756,2.06102581196,-0.150440763094,1.38578294759,1.36418411501,-0.676846467931,-0.871206706202,-1.09061400501,1.85856037139,-0.451499338514,30.3318040529
off_to_on,-3.63912588073,-2.7549713736,1.04846506762,0.287101713311,0.742145341479,-1.70598539432,-2.98965454201,-4.18727532856,-0.388125206287,-4.98215927178,-1.93255337969,-3.47824008775,-3.60466828383,28.8972494256
off_to_on,-3.86129069122,-4.0639069054,-0.361189411848,0.955524467272,-0.87391611476,-2.82529662448,-6.39818434709,-8.45847665782,-0.0378792172536,-7.61212183168,-2.29212290268,-7.73200131613,-5.72477715048,17.8683829537
off_to_on,-2.94006972051,-4.15063058643,-1.74840289816,1.44306271824,-2.27184117665,-3.09829946725,-7.72976913878,-10.268493151,0.361380851141,-8.03921284842,-1.99022687471,-9.8023363598,-6.26359852274,1.3166834688
off_to_on,-1.15866591983,-3.0403539238,-2.89294254308,1.7051975128,-2.99252355556,-2.38570647609,-6.5667355724,-9.18209995261,0.772319571025,-6.21172314617,-1.05044439735,-9.24051959328,-5.14347414963,-14.7628952669
off_to_on,0.951850322255,-1.09787442713,-3.57282993072,1.72197130639,-2.78496822548,-0.877357557302,-3.3050474694,-5.60856684125,1.12978890854,-2.72982794271,0.298532402474,-6.34059496406,-2.74802214107,-24.5496171964
off_to_on,2.78939951504,1.10234206477,-3.61924934808,1.49560791947,-1.6920159,0.963899373247,0.99603148021,-0.644932700299,1.35205847647,1.36842657691,1.68767241652,-2.01000561788,0.222475057587,-24.4666562756
off_to_on,3.86795867866,2.95561351147,-2.97464177863,1.05268367416,-0.0398440031056,2.55549073566,4.97655178233,4.27627897045,1.36396481405,4.93799879482,2.71904594485,2.52729515631,2.97491798551,-14.4907147699
off_to_on,3.95293404677,3.99759075607,-1.73067688799,0.448368177911,1.66615499389,3.392629499,7.42202843821,7.8175623534,1.12430597778,7.06400176488,3.08783818503,6.09461730806,4.85034576377,1.77389625298
off_to_on,3.10498399376,4.01630436897,-0.127122783424,-0.232414710449,2.90443758243,3.22021699787,7.64184242688,9.11069736497,0.647203494252,7.30105139826,2.67555138205,7.87996096458,5.48480052217,18.304866371
off_to_on,1.62689509964,3.07985745835,1.49472320902,-0.881867208727,3.30446749854,2.11772302582,5.65880682745,7.96672949816,0.00844989858296,5.75073679219,1.58493057372,7.61797038823,4.86411471304,28.7542268473
off_to_on,-0.0580992152959,1.48319069487,2.77417287721,-1.38615721321,2.76200885563,0.466661619092,2.15883105838,4.87221878851,-0.667301918975,2.97071403819,0.106671016133,5.59740568274,3.27194233552,28.7085677004
off_to_on,-1.54724376139,-0.358224355913,3.42543637407,-1.6495415098,1.46489273307,-1.18729366043,-1.76689682309,0.791927421363,-1.23599673928,-0.236778141099,-1.3697294492,2.51269263382,1.16498513141,17.3335955787
off_to_on,-2.5678512373,-2.02797361216,3.31499166016,-1.61899789885,-0.177259878458,-2.32727323037,-4.98762229518,-3.14463274041,-1.57174626251,-3.0763170325,-2.47111202812,-0.776399712965,-0.972437316209,-2.17919415163
off_to_on,-3.02245346363,-3.20478858698,2.49745133425,-1.30089718162,-1.67297470477,-2.64310531069,-6.67858839795,-5.96794474675,-1.60082090607,-4.96771196079,-2.94494329281,-3.49321470972,-2.74517170267,-23.5432397771
off_to_on,-2.96467059594,-3.71315720569,1.19842018909,-0.76291143834,-2.60907389994,-2.12994812027,-6.53601197408,-7.10815083889,-1.32128978986,-5.65455134056,-2.72131813164,-5.12680847816,-3.90625440557,-39.3979365614
off_to_on,-2.52833613954,-3.52604455128,-0.250182752549,-0.118951908985,-2.77629935346,-1.07312011519,-4.80517586705,-6.49117304893,-0.802211222128,-5.19800930615,-1.91666327538,-5.50707602451,-4.35663802133,-43.7609483277
off_to_on,-1.84821262689,-2.73371527493,-1.50197118603,0.499214192992,-2.21961358689,0.0730468442687,-2.13407797428,-4.48445971008,-0.163030268118,-3.88220974299,-0.782810911465,-4.7718687648,-4.10722473812,-34.100784411
off_to_on,-1.00924441842,-1.5001926328,-2.28699349371,0.975165098433,-1.20014440796,0.865201916524,0.677207977561,-1.73221967227,0.459756367503,-2.08290339029,0.377804592024,-3.26002889277,-3.23463140603,-12.3364048388
off_to_on,-0.0442660962604,-0.0260821521635,-2.475300961,1.23543468324,-0.0870948803605,1.04112249854,2.93427809951,1.0530647584,0.947816776004,-0.153479934533,1.3011723813,-1.38100740654,-1.85606472972,15.5827754826
off_to_on,1.02471502751,1.47375658816,-2.09688913067,1.26299580855,0.778364770981,0.615567341926,4.22658591013,3.27505641247,1.22731189191,1.63645201791,1.82698486755,0.492478218397,-0.131195406567,41.4039850965
off_to_on,2.12824743941,2.78115677434,-1.31625245989,1.09309938577,1.19737788007,-0.134133802628,4.47986878228,4.56733989829,1.27933300671,3.10438962349,1.92305119698,2.08247736991,1.72086191239,57.0723896583
off_to_on,3.10997151552,3.68540589606,-0.373594010583,0.794234385224,1.16632230865,-0.786692709528,3.88886428525,4.822328792,1.13337277469,4.12174214035,1.66722096955,3.21403106728,3.41367824223,57.2273445834
off_to_on,3.73439352159,4.00496304876,0.486673651404,0.442122949175,0.852973185635,-0.953818693101,2.77939305514,4.15109409713,0.848579838942,4.57897403871,1.19954594984,3.79325905009,4.61773328482,40.9177701286
off_to_on,3.7492885277,3.62368275208,1.07837040319,0.0967058069174,0.509286655813,-0.44707878407,1.46710171136,2.80713706578,0.491153188401,4.37888559892,0.665695909859,3.78210332025,5.02512251651,12.0073339735
off_to_on,2.98415680677,2.53381701212,1.31095999782,-0.20975914299,0.357027314527,0.630583932868,0.169112915249,1.10776056006,0.11643095727,3.46813316689,0.172536963643,3.18953164232,4.441589121,-21.8538551392
off_to_on,1.44632996264,0.868793098706,1.19582745862,-0.470310811437,0.491259641242,1.90604057963,-1.00783921153,-0.625814767868,-0.238818398105,1.89267997036,-0.230817861632,2.08305688218,2.87410147596,-51.3795416952
off_to_on,-0.628485314135,-1.0934946565,0.825408956278,-0.689509353365,0.838693810814,2.86501464425,-2.01766494699,-2.10572495097,-0.553287842695,-0.15454789594,-0.544699003383,0.608185216797,0.575624844912,-68.278831452
off_to_on,-2.80121982846,-2.96930593265,0.336121198858,-0.865916937202,1.18641475148,3.04325795817,-2.80564402495,-3.10122859718,-0.811281348733,-2.32754610814,-0.792268461229,-1.00498019888,-1.98144349228,-67.6000804883
off_to_on,-4.53302735652,-4.34796780719,-0.131829426194,-0.979971851262,1.26979072952,2.20992408979,-3.26654435161,-3.46100907708,-0.99280302924,-4.18152753852,-0.989532044846,-2.46522035672,-4.20800883179,-49.1211425657
off_to_on,-5.33977822205,-4.89341485249,-0.467047801603,-0.993987293276,0.886189340075,0.474662273983,-3.25877238474,-3.13896535983,-1.06981693328,-5.28077090375,-1.12626823504,-3.47723805734,-5.55308355053,-17.4122824203
off_to_on,-4.94742626846,-4.43915396481,-0.606239422604,-0.865631510913,-0.0085569440926,-1.72334058675,-2.671239633,-2.21658515091,-1.01169238281,-5.32762748378,-1.16580124493,-3.81825646644,-5.6638473835,19.4151168326
off_to_on,-3.39343177343,-3.04557994998,-0.539636716903,-0.570054277952,-1.25797316547,-3.74397331354,-1.5093301839,-0.906103798727,-0.798280827097,-4.26631770286,-1.06249294626,-3.40740439481,-4.49732554408,51.8960058836
off_to_on,-1.03502518256,-0.997990393193,-0.305455523686,-0.121357135294,-2.53482924386,-4.94986679569,0.047899745519,0.480986260659,-0.435096935638,-2.31959430493,-0.787963488621,-2.339479768,-2.34297159733,71.7160204697
off_to_on,1.54389007419,1.25834927074,0.0226916243925,0.416713633694,-3.43544791606,-4.9156052926,1.65821304282,1.60429520627,0.0366068611921,0.0614844206199,-0.353502999392,-0.865781777916,0.255657275301,73.8549270308
off_to_on,3.70001938896,3.22932458924,0.352285042157,0.937615594319,-3.60822585266,-3.570966518,2.90441578756,2.19005973472,0.540716568394,2.32271741454,0.181905937904,0.675565761399,2.6572817959,57.8187656224
off_to_on,4.91825749527,4.49702091698,0.59042297662,1.31675459973,-2.87417303321,-1.22996823818,3.43394397406,2.12175999099,0.979987154703,3.96613256468,0.722189345274,1.95715175205,4.30691822307,27.6758121981
off_to_on,4.95772965241,4.82160777408,0.663021284122,1.44739439885,-1.29964855955,1.50268948188,3.0958058452,1.48966923455,1.25953944282,4.68875722599,1.15975142338,2.75304506968,4.88717728027,-9.06540573112
off_to_on,3.90851816026,4.19065874768,0.532587185513,1.27598428402,0.803058495171,3.91443872399,2.0152020723,0.572387605411,1.31295946779,4.45275478923,1.40626042118,2.98996790648,4.38824832042,-43.4051575431
off_to_on,2.14246526825,2.80402599152,0.211017178768,0.824264014215,2.94869400772,5.39474308999,0.566641527063,-0.253527800637,1.12230988492,3.46443438334,1.41703861961,2.74148503871,3.07727656832,-67.1073228112
off_to_on,0.178390407239,1.00341756035,-0.237054186125,0.189287047224,4.60427665695,5.60375225952,-0.753981390968,-0.650826250447,0.725043312027,2.07420026859,1.20041353636,2.17085846097,1.38379716602,-74.6897212222
off_to_on,-1.48873864614,-0.827175247545,-0.703995964121,-0.480242669984,5.33017181467,4.54906550851,-1.51484338134,-0.457708857106,0.205116721861,0.639452859944,0.809753732131,1.44933538841,-0.253018511788,-64.6732304411
off_to_on,-2.53433596591,-2.3570049641,-1.06259014611,-1.02474619206,4.89716473522,2.55397585463,-1.519490362,0.231542724549,-0.329044844441,-0.594307096406,0.322882716402,0.686734388882,-1.51825097824,-39.8160632132
off_to_on,-2.87743859827,-3.3718424286,-1.1990771657,-1.31894320522,3.34823178634,0.13784380615,-0.892073156242,1.08067646052,-0.772681684159,-1.54798523603,-0.181811842902,-0.0944999445133,-2.28977467949,-6.31690792719
off_to_on,-2.66063884703,-3.79134327716,-1.04735562518,-1.3068874826,0.990594001059,-2.14376673042,-0.0345817477401,1.6263419883,-1.05002868954,-2.28085148101,-0.642848341113,-0.930294456213,-2.62300572561,27.7810201971
off_to_on,-2.15215648793,-3.6449679546,-0.613603600036,-1.01555950444,-1.67690369182,-3.84382056495,0.535998191389,1.45996499502,-1.12927846528,-2.897593619,-1.02080811105,-1.84529122151,-2.66767570415,54.5705318388
off_to_on,-1.61399960679,-3.0254652092,0.0180071880599,-0.542900019676,-4.07986345399,-4.71076664109,0.412152068229,0.411895135039,-1.02356141295,-3.43698836804,-1.29155823915,-2.77769986464,-2.55929375632,68.1538802478
off_to_on,-1.1909993139,-2.04444082569,0.702667842198,-0.0247736967281,-5.69779234303,-4.70168376781,-0.506933258195,-1.33561591464,-0.779329806378,-3.79831736318,-1.43378817817,-3.54021525139,-2.33665405817,65.9597363183
off_to_on,-0.864814649099,-0.80932321491,1.27207278868,0.407681136711,-6.17666618676,-3.93466182272,-1.93057114236,-3.26064945788,-0.45769694994,-3.74713245657,-1.41990718406,-3.84647242573,-1.92380395566,49.2039169813
off_to_on,-0.489211977546,0.572191682719,1.58093964228,0.665984730838,-5.40132110711,-2.61345371667,-3.25065444967,-4.6503542558,-0.116095091138,-3.00824124252,-1.21773884804,-3.40555810375,-1.18553038213,22.4135437147
off_to_on,0.110979185246,1.96943199282,1.54849524632,0.725369428941,-3.51551442932,-0.96122332239,-3.76031535466,-4.84577000594,0.203474623232,-1.41396261048,-0.805012784107,-2.05552456081,-0.0316254527303,-7.83016799524
off_to_on,1.02151076464,3.2075998595,1.18141794898,0.623136081041,-0.88928785794,0.812224719046,-2.94292079663,-3.50090532681,0.476725257713,0.953821411416,-0.191698376564,0.116246485427,1.47899264801,-34.5826954693
off_to_on,2.15414932359,4.06911003659,0.57055068443,0.436642079009,1.9569129722,2.50725741087,-0.721972489952,-0.75998035173,0.691257386841,3.69534155058,0.560152940189,2.72185896932,3.08728313956,-52.2129207048
off_to_on,3.23654960741,4.32911014995,-0.137471918569,0.250232625051,4.45534533413,3.91367731214,2.43222739004,2.72249108827,0.837298783127,6.1439698443,1.33059797327,5.12777131707,4.37047179998,-57.6380965953
off_to_on,3.88787511368,3.82083428959,-0.783901780159,0.123771313536,6.1020566179,4.80100044743,5.59670686701,5.94320673578,0.900776441352,7.53889469159,1.95763487715,6.61563135185,4.8651450005,-50.8246326215
off_to_on,3.75655183346,2.51019805829,-1.24190123249,0.0740498961717,6.55627587694,4.94295482234,7.6757092677,7.85323336665,0.862978570581,7.27254290941,2.27437277067,6.60709243588,4.2386580773,-34.4754988525
off_to_on,2.66961280499,0.549667652536,-1.44627241714,0.07493628424,5.71031288001,4.18075760481,7.77892874658,7.70798426582,0.70766655307,5.12981824503,2.1582452464,4.87980879368,2.44525317606,-13.0550335137
off_to_on,0.734876353065,-1.71638833829,-1.40002164627,0.0747968129892,3.71625659452,2.5061312158,5.56628771769,5.34470810416,0.432691415745,1.42860649818,1.57650780377,1.69518212433,-0.198354369286,8.51949893926
off_to_on,-1.64855782982,-3.80862944941,-1.15791354375,0.0232823309915,0.962216640085,0.127477043568,1.4295961959,1.2851373262,0.060597657451,-3.002866628,0.611162787005,-2.21909934638,-3.05887728363,26.1172760951
off_to_on,-3.88406376543,-5.22427102624,-0.795920335339,-0.103635174782,-2.00043676901,-2.51986507148,-3.56793320157,-3.38426641739,-0.35751147421,-7.02353459858,-0.548332961802,-5.84289793245,-5.35230695875,37.2164072966
off_to_on,-5.34996470278,-5.57430741805,-0.380458873445,-0.290363050109,-4.56732215634,-4.84278089378,-7.99046042271,-7.32707508207,-0.748264120763,-9.50196941963,-1.64615364796,-8.15088052992,-6.38269432268,41.124503966
off_to_on,-5.59503212742,-4.70463815477,0.0495029850656,-0.485226962659,-6.20783208601,-6.23348893319,-10.4766809859,-9.37006762814,-1.03194187308,-9.66558079496,-2.42503260014,-8.42691528066,-5.77557515212,38.6274299187
off_to_on,-4.49045129879,-2.76020356638,0.480707816771,-0.619266659955,-6.58135070485,-6.24949236017,-10.1877897841,-8.87981655109,-1.14351243681,-7.36155427358,-2.69623745897,-6.50326565168,-3.62338545574,31.289023007
off_to_on,-2.28454087871,-0.166590679068,0.906729638064,-0.632811035611,-5.61546944047,-4.77193915288,-7.10163581412,-5.97507550117,-1.05182521195,-3.13732977052,-2.39298005919,-2.84090555291,-0.485908271507,20.7266468593
off_to_on,0.461192350522,2.47119528593,1.30275969386,-0.499462568333,-3.52555864086,-2.08277611211,-2.04654659525,-1.49959102831,-0.770194108974,1.89540681071,-1.5901318825,1.58395381247,2.76336569461,8.1622059868
off_to_on,3.03572500155,4.52631352167,1.60860268659,-0.238252532552,-0.768204537489,1.17727450208,3.54411475307,3.24003047007,-0.354368774972,6.37805993617,-0.483564999837,5.55882050774,5.2005461799,-5.59453960815
off_to_on,4.788911661,5.51839467526,1.73172566301,0.0906465495213,2.06246411652,4.16952952831,8.07900809662,6.88653152666,0.111748907446,9.10683222364,0.66466019906,7.99485954613,6.1398406111,-19.7791996739
off_to_on,5.31992017677,5.24220642557,1.57380822534,0.40498727174,4.37120162379,6.09454721219,10.3087658212,8.45729264624,0.538009754543,9.39126890885,1.59813334078,8.25391073611,5.35106936249,-33.1586682289
off_to_on,4.58317794518,3.81791236096,1.073367905,0.627121033171,5.6970204217,6.43302466949,9.71051160734,7.64060841306,0.850349527707,7.25412306885,2.13269818437,6.33706373182,3.13175954723,-43.6967542723
off_to_on,2.88016695878,1.64843055893,0.248159370618,0.708439769097,5.81340793902,5.11112225246,6.62822334293,4.86523862709,1.00647658317,3.40828904453,2.1979373261,2.87344725187,0.207662909988,-48.6766659207
off_to_on,0.7445291229,-0.701671700024,-0.781843531153,0.642857676025,4.76865225021,2.53196765493,2.1253571104,1.12416217578,1.00056436835,-0.980083080033,1.842602926,-1.08665723855,-2.50616150685,-45.3759779149
off_to_on,-1.23660320779,-2.66730749919,-1.80515503298,0.464973361598,2.85805230221,-0.54234522483,-2.39346794074,-2.38132680828,0.856818780659,-4.66275454646,1.20533545804,-4.40572701018,-4.203659836,-32.1397556593
off_to_on,-2.60267954812,-3.83435568949,-2.5659503987,0.23442879228,0.538504691234,-3.22402298846,-5.6553463325,-4.64957356329,0.615834138665,-6.6919976072,0.463246007268,-6.20979456513,-4.44492449141,-9.47590760728
off_to_on,-3.14170705293,-4.03681747806,-2.8364120571,0.0130829941854,-1.68883897859,-4.77398065091,-6.92000318872,-5.19523339027,0.31993597034,-6.69035877632,-0.222763355371,-6.14184431544,-3.285866343,19.3010683465
off_to_on,-2.9180426247,-3.3740842775,-2.49168167515,-0.155984132762,-3.39505736975,-4.827807151,-6.17217923631,-4.16693532584,0.00337776069225,-4.92395688598,-0.747713196189,-4.43809128498,-1.23832499365,48.2696134057
off_to_on,-2.20481273835,-2.14926692813,-1.56106492318,-0.259775921194,-4.30922133852,-3.49873791105,-4.04764008709,-2.23217887211,-0.309475789452,-2.16391541461,-1.07609779708,-1.80860242105,0.922800325732,70.0816293861
off_to_on,-1.35330285822,-0.754413790792,-0.234965447065,-0.31329433887,-4.35508545003,-1.32397093383,-1.53327649072,-0.281023791313,-0.598791428228,0.607605860215,-1.22862800203,0.829820028894,2.43625404649,77.9120427926
off_to_on,-0.651907228048,0.456458025622,1.1789713626,-0.345856990957,-3.63629078284,0.92648159197,0.436687217609,0.934426732675,-0.841013434949,2.53973868872,-1.25153500765,2.6718877146,2.81775047734,67.6414588518
off_to_on,-0.227486033615,1.26482085636,2.33952432366,-0.382243756568,-2.38256432128,2.51269447359,1.33160881802,1.08623627148,-1.00347764053,3.1843789937,-1.18357174493,3.28234505139,2.01880993723,39.5627328461
off_to_on,-0.0229813709132,1.62697022501,2.96970704409,-0.42708263888,-0.878538214982,2.9698289939,1.19031272468,0.374387481031,-1.04648036031,2.60717931713,-1.03537704127,2.7084895242,0.427826293312,-1.03784693314
off_to_on,0.145428008914,1.64844527943,2.93681146191,-0.459458477771,0.602224026854,2.25259112457,0.544121929964,-0.589066594764,-0.933970853942,1.30840255853,-0.789591489144,1.41458868511,-1.28391916929,-44.77608584
off_to_on,0.478897192945,1.50948273252,2.28772064029,-0.440476807126,1.84196225155,0.731990971589,0.134957918578,-1.06738049836,-0.649763533162,-0.00755519362326,-0.420674721114,0.0702241256496,-2.41425867244,-80.4382503127
off_to_on,1.08078691795,1.37332650796,1.22736861201,-0.331117029104,2.69696336548,-0.951294949454,0.547125637313,-0.542537994852,-0.212847376443,-0.722640134794,0.0754246542244,-0.724180082627,-2.4894775083,-98.0506843116
off_to_on,1.8837233999,1.31315022518,0.0478992095274,-0.113285746471,3.09453085802,-2.12326756315,1.90611349687,1.02463568617,0.315493817702,-0.545982289412,0.656255724338,-0.671082285585,-1.43888352968,-91.8602517742
off_to_on,2.65000727245,1.28455243654,-0.966497759076,0.194719956526,3.0200793655,-2.31883770254,3.77274396712,3.12754403181,0.837875783447,0.382871662824,1.22568279255,0.117347466488,0.376656001812,-62.2871051796
off_to_on,3.04827057527,1.15262578271,-1.62543205505,0.535402454825,2.50574612209,-1.44553791126,5.28515050857,4.87718209383,1.24089508451,1.56333375991,1.65085645299,1.17704949884,2.29156774042,-16.1704731775
off_to_on,2.77998268591,0.762017456511,-1.87877180087,0.824417948763,1.62651640368,0.18695852912,5.50267686049,5.34340844879,1.42435931514,2.34614200357,1.79991496782,1.89068364553,3.57260478381,34.8723659419
off_to_on,1.70970440198,0.0223714881437,-1.80844937146,0.97491215083,0.502117121859,1.97959658119,3.82232373651,3.94900523942,1.33089366276,2.20635005071,1.58811503759,1.75066590639,3.68263162501,77.5670475036
off_to_on,-0.0501258871265,-1.02452076123,-1.5711034388,0.925945149783,-0.703244155227,3.25753286256,0.30234773241,0.763541048077,0.966043050403,0.972553755337,1.01555804598,0.585850882741,2.4788745737,100.692709476
off_to_on,-2.13461812434,-2.18372517639,-1.31603593447,0.665165499937,-1.79273047778,3.50892388778,-4.24564440602,-3.42676769997,0.401417904021,-1.07572817036,0.181365912643,-1.33646055755,0.276450102774,98.2758386608
off_to_on,-4.00990229397,-3.144579971,-1.11285750172,0.237471781014,-2.56565190491,2.56596745843,-8.45329241855,-7.31946868388,-0.241305418513,-3.28222145391,-0.733364388386,-3.37658101146,-2.24541612138,71.2927611978
off_to_on,-5.12245030266,-3.56862139968,-0.919855339465,-0.26402131431,-2.86041331426,0.66676002948,-10.8306112243,-9.51385894177,-0.821414649168,-4.83649365811,-1.51083041189,-4.73858727876,-4.26330251991,27.3522720149
off_to_on,-5.06907415701,-3.20205466543,-0.608305071251,-0.722432157472,-2.60035371614,-1.62132815212,-10.2956648705,-9.00917095228,-1.21600110072,-5.06720954576,-1.95696330199,-4.76269579158,-5.08193755987,-21.5487894583
off_to_on,-3.73406813205,-1.97671733267,-0.0352567648344,-1.02945964305,-1.82623122994,-3.58840882944,-6.61002441351,-5.60694449995,-1.35133559103,-3.7012733018,-1.95816073929,-3.18963786228,-4.36813258108,-62.5076906785
off_to_on,-1.3487905347,-0.0647075395351,0.863722509378,-1.11543897574,-0.70044409259,-4.61403124035,-0.553982739637,-0.0650056369861,-1.2192860285,-0.994272601222,-1.51598682037,-0.29910169557,-2.26888324366,-85.3688328655
off_to_on,1.54805369887,2.13578618605,2.00141662111,-0.96771552295,0.524035854168,-4.36609238167,6.24005970495,6.06989515437,-0.87428546967,2.31863871744,-0.748309988052,3.13446352226,0.624975450683,-85.4450016048
off_to_on,4.24147557605,4.0859640556,3.12105487779,-0.631891904251,1.56510452581,-2.90211954277,11.759950203,10.9141981103,-0.412814994993,5.24039224955,0.143916277022,6.06316920938,3.4574736715,-64.5195149322
off_to_on,6.02744225018,5.24400033834,3.85072856816,-0.196175239839,2.18682647363,-0.643234393397,14.2461489019,12.8461762134,0.0570183527121,6.82866074747,0.93402077432,7.49675291795,5.37082584552,-29.9011955064
off_to_on,6.40445211753,5.21845369315,3.82014734636,0.235532859077,2.2654115875,1.76558463632,12.7761424861,11.0552572829,0.445417725941,6.50704326568,1.43335409308,6.83583521507,5.76965980317,8.0798325128
off_to_on,5.21602335397,3.8939289159,2.80378351201,0.572833082976,1.82393903274,3.65871013471,7.60143721921,5.8541831705,0.700869573704,4.26676893621,1.54195813513,4.09537836269,4.50384590066,39.2776350792
off_to_on,2.70415547669,1.49038588572,0.839519171197,0.761146042517,1.0231881135,4.54843075327,0.115539380129,-1.36103037327,0.814860164735,0.690396008348,1.27135676647,-0.0604013861627,1.91486931807,56.6055346112
off_to_on,-0.541908492968,-1.46617318039,-1.72545931002,0.790844409449,0.110299574455,4.2565610828,-7.5472196709,-8.50413016056,0.811856495438,-3.21275092537,0.733859735242,-4.49026480781,-1.26587399975,57.7179758427
off_to_on,-3.72921595443,-4.26028277693,-4.28906969066,0.691682451134,-0.65859487814,2.94279795351,-13.1585249264,-13.4279107604,0.730323508232,-6.30831133405,0.103352454316,-7.90665799024,-4.13313844994,45.0779358898
off_to_on,-6.06022558903,-6.16483305754,-6.14386147516,0.515989019639,-1.09643082248,1.02957710611,-15.0817775652,-14.5920121883,0.603316792922,-7.6805865462,-0.438991408928,-9.26400792779,-5.87135470077,24.542627078
off_to_on,-6.93642434001,-6.63519749331,-6.68252106877,0.317553621749,-1.13812475014,-0.943635675958,-12.7755495982,-11.5549294015,0.446541869919,-6.91029164209,-0.756894807506,-8.08365807953,-5.98716439264,3.07438815496
off_to_on,-6.11420657357,-5.46718634391,-5.59697955017,0.133980551994,-0.851129538607,-2.48433296836,-6.95333149312,-5.13002831427,0.258095159243,-4.20057626902,-0.793749962007,-4.61311207492,-4.44476709046,-13.5790357765
off_to_on,-3.77279194835,-2.87293845696,-3.00513925566,-0.021621914441,-0.401189979301,-3.27673598644,0.648807001439,2.84747698767,0.0289299004607,-0.314463260547,-0.581144193601,0.2315685777,-1.66883110236,-22.4582947873
off_to_on,-0.475916836745,0.551323197904,0.542202163929,-0.157588261222,0.01348350189,-3.2420161486,7.81710829159,10.0708437406,-0.24150737071,3.65386764504,-0.220955361766,5.12417293534,1.58095459737,-23.7749785998
off_to_on,2.96447459383,3.96337637464,4.18592336122,-0.291572119502,0.235512490477,-2.52054447919,12.538460229,14.4564714207,-0.532242562702,6.6010809931,0.151263741593,8.7097469766,4.42384081523,-20.1199298129
off_to_on,5.6896441419,6.487084715,6.98459994632,-0.434917911271,0.20283850692,-1.39408854513,13.5946086877,14.765404746,-0.797104070327,7.73105521847,0.409138886641,9.99419110766,6.09830739922,-14.9351914078
off_to_on,7.01076115166,7.44418114394,8.17787564105,-0.580219704962,-0.0345560464353,-0.18260441243,10.8886854575,10.960075624,-0.973360426366,6.77215161283,0.471620502565,8.62612861715,6.16275016643,-10.9172177367
off_to_on,6.58614005189,6.54292037706,7.40835745894,-0.697434850763,-0.34054509979,0.847272624057,5.41342202527,4.19147030566,-1.00049782106,4.0356522153,0.322913628445,4.98946968032,4.60495422543,-8.98449018953
off_to_on,4.51289584066,3.96953574205,4.83334145407,-0.740688960755,-0.550540370448,1.53574237605,-1.11074322434,-3.56993884935,-0.842582452005,0.305757582319,0.0124545971431,0.0834054540548,1.83572757029,-8.17104980652
off_to_on,1.30751946505,0.353076504898,1.09006104453,-0.663936030273,-0.538627404575,1.83739592632,-6.79532341294,-10.1356519226,-0.505724128568,-3.39827809055,-0.362788306196,-4.76974355152,-1.42649423821,-6.41265712035
off_to_on,-2.22214768335,-3.3914435413,-2.87727133197,-0.440289242055,-0.268715053962,1.79285675745,-10.1534189912,-13.7416194647,-0.0434750435431,-6.1123440137,-0.686994120101,-8.29894032677,-4.34585231016,-1.83013926182
off_to_on,-5.18255563565,-6.30203906071,-6.07784792791,-0.0782251642444,0.189400218852,1.48545064998,-10.5007448474,-13.5358764399,0.452897420183,-7.18430249185,-0.856638340286,-9.63047272225,-6.18299487621,6.07666943833
off_to_on,-6.82518940886,-7.62660308822,-7.74459040972,0.371500648408,0.684796507885,1.00443567714,-8.0765645855,-9.7727162561,0.876956064123,-6.42760841829,-0.806380119923,-8.50802914517,-6.47853239,15.8617501404
off_to_on,-6.74157808679,-7.02626153853,-7.53465468832,0.821720038613,1.04140788468,0.427864958043,-3.87199993832,-3.67245984193,1.13551945006,-4.13695228161,-0.524499000147,-5.33055726576,-5.16200905216,24.46444301
off_to_on,-4.96970241195,-4.66736967969,-5.60310765188,1.16712945579,1.12400206673,-0.174537025068,0.751374482554,2.98940189848,1.1738574601,-0.973374005905,-0.0558289852314,-1.00745724623,-2.56242703696,28.3371091292
off_to_on,-1.98189453365,-1.17511701739,-2.53294240206,1.31072180842,0.889337915541,-0.728938126998,4.5097170866,8.42192816313,0.989621572351,2.23752788741,0.507139844856,3.31659664937,0.679071410512,24.9305626116
off_to_on,1.44347267455,2.53879491053,0.85104011057,1.1913639822,0.403384076236,-1.15008666476,6.56191506605,11.3173320132,0.631370213276,4.73064151085,1.04251917986,6.5808445787,3.77051236033,13.9342045265
off_to_on,4.43165050344,5.5254523428,3.72279880842,0.804695047751,-0.181732373036,-1.34993982825,6.68536060649,11.1653751946,0.182802381729,5.98636763593,1.42323829509,8.07890433205,5.96375060514,-2.25974062452
off_to_on,6.24433119264,7.05372519526,5.47515363155,0.210893500937,-0.682324484695,-1.263293462,5.231808658,8.30949017452,-0.261509691054,5.83081193682,1.54338229817,7.60913480425,6.73500337479,-19.1137663554
off_to_on,6.47058821356,6.79853257924,5.85571779867,-0.473917799751,-0.948875407283,-0.880648460176,2.91030598252,3.75609385624,-0.620662818255,4.43538091468,1.34250706532,5.4742226276,5.90814100033,-31.3799692351
off_to_on,5.12317122435,4.91053345438,4.98591084284,-1.10162003723,-0.918480564202,-0.27191105104,0.496770163268,-1.1782506109,-0.844604510996,2.22985847173,0.823524102962,2.34563341109,3.69201542343,-34.9201471944
off_to_on,2.61543250756,1.95139992719,3.2698539268,-1.52622297278,-0.63469996598,0.414514022644,-1.41885394402,-5.25847174398,-0.919565759035,-0.235198935958,0.0598399757949,-0.953937230898,0.624165846088,-28.2478799542
off_to_on,-0.370420069905,-1.28100512333,1.23449552087,-1.63997964097,-0.227783306118,0.984032241475,-2.56665260773,-7.64253437934,-0.861915580857,-2.43255769898,-0.811606043148,-3.67895665084,-2.56397671564,-13.2040096425
off_to_on,-3.08126002406,-3.98151256446,-0.639485440528,-1.40227897859,0.136968863078,1.25335319852,-2.98642410537,-8.03512121341,-0.704700175455,-3.97034803881,-1.61254378668,-5.33438052779,-5.12622969354,5.52485081583
off_to_on,-4.89656804988,-5.55114250369,-2.03984080153,-0.853419118521,0.3231216772,1.11495760718,-2.90549135326,-6.66552434352,-0.483237605135,-4.64940998031,-2.15854256802,-5.75273778051,-6.48044036753,21.919522516
off_to_on,-5.47818453267,-5.73443766774,-2.86431303962,-0.108811650684,0.27523225901,0.584587145147,-2.5754827695,-4.12829983133,-0.225580398455,-4.46309783268,-2.30097628495,-5.06842638046,-6.34291423266,30.666358138
off_to_on,-4.82682284932,-4.64713600686,-3.18043738741,0.666010959332,0.0395879078149,-0.188747603577,-2.14469471276,-1.16018344691,0.0491792228917,-3.55369906164,-1.96641386694,-3.6152127384,-4.78640592001,29.0072025218
off_to_on,-3.23747494352,-2.69697779778,-3.13269665431,1.29417940993,-0.254326609123,-0.958773477321,-1.61678178493,1.56821974964,0.325633098875,-2.14897437546,-1.182893932,-1.79308075357,-2.20965436604,17.7363143343
off_to_on,-1.17826218376,-0.433421596475,-2.84321020451,1.63072378639,-0.444913649749,-1.45610784184,-0.902289620774,3.58921681523,0.583910129898,-0.502295802492,-0.0842991723119,0.0470536078676,0.770676529795,0.969004922838
off_to_on,0.860483233171,1.61910856367,-2.35028810172,1.59922059831,-0.403268320789,-1.47790254627,0.0734206496638,4.68290941733,0.794042573002,1.14798391796,1.11122807021,1.66668917235,3.47531080157,-15.2627677572
off_to_on,2.49532163385,3.09067680284,-1.60987633523,1.21197086174,-0.0876654412222,-0.962840893275,1.26619032925,4.84525357994,0.917064109784,2.59599055288,2.14619273321,2.94171621328,5.32380031824,-25.1140548022
off_to_on,3.51891780977,3.82326127102,-0.556143813783,0.567755846765,0.432765042343,-0.0243411467146,2.46918729471,4.21609771037,0.91395056161,3.66943416243,2.78251577912,3.81874785039,5.96165071402,-24.9993976951
off_to_on,3.89731322905,3.85074977744,0.809328494485,-0.172976174612,0.994706040283,1.07232678339,3.35613827096,3.00646691037,0.759768875567,4.22708321383,2.8598838488,4.25794871361,5.324242369,-14.9023925203
off_to_on,3.71147871097,3.32444744482,2.34447515021,-0.829454004712,1.39281595585,1.98482228894,3.59785878315,1.45046173816,0.457589270697,4.16458345679,2.338298623,4.19657665091,3.62727263945,1.55224337846
off_to_on,3.07899035694,2.42397731117,3.75026376951,-1.24760139906,1.44989421295,2.39846355614,3.00360887222,-0.214051442267,0.0460473249463,3.43399869701,1.3127336452,3.55508511056,1.29337047791,18.3114145573
off_to_on,2.0953097926,1.29326616517,4.62981795896,-1.33990709042,1.08109764996,2.12811293844,1.62511956028,-1.74947819206,-0.403723513987,2.07296242639,-0.00520168797117,2.28612758929,-1.16008426112,28.9898537156
off_to_on,0.820860435289,0.025041152357,4.6113615978,-1.10696915894,0.330143764742,1.18432436583,-0.225747294737,-2.92721504431,-0.80237086992,0.230963678422,-1.33489784038,0.444855091859,-3.24013567715,29.1350198328
off_to_on,-0.684263862785,-1.30777325846,3.4947518127,-0.63450840043,-0.63514415732,-0.218377910893,-2.06025164375,-3.55446156506,-1.06422422348,-1.82333473304,-2.39194737466,-1.75461364085,-4.57552168041,17.877351363
off_to_on,-2.30112509827,-2.59851286397,1.36649638043,-0.0666305163434,-1.56705922886,-1.71517407359,-3.36993103238,-3.51759324484,-1.13018492615,-3.72679605384,-2.95429840301,-3.93094238126,-4.97360867095,-1.61656825976
off_to_on,-3.80625002607,-3.66729377333,-1.36658117495,0.436905464918,-2.2081735367,-2.89131583337,-3.79927814052,-2.82557622858,-0.984250009026,-5.08232023102,-2.91249900296,-5.59446018376,-4.43228595795,-23.0684550852
off_to_on,-4.87500226892,-4.26653342413,-4.05013784219,0.746820302198,-2.36559455237,-3.39956233747,-3.26747147006,-1.63000368976,-0.658230172036,-5.54629821623,-2.29163708381,-6.26695386853,-3.11426335063,-39.1050645401
off_to_on,-5.15007977199,-4.14224358969,-5.95040620021,0.800139781319,-1.96680352053,-3.06014116741,-1.99149186599,-0.20366091117,-0.22309835567,-4.92236018641,-1.24039704273,-5.63039180458,-1.29819938565,-43.7102264536
off_to_on,-4.36176174315,-3.13489732678,-6.47113388932,0.615076411947,-1.08107350922,-1.9144390493,-0.401274703157,1.1246478483,0.230172756036,-3.23422769504,0.00852209644256,-3.65603483967,0.678257050478,-34.3025272372
off_to_on,-2.45906238701,-1.28118558546,-5.35137219839,0.280754083827,0.0984211506712,-0.217801350323,1.0199960349,2.06180255912,0.614066317673,-0.752143160103,1.19513171846,-0.665054058256,2.47268081764,-12.7452881695
off_to_on,0.302570677517,1.12999614036,-2.77678478775,-0.0746161526296,1.30488282563,1.6253462219,1.90791550601,2.43720673715,0.86494599651,2.04233493097,2.09085091245,2.7107601627,3.78453538216,15.0598111535
off_to_on,3.36373817864,3.58278758031,0.638984198841,-0.326745674732,2.2649317374,3.16491633631,2.1342674822,2.25150982225,0.954603943168,4.55182771929,2.54473333029,5.66910396476,4.39395400963,40.8865972888
off_to_on,5.97246772234,5.44874315535,4.00632958182,-0.395601674752,2.76359354248,4.0184974143,1.82543443656,1.66633568614,0.89051059824,6.19947861527,2.50737355954,7.44516391176,4.19319821719,56.6770626043
off_to_on,7.38385710311,6.16400467601,6.4052689805,-0.270143545339,2.69105925735,3.96510148832,1.27795881701,0.936462199892,0.706373241108,6.57266097497,2.029446639,7.52899507078,3.2088232951,57.0369259846
off_to_on,7.09095810164,5.41493764594,7.15266921466,-0.00966973885167,2.06189288446,2.99690082491,0.809533770747,0.309263071611,0.447725588817,5.53535214415,1.23867680133,5.82573115216,1.608789417,40.9593687703
off_to_on,5.01078875811,3.26766931037,6.0093281766,0.278339986204,1.00565002857,1.31872591466,0.610216766191,-0.0692545695856,0.158366003756,3.27638576971,0.303941615115,2.70549703146,-0.313203719884,12.2458010204
off_to_on,1.55643736305,0.189909943572,3.26136528216,0.47628376559,-0.265177354498,-0.701508931839,0.658487745232,-0.203498205259,-0.12774751044,0.276782906783,-0.602975920187,-1.07854300995,-2.18155572176,-21.5041081702
off_to_on,-2.44092039905,-3.05348301963,-0.352015161788,0.49758853097,-1.50014743793,-2.61729519076,0.739560976087,-0.231158079886,-0.387429178512,-2.79883731169,-1.33885541065,-4.58543770655,-3.60908431916,-51.0274332602
off_to_on,-5.94767726737,-5.60732551748,-3.84519163691,0.317185518368,-2.45865799372,-4.00247029049,0.559811086968,-0.345511303479,-0.603624918617,-5.26044439105,-1.80825165732,-6.94059781414,-4.28227282973,-68.0224500823
off_to_on,-8.02089188618,-6.77457327175,-6.26644465532,-0.0188390697407,-2.95247426861,-4.54309728039,-0.091060830544,-0.688823998882,-0.759164846104,-6.55961524977,-1.96941350592,-7.57475655407,-4.04113494452,-67.4964302376
off_to_on,-8.08873155556,-6.22797495182,-6.96841908412,-0.407584417407,-2.87781266073,-4.10412824751,-1.20181229287,-1.26281084149,-0.83334025128,-6.42154434775,-1.8295725859,-6.37696517637,-2.92992635402,-49.1698521251
off_to_on,-6.12779455914,-4.11511142081,-5.78851566496,-0.722827563082,-2.23407828334,-2.75883651573,-2.49106504469,-1.89798791522,-0.804159517879,-4.90759187846,-1.43420174702,-3.71650667588,-1.19946823219,-17.5589230034
off_to_on,-2.67741512612,-1.02003459813,-3.08704909652,-0.856488129747,-1.12746755833,-0.776291146138,-3.47983382217,-2.30174136925,-0.656221402235,-2.39305864249,-0.854753375259,-0.328583418983,0.745825115702,19.2570233493
off_to_on,1.31699937995,2.20874130017,0.365360637765,-0.754323184501,0.24196013654,1.43060211662,-3.66708440359,-2.17292894889,-0.391147422445,0.531922655422,-0.177767416735,2.89991192794,2.44640068261,51.8117088515
off_to_on,4.78367559444,4.7100135761,3.61445253863,-0.434151398494,1.61037450268,3.3874220681,-2.74473947274,-1.34129096466,-0.035737044734,3.21011210252,0.503941559057,5.17865083363,3.50616031599,71.7565532819
off_to_on,6.83875692991,5.86120697254,5.79358765492,0.0191877131174,2.69590764806,4.65641132155,-0.765970682826,0.124888404226,0.356738796635,5.07356015558,1.09902245991,6.02193133544,3.69729302755,74.0161934572
off_to_on,7.03565667602,5.44972772346,6.35961502066,0.480197563675,3.25471548127,4.93221230308,1.80852219689,1.89245438479,0.714418743828,5.76879247099,1.52581302394,5.35753038543,3.01958831263,58.0405624764
off_to_on,5.47239280005,3.71238989193,5.22734650644,0.821526840017,3.13751724461,4.11551938652,4.21949240524,3.4403353149,0.962766175794,5.2219944529,1.72189679163,3.51050385029,1.69538699254,27.8618327958
off_to_on,2.72788430767,1.23559069978,2.76970735114,0.952483208209,2.33330652599,2.34709791442,5.64810059038,4.22282295988,1.04408477256,3.63351372794,1.65428757596,1.07586577229,0.101140515615,-9.01294754947
off_to_on,-0.344900280213,-1.24504301835,-0.30842159106,0.844995792709,0.986600976126,-0.00920924714557,5.50648557162,3.86650083357,0.93438681741,1.41022176447,1.32794990292,-1.27277938984,-1.34332872744,-43.5480462163
off_to_on,-2.89509553734,-3.07538123525,-3.1787925754,0.539256497192,-0.621272567981,-2.43588392808,3.67495834466,2.32971866579,0.651806204551,-0.941093922051,0.789540761743,-2.97558861113,-2.29333074497,-67.4442168493
off_to_on,-4.32621752883,-3.86746624136,-5.11668518624,0.128157696874,-2.12796373755,-4.37271612287,0.592473698714,-0.0392628446247,0.253357999042,-2.92977120929,0.123691639579,-3.72220136751,-2.56907509621,-75.1494890663
off_to_on,-4.44465279779,-3.58196570647,-5.68222329693,-0.273463453008,-3.17335383402,-5.34688470568,-2.8452381397,-2.57739070673,-0.179294117521,-4.17972762307,-0.559168875468,-3.49688822109,-2.19048582788,-65.132147768
off_to_on,-3.4645282261,-2.49082540572,-4.81106447404,-0.564169512584,-3.49093801643,-5.09197356988,-5.55768780671,-4.50081186239,-0.560703468639,-4.49239199437,-1.14203020686,-2.53179529504,-1.34975012627,-40.1342160909
off_to_on,-1.88084970552,-1.04494690663,-2.79932971186,-0.684387183164,-2.98275599247,-3.62502326183,-6.63600051861,-5.15895014192,-0.822607487525,-3.86778196763,-1.52378829227,-1.19667433275,-0.335060226983,-6.38246916822
off_to_on,-0.267248097755,0.297478093095,-0.198462142152,-0.629491616018,-1.75505898625,-1.25830269937,-5.662243577,-4.26387035547,-0.928610825543,-2.48743084198,-1.6398132928,0.1297120398,0.565726797972,28.0139790491
off_to_on,0.923750785233,1.21770742982,2.34188672954,-0.444608683044,-0.101055111585,1.46257456071,-2.87704025681,-2.01304304268,-0.878584399995,-0.668749161864,-1.47543717262,1.16215819582,1.1482961647,55.0633034756
off_to_on,1.4879647029,1.60946684294,4.23637394086,-0.204424829688,1.56850403519,3.8836545556,0.870799214959,0.944069117438,-0.702486234685,1.19818245351,-1.06877721724,1.75764239171,1.33621093576,68.7901450909
off_to_on,1.4873037898,1.56187759022,5.09118781861,0.0140457247018,2.83059062222,5.40239412238,4.38478688048,3.69361429967,-0.446934158346,2.7217824261,-0.501998977435,1.90646964965,1.17679552879,66.576848311
off_to_on,1.16536601203,1.27202151819,4.77132248991,0.156133200888,3.36296292885,5.6223039339,6.50952792657,5.34377580196,-0.160057657205,3.5801680161,0.116869852932,1.68460242758,0.797376237233,49.6391914001
off_to_on,0.806536400357,0.932498543025,3.40277222876,0.203725868167,3.03304395511,4.46138460113,6.51839279253,5.31817828832,0.119846789813,3.58451649263,0.677030252413,1.19740599076,0.344227881056,22.5514655109
off_to_on,0.602171959062,0.644968924247,1.32096822833,0.175365006954,1.93629410133,2.18339043475,4.367381032,3.55821393935,0.368446130309,2.72497374732,1.08721864621,0.542271546799,-0.0696839180211,-8.02424803199
off_to_on,0.579033251145,0.395024447245,-1.01398906132,0.113689829856,0.371705294826,-0.659697114319,0.725418998597,0.563350447222,0.572193157497,1.1876515887,1.29199483077,-0.197065835674,-0.389048706303,-35.0526287645
off_to_on,0.614919512705,0.0940552528861,-3.11346946118,0.0658888816314,-1.23974569553,-3.36205729908,-3.23367886398,-2.74949330326,0.720905413817,-0.667923762579,1.27864759739,-0.930906476609,-0.607802578098,-52.8285177566
off_to_on,0.527513913905,-0.337157178788,-4.55038092393,0.064694479597,-2.47093064059,-5.24210370234,-6.21113101894,-5.32672190215,0.800885316,-2.37576855975,1.07404173881,-1.53979398837,-0.738396643257,-58.2333655758
off_to_on,0.190942481092,-0.887500392878,-5.03203052115,0.116571575262,-3.00560989423,-5.8182250374,-7.20932676505,-6.31096333588,0.792956419125,-3.4686367159,0.733409801103,-1.87104998045,-0.778872713456,-51.2458812066
off_to_on,-0.376651494188,-1.4208110139,-4.44957129059,0.200646145094,-2.72316210767,-4.93561633881,-5.86200686812,-5.31936537062,0.677420001076,-3.60153380841,0.32498103489,-1.77031236948,-0.697867731411,-34.624900768
off_to_on,-0.997716710398,-1.71040201395,-2.89997152498,0.277865336184,-1.72713501687,-2.80981297116,-2.55830308507,-2.57689400704,0.444571987702,-2.66200600669,-0.0850641968754,-1.14388014717,-0.448005106161,-12.9168511256
off_to_on,-1.40286808416,-1.53407778782,-0.676684565242,0.306376251114,-0.310490808295,0.0256769958479,1.68017471484,1.13969801679,0.106451991376,-0.831683978264,-0.443601514003,-0.0282052471932,-0.00307452803554,8.87748486865
off_to_on,-1.35448886635,-0.791242054781,1.77406719119,0.257318123139,1.130956726,2.85477012925,5.52729904222,4.73103312404,-0.295810206048,1.42891716736,-0.71561082157,1.36788088897,0.599303921356,26.5671373274
off_to_on,-0.772362270184,0.410861844609,3.93086341272,0.125596779438,2.21064810728,4.96216849173,7.77588981199,7.10615572735,-0.693691249246,3.48120573763,-0.883501591078,2.67851911055,1.23377199275,37.6109493509
off_to_on,0.197255620879,1.74711766858,5.30065162018,-0.0676024210294,2.6561630357,5.81678000763,7.71739280895,7.5125308833,-1.00361479836,4.67750741511,-0.94273831757,3.46498139356,1.70115780567,41.3433049811
off_to_on,1.20705343677,2.75804174795,5.53095583127,-0.280759348019,2.37759575428,5.20728796133,5.35596104387,5.7635829623,-1.14752576464,4.55552579786,-0.89664090982,3.35217907241,1.784371796,38.6142429596
off_to_on,1.82820434023,3.0060938491,4.50533450208,-0.463857792688,1.48211698219,3.29472152397,1.39272768178,2.29583916092,-1.07580552722,3.00050812891,-0.752931251941,2.17550997547,1.33138945152,31.0692658105
off_to_on,1.72288720826,2.25097269678,2.39436714294,-0.571990785163,0.233860642711,0.568878277282,-3.00690049096,-1.9584343296,-0.785047136256,0.319585796759,-0.523331687515,0.0836118360757,0.335236256015,20.3994376795
off_to_on,0.802225904791,0.575866908443,-0.359180462938,-0.576607154579,-1.0260554575,-2.27928903278,-6.58028571542,-5.84081354982,-0.324223709439,-2.80595651031,-0.225823135891,-2.44991499481,-1.02351387064,7.86877038039
off_to_on,-0.698252776376,-1.59153953405,-3.12724072944,-0.471604071458,-1.97434397365,-4.5354359397,-8.3469009771,-8.29508320141,0.213830581363,-5.48922198557,0.112285819804,-4.72584853623,-2.39674388369,-5.71726716479
off_to_on,-2.26605173406,-3.58439190321,-5.24121457495,-0.273453024105,-2.38806191132,-5.64326536906,-7.88075787273,-8.65715590511,0.714055225685,-6.88655428218,0.45296593361,-6.01167611317,-3.35532292482,-19.6462347692
off_to_on,-3.27646896022,-4.70305793365,-6.16101129026,-0.0163814539361,-2.19364616817,-5.342914916,-5.39853083811,-6.82556816187,1.06801633894,-6.45622732159,0.749790027138,-5.77283984726,-3.52087263599,-32.7712689321
off_to_on,-3.22187916273,-4.45687018996,-5.62314121097,0.255284827472,-1.4727606204,-3.73148525576,-1.65040040805,-3.27094118964,1.20159016757,-4.14687874521,0.954621754562,-3.86859538952,-2.70140499405,-43.1517440231
off_to_on,-1.92273980557,-2.75673552242,-3.72396190292,0.495387298365,-0.428206911486,-1.23164668614,2.33555467469,1.10842601419,1.09331706291,-0.451402038448,1.02750109846,-0.642596910377,-0.982875451694,-48.1457399401
off_to_on,0.362406539785,0.0145478499448,-0.909524023503,0.663198476642,0.676439239253,1.52175356495,5.56286372711,5.23497836692,0.77815098976,3.69999761704,0.947006140945,3.13220724308,1.260725631,-45.0584857826
off_to_on,2.97881754461,3.08853891056,2.13082664025,0.7289739006,1.58471210337,3.8462401887,7.33019362776,8.13009129351,0.335893242121,7.18476948699,0.717717011276,6.44894721294,3.45095511283,-32.2007570753
off_to_on,5.06696927568,5.53470197927,4.64141172377,0.677779256658,2.10486059943,5.18409329338,7.37550346603,9.14696844429,-0.13170395154,9.00352416436,0.371969623914,8.34995242892,4.96284463428,-9.98698218058
off_to_on,5.84552332871,6.55264454086,5.99980678151,0.511796026199,2.14508766132,5.23827917529,5.87529802114,8.10344482464,-0.527909569887,8.57332546416,-0.0352650703564,8.21307047674,5.31095871325,18.3996422188
off_to_on,4.89055762253,5.73727645937,5.88264066649,0.251075429815,1.72222059162,4.03819756917,3.32383449092,5.29254514012,-0.784000412585,5.90929553217,-0.437355143557,5.95140446476,4.30499586895,47.1709803995
off_to_on,2.31147348185,3.22663183932,4.34982431239,-0.0676861666267,0.946844228933,1.92059127319,0.352008544108,1.38252187524,-0.87201596942,1.63689067447,-0.769872414714,2.0610414121,2.1234990663,69.0735545075
off_to_on,-1.2443713347,-0.320766616022,1.82292807886,-0.394961581329,-0.00750306320573,-0.566624489832,-2.44559900047,-2.75659260743,-0.804732981241,-3.17194530386,-0.983414724991,-2.50212544807,-0.720897687519,77.3037660908
off_to_on,-4.76889561228,-3.91575982542,-1.03536768558,-0.675118889351,-0.942214194351,-2.81008561344,-4.62425118046,-6.25160333385,-0.624544935265,-7.29175414847,-1.05184443157,-6.58186076578,-3.51684693516,67.6740685625
off_to_on,-7.19982677106,-6.53624908276,-3.50472362275,-0.85561211295,-1.67107339876,-4.28677382965,-5.92513356445,-8.40451228222,-0.386244405162,-9.67926514593,-0.9740437589,-9.1399796374,-5.55013922729,40.3281483325
off_to_on,-7.757507521,-7.43702510112,-4.99965323478,-0.897205043088,-2.05225003734,-4.68925841121,-6.25008180752,-8.81809243229,-0.140044459835,-9.75314693586,-0.769582802705,-9.53851046495,-6.30067649259,0.356241445049
off_to_on,-6.20009032516,-6.37211768746,-5.2162017784,-0.783019259423,-2.01188573205,-3.98945869812,-5.61209912815,-7.45293983857,0.0797614780813,-7.53776600749,-0.470771432475,-7.7032440652,-5.5815493229,-43.048092378
off_to_on,-2.91102776151,-3.65980686048,-4.19357243547,-0.524016314589,-1.55730450683,-2.42761874059,-4.09945676909,-4.61547727633,0.257798564892,-3.634039551,-0.114603682502,-4.12486187025,-3.58065302564,-78.7996797135
off_to_on,1.21149428038,-0.0732339351873,-2.27842434267,-0.15911619482,-0.777933654285,-0.43368380708,-1.87333434432,-0.886983223888,0.392921319721,0.966309910709,0.262331695628,0.295151841485,-0.796826978923,-96.9470469029
off_to_on,5.02725750543,3.40313849021,-0.00884355438537,0.25060476348,0.167860053334,1.49408031847,0.807558980734,2.99046488708,0.489247110476,5.16088869512,0.624659561028,4.50030456174,2.10484806615,-91.6356198056
off_to_on,7.49922912809,5.86889428626,2.04273409881,0.632687354999,1.08053765623,2.91837257436,3.56390915338,6.25246510725,0.547530634072,8.02480612883,0.935803866132,7.55636189281,4.47115939304,-63.0781798717
off_to_on,7.99908690213,6.75961513354,3.41968130398,0.916805490757,1.75932016055,3.56531963703,5.90933481695,8.25474356628,0.560832937517,9.02481572616,1.15537663708,8.87022923396,5.81889756823,-17.8511365721
off_to_on,6.47667810049,5.97968406506,3.88312650854,1.0481447925,2.04771986185,3.37517112539,7.32286794926,8.59755860592,0.516288571853,8.10689871312,1.24002689632,8.29597443893,5.93127821668,32.675636059
off_to_on,3.44497563211,3.88394822249,3.44305843912,0.997902613769,1.87431174019,2.49245220748,7.3755687119,7.20960167358,0.402050720103,5.64813240157,1.15024923965,6.1134209641,4.8746619073,75.3882354302
off_to_on,-0.20534389528,1.12784877422,2.31954067246,0.768970959651,1.2768608761,1.20434137119,5.87656590814,4.37187454125,0.216266798528,2.30546978015,0.862980473966,2.90450955897,2.94411576493,99.088538466
off_to_on,-3.49250376918,-1.55323956081,0.855413511535,0.39599594869,0.400160919628,-0.150260819426,2.98474698717,0.670319838876,-0.0259681318711,-1.17949823989,0.386587389606,-0.621071330849,0.566177654786,97.674519108
off_to_on,-5.63334951109,-3.55765477947,-0.587127646345,-0.0599130704703,-0.535817846637,-1.27247163344,-0.766090032729,-3.12013283741,-0.291025391439,-4.15696466164,-0.227597504464,-3.79394695059,-1.80582509178,71.872545532
off_to_on,-6.24418175504,-4.5574659205,-1.71449992039,-0.520788634526,-1.29202482459,-1.97039125808,-4.55682304862,-6.20041776622,-0.5318724913,-6.18131299476,-0.883497504771,-6.10406473625,-3.77505331615,28.9862690732
off_to_on,-5.39761811185,-4.53141363346,-2.35338400307,-0.904293810415,-1.67654288996,-2.18602306722,-7.47661507975,-7.92602906769,-0.698765851779,-7.04447151941,-1.45248181067,-7.25391834995,-5.04957903756,-19.2634664321
off_to_on,-3.53336849591,-3.69860881285,-2.46067684343,-1.13749955911,-1.60152279748,-1.98079892556,-8.77010432028,-7.95641524004,-0.752283038898,-6.74523518505,-1.79945842083,-7.15539912193,-5.45918351739,-60.142997197
off_to_on,-1.27005765924,-2.39439588357,-2.10045550114,-1.17021775976,-1.11207444713,-1.49117795319,-8.06264387678,-6.33530014253,-0.674567120171,-5.42816532406,-1.81763644203,-5.89572634477,-4.95444438364,-83.5110177747
off_to_on,0.806476264335,-0.943891410756,-1.40457920713,-0.985932331309,-0.375534226808,-0.873462929354,-5.48835112252,-3.47780580783,-0.475199098907,-3.32700906791,-1.46249369988,-3.69895184443,-3.60281274783,-84.5366324128
off_to_on,2.30415568589,0.420096017986,-0.533542357527,-0.608149192793,0.368442822491,-0.257448584272,-1.67304577489,-0.0647086204966,-0.18985646645,-0.733357721095,-0.773920567065,-0.897630297973,-1.58824312108,-64.7441556868
off_to_on,3.08842371574,1.57407548881,0.352149837144,-0.100048986478,0.8833460826,0.277704082702,2.42994948949,3.12957967698,0.12779926627,2.01043764561,0.122421952948,2.08796815879,0.790922344206,-31.1436508468
off_to_on,3.24408463521,2.46627728648,1.10853551875,0.443987070061,1.01344566089,0.702096613925,5.80441227172,5.4290049236,0.418538016087,4.51345419802,1.03803491005,4.77867497179,3.13974708318,6.18792717308
off_to_on,2.96934844417,3.05789400974,1.617845397,0.914914712805,0.737665447517,1.01501102267,7.65516602914,6.41516595715,0.630700159954,6.35904150444,1.7649548452,6.69038005518,5.01405583549,37.2431080787
off_to_on,2.45744651125,3.28228645999,1.79819803676,1.21142143854,0.179982334178,1.21921177407,7.62290834907,6.01087837725,0.730569940312,7.16472362625,2.12879066357,7.41890387551,6.00117793471,54.926651763
off_to_on,1.81805231996,3.04827771433,1.61688653783,1.26373494995,-0.429788031349,1.30321431174,5.8640011456,4.46796763572,0.707638559755,6.67498456416,2.03655082903,6.74231610523,5.82146194751,56.7504351998
off_to_on,1.06651023356,2.28860444816,1.10454601062,1.05289163514,-0.834226207785,1.23999770068,2.9740811958,2.26832972291,0.574122890649,4.86014136342,1.50475842852,4.70938100809,4.42237453235,44.9531569874
off_to_on,0.175075211813,1.02915876496,0.362131850248,0.619525988175,-0.840722841465,1.00229940611,-0.214288660241,-0.0270362322059,0.359760319015,1.98074710137,0.658419074618,1.67591754096,2.03013365965,25.1591863015
off_to_on,-0.848228304902,-0.559475996977,-0.448480726715,0.0581968948021,-0.396652001226,0.586579551237,-2.8896936785,-1.93248403484,0.103976791932,-1.4201952776,-0.300183971077,-1.73960206608,-0.869395106737,4.15903866835
off_to_on,-1.89900568516,-2.16277436589,-1.13502506588,-0.503071906966,0.380180626604,0.0332861798183,-4.49045904673,-3.14948604626,-0.15222667077,-4.61442620224,-1.14471263208,-4.78534947706,-3.62883793276,-12.3664406167
off_to_on,-2.77013046897,-3.38900577138,-1.52266975149,-0.93392616386,1.22953026203,-0.567997650543,-4.83315684932,-3.60683069344,-0.372830280668,-6.86057774893,-1.68487754952,-6.76320262574,-5.59779957295,-21.4141216169
off_to_on,-3.20921757955,-3.88637461451,-1.50624683869,-1.13557771972,1.8294416754,-1.09396499366,-4.1084949497,-3.42619876976,-0.530893185286,-7.60582226662,-1.81586789497,-7.22062995278,-6.29887734358,-23.0724335074
off_to_on,-3.01847402541,-3.46979376293,-1.08876057773,-1.06779810292,1.90535795152,-1.42038763317,-2.75925487316,-2.83515895297,-0.610242124241,-6.65389642068,-1.54263128816,-6.08534309409,-5.56692561334,-19.7842575656
off_to_on,-2.153455571,-2.20673170125,-0.389747960122,-0.760532385748,1.33189236103,-1.46139326832,-1.29414061635,-2.06524972753,-0.605425812484,-4.24044737769,-0.972225610504,-3.69382780233,-3.60429836677,-14.8755674616
off_to_on,-0.77411708346,-0.422457462361,0.384009803514,-0.305745896937,0.191813785963,-1.20060461445,-0.108986236927,-1.2739027979,-0.52076423328,-0.982971957029,-0.277346081773,-0.697453488555,-0.929371954329,-10.9966753528
off_to_on,0.780885574138,1.38658316418,0.999587109662,0.16897341111,-1.23078209491,-0.701532538737,0.62244287376,-0.515876244268,-0.369078209579,2.28688930826,0.357007787659,2.12887285522,1.76991037757,-9.09633539027
off_to_on,2.09437645918,2.70718263205,1.27225908846,0.537646550609,-2.5252181047,-0.0917421902794,0.956976121112,0.231847660699,-0.170265334797,4.76032239031,0.786815516702,4.11554026011,3.83340175243,-8.28970310546
off_to_on,2.81097012308,3.17919635844,1.12767597522,0.712709126166,-3.27631334032,0.475056757049,1.09916592309,1.00952323113,0.0504529323542,5.88336159552,0.945929362321,4.88936366799,4.81461899895,-6.59862493536
off_to_on,2.76391231529,2.71893330002,0.628805591697,0.669792040683,-3.19639060123,0.866379827574,1.27025573242,1.80981574698,0.264882501652,5.50886214289,0.856074236975,4.46311613886,4.59562052762,-2.188229292
off_to_on,2.03707243554,1.54842575782,-0.043995159569,0.45240046982,-2.22477523624,1.01120410833,1.58733160635,2.54039243908,0.444901363462,3.9187406391,0.608535919819,3.19438356603,3.39520462068,5.46716977361
off_to_on,0.93434340085,0.116244340477,-0.654723827616,0.154813305892,-0.561208237585,0.918659107345,2.00250625728,3.03304230158,0.565964950304,1.71025338352,0.325370029046,1.63093394033,1.67132621484,15.0139468635
off_to_on,-0.135172926662,-1.06412423276,-0.994425659253,-0.111257818047,1.38017408769,0.668439984841,2.3243900083,3.09815525292,0.610538209105,-0.413564259415,0.114285735466,0.300643116845,-0.0450562542377,23.5166678277
off_to_on,-0.81356412262,-1.60037544704,-0.955244881134,-0.255138148245,3.08447256629,0.376603361387,2.30909468218,2.60358604951,0.570798863728,-1.87649013415,0.0327124066164,-0.475979176808,-1.32467590983,27.5329624106
off_to_on,-0.931143509888,-1.36312475562,-0.568364787619,-0.237752566699,4.0835700166,0.149622344285,1.77970155646,1.54550594889,0.450068546234,-2.40482632962,0.0726446766874,-0.681484417858,-1.96224845825,24.547807665
off_to_on,-0.568839022825,-0.529511084042,0.00895188791989,-0.083775285963,4.0925724304,0.0440935912348,0.722467944659,0.0803921354491,0.262713545391,-2.08755423412,0.170190351218,-0.571249226305,-2.00670944577,14.1850379818
off_to_on,-0.0188620201376,0.48914163141,0.553206552871,0.128898775395,3.09321320259,0.0474960546091,-0.681320193147,-1.49867675733,0.0325797415167,-1.30430448847,0.23506934655,-0.531606690324,-1.69524003525,-1.32109367383
off_to_on,0.343237011745,1.20978711324,0.859473180417,0.298759970245,1.33884014319,0.0875247258025,-2.10193986118,-2.83714379043,-0.209747419176,-0.55218151201,0.188640921524,-0.884316204777,-1.32319284378,-17.6396475526
off_to_on,0.225627743057,1.26966165116,0.819215526061,0.339008131591,-0.719782025995,0.066630625121,-3.1682847314,-3.62122639427,-0.430500618707,-0.238464191522,-0.00341623501472,-1.71737331695,-1.10530928078,-29.7107711453
off_to_on,-0.440968943604,0.574837202037,0.461155087824,0.211005796151,-2.56402337886,-0.0914471881229,-3.59329199007,-3.67190044337,-0.59680475652,-0.5174237057,-0.315211087678,-2.81351738719,-1.08506198453,-33.4980927534
off_to_on,-1.45148931176,-0.652529535013,-0.0611097039879,-0.0592050299236,-3.75189433037,-0.401425732934,-3.26904221771,-2.99742329729,-0.681032411533,-1.23194881349,-0.666703514057,-3.71096026592,-1.12808357174,-27.4868972311
off_to_on,-2.38809894009,-1.94865218222,-0.530656711069,-0.38755455988,-4.03381090262,-0.799013950514,-2.2959873185,-1.78600458919,-0.665163964938,-1.98090638492,-0.949125506956,-3.87921250725,-1.00062591988,-13.3568362294
off_to_on,-2.77703245303,-2.77877117608,-0.75453837213,-0.659851223874,-3.40665335834,-1.15469229485,-0.937902930835,-0.342032270207,-0.544679195065,-2.28590382073,-1.06064959722,-2.94589705554,-0.498584741772,4.45745552619
off_to_on,-2.28340104898,-2.74146261945,-0.642678444925,-0.771434862579,-2.09396017272,-1.31566956397,0.476083077808,1.01027814798,-0.331225396775,-1.79379753115,-0.940112317091,-0.886416904178,0.429118961671,20.2043438432
off_to_on,-0.868355804514,-1.73005280111,-0.246617845138,-0.664748710127,-0.463787839333,-1.1621638901,1.66093350908,2.02067773765,-0.0531114181477,-0.437633457416,-0.587813452469,1.90259947767,1.61820138407,28.7687336998
off_to_on,1.15642561617,0.0107321195083,0.25863127111,-0.351539171258,1.08559896208,-0.658087339985,2.45284707691,2.57123842337,0.247233163847,1.50632261204,-0.0672357145107,4.68517337143,2.71961844701,27.4561032432
off_to_on,3.20551162842,1.95658263044,0.644216679943,0.0883471751525,2.23440068074,0.122812298005,2.82646482307,2.68122326956,0.519195679918,3.48979081333,0.511932931119,6.60535089374,3.31762286924,16.9648022887
off_to_on,4.60718849862,3.48005187436,0.722340017384,0.53144941676,2.81182479024,1.00648376153,2.85198610138,2.46199609372,0.712808056435,4.86920411856,1.023200026,6.97324892637,3.09305857555,1.18084510708
off_to_on,4.83772976502,4.06866907239,0.428962997385,0.850187531015,2.81170022813,1.76291479827,2.61898716004,2.04523722986,0.788945955852,5.12641592652,1.355519191,5.51790679425,1.96827522504,-14.1568273486
off_to_on,3.71783085374,3.50577228145,-0.139961017847,0.953843770961,2.35641518547,2.17241345136,2.16835543838,1.51773845179,0.728582215544,4.05533956068,1.43897874539,2.51373254408,0.17307633946,-23.4687130254
off_to_on,1.49707058562,1.94835068796,-0.756115975394,0.817036121012,1.62955855367,2.09311825468,1.46937848067,0.892184758458,0.538551006977,1.84810854854,1.25770062705,-1.27154369337,-1.80161115548,-23.3237378236
off_to_on,-1.20908485766,-0.126233931516,-1.14311738821,0.486157612065,0.805989269003,1.50807429879,0.457063371838,0.126962401269,0.251835866282,-0.950341347037,0.848459072769,-4.79791799365,-3.35380579238,-13.7003438952
off_to_on,-3.61222701647,-2.08487867746,-1.08731712655,0.0620445398921,0.0051965194855,0.536459431047,-0.885634211748,-0.814366895306,-0.0783140204559,-3.60436421979,0.287958202867,-7.07353139468,-3.97498188749,1.93895714746
off_to_on,-5.00858336385,-3.35460605502,-0.532676340555,-0.334561150259,-0.718470227246,-0.595159746399,-2.44150257189,-1.89256322268,-0.389439074182,-5.41138392228,-0.325684444599,-7.46797134923,-3.43586832595,17.8075523679
off_to_on,-5.01121605849,-3.61171216106,0.37907261884,-0.602352123722,-1.35163727051,-1.61313611147,-3.91813930606,-2.94769816159,-0.623518587721,-5.9123358367,-0.891538751688,-5.91215440566,-1.88328769761,27.8049832819
off_to_on,-3.67477330977,-2.87735682868,1.34281614626,-0.689884109779,-1.88091257939,-2.27057509423,-4.8880812058,-3.70860315097,-0.739719841901,-5.02030854489,-1.32070288727,-2.91623347275,0.192580831932,27.6906277241
off_to_on,-1.46875367872,-1.48834604041,1.99122160736,-0.606994295218,-2.25851686126,-2.41293111135,-4.91334431515,-3.86476246545,-0.722859161726,-3.02891890918,-1.54625435343,0.60079206291,2.11496966787,16.6669789682
off_to_on,0.890448362944,0.0416883149115,2.02878501076,-0.414259600003,-2.39421036377,-2.01674233996,-3.7189363727,-3.18182967756,-0.58534958696,-0.503930463259,-1.52937484316,3.61136655173,3.24984907205,-2.18848433191
off_to_on,2.6878151024,1.21571560359,1.350309998,-0.195559290678,-2.18093231948,-1.19154508562,-1.35075456639,-1.61982087601,-0.362296966788,1.89970331049,-1.26343444559,5.3069639326,3.22781346112,-22.8169257642
off_to_on,3.44910310977,1.72799843561,0.0983675806924,-0.0247420135769,-1.54583444687,-0.146183231076,1.75259236901,0.594945113762,-0.101418178668,3.63124553949,-0.776934821999,5.34230976609,2.07853030186,-38.1224632104
off_to_on,3.08660220303,1.55627488954,-1.36552794859,0.0608835246501,-0.505561601279,0.869190644702,4.82170399758,2.98228941352,0.149073712056,4.38545386602,-0.134414641268,3.91630671729,0.227059424604,-42.3339711583
off_to_on,1.90185846055,0.940949414906,-2.57078984302,0.0705618758847,0.799948362949,1.62809975493,6.95402612712,4.91586567967,0.35103705286,4.15214071214,0.56710938234,1.66794835641,-1.65010488751,-33.003927115
off_to_on,0.448990043644,0.264718120127,-3.09357847527,0.0505242792744,2.11498474195,1.98184858143,7.39620499623,5.80212954154,0.482582900109,3.16919975788,1.20876829005,-0.569821832341,-2.86099690948,-11.9760310856
off_to_on,-0.686858554504,-0.116342623297,-2.70530620624,0.0593639889787,3.12219083575,1.88943118,5.81999699835,5.27673432555,0.538677247309,1.80753114923,1.66849275436,-2.06730842222,-2.94393063191,15.0140821624
off_to_on,-1.11141312987,-0.0221139599143,-1.46112364111,0.138627071881,3.53060466353,1.41768060665,2.49033009264,3.35131002962,0.526929956307,0.436190867759,1.84561148354,-2.44067177768,-1.83593458767,39.9992087323
off_to_on,-0.760867153113,0.480347486371,0.304733328942,0.290646218173,3.1702825153,0.71448558257,-1.74903347065,0.453537082444,0.460905052456,-0.683425472206,1.6860689161,-1.75750040565,0.0969344968757,55.1910287976
off_to_on,0.0908891144336,1.11024407149,2.07792703875,0.472777881632,2.06066649211,-0.0354657898845,-5.68916055612,-2.66503501628,0.353911659851,-1.44285799094,1.20095533254,-0.474704083155,2.17990252193,55.3911204413
off_to_on,0.956744023018,1.49594809107,3.32555611871,0.610830652187,0.426090166032,-0.659586606207,-8.11599426289,-5.13541555927,0.215713085537,-1.86673445974,0.471467669091,0.76086925514,3.65981777652,39.6542592781
off_to_on,1.34221022662,1.33709772112,3.66630674807,0.62701800554,-1.35184683401,-1.03836528039,-8.2064125288,-6.23287352852,0.0531501113884,-2.04860070086,-0.363480697215,1.37061840771,3.9660074188,11.6910665584
off_to_on,0.952284680713,0.540565862428,2.99194384512,0.472044418724,-2.83427503616,-1.12908578469,-5.8270240783,-5.61127463797,-0.126114531554,-2.07742920445,-1.13580122809,1.06455127915,2.91126797437,-21.1132243249
off_to_on,-0.180412768927,-0.724384428188,1.49962547954,0.149089450691,-3.64825614098,-0.967968526311,-1.62516905055,-3.43059092558,-0.308956890744,-1.98833120723,-1.68648535593,-0.0553971437434,0.763533102831,-49.7682367682
off_to_on,-1.69533110058,-2.0746061375,-0.37463455989,-0.27982071412,-3.59486058495,-0.651824177795,3.13471954059,-0.328794829893,-0.473992676241,-1.75594066591,-1.90352108214,-1.54280442626,-1.83616134423,-66.2215449113
off_to_on,-3.03186527602,-3.04760955729,-2.09717073766,-0.708283905295,-2.7073964149,-0.305022769359,6.95142282206,2.76140637012,-0.592719793663,-1.32769474973,-1.74884157198,-2.78250385729,-4.08073509744,-65.6342361296
off_to_on,-3.63740782721,-3.27115452321,-3.20354048318,-1.01654991453,-1.24052977793,-0.0408023108769,8.56869052016,4.89862687868,-0.635149862385,-0.676184960553,-1.26652610499,-3.2261347451,-5.25818052867,-47.7431584843
off_to_on,-3.17769127153,-2.60347374028,-3.4349678937,-1.10882811749,0.406721138027,0.0727989179573,7.40126768001,5.43235146638,-0.578582954952,0.157685121972,-0.569921355256,-2.59949696286,-4.97884329767,-16.9428215622
off_to_on,-1.6710672865,-1.19113937054,-2.80096627746,-0.944290604484,1.80965034142,0.0330461975773,3.758140644,4.21808002031,-0.416674653404,1.05331860177,0.188382485129,-1.00689779739,-3.29465177717,18.9082757831
off_to_on,0.502966060485,0.57683230395,-1.55216863194,-0.551351960244,2.64033358859,-0.0975409684986,-1.22257333866,1.67412497088,-0.165426904047,1.83780615419,0.854796661946,1.10244248288,-0.674678276354,50.5987103714
off_to_on,2.72402593706,2.2007320214,-0.0791914511781,-0.0205888299055,2.7553470526,-0.212576615658,-5.91864944718,-1.34410784854,0.13655141716,2.34084753657,1.31021678457,3.08984603556,2.14936215649,69.9976845356
off_to_on,4.33594552478,3.23802860745,1.22210692607,0.521083126588,2.22235077865,-0.199726340456,-8.74476452078,-3.81674077572,0.434429536364,2.4533256477,1.49324611586,4.34529120921,4.41171080407,72.1540673981
off_to_on,4.86285139365,3.44534570913,2.06994199481,0.946242917448,1.27993794798,0.0152257785488,-8.68153956741,-4.893336268,0.668927074632,2.16399798319,1.40605799188,4.48911339446,5.53811556259,56.5214702345
off_to_on,4.16016299191,2.84410667572,2.36109970374,1.16121126448,0.247335675474,0.431957371529,-5.63539596459,-4.17943396794,0.790365749114,1.55865925564,1.10347930002,3.4877833357,5.29733347065,27.0228822013
off_to_on,2.4500421359,1.68983861441,2.16469302566,1.12834760764,-0.583497107171,0.960320295922,-0.502690078886,-1.87953441681,0.771020422254,0.782978631569,0.670851452644,1.64833790966,3.83724136752,-9.01941764817
off_to_on,0.233884010001,0.362200111875,1.65704339224,0.87069657858,-1.03645286802,1.43489444988,5.09309847258,1.25476126966,0.612205746976,-0.013587001716,0.198863364628,-0.499043469808,1.60546882105,-42.7762008498
off_to_on,-1.88150863293,-0.778014400063,1.03084036285,0.459500935025,-1.09206072527,1.65948795143,9.31356281393,4.1595854876,0.344098733382,-0.727160912235,-0.236832547668,-2.38206144836,-0.807903926544,-66.1223872135
off_to_on,-3.37870465629,-1.5084739982,0.418598461233,-0.00945391733782,-0.869984719931,1.47142667422,10.7037599492,5.80392369126,0.0184722449776,-1.31995963828,-0.586361425754,-3.56386618685,-2.84688060183,-73.6081649509
off_to_on,-3.97661453024,-1.79738903714,-0.139173221754,-0.441901266487,-0.563720956265,0.806825116579,8.68076317517,5.53415798467,-0.303435525326,-1.80365175171,-0.826034035299,-3.85692287985,-4.12784689996,-63.7155907228
off_to_on,-3.68291489963,-1.77321600334,-0.672241038102,-0.765406603474,-0.354456601282,-0.255628278172,3.74854381191,3.30479912368,-0.56443283391,-2.19534331611,-0.95144959978,-3.34109119105,-4.5031054334,-39.1202871969
off_to_on,-2.74315186784,-1.63129413903,-1.22087505468,-0.939205343193,-0.337300543061,-1.49127388463,-2.63703676262,-0.282941586218,-0.722685654998,-2.47012329487,-0.968257944275,-2.29140124759,-4.04411062628,-5.92960383041
off_to_on,-1.51650486302,-1.52193017164,-1.77058338921,-0.953457899743,-0.487142539181,-2.57458097052,-8.51491908933,-4.15184535759,-0.758254871731,-2.53760663701,-0.88520306619,-1.05321814996,-2.96741129195,27.8837476489
off_to_on,-0.332957419916,-1.47067866351,-2.21653552114,-0.821681000237,-0.67568275255,-3.16546731981,-12.0358371156,-7.07794641664,-0.67397175018,-2.26051305997,-0.711908666801,0.0824156954588,-1.5420446401,54.4472460809
off_to_on,0.611377255536,-1.36653622409,-2.37993801273,-0.571746084782,-0.731600770417,-3.01432563037,-12.0509443967,-8.0754932402,-0.491496585452,-1.51440180377,-0.461035781208,0.956910678528,-0.0156256736899,67.864106673
off_to_on,1.28436032624,-1.02380908435,-2.07537187037,-0.239804373842,-0.519601433314,-2.05358932961,-8.48146561216,-6.71543465952,-0.244593462382,-0.267070204667,-0.152249639105,1.55316519257,1.4195989162,65.545375157
off_to_on,1.77046746082,-0.290890044097,-1.20406659505,0.131451368902,-0.00706827933494,-0.443799404496,-2.34969933195,-3.27531979231,0.0280395853897,1.35707927306,0.185226906372,1.94337620487,2.62162219151,48.6902703786
off_to_on,2.17578978487,0.842482552073,0.166622786961,0.492093121467,0.708261993724,1.44669671647,4.53805735133,1.32845287468,0.288598290779,3.06165197934,0.513694685685,2.20796570259,3.47364139084,21.825275068
off_to_on,2.53394885519,2.18962063191,1.77604635197,0.785753833622,1.42162608535,3.12961060893,10.1532409262,5.80626748002,0.503936761899,4.43006785037,0.791896455285,2.36700786454,3.86508919967,-8.44911280385
off_to_on,2.75903751824,3.39373732266,3.21637396132,0.955519000234,1.88851879864,4.13103643055,12.8699253399,8.87670730357,0.647618210745,5.03729172128,0.982011962769,2.35647094865,3.69793150953,-35.1573945029
off_to_on,2.66962407505,4.03507488085,4.04529392756,0.955925723516,1.91230711676,4.13365525357,11.9535977211,9.64586662277,0.701218976097,4.58869180824,1.05604581763,2.05922593797,2.92104622753,-52.6422398695
off_to_on,2.07561251233,3.78253012799,3.93124913631,0.768359059777,1.42048259497,3.08212849827,7.76199528765,7.86860192574,0.655797195725,3.0381019128,0.999458903316,1.37515774207,1.57758614878,-57.8168433661
off_to_on,0.89080845061,2.53328254509,2.78094704187,0.414046200608,0.501260507916,1.21538186449,1.60218102642,4.01421568038,0.513801181673,0.63937279937,0.811547900857,0.296784368898,-0.160636296668,-50.6763753049
off_to_on,-0.779568511688,0.484748687736,0.800726370698,-0.0419897027462,-0.614107533833,-0.989283121954,-4.70015305593,-0.878985776403,0.290831005367,-2.09430311391,0.503916897385,-1.04612358157,-1.99619777328,-33.9842649128
off_to_on,-2.61967422124,-1.89414412072,-1.53645113893,-0.500499878893,-1.61890612268,-2.94753140001,-9.37278884466,-5.51069492294,0.0160367203797,-4.51777818897,0.0993429360134,-2.39648793008,-3.55732761075,-12.2834925316
off_to_on,-4.169487207,-3.98908373806,-3.61477194391,-0.850964734751,-2.22638726169,-4.13679773972,-11.2243739419,-8.69009977546,-0.270104357749,-6.03135699019,-0.367239437532,-3.43498954181,-4.48796285508,9.43375346836
off_to_on,-4.96014214712,-5.22436305829,-4.85428030416,-1.00236622653,-2.26106903285,-4.25058461196,-9.96334461666,-9.65937238151,-0.521240315405,-6.25219657505,-0.845882305434,-3.87757508697,-4.54909365303,26.9886022325
off_to_on,-4.67252743748,-5.24279103984,-4.88788257453,-0.91217240667,-1.71510101159,-3.28901218915,-6.21946785135,-8.2768318473,-0.693305312507,-5.12385522941,-1.26956676719,-3.56895164363,-3.69593438052,37.8546878966
off_to_on,-3.26148991245,-4.0196607491,-3.67843497374,-0.603123369591,-0.750767717189,-1.55568285393,-1.27956459204,-5.01516615457,-0.753690442381,-2.92832701809,-1.55711316963,-2.53686063448,-2.10150498515,41.3832954566
off_to_on,-0.997802174306,-1.87159763035,-1.53637339404,-0.160542165071,0.351472860393,0.439090388223,3.35937133713,-0.788691405895,-0.688998878858,-0.197977682073,-1.62465095373,-0.987371984223,-0.115363663684,38.4427932996
off_to_on,1.5917244975,0.642027410555,0.969072309008,0.290842219315,1.28167724041,2.1378568568,6.4637137232,3.3261620796,-0.509025385207,2.44131985255,-1.40626493973,0.755588941951,1.83050031655,30.6977375643
off_to_on,3.8694926468,2.89013440692,3.17690095464,0.624300731646,1.79608195839,3.1065359533,7.409334521,6.38654088431,-0.245512661294,4.44235795584,-0.879891143576,2.34241495151,3.33746575397,19.8585086374
off_to_on,5.27079594381,4.35444690877,4.52600170591,0.750887974097,1.78834371788,3.16022092949,6.29923099067,7.8084907535,0.0542785788189,5.46815328006,-0.090217932967,3.48738431091,4.13928613303,7.20854487541
off_to_on,5.46548898638,4.76636387873,4.71088012014,0.648084651171,1.31399346672,2.40380731082,3.83493435934,7.46605000705,0.337597352163,5.44481557802,0.841634873094,4.02548904187,4.15320465647,-6.42742253854
off_to_on,4.44546950111,4.15491170898,3.7544067237,0.366936250782,0.562098652739,1.17614023734,1.00772598948,5.65323372175,0.557167239283,4.52849568272,1.73001369739,3.92256566624,3.4711136518,-20.3191437333
off_to_on,2.51233956995,2.79816920343,1.9793597233,0.0144373368281,-0.214033699429,-0.0804649869373,-1.26882331029,2.94119652177,0.680214460729,3.01082275309,2.36067608784,3.24545272388,2.30155886752,-33.3066166255
off_to_on,0.17425908754,1.10494170332,-0.105852345573,-0.283429889436,-0.782128829292,-0.977948720466,-2.45359506964,-0.00987025171381,0.693399236001,1.207355352,2.54487682433,2.11482573245,0.890744276678,-43.446162946
off_to_on,-2.0091416343,-0.524369222464,-1.96529442828,-0.42550119043,-1.00308568765,-1.3113273267,-2.50488808609,-2.62053657684,0.602861064648,-0.625380223135,2.17766222848,0.667549626106,-0.544431819319,-48.1095376052
off_to_on,-3.58047403964,-1.80652888203,-3.18466556122,-0.370731469665,-0.86684984118,-1.11370848596,-1.81156089903,-4.49786394543,0.430111666473,-2.31644682777,1.28197141066,-0.953772992733,-1.84755524518,-44.6379037993
off_to_on,-4.28894458499,-2.62009511362,-3.5665636114,-0.152261547083,-0.482450284521,-0.619984092151,-0.97253539541,-5.46193072173,0.20564037221,-3.75142736877,0.0215766739966,-2.5843720141,-2.91340247493,-31.4014866832
off_to_on,-4.11920568529,-2.98116500971,-3.14926976347,0.135151991296,-0.028779808478,-0.155399813154,-0.520370094937,-5.50874797476,-0.0375415727409,-4.81549859127,-1.3263417341,-4.01239717835,-3.65375790974,-8.89182372012
off_to_on,-3.2475873697,-2.9738785502,-2.1543550441,0.370236669109,0.314285774649,0.00700051435731,-0.698240267816,-4.74454621699,-0.268668788233,-5.34997001477,-2.43600816659,-4.97297253464,-3.96620814434,19.627191493
off_to_on,-1.95333607182,-2.67551965126,-0.891391217109,0.450453310177,0.42930859368,-0.235543057927,-1.372617273,-3.32844581855,-0.461612593105,-5.15745857437,-3.01947684482,-5.18331756229,-3.73226054707,48.3036974356
off_to_on,-0.523919506409,-2.11396329279,0.341731859339,0.331047775486,0.297628212677,-0.76839729583,-2.10816466623,-1.44653534723,-0.595374822133,-4.06708332397,-2.90997395588,-4.42234209861,-2.85600389935,69.8597168536
off_to_on,0.811575270503,-1.27648656825,1.32939809566,0.043471232705,-0.00218027168838,-1.30315345399,-2.36856805196,0.681971929953,-0.653945858111,-2.03946911973,-2.11598286504,-2.63354988023,-1.33214168101,77.523420861
off_to_on,1.90475676074,-0.16221727466,1.96302536445,-0.314024676295,-0.330574316991,-1.4969850763,-1.76042300029,2.78598413982,-0.626863073392,0.734289662326,-0.827107557544,-0.0106554249926,0.687386500902,67.2001151378
off_to_on,2.67176943396,1.15233240192,2.22395680724,-0.610772069021,-0.542869901685,-1.1028538049,-0.223262684371,4.53953442984,-0.511162217234,3.79312682501,0.633099908718,2.97898233603,2.86629389857,39.17540337
off_to_on,3.06086936937,2.47388246707,2.14441130872,-0.730987863964,-0.543506410518,-0.0919479619099,1.9088190574,5.59658150129,-0.314350703174,6.46362005743,1.89541304798,5.6627203046,4.72461318618,-1.2983632516
off_to_on,3.02995330449,3.50872563423,1.771556225,-0.616937257282,-0.31949476828,1.30217494199,3.99917381756,5.66690043237,-0.0570363281741,8.01747553091,2.64859179364,7.32107235184,5.75070488856,-44.8855155817
off_to_on,2.55087938991,3.94003041946,1.15292766631,-0.292061454217,0.0576461450094,2.64069598778,5.32203398273,4.61341511536,0.226604862733,7.89016046867,2.72678670368,7.39800899677,5.55756700671,-80.4201097436
off_to_on,1.63969454796,3.54248106472,0.346656966372,0.144822787732,0.460334625774,3.42340984998,5.32069437134,2.53449292025,0.491974559951,5.89032915424,2.15336819533,5.69753889381,4.0323050691,-97.9614112429
off_to_on,0.394579352107,2.28973421641,-0.555415445857,0.552744667505,0.751929258464,3.2711636646,3.81782057213,-0.207867171167,0.6911500195,2.32177257609,1.12738952917,2.49506281329,1.42096555075,-91.7654476532
off_to_on,-0.984997188932,0.406912945658,-1.41228944367,0.79767228857,0.834636686566,2.08129741366,1.1026808675,-3.03883634772,0.782785281987,-2.03893864291,-0.0426819564618,-1.48749078468,-1.69344157882,-62.2366752703
off_to_on,-2.21922209482,-1.66259159672,-2.04426469088,0.799931744495,0.681472212297,0.0965645649081,-2.13637193403,-5.2987670086,0.742370838201,-6.12055690837,-1.03616643852,-5.25163404679,-4.52773551369,-16.1807144967
off_to_on,-3.01319840831,-3.37509618706,-2.27513145795,0.562727770075,0.342138402533,-2.14384861485,-5.01236990611,-6.41715300574,0.569829264071,-8.84817567396,-1.61650491296,-7.79626707067,-6.31693124532,34.82386572
off_to_on,-3.14899650362,-4.25432506024,-1.99488595602,0.171168578293,-0.0774710050214,-3.96174621666,-6.70688631389,-6.08039207435,0.29185453506,-9.46073787399,-1.69562450441,-8.41445252989,-6.54785453507,77.5319149846
off_to_on,-2.5704489383,-4.05094534259,-1.21802928889,-0.238193356881,-0.453195484362,-4.75708459594,-6.71706414564,-4.33765321018,-0.042231967527,-7.75253334658,-1.34650297944,-6.91736517043,-5.1300446218,100.730700601
off_to_on,-1.42355663943,-2.83447939022,-0.10893449438,-0.526525074069,-0.683633889146,-4.21266629571,-5.00491925734,-1.60551908042,-0.370455751511,-4.15525749655,-0.762079654439,-3.70793379988,-2.44184600285,98.4291867305
off_to_on,-0.0285767814587,-0.979740981516,1.04489040762,-0.602818471456,-0.720057884217,-2.41529201319,-2.00558923121,1.43645179763,-0.631569159919,0.373464239923,-0.177087166473,0.326915979551,0.771019874596,71.5648743778
off_to_on,1.21476581714,0.952517685754,1.91134173378,-0.456593131208,-0.576128028137,0.151602821615,1.50244404896,4.0311604869,-0.778351305501,4.62574782618,0.218226843764,4.07691953859,3.61723879224,27.698715338
off_to_on,1.95973121458,2.40148342956,2.22163272949,-0.160987458622,-0.316215961658,2.74625412683,4.61981995253,5.5545945088,-0.787355347617,7.49835582425,0.341531848728,6.54129008968,5.33217351637,-21.212802965
off_to_on,2.03492190854,2.99310898662,1.86964732458,0.155260289721,-0.028696642602,4.59575519034,6.57133401849,5.68639717409,-0.662710798864,8.31389484918,0.237135164475,7.12681109751,5.51104399092,-62.2844440844
off_to_on,1.508137866,2.66000107539,0.963200655868,0.35700061732,0.204902812921,5.1390583512,6.90257819439,4.48766734083,-0.433363767747,7.00549687919,0.0449821495722,5.81430427389,4.22475256423,-85.3463528676
off_to_on,0.66243786389,1.64993614526,-0.197945368913,0.355097765349,0.333882682606,4.20613977963,5.57809963894,2.36367483206,-0.145007481533,4.10750169062,-0.0665873453485,3.14004578692,1.97932559478,-85.666355234
off_to_on,-0.112196184242,0.4196045446,-1.21643930172,0.142593587541,0.348330577708,2.07403095014,2.96441760279,-0.0730869275835,0.150691711876,0.559676487549,0.0225148579422,0.000984431429381,-0.46630323845,-64.9634457715
off_to_on,-0.474190691324,-0.546480811887,-1.7349831158,-0.19933562564,0.273914472714,-0.619081042921,-0.284953399941,-2.19215704262,0.406535683592,-2.60543150924,0.328249556888,-2.64795937059,-2.36023479689,-30.4813067962
do_nothing,-0.273690391976,-0.922976666984,-1.5688496881,-0.528798761796,0.156001387151,-3.0736243874,-3.40169245589,-3.52420034707,0.587417732471,-4.58500887283,0.749559795037,-4.10058929689,-3.20448617384,7.49579240647
do_nothing,0.374724174512,-0.664575049462,-0.782802428018,-0.694971989183,0.040760928685,-4.57696066741,-5.68331584879,-3.87407067243,0.673893658271,-5.03151120652,1.1043224766,-4.10693154748,-2.90347977227,38.8332720949
do_nothing,1.12451107732,-0.0133875922158,0.320706639889,-0.596029010391,-0.0393295592749,-4.71981843583,-6.64045762824,-3.33738711205,0.66190984044,-4.11153690992,1.20125641628,-2.91508720918,-1.76483702708,56.4160865249
do_nothing,1.52980502954,0.610913382244,1.3037546415,-0.22217145892,-0.0712974876343,-3.51229477412,-6.08520063414,-2.22479764344,0.560000393741,-2.38874266449,0.920735276065,-1.1404643713,-0.356831675412,57.8373742076
do_nothing,1.23256170993,0.795868084459,1.75294653869,0.332608495216,-0.0589105884074,-1.36527504031,-4.15291258179,-0.929302304531,0.385672319756,-0.583167103251,0.273214501367,0.483795302998,0.721387602394,45.4828164988
do_nothing,0.132964462705,0.322848081656,1.44035739951,0.895735093942,-0.0150674198325,1.05206574632,-1.26384127176,0.211269916652,0.162351902154,0.69980631647,-0.588581812203,1.38105780273,1.06980328999,25.1382828169
do_nothing,-1.52751549245,-0.720527341898,0.424436733465,1.27096006645,0.0455666565608,3.02816832734,1.96217799673,1.00769420659,-0.0825871840484,1.17171445933,-1.41099656549,1.33032935944,0.632094586849,3.72082847838
do_nothing,-3.2125337505,-1.95142513873,-0.951359158129,1.3049948709,0.109886896008,4.02626765164,4.82278065284,1.44068577331,-0.319121482272,0.925609518316,-1.92182652126,0.521051178508,-0.297861145084,-13.0289878212
do_nothing,-4.2617045255,-2.8283991445,-2.16854043392,0.943222191672,0.164962706067,3.83391623572,6.66673231746,1.61216529787,-0.516177196933,0.348386937408,-1.9255746434,-0.550635381518,-1.20769331848,-22.1205047292
do_nothing,-4.1318847492,-2.8658193905,-2.71801710282,0.254961140081,0.194529071568,2.60181487131,7.02740415266,1.65579687723,-0.644459057185,-0.0760582733367,-1.37756497477,-1.29933761801,-1.58422518934,-23.7064782811
do_nothing,-2.62303629338,-1.84505157549,-2.29477405931,-0.581336489776,0.177663839322,0.767647059512,5.73525224695,1.6503002189,-0.68079155266,0.00982496975117,-0.409330551063,-1.2955244973,-1.13224888053,-20.3098112632
do_nothing,-0.00123783324636,0.0619863422272,-0.930753016878,-1.3292460826,0.0931512922608,-1.10162518742,2.98445319836,1.57494519851,-0.613302360499,0.677189226547,0.705756950532,-0.443743043574,0.091170473353,-15.3151582413
do_nothing,3.03718104739,2.31203743513,0.987543983428,-1.76595417716,-0.0700641837981,-2.49155198058,-0.670677983683,1.32641891459,-0.445949335505,1.67652807971,1.63674000155,0.973712629626,1.68068286563,-11.3867404395
do_nothing,5.56176826116,4.15575554355,2.83082677414,-1.75139230679,-0.299931846763,-3.08571977371,-4.40471503995,0.788362064099,-0.200587587581,2.54104292623,2.10151902887,2.40344667239,3.02635048846,-9.44127065038
do_nothing,6.70682958016,4.89655872984,3.93556209768,-1.27271743339,-0.552395091653,-2.83239109534,-7.29191162405,-0.079258795802,0.0848098859962,2.78507114583,1.95948004011,3.23644268641,3.54495407925,-8.53668225225
do_nothing,5.97399262991,4.15208201169,3.83951705872,-0.449944790246,-0.753275013908,-1.92033285876,-8.53000596263,-1.17419830662,0.36211518768,2.11769495009,1.25854175732,3.04971900177,2.91229945846,-6.6460895856
do_nothing,3.43142177901,2.02100320581,2.46094436192,0.498871677722,-0.814512386627,-0.683790032347,-7.66493165658,-2.24483025523,0.582197313761,0.585520876625,0.220253556686,1.78163990956,1.20758089013,-1.92663312896
do_nothing,-0.267064985335,-0.912240653549,0.15405429233,1.32160220463,-0.662670841769,0.521744059468,-4.75228264978,-2.95397217101,0.705133018467,-1.41419367359,-0.832254305806,-0.226687355981,-1.08804767383,6.09789404527
do_nothing,-4.06033731994,-3.74629247353,-2.38556286637,1.80487227266,-0.271518026904,1.42669275533,-0.398148992651,-2.99583224291,0.708835967195,-3.25893531471,-1.57915048402,-2.34126306458,-3.24323218708,15.974162021
do_nothing,-6.80473448853,-5.5541112084,-4.33969003352,1.83330545024,0.313405609664,1.90382607745,4.35067705563,-2.22375892879,0.593786322242,-4.32013964026,-1.8062574702,-3.85697439001,-4.52711367617,24.6473062623
do_nothing,-7.64103602028,-5.69900581614,-5.03949145967,1.41780812103,0.969997607581,1.96383790676,8.25483701609,-0.737502727237,0.38261156033,-4.19473548488,-1.47076456289,-4.25006570141,-4.46975188231,28.579594961
do_nothing,-6.28078322552,-4.0650285885,-4.19833960902,0.685927104135,1.52119991479,1.70453335076,10.2116597441,1.11028096979,0.114728795223,-2.86162323835,-0.709136129762,-3.36841353173,-3.03759135791,25.225927998
do_nothing,-3.11286179034,-1.11767825414,-2.02345239142,-0.160607912725,1.78090699946,1.24409057144,9.57584161388,2.80074394174,-0.162380597535,-0.702870479873,0.213945910361,-1.48953935628,-0.658513686744,14.2678728743
do_nothing,0.909876240069,2.23199580221,0.83607530847,-0.906298136324,1.61265896263,0.670675777712,6.37459641912,3.80647436383,-0.402875770408,1.62051124993,0.996789158129,0.775043855618,1.91544140184,-1.92128854276
do_nothing,4.57004838302,4.9186568729,3.49174272624,-1.38099294329,0.982955258373,0.0286970713635,1.34364537153,3.76902202621,-0.570816438929,3.3942263116,1.400210575,2.69419676331,3.86115233244,-18.8262953785
do_nothing,6.77360660007,6.07299860673,5.10325460271,-1.50047654214,-0.00998771841369,-0.657871691749,-4.24033302569,2.63385568011,-0.645253808953,4.09599472162,1.32181142905,3.67208881164,4.56468642939,-31.2129957014
do_nothing,6.89756297118,5.31252577953,5.15531921968,-1.2785774655,-1.14549969583,-1.34346222808,-8.89402815653,0.691343213409,-0.621563080616,3.57135227934,0.821301456409,3.45137893183,3.82985506287,-34.9376284224
do_nothing,4.98197145687,2.87302953829,3.62982833541,-0.81059660759,-2.13002656466,-1.92808912202,-11.3380215278,-1.49708567186,-0.509567536954,2.07663230606,0.0907964134988,2.1921196832,1.9414279116,-28.48406634
do_nothing,1.70321249402,-0.465302024464,1.01420975029,-0.236637324419,-2.6760097191,-2.25780779979,-10.8645773894,-3.26869196124,-0.329754310302,0.175047441882,-0.616986514522,0.400038314318,-0.438860619523,-13.6434433794
do_nothing,-1.86018985626,-3.63318859353,-1.85790368928,0.301537391638,-2.58811418027,-2.16690051742,-7.55154881489,-4.07137541865,-0.109032216421,-1.47402942526,-1.07601317032,-1.26686935583,-2.50586833468,4.95451803859
do_nothing,-4.58800333489,-5.62310862578,-4.08049866174,0.696462708924,-1.83020042363,-1.54947407324,-2.25435162957,-3.64698541808,0.122927275847,-2.35359409694,-1.15923930286,-2.24054748442,-3.59073479458,21.336949682
do_nothing,-5.68219334355,-5.81754030592,-4.97134444048,0.894487368235,-0.550230730042,-0.431269825248,3.6261833453,-2.12249999604,0.336436537267,-2.26716004949,-0.872408972657,-2.24442257314,-3.38762786533,30.2091811155
do_nothing,-4.91253444422,-4.1848721992,-4.29098698906,0.896378059554,0.948087631493,0.992817239687,8.53416097941,0.024517956374,0.503954027178,-1.39205029743,-0.340554323058,-1.38134769458,-2.04839122493,28.7950465652
do_nothing,-2.66493022054,-1.27920755524,-2.31184862234,0.743068294978,2.28202256943,2.38056063902,11.1926686212,2.11733683707,0.602291701491,-0.190874539153,0.244629635822,-0.0781516123339,-0.11396123166,17.8352661146
do_nothing,0.217467314932,1.95253249111,0.283749144222,0.494618609385,3.09446372414,3.3272038645,10.9537041023,3.4992254512,0.615317685491,0.782385142192,0.695297918,1.0895152649,1.68998304309,1.36904430351
do_nothing,2.73927579534,4.48785079619,2.6394753543,0.210887951016,3.15621391021,3.49138582046,7.96253297581,3.74735339399,0.537047202638,1.10603565827,0.889886915594,1.62436006411,2.71767494718,-14.6494117944
do_nothing,4.09483470044,5.56152018075,4.01269332274,-0.0603370921219,2.43497656779,2.72078159831,3.09252957489,2.80946161422,0.374361091571,0.657975529528,0.806311240243,1.30059662865,2.63247033269,-24.4320342369
do_nothing,3.92884387582,4.90287284453,4.01573964745,-0.286394965302,1.10919695491,1.13072917501,-2.32340600572,1.01724333135,0.148178741251,-0.337412317444,0.516844746355,0.250713460359,1.51920468026,-24.412385418
do_nothing,2.42970058742,2.80186403387,2.73039917381,-0.446643579131,-0.478798651472,-0.898741226649,-6.87864041943,-1.02774797578,-0.108011136495,-1.40068309535,0.150127219009,-1.08612605819,-0.158375347533,-14.5492234363
do_nothing,0.230741967572,-0.0115557703506,0.660362621474,-0.527895016871,-1.91747432054,-2.81575576113,-9.47815955237,-2.65650587791,-0.352744909567,-1.99213295398,-0.162730044477,-2.13417845728,-1.73684369364,1.59445742936
do_nothing,-1.83754683595,-2.62672867674,-1.45718197293,-0.522531643127,-2.84091061918,-4.05603165018,-9.61202167273,-3.35437044254,-0.543817493868,-1.73534510075,-0.33647868161,-2.40570124611,-2.60183004828,18.0463862098
do_nothing,-3.05085592531,-4.25735662889,-2.91186917022,-0.430850184075,-3.02980445135,-4.22010931876,-7.44566272867,-2.92736932266,-0.646690625138,-0.583155358465,-0.356839259764,-1.69576804559,-2.41509195427,28.4981948846
do_nothing,-3.0406458213,-4.48805606141,-3.26062398212,-0.265965525643,-2.46886370642,-3.20983738393,-3.71550976383,-1.55804805992,-0.642003385075,1.13954692476,-0.274880683869,-0.173956787295,-1.23788306332,28.5491526123
do_nothing,-1.90418346744,-3.38282737868,-2.46610241949,-0.0573921057274,-1.34425604639,-1.27589787789,0.522607094291,0.265841767514,-0.53013634266,2.83624376764,-0.175537784014,1.6626374426,0.492948177899,17.343428486
do_nothing,-0.142241190883,-1.42676910678,-0.88884182425,0.150679670057,0.016822351995,1.04416284003,4.20517534499,1.92290412998,-0.33147620127,3.84901483312,-0.134889969176,3.15985905596,2.12611374764,-1.97804407131
do_nothing,1.54548595519,0.669222868928,0.858813712648,0.308256573239,1.24487025657,3.08195649303,6.53682699208,2.86951216316,-0.0821898081939,3.70344517594,-0.184395658833,3.74004700552,3.03500722497,-23.1919070188
do_nothing,2.52733709887,2.22566640386,2.14087164811,0.373948285707,2.03439486106,4.24087954652,7.156128892,2.81858506509,0.173433192794,2.29859669831,-0.296592208536,3.11504332525,2.84808683604,-38.9914020884
do_nothing,2.46968571004,2.82136158483,2.52473406153,0.330068382076,2.22580330671,4.18103098309,6.15984349752,1.82629543006,0.392083979931,-0.0294371149666,-0.397566898916,1.40184864649,1.58770382562,-43.4189645308
do_nothing,1.44767353583,2.4134126843,1.92688414299,0.19215959534,1.83954563835,2.92650225027,4.00141119884,0.260377009852,0.539695777524,-2.59756291378,-0.400553338355,-0.901620912085,-0.332110474728,-33.9286947633
do_nothing,-0.0994279883276,1.31552175027,0.628165427323,0.0078790590084,1.05483865805,0.859613117315,1.31506180287,-1.3351116584,0.596968864011,-4.59192588372,-0.246603671537,-3.07398642351,-2.24789372699,-12.3894818678
do_nothing,-1.54651715331,0.0513864821477,-0.842678038343,-0.156211719566,0.14273867403,-1.39682696768,-1.26948185029,-2.42892154433,0.561191873115,-5.33775362975,0.0644048832767,-4.40775431724,-3.47850561319,15.3187370346
do_nothing,-2.32473678874,-0.856782084055,-1.91156660137,-0.236682930059,-0.623055784789,-3.1718589573,-3.26689276745,-2.67945144841,0.444508681578,-4.53042731444,0.465276924819,-4.44559485308,-3.56472522362,41.008650478
do_nothing,-2.13609125612,-1.08475248352,-2.17253586228,-0.196848920572,-1.0486886697,-3.95199994695,-4.40269354053,-2.03992212108,0.2697036376,-2.34799450653,0.83955596276,-3.13528886811,-2.43291736778,56.6645563595
do_nothing,-1.06185948102,-0.617310643501,-1.53475379041,-0.0431730867604,-1.07078762887,-3.53512935097,-4.60938184785,-0.759520250452,0.0650234230714,0.594315179095,1.05992844502,-0.851397131618,-0.426110172563,56.925414895
do_nothing,0.473047569781,0.262601568792,-0.251309251343,0.172560309748,-0.76175793313,-2.08511384881,-3.97843653976,0.714816742821,-0.140565890836,3.43324749732,1.03302533001,1.72269950226,1.80780732489,40.8009013226
do_nothing,1.86391119939,1.09756716584,1.17853489777,0.367678686273,-0.291499913632,-0.0722209139838,-2.70180967171,1.89752014128,-0.320844811343,5.32766355934,0.734278473427,3.8119136399,3.53188278106,12.0909030693
do_nothing,2.55561275185,1.44269021387,2.19631695534,0.456036013421,0.138877986787,1.87902658193,-1.02784221417,2.42706321201,-0.45440285085,5.72057542469,0.220202375803,4.79317590196,4.16602109421,-21.6200269469
do_nothing,2.25210980535,1.04517625448,2.39180451699,0.379632795641,0.367835687559,3.18434186733,0.761723382289,2.1767620426,-0.525735399109,4.50814306191,-0.38626568798,4.38632877834,3.48001335673,-51.0900181998
do_nothing,1.02913934,-0.0495171435385,1.65570992469,0.13334433752,0.325308128345,3.47479646663,2.3647713464,1.27936280764,-0.526012437063,2.06321117609,-0.932117459241,2.73246190225,1.66982535294,-68.0365558092
do_nothing,-0.690259578817,-1.50296133264,0.223040389126,-0.226770110887,0.0501001746936,2.69945853607,3.48131562931,0.062961856858,-0.453951596404,-0.89002655143,-1.27966632118,0.338639882369,-0.706500536309,-67.4789345874
do_nothing,-2.28738959103,-2.79786716681,-1.40789844062,-0.595974688846,-0.330578955905,1.12744574574,3.85960936969,-1.07331206744,-0.316760734279,-3.50523666346,-1.34573768815,-2.08810208797,-2.90991197675,-49.1408068121
do_nothing,-3.17078565336,-3.41989514296,-2.65138318699,-0.851535805356,-0.650228950928,-0.746160330512,3.36373383111,-1.79643503563,-0.130639479577,-5.07043524118,-1.12232825425,-3.8602749785,-4.25703487424,-17.5344032574
do_nothing,-2.98949320926,-3.04292742208,-3.0421700483,-0.892390609683,-0.762897048653,-2.35684034632,2.04150672225,-1.94103392686,0.0799015982367,-5.21018434005,-0.673460600416,-4.51181516459,-4.33466743585,19.2684724241
do_nothing,-1.76042892296,-1.65333139112,-2.40179545387,-0.674930018454,-0.593537921828,-3.23903344183,0.159828789491,-1.54326213118,0.28448870212,-3.9738627035,-0.111349675853,-3.92105835255,-3.12390718799,51.8089727102
do_nothing,0.134694636854,0.429353657188,-0.904997276448,-0.232590886226,-0.163113206193,-3.15578133446,-1.82239111287,-0.801673885934,0.451168806356,-1.79042507762,0.438395509961,-2.32248893684,-0.997252133964,71.7435577378
do_nothing,2.08034749626,2.64213118807,0.976448311516,0.328246154376,0.418175874566,-2.15444459587,-3.35463095784,0.013421952407,0.551916516977,0.686196023381,0.870231833865,-0.212189434414,1.4058882109,73.999079379
do_nothing,3.43834872728,4.34853862136,2.63218713183,0.856024865289,0.985563988475,-0.538077969797,-3.95054553423,0.66363037308,0.568173441951,2.78421347259,1.12053226973,1.81531039833,3.38138937897,58.0258094689
do_nothing,3.7642268135,5.03309155464,3.51853136602,1.19763573226,1.36992692824,1.23244545822,-3.35386071216,1.01919339026,0.495003145446,4.00520293566,1.17301681552,3.24310246086,4.37392821473,27.8556714628
do_nothing,2.95363918594,4.45797225959,3.33966290536,1.24465587933,1.44737528503,2.6721429894,-1.65532751194,1.08256388696,0.342683525395,4.14263786606,1.04947307598,3.76661269986,4.13527732654,-9.00450412259
do_nothing,1.27004068587,2.73387581859,2.14349398136,0.967752976475,1.17372449102,3.40161812768,0.690540366591,0.95558784223,0.135200489342,3.30000581068,0.792480316523,3.35126391343,2.78180170584,-43.5196589932
do_nothing,-0.75247810146,0.285879691922,0.301378569618,0.428244610718,0.595236452249,3.23873606086,2.97097268532,0.769927908714,-0.0940631657264,1.81591079165,0.448580801513,2.20543185279,0.739667918321,-67.3929195592
do_nothing,-2.49371067932,-2.27124831191,-1.61875256338,-0.237181760156,-0.16517907137,2.232833783,4.42272608164,0.614226270272,-0.308415496222,0.132418434387,0.0584699752341,0.688383592226,-1.39823240078,-75.077429613
do_nothing,-3.45277076946,-4.30683961796,-3.04025092847,-0.854268283273,-0.940147375432,0.639596830419,4.4821801496,0.491179429089,-0.474294863921,-1.3436515499,-0.343568649002,-0.809384200267,-3.05412124561,-65.0491283124
do_nothing,-3.40335515591,-5.34342966596,-3.56173536554,-1.26024508768,-1.5581559828,-1.15030231654,2.9952495686,0.323643850382,-0.566685555256,-2.34168250996,-0.723545335718,-1.97267935505,-3.82823252031,-40.0582460628
do_nothing,-2.44821223495,-5.17266492824,-3.07595390996,-1.34951528019,-1.88136297364,-2.70703280531,0.309816177377,0.00694534128804,-0.572569429138,-2.76519596607,-1.04069436631,-2.62483652929,-3.59551504901,-6.33690411887
do_nothing,-0.95963189206,-3.88930560943,-1.78681192015,-1.10253563571,-1.8328669736,-3.65860024401,-2.79295501698,-0.516361972831,-0.49209934534,-2.66716656887,-1.24548429102,-2.73662150874,-2.51320280822,28.0068839775
do_nothing,0.566721743895,-1.84147002679,-0.12408821388,-0.589755248367,-1.4095927248,-3.76971236393,-5.31972390015,-1.19440884666,-0.337751911801,-2.18511289796,-1.28618151793,-2.38999449914,-0.945701557586,54.9908860394
do_nothing,1.68824633272,0.479945642792,1.40973426381,0.0499044851496,-0.680902475002,-2.98989963209,-6.37620282858,-1.84865251794,-0.132043552844,-1.46914646409,-1.12322523329,-1.71992924894,0.66200306527,68.6568983029
do_nothing,2.15801262148,2.57462537848,2.40464861286,0.649028190056,0.22445472184,-1.46499394687,-5.47035003596,-2.21651193584,0.0955876287689,-0.633014138091,-0.74663897328,-0.861081513686,1.91850892971,66.4076371831
do_nothing,1.98505414953,4.04923450763,2.6634409839,1.05802549688,1.13970501732,0.488528367181,-2.70514703193,-2.04485675528,0.312338648268,0.256256229794,-0.189554581329,0.0808541060965,2.5861381595,49.4756656006
do_nothing,1.39625391633,4.68788680352,2.23925908585,1.1843941849,1.88680583056,2.44260603718,1.21064726443,-1.20249563753,0.485893835934,1.1535763954,0.468459954973,1.02707947334,2.62071100017,22.4414222365
do_nothing,0.720656485254,4.4659651731,1.38399430308,1.01426742929,2.30622490372,3.94226170472,5.14840200472,0.232155961469,0.588540164117,1.99523541212,1.11144451857,1.90170229245,2.14675652172,-8.04202361204
do_nothing,0.244868864347,3.51548227806,0.433229907198,0.611274654903,2.28712292778,4.60339425527,7.89203054658,1.94786632655,0.601383348149,2.668498837,1.609209507,2.60455895672,1.38526026697,-34.9632241844
do_nothing,0.0970725270464,2.06337357992,-0.325162310597,0.094501444166,1.7940453574,4.20622613947,8.51599753783,3.46155085841,0.518172682682,3.01243081651,1.84629684009,3.00100836949,0.5646456122,-52.649827172
do_nothing,0.204292617983,0.367929144942,-0.748560568099,-0.396911461096,0.884554595258,2.76341919515,6.68898039066,4.25374594644,0.347885486209,2.8569400828,1.75013837004,2.94137063488,-0.152240905258,-58.0147188998
do_nothing,0.338172524126,-1.32706915507,-0.868643154287,-0.741837720964,-0.288603440904,0.542376385743,2.80335240924,3.94022073964,0.115066947855,2.089529372,1.31098221088,2.30926008325,-0.701609251245,-51.0551414718
do_nothing,0.229729902171,-2.81276099657,-0.845330844558,-0.867350217162,-1.49594680544,-1.97213681158,-2.11589829235,2.42378136661,-0.142852166854,0.725141124118,0.588511486406,1.08384044081,-1.10578142422,-34.526937119
do_nothing,-0.293616073095,-3.91525085631,-0.868679563668,-0.763554952613,-2.47151864604,-4.17593897059,-6.69956155098,-0.029002178937,-0.381393861751,-1.05062288182,-0.296375092316,-0.608493764232,-1.42484803616,-12.9499829379
do_nothing,-1.20498036607,-4.48906770032,-1.0519499278,-0.480476404217,-2.97005812637,-5.48789078672,-9.63361713651,-2.82138548825,-0.55724983405,-2.88853526092,-1.18265086383,-2.47837977558,-1.69688210415,8.71869985291
do_nothing,-2.25341041843,-4.41919764344,-1.36221062673,-0.109492871739,-2.82961932177,-5.5046919647,-10.0476472279,-5.17174905265,-0.637217284914,-4.3411198191,-1.89865709689,-4.11023600701,-1.89426651473,26.3354808586
do_nothing,-3.03338745453,-3.6406309524,-1.61977878432,0.2442961229,-2.02354840076,-4.12636228197,-7.77345577614,-6.33490995017,-0.605681339155,-4.97457074805,-2.2944443447,-5.05177138419,-1.91687777822,37.3931498821
do_nothing,-3.12844434588,-2.17328635189,-1.57020395592,0.49064205868,-0.685253052971,-1.61262018403,-3.39597539491,-5.83563755578,-0.468579417836,-4.49781850383,-2.27146330974,-4.93775301667,-1.62811174303,41.232104762
do_nothing,-2.27941166531,-0.158884236151,-1.00273172794,0.576136552886,0.905985544668,1.45484001442,1.9165901453,-3.64129182168,-0.252561289138,-2.87005047761,-1.80481208608,-3.61439002617,-0.922228351464,38.6740650038
do_nothing,-0.515290079398,2.12028772004,0.131444320661,0.494598265804,2.38036806141,4.30420175749,6.74881806889,-0.214206713812,0.000682269404589,-0.350441710252,-0.954130455125,-1.22464202613,0.202545631491,31.3071689152
do_nothing,1.80578070281,4.25941995952,1.65119054021,0.284343593264,3.364392708,6.17112117424,9.83695589816,3.58201725221,0.243589484893,2.53212584506,0.139787576132,1.7791734395,1.59606283714,20.7528388501
do_nothing,4.06919169187,5.79491767978,3.16192100259,0.0143069939513,3.57867239931,6.51067956677,10.4121199172,6.70442271787,0.433046981153,5.08968528116,1.2742010706,4.71144082708,2.95854569404,8.21700609051
do_nothing,5.57526168325,6.30708670588,4.16088334702,-0.236435743507,2.92036007349,5.1628888897,8.39107395122,8.22230006707,0.539184618261,6.64286146379,2.21873850329,6.80888351084,3.90247449454,-5.51805808258
do_nothing,5.75903801588,5.53869727512,4.20202602547,-0.400008681085,1.5051928105,2.41959633869,4.36794519924,7.59529041644,0.550462075761,6.70379156458,2.76084607453,7.43115513565,4.06246995569,-19.713897072
do_nothing,4.38827125616,3.49522922924,3.06619972453,-0.436540142339,-0.346679456706,-1.03371613391,-0.578653950902,4.85434872225,0.474013484066,5.12462554916,2.75458849444,6.25356689902,3.22225833444,-33.1495240988
do_nothing,1.67222079554,0.491432925498,0.875451368579,-0.342612135554,-2.18205178454,-4.29187496304,-5.19617570627,0.62683623551,0.331642226587,2.16755834124,2.16186473784,3.39470108529,1.41703290026,-43.7804901887
do_nothing,-1.76058000288,-2.88051205288,-1.89532660566,-0.149871761772,-3.52766180461,-6.47491771265,-8.39115271201,-4.00936623488,0.153081465552,-1.52936573677,1.07413159222,-0.566052659038,-1.02809319445,-48.8630730502
do_nothing,-5.01713764728,-5.86543037683,-4.52413195285,0.0851881769534,-4.01602490969,-6.97545081896,-9.49193704457,-7.80801597293,-0.0312439608873,-5.08975250143,-0.294792203696,-4.69879906659,-3.54669055505,-45.6385684448
do_nothing,-7.18650929403,-7.72142361687,-6.24051350923,0.29719314304,-3.48958721174,-5.63608076198,-8.37785466196,-9.69694409085,-0.195881129698,-7.61043075769,-1.64806181462,-7.94345766405,-5.4638411477,-32.4198174066
do_nothing,-7.60631089028,-7.91541518798,-6.45947431232,0.429277940044,-2.05273485597,-2.80268821636,-5.45593832822,-9.08455475369,-0.323204926282,-8.39554433743,-2.67170796957,-9.38814266141,-6.18219514939,-9.69900327781
do_nothing,-6.068475237,-6.28408182575,-4.97729557206,0.447442988679,-0.054412429452,0.765279603745,-1.51055398364,-6.04154659486,-0.403404127325,-7.15176287803,-3.11260440518,-8.53140074438,-5.36906234795,19.2017468899
do_nothing,-2.89956878622,-3.11024176322,-2.06393139445,0.348359070827,1.99696551937,4.10411618992,2.51825911257,-1.30246493618,-0.432583612526,-4.08942610466,-2.84803296976,-5.45170980277,-3.08585679996,48.3311552002
do_nothing,1.11247302468,0.915599174615,1.58353455713,0.158899272649,3.56530841692,6.31530573609,5.76218436715,3.91802421857,-0.410504803281,0.103797078228,-1.92599931496,-0.827801904952,0.186911742624,70.2982570053
do_nothing,4.92741077052,4.8480618528,5.01926003275,-0.0721225598763,4.23031642742,6.81702551026,7.60263302479,8.24647828901,-0.339333934331,4.41765073319,-0.561733930033,4.20784466813,3.6477284654,78.2354163458
do_nothing,7.53863482063,7.72011854492,7.30988466484,-0.287485690221,3.8031461474,5.50443524603,7.76778142133,10.5220090364,-0.224026363102,7.76829859011,0.912397947051,8.3526379351,6.37701095008,67.9942628816
do_nothing,8.25337280148,8.79667643073,7.80218765974,-0.436513789882,2.38154344261,2.77249345693,6.34375057649,10.1145395451,-0.0739781883884,9.27944426936,2.13233665641,10.482599587,7.59226404631,39.8609059998
do_nothing,6.88571510189,7.77832232703,6.31670246669,-0.487344672404,0.327970150174,-0.604008652723,3.71593600991,7.10076368597,0.0952426480051,8.52084552199,2.80010701962,9.97013886462,6.88221253546,-0.861582069323
do_nothing,3.80660247953,4.89512376619,3.20794728133,-0.433349865971,-1.82447536886,-3.69620983143,0.46676591452,2.24795213212,0.261554301593,5.63707608773,2.76557999678,6.87782088796,4.34758963749,-44.7548111546
do_nothing,-0.162873141635,0.859003851914,-0.728260547922,-0.292374425545,-3.51330500529,-5.68508023312,-2.74394901547,-3.19051777882,0.398475925558,1.32636817001,2.06728543757,1.96610631181,0.600034102202,-80.5645455048
do_nothing,-3.98256695868,-3.31722885123,-4.47388781106,-0.0996531621949,-4.2966399384,-6.08598679039,-5.2962734114,-7.81130626939,0.479820542203,-3.33069447246,0.919028334077,-3.49551540831,-3.38883124659,-98.2824696151
do_nothing,-6.68070791967,-6.5870653004,-7.06978739017,0.102902825793,-3.97092054311,-4.87010917468,-6.71240188895,-10.435722529,0.485958030735,-7.15071207955,-0.354404199421,-8.06720224935,-6.55049555345,-92.1358356472
do_nothing,-7.61456013074,-8.14996541682,-7.87652367655,0.277466187608,-2.62420253765,-2.45132758537,-6.73538595189,-10.4195490614,0.409783666359,-9.1611123902,-1.4130747472,-10.5343857955,-8.02091516168,-62.5438328718
do_nothing,-6.63108392351,-7.6642824466,-6.73998305863,0.397866022664,-0.610834087366,0.45199560739,-5.37605575157,-7.81405191302,0.260309752934,-8.86153443255,-1.99969217153,-10.2474283879,-7.39130003909,-16.3608434493
do_nothing,-4.085583547,-5.3322692823,-4.01674091609,0.452185251822,1.54489782269,3.0344507888,-2.91868719102,-3.33687373324,0.0623515729733,-6.35890913351,-2.00910798404,-7.30564897805,-4.83172154975,34.7716626327
do_nothing,-0.718986879311,-1.83279350037,-0.456859738393,0.440593058208,3.28910575359,4.6331515065,0.122708987911,1.83481036802,-0.148055495855,-2.33653173938,-1.50853445783,-2.52983552664,-1.04753617,77.5547786125
do_nothing,2.56465029411,1.87791542897,3.01624306836,0.370411287728,4.18393499988,4.90225978042,3.09878398457,6.3874205208,-0.331492047688,2.13561265938,-0.703779901925,2.77082570951,2.92115075834,100.749930444
do_nothing,4.9518338246,4.83820210943,5.56088656792,0.251292983494,4.01913559953,3.88533779709,5.35888288465,9.21845498916,-0.454128292432,5.89608841233,0.135438905094,7.17023313445,5.99847848395,98.3762207994
do_nothing,5.93049866955,6.34523068606,6.63266450747,0.0930019122368,2.86049662874,1.97147787203,6.39925182401,9.71283127013,-0.495300207889,8.0086445171,0.764897297742,9.52640531852,7.38089203066,71.4121658017
do_nothing,5.40089369744,6.1346472499,6.10215533063,-0.0932332104713,1.02413064622,-0.243525578666,5.98938316122,7.87618640965,-0.451573889172,8.00976004646,1.03977592417,9.29434110588,6.76159871217,27.4743653443
do_nothing,3.66232882543,4.42579589573,4.24932254396,-0.290838658071,-1.0138599664,-2.14306543173,4.23950027983,4.29629607507,-0.336301047714,6.0173075114,0.949380329067,6.66006102721,4.40453446747,-21.4320116052
do_nothing,1.28991489965,1.82465691078,1.64734530206,-0.474194993915,-2.74563920017,-3.26442214272,1.5837543887,-0.0469032953491,-0.175087557125,2.67220351771,0.603528983178,2.45998776325,1.04784157616,-62.3994037489
do_nothing,-1.05303834506,-0.87967756238,-1.01995921479,-0.608324042076,-3.76203641884,-3.41204135805,-1.32396074489,-4.06120361474,0.00118175589282,-1.06517393584,0.178810338743,-2.08479267686,-2.3301004623,-85.2723777823
do_nothing,-2.80587583199,-2.95780906587,-3.14766260005,-0.654156910637,-3.85051782222,-2.68179529517,-3.77800198638,-6.82931969046,0.163513744932,-4.19932126847,-0.153260121651,-5.73446242951,-4.80692669826,-85.3675832592
do_nothing,-3.64812491796,-3.94569455923,-4.35112598028,-0.57929369694,-3.0368379422,-1.39785142844,-5.2072697064,-7.82468098805,0.290119752553,-5.97797997401,-0.288781215704,-7.58364552681,-5.78199807776,-64.4727299677
do_nothing,-3.54887441872,-3.75214793308,-4.52522964459,-0.371439335515,-1.56312353794,0.00996537840566,-5.32547594935,-7.0034261022,0.368698292689,-6.08278078254,-0.222187415006,-7.29668105573,-5.13104187666,-29.8981098884
do_nothing,-2.72410029219,-2.64161798943,-3.81683857315,-0.0496498838423,0.187283104504,1.14503301123,-4.19970576208,-4.75971424189,0.395718915316,-4.68053336331,-0.0357384881167,-5.16031165221,-3.20701515566,8.02976643255
do_nothing,-1.52751597014,-1.10734686938,-2.53343006282,0.331863377442,1.79441147153,1.75509853729,-2.21595904308,-1.77147451777,0.373795976371,-2.32872829712,0.145397159428,-1.94849697013,-0.695011147638,39.1736163523
do_nothing,-0.319037189906,0.315130312378,-1.02751652872,0.69091086483,2.90600773638,1.78491807874,0.0471434162172,1.20784363873,0.308759035187,0.225778018146,0.21250503286,1.34723251614,1.62462799916,56.4582458067
do_nothing,0.64286386625,1.22758449214,0.402109146827,0.935559827279,3.31479821842,1.36103340014,1.99566720901,3.54676363556,0.207837090796,2.2849464825,0.1221446392,3.82939427739,3.12387357564,57.5489528814
do_nothing,1.25234588337,1.48188404527,1.56407645275,0.989390118472,2.99182071463,0.721718805161,3.19153155344,4.86895855439,0.0795942553729,3.39765188783,-0.0856214748829,4.94819370641,3.50495803218,44.9155496866
do_nothing,1.54211766046,1.19289495558,2.37587804889,0.816456595393,2.07259321106,0.121183204939,3.46337792142,5.09475953479,-0.0647637404957,3.45904765631,-0.30674215665,4.6225171416,2.85585816262,24.4159512005
do_nothing,1.62007807878,0.655418160853,2.82667448483,0.437560283895,0.805847678692,-0.25772541487,2.92450733024,4.39513004566,-0.209906564653,2.68901934444,-0.42186195697,3.20182343218,1.57433763871,3.00684928041
do_nothing,1.58955957891,0.203001702009,2.9280537015,-0.0687765209533,-0.516840184942,-0.354479106864,1.89780709664,3.08838278364,-0.336166791381,1.50913326153,-0.353317527999,1.29646657388,0.196369696297,-13.5744509199
do_nothing,1.48932042684,0.0653842697076,2.6801917942,-0.582878403754,-1.62994737024,-0.23254093386,0.779578919157,1.52277514806,-0.421609810944,0.369882488585,-0.105721000241,-0.45469581157,-0.80489445538,-22.3812223145
do_nothing,1.27849424174,0.278953476718,2.07018771962,-0.974640780916,-2.34478982252,-0.0365569698629,-0.105857952658,-0.0150931030464,-0.44643232731,-0.407376895263,0.228341739539,-1.59525301052,-1.17745915717,-23.637144911
do_nothing,0.871240542176,0.682382464767,1.1021008029,-1.13998512395,-2.57361386156,0.0755453479673,-0.60808653602,-1.342505809,-0.398621576957,-0.719962292375,0.501897034685,-1.97114985762,-0.95345018166,-19.9425670511
do_nothing,0.203964717493,0.996114471255,-0.158281011289,-1.03200517252,-2.32744314899,-0.000695251576654,-0.774714802935,-2.3721670711,-0.279004773488,-0.679852915551,0.574443712722,-1.72766440296,-0.40114299142,-14.7453859864
do_nothing,-0.69676392655,0.952122211848,-1.54983920197,-0.67667585893,-1.69511955752,-0.274434438286,-0.793956587186,-3.07123859121,-0.103683466687,-0.527048445014,0.375910227017,-1.19792430022,0.108618564647,-10.7440261998
do_nothing,-1.67925526848,0.421280203834,-2.8171723612,-0.167374981559,-0.814000708472,-0.656047559079,-0.883178479191,-3.41588973408,0.0975102992624,-0.501040378194,-0.0532944875161,-0.735510720975,0.266320725234,-8.8552348318
do_nothing,-2.48627793718,-0.513290018713,-3.65673848115,0.360971670204,0.158416517885,-0.991369475928,-1.1711282218,-3.36672968476,0.286668676446,-0.724310426431,-0.565067198167,-0.560257824184,-0.0459518724689,-8.10782202869
do_nothing,-2.82915951413,-1.5679063338,-3.79978976416,0.770690081738,1.06676908903,-1.12002924606,-1.62318726578,-2.87750201775,0.426311102258,-1.14417326718,-0.951917717154,-0.676454107209,-0.706752301966,-6.42896143865
do_nothing,-2.49339597717,-2.35353396115,-3.10662209449,0.961242746979,1.77357450309,-0.936642791278,-2.04151663698,-1.93203536179,0.488417996488,-1.55452553543,-1.02514872746,-0.891150388879,-1.40629324713,-1.92787020348
do_nothing,-1.43725690733,-2.52072700942,-1.63797906707,0.897697509822,2.17124798639,-0.433527967807,-2.14208318775,-0.589995375824,0.461359194929,-1.68695767071,-0.694028369468,-0.919762983,-1.77481079601,5.9092702482
do_nothing,0.156736340871,-1.90051960498,0.326783422516,0.618772797218,2.19359713385,0.289410657926,-1.6796490309,0.983666805545,0.352640608713,-1.33347865309,-0.0144603805241,-0.532112350578,-1.53791146412,15.6501658881
do_nothing,1.90385281958,-0.587317026898,2.33951304269,0.222008777093,1.82772045488,1.05062468538,-0.571675709503,2.52534304321,0.186656042406,-0.450913802332,0.814727042229,0.322925806579,-0.638850346256,24.2450625757
do_nothing,3.31425353936,1.07022346435,3.89325751548,-0.168922885808,1.1236716478,1.6399047441,1.02949726322,3.72116335987,-0.00182862058318,0.795841259256,1.51097851921,1.46668507561,0.71960531177,28.1512180538
do_nothing,3.93924801127,2.57140730852,4.56295982541,-0.44391052636,0.196456472912,1.88121965343,2.74907397358,4.28568466248,-0.176441995291,2.07108770768,1.80464074645,2.53687663623,2.13101899889,24.8158909046
do_nothing,3.52067518947,3.42591290912,4.13433143221,-0.540014453953,-0.785307132515,1.68570038298,4.08901034304,4.04600823053,-0.30760556849,2.97476656282,1.53944003221,3.11538779648,3.11999659769,13.9158808279
do_nothing,2.09230424684,3.32083949718,2.67903516403,-0.458111646254,-1.62670750552,1.07884295953,4.58386582642,3.00219536361,-0.37821990015,3.18033261591,0.739554797675,2.89006851473,3.30798623978,-2.17629303311
do_nothing,-0.00518200528401,2.23383566845,0.549106859079,-0.257558920543,-2.14695603125,0.194522184655,3.96110238406,1.34151474561,-0.385323597599,2.55405517085,-0.383789032525,1.78860910081,2.55102243519,-18.9455687989
do_nothing,-2.20716461793,0.451651482776,-1.71193106945,-0.031398356748,-2.22403661205,-0.761298523047,2.25000180852,-0.600756957895,-0.33780666631,1.21203908816,-1.49241560455,0.0317873906448,1.00030194375,-31.1634603112
do_nothing,-3.88515107396,-1.51404876102,-3.51743651097,0.128773315033,-1.83081120836,-1.56550104116,-0.200441858754,-2.42319805604,-0.251520268298,-0.50641845403,-2.23001245489,-1.91751021207,-0.936088401549,-34.7026721961
do_nothing,-4.53609600937,-3.08624303787,-4.40214774221,0.165774386002,-1.04999202633,-2.0350446716,-2.80407945071,-3.75774422755,-0.143813086301,-2.1405892838,-2.34303614623,-3.49489200758,-2.7173027529,-28.0757892191
do_nothing,-3.94117144287,-3.80415136472,-4.15339367657,0.0761534640274,-0.0602962197133,-2.07065484375,-4.89653870119,-4.35655446586,-0.0294293956007,-3.2501760678,-1.77112930907,-4.21698607289,-3.83733211116,-13.1107387695
do_nothing,-2.24180829981,-3.46629552258,-2.86918069983,-0.0906413266862,0.905457286975,-1.67622791632,-5.92139907413,-4.14139710408,0.0810897046464,-3.54881351669,-0.673863513756,-3.8423630176,-3.97978651676,5.52711069109
do_nothing,0.0938893194021,-2.18824990453,-0.925645868775,-0.25251516694,1.6202585429,-0.950957581859,-5.5863007978,-3.20447123445,0.180512634837,-2.98489290217,0.617580077613,-2.4545151237,-3.1096053757,21.8419382048
do_nothing,2.406377307,-0.358044472334,1.13571096225,-0.326802865606,1.92393678998,-0.0589992808531,-3.94261390037,-1.7662485416,0.26259182919,-1.74511493916,1.70861198947,-0.437976689207,-1.47449510981,30.5386593411
do_nothing,4.04058774114,1.49290510576,2.76605681929,-0.262457173749,1.7667372449,0.812975447487,-1.36780398771,-0.109191963615,0.319909332098,-0.18380817475,2.27240135121,1.6437824693,0.479826944462,28.8675403897
do_nothing,4.54152264721,2.85772497927,3.56423112037,-0.0607135029081,1.2213731734,1.49811073353,1.5396421226,1.48864893132,0.343333997247,1.29371680679,2.158249899,3.22605689821,2.24834119764,17.6191283521
do_nothing,3.78824212405,3.40419793292,3.38246711073,0.223206074828,0.459029065142,1.88124540204,4.11750454057,2.8004924003,0.323744772767,2.35171086888,1.43896247268,3.91526244996,3.41175742725,0.894932156827
do_nothing,2.02466811752,3.05932824678,2.35304642716,0.497992211221,-0.303655046594,1.91454875162,5.80204172156,3.66977198647,0.255589257516,2.80843930233,0.380480542744,3.59863533083,3.74218257867,-15.2916155547
do_nothing,-0.221187240306,2.00560271612,0.831459882674,0.667435507185,-0.86995988196,1.6165365225,6.25171108266,4.00592849311,0.140902349795,2.66084840967,-0.655175428124,2.45764829472,3.24107978603,-25.1120006349
