label,COUNTER,INTERPOLATED,AF3,F7,F3,FC5,T7,P7,O1,O2,P8,T8,FC6,F4,F8,AF4,RAW_CQ,GYROX,GYROY,MARKER,SYNC,TIME_STAMP_s,TIME_STAMP_ms,CQ_AF3,CQ_F7,CQ_F3,CQ_FC5,CQ_T7,CQ_P7,CQ_O1,CQ_O2,CQ_P8,CQ_T8,CQ_FC6,CQ_F4,CQ_F8,CQ_AF4,CQ_CMS,CQ_DRL
off_to_on,1.65432855109,2.78764207363,2.44676195414,0.54799934508,0.449717130635,-8.25409863023,2.79606205102,4.22485607735,0.418800849478,2.99057339073,0.834706656323,4.70203433889,1.03869956985,119.051164213
off_to_on,-1.02283250743,-2.01896088063,-1.57274384059,0.0564737241555,0.169697410364,0.614151983629,-4.29958916471,-2.84428924368,-0.47413635406,-1.68979883518,-0.153158618724,-1.25072946791,-2.03854049979,194.334805785
off_to_on,-1.61747631437,-2.40194776589,-2.33041528711,0.468684469842,-0.132378315873,8.81963051522,-2.53700749759,-3.8481853279,0.511190912526,-2.63296382266,0.132968362581,-4.37487925339,-0.425702773325,-75.1083015944
off_to_on,0.138849243663,1.07267422501,0.786510234034,-1.26699912999,-0.897474999602,-3.10125061682,4.30060245806,2.62142101295,-0.547041016048,1.38496653188,-1.00663015869,1.60704382648,0.909988881224,-236.589236486
off_to_on,2.93004214427,3.68829226979,3.72407200251,0.792809238859,1.39323869628,-6.43619170453,3.50414123014,4.75401921103,0.597943507704,3.76030258812,0.998058838737,5.0761262517,1.83482935041,120.708229573
off_to_on,-1.59679537127,-2.52945236021,-2.65306580404,0.109166319582,-0.661468676391,1.98508763665,-6.4904793172,-4.68323463567,-0.644377988697,-3.58062286434,-0.0201868894562,-4.05772528859,-2.49822178506,178.469309435
off_to_on,-0.891382604165,-1.59890060605,-1.43232508797,0.28648353624,0.20684016009,7.24439897879,-0.673881208198,-1.89671928314,0.67404405559,-1.07923173866,0.189108120152,-1.98909701839,0.0886435079355,-50.8214348538
off_to_on,-0.924977173598,-0.0936926997783,0.446609158752,-1.338518571,-1.04325167606,-3.70573056012,3.98665533669,2.1781009884,-0.707642168682,1.30797263961,-1.52053045487,1.92817885089,0.353704261919,-261.881257695
off_to_on,2.74696827641,3.52262454542,2.83291003566,1.3266303526,1.60352202503,-5.06375683434,1.79034079899,2.98436642189,0.753018226253,2.32763689282,1.48356413431,2.72614855796,1.66193212123,152.36035151
off_to_on,0.380821683208,-0.445427147074,-1.13889013388,-0.56615679186,-0.414527727672,2.15950206099,-3.92367305272,-2.12604695629,-0.788761113939,-1.74700675437,0.076825065369,-2.28269387954,-1.35545989046,161.854490877
off_to_on,-2.74612281237,-3.50339797175,-2.14842658328,0.452618937922,-0.868561596609,5.91729903907,-1.34737214076,-2.92375122584,0.811059812168,-1.88079025169,-0.34220112973,-1.78011708157,-1.0191695074,-89.7636096712
off_to_on,-0.821025742693,-0.0965217730511,0.330162914087,-0.91393807283,-0.0294043449228,-2.70355036431,2.33783730033,1.4223552095,-0.84089216249,0.856144746263,-1.1912381713,1.08836187158,0.58754596279,-188.604389431
off_to_on,3.85853249768,4.7430756059,2.85390100989,1.12999410562,1.86386073008,-5.69416290014,2.74955659597,4.01855551686,0.877920669509,3.08508191112,1.82614425963,2.57144681848,2.01596343609,126.399647903
off_to_on,-0.991250216785,-1.81336704521,-1.49332874054,-1.11628828756,-1.8088624242,2.21657765875,-3.17340037682,-3.2356069722,-0.902026145776,-2.45949501242,-0.826842658344,-2.15025109236,-2.01715779616,120.19708972
off_to_on,-1.2162473863,-2.09351030849,-0.342824741803,0.965991415403,0.435804787706,7.83737003069,-0.772287376211,-1.02045407665,0.917068217718,-0.758788807461,0.40211458243,-0.0641492570285,0.252526654549,-59.5638686464
off_to_on,-2.14594276384,-1.17034594251,-2.03556690435,-0.487604345783,-0.551270155231,-6.12746854499,-0.543033712062,-0.0445702091219,-0.941405130938,-0.383960433266,-1.09767084189,-1.43626016515,-0.923549448756,-159.571386919
off_to_on,4.10459412218,4.79853669195,3.50626333027,0.392684124974,1.8884231795,-4.17289242566,4.28847649584,3.28396668122,0.967859628585,3.51757206293,1.20023480924,3.17829398927,2.53511532638,101.674770902
off_to_on,-0.0977495435726,-1.10529046128,0.0184990646217,-1.37217910319,-1.70360324316,4.42175760567,-1.33777489158,-1.52900401481,-0.980140032971,-1.97739537589,-0.684705789896,-0.53316934842,-1.17393680094,79.5787257571
off_to_on,-2.52282223799,-3.08732673588,-2.35793621452,2.02496985319,0.110814238476,4.61932433429,-3.34959293287,-1.42645424469,0.988011463362,-1.82834773716,0.940686822054,-1.93117727766,-1.09353761237,-4.84873943341
off_to_on,-0.797389829786,0.354027916405,-0.785503878663,-0.870614693069,0.189095833385,-5.44314854624,0.582998867858,-0.114507833797,-1.00511552788,1.38340997913,-1.31055094007,-0.223427264396,0.329513904575,-151.296224702
off_to_on,3.08108171447,3.33923355121,3.21706828932,-0.313770976074,0.968774375187,-2.56816888976,3.94113730031,1.97490959308,1.019531295,1.81970434983,0.551920021405,2.38003159967,1.6080752956,54.4195119185
off_to_on,-0.326443500704,-1.54900425354,-0.750755995898,-0.852971302616,-1.32809076488,3.54860876095,-1.68702097839,-0.2632691296,-1.02041715723,-2.3738836157,-0.145594683845,-0.853941757639,-1.43288647442,100.475541378
off_to_on,-1.03383067719,-0.800458074057,-0.986868325355,2.59585310562,0.759477074588,3.49657342946,-1.54124959613,-0.187911094441,1.02112842919,0.856929008088,1.50816953959,0.00582635176777,0.704709191612,-28.5776109806
off_to_on,-1.96734537538,-1.09522574522,-1.49765696195,-1.69012865827,-0.972039251001,-4.4539393282,-1.30500200641,-2.82369938405,-1.02947135143,-0.763116825476,-2.38496126266,-2.0911424665,-1.39360793993,-47.3827686858
off_to_on,3.27439403191,3.02360364939,3.21448086251,-0.498451836938,1.73845187922,-1.15750820185,4.14353084413,3.46940829061,1.03121760175,1.73518778555,0.821928520954,2.59643264188,1.74780674701,-92.1251695373
off_to_on,-0.922711814394,-1.77462487495,-1.52015426417,0.184617848072,-1.62548180489,0.826570467172,-1.29999483833,-0.308946881154,-1.02159335174,-2.01195682775,0.499085003834,-0.554332387142,-1.04554700049,153.76300346
off_to_on,0.214417103297,0.596909062756,0.321829973165,1.989716173,0.978288314758,4.51059164677,-1.27513121476,-0.658633601906,1.01509041454,1.68431230239,1.01498984104,0.450436550524,1.21936401704,49.5436954856
off_to_on,-1.63242764313,-0.726296472982,-0.798296715648,-2.2040819613,-0.785119776447,-2.99400260943,-0.739749109201,-1.41385696379,-1.0135484219,-0.601281615692,-2.62536228458,-1.8225165872,-1.60806007055,-141.563529585
off_to_on,0.645984061892,-0.0693281891033,0.226779872902,0.413941190182,0.664840185269,-3.20595234447,2.13817913096,1.31909707539,1.00281194008,-0.987455582613,1.21151240365,0.432589987674,0.0935698923457,-75.6181790179
off_to_on,1.19227935373,0.40162737461,0.318340284518,-0.020013368415,-0.370015432608,2.20927055227,-0.270136576017,0.525153614603,-0.983854452981,0.354630062648,0.696201412807,1.30788945627,0.997808201122,167.621733663
off_to_on,0.541777632771,1.66907546253,1.35968654277,1.42124024522,0.600210005575,3.68816769342,-0.557040577444,0.253606203053,0.9700794368,2.66213608351,0.343524847877,0.996381806172,1.0377056148,93.7402836634
off_to_on,-2.68635128368,-2.31898673675,-2.01181928133,-1.75507907373,-1.05968889637,-3.3571906306,-0.794368397246,-1.80544341457,-0.95808268113,-2.79228029038,-2.20405294243,-3.06619364902,-2.51982504212,-246.609675467
off_to_on,0.920005720911,-0.437296913934,-0.24540902971,0.561382156675,0.879759375419,-0.933275713618,1.44219592785,0.73061554437,0.935779012419,-1.15435815546,1.47761892154,0.246056992037,0.268436214736,23.4593522811
off_to_on,0.39803338084,0.625536625378,0.10889997683,-0.272780538897,-0.890751885021,-0.27625469198,-1.85537968615,-0.469396628851,-0.908820319557,1.67118224994,0.0696887445096,1.38672599874,0.802763973987,131.940200793
off_to_on,2.44881475826,3.81871426057,3.87743387582,1.29892599084,1.8283624597,3.6797357801,2.92361700433,3.21286703228,0.887803510807,3.86625565449,0.630356259396,3.07016928168,2.70180936769,61.963813416
off_to_on,-3.5189272666,-4.53732015157,-3.8734847243,-1.48867179618,-1.85560408043,-0.956791392568,-1.7286477872,-3.19378614253,-0.865423300452,-5.86116075251,-1.90015144571,-5.41588803408,-4.23828249962,-202.940413468
off_to_on,-0.658770083746,-1.52412689755,-1.94816606018,0.459050505407,0.0581153906153,-3.0141934294,-1.39292002555,-1.43789814662,0.833057250049,-0.755715530027,1.01232131934,-0.420701991414,-0.411950306866,29.4996189144
off_to_on,2.68465344164,4.24523646626,3.51022996109,-0.189660490954,0.637068834567,-0.248629714459,1.14919528043,2.7094304044,-0.79948438569,5.44713986189,0.291373542903,4.85426987096,3.47150498074,94.5378079766
off_to_on,1.27881668764,1.29740758564,2.24274323079,1.14155270762,1.26724554194,4.98161695888,2.00296326222,1.95306022813,0.771446118327,-0.149103104244,0.491666180914,0.0697181262117,0.650399333711,55.8883825956
off_to_on,-3.3861216437,-4.90356628463,-4.31155103687,-1.48858176963,-2.10388042983,-1.65815385925,-1.76449507233,-3.61394155641,-0.739413523173,-5.68450281268,-1.59857343129,-5.19404449919,-4.17780365231,-150.398358066
off_to_on,-0.307899040051,0.303834152774,-1.23206122438,0.585832025484,-0.228048001481,-4.47487162727,-1.16785744063,-0.935921935295,0.698912607094,2.12132878126,0.761592221446,1.54100229836,0.722418565692,7.74378854534
off_to_on,2.17929062455,3.25781475259,3.23195681001,-0.00765626948102,1.49218264203,2.68137368321,0.360958774785,2.55479767694,-0.660108588647,3.49594531285,0.231319468054,3.16015162838,2.59854217654,71.4458548266
off_to_on,1.45348125282,0.878770942877,2.52585932937,0.55627261956,1.19769344802,4.32266976149,2.91186882516,2.32731472879,0.625550275703,-0.93323037396,0.661076026573,-0.188109992787,0.584208156206,47.979985842
off_to_on,-3.63802509101,-4.64044895408,-4.97580516986,-1.00562792573,-3.42717703381,-6.01408799665,-2.37676445368,-4.65249119092,-0.585209010121,-4.50276245685,-1.60484619775,-4.20539483413,-3.87343145858,-93.2318161553
off_to_on,1.11626293301,1.4713537109,-0.21539685163,0.561871700253,1.33241421664,1.16436995545,-0.426923827262,0.267803174547,0.538752121661,3.20930950465,0.675242330417,2.26641945964,1.34392801337,-24.8280682
off_to_on,0.708891642549,2.06240403292,2.68765989485,-0.143220063652,1.40849451649,2.95187991397,0.264930332365,2.68816133798,-0.496074163109,1.51667040322,0.388338271375,1.37457428209,1.55602020598,59.4801754677
off_to_on,0.0549511120195,-0.254491454375,1.39014954925,0.399150675832,-0.580515852374,-2.36609458889,0.917491262705,0.179595130264,0.455841231578,-1.75685052547,0.231218310478,-0.800152267039,-0.0320588728089,35.1828543275
off_to_on,0.277708186739,-1.73432121984,-2.58242065594,-0.633837009273,-1.32125630056,-0.86223544103,0.271075652711,-2.25532469671,-0.409045424165,-0.769938614044,-1.0711794122,-0.734230890126,-1.28214191109,-37.4883159642
off_to_on,-1.11033102977,-0.287680795503,-1.74229940928,0.439245245014,0.697170212905,2.84107251982,-0.775002455739,-0.278453376065,0.358905033029,0.817715040089,0.552176639602,-0.0266874803249,-0.605015771076,-59.3341040596
off_to_on,-0.651066404703,1.74163013817,2.52534820554,-0.360124540085,0.693114138582,-1.09285893434,-1.11359412106,1.91770310614,-0.313690327497,0.234101232989,0.205427334395,0.17943786531,1.0829829234,56.7875947703
off_to_on,2.23079500247,0.540723064035,2.018181185,0.416914037167,-0.13235392773,-2.29122637958,1.13921326315,0.593593389387,0.268995485857,0.367445875554,0.0268385705284,1.12336173314,1.31662244774,20.2082512244
off_to_on,-0.332064453988,-2.44121377901,-3.24381932349,-0.0241478362475,-0.949692668783,1.98391839242,0.960303583274,-2.60359341716,-0.217968184532,-0.827581278035,-0.498245507983,-0.714020585348,-1.68904576689,3.1841834032
off_to_on,-1.26500583131,1.09719230651,-0.364786990339,-0.396430561303,0.609922290059,2.10498172012,0.0121547434872,0.989818488682,0.166378796529,0.23198972246,0.452112594586,-0.558092552256,-0.478253044571,-77.6802488695
off_to_on,-0.685153765999,0.594023085881,1.38073299903,-0.0591988281255,-0.0535400360125,-3.32360228528,-2.88644224527,0.800191168827,-0.119965071278,-0.770174168866,-0.292258748473,-0.696498347782,0.300471702651,53.1690051229
off_to_on,2.14547894611,-0.310328411942,1.17334793153,0.702898754789,0.439147789469,-0.406468029647,1.50346169702,0.0506988903515,0.0723670627566,1.64284188064,0.146437762418,2.23473710752,1.82432803824,3.70890146614
off_to_on,-0.24525252375,-0.478615264893,-1.34091239905,-0.17796879228,-0.512135642382,2.59238475267,2.13154527829,-1.16747982264,-0.0195377739917,0.103120535813,0.244929052181,-0.128548916442,-0.974448327337,31.1336820893
off_to_on,-1.4351618812,0.254678791707,-1.07147346075,-0.820929161566,-0.381569549566,-0.0662073638942,-1.55982771946,-0.0415032712347,-0.0314028349592,-2.48652960573,-0.400475414385,-2.77723543502,-1.88289788335,-79.7992798566
off_to_on,0.929066420194,0.733799999957,1.44456864806,0.509275019579,0.867564957168,-1.75895053656,-0.722097154278,2.05179379387,0.0776552873728,1.48983741891,-0.0264155671406,1.9042976509,1.80598655924,45.0074073268
off_to_on,-0.750354491736,-1.59064578138,-0.171188833546,0.676821253113,-0.432195364748,-0.251988269027,-0.812364295079,-1.92243329389,-0.126315609318,0.967339295867,0.202884309082,0.742276822079,0.390428772641,-10.7291310949
off_to_on,0.89830136764,1.13852959746,0.293756066281,-0.686187086129,0.24446821478,1.95982333515,2.24381556768,-0.303162653516,0.178476265829,-0.730234658797,0.305042762017,-1.17630481017,-0.563365607231,47.6523327641
off_to_on,0.609731336549,0.712732441443,-0.577984976721,-0.57367680933,-0.480962222414,-0.773830671893,1.04922652517,1.66753026059,-0.226872394787,-0.756125523857,-0.533472080316,0.163676486968,-0.532268748244,-70.4126595827
off_to_on,-1.60825054006,-1.69459942849,-0.678646527077,1.192655696,0.0543691134756,-0.930838065385,-3.11376610683,-0.510394383107,0.271568742281,0.322664257414,0.0845994029743,0.33444397225,0.0881933150696,34.0189420416
off_to_on,-0.140638492825,0.34564186969,1.23436871822,-0.505143170438,0.754973626921,1.72587874802,-0.709666507362,-1.00500844939,-0.319267486008,0.559760499112,0.0473381246027,-0.647284298568,0.638885435559,-21.3653141213
off_to_on,1.25596515354,1.15580879132,0.0958253270774,-0.230917805871,-0.447785255636,-1.46431876683,3.23260891403,0.397456073875,0.368400349293,-0.0503394156649,0.392967000417,0.325629339819,0.127399294756,53.6350772693
off_to_on,0.417232962732,-0.763708086761,-0.92182741043,0.105706753308,-0.794837799346,-1.21776847215,0.355127366914,0.774097747274,-0.412594386837,-0.0525334605492,-0.445447859541,1.19794391141,-0.645071790715,-53.8737831296
off_to_on,-0.701939529228,0.077389573812,0.63488946018,0.543985238225,1.22360254721,4.17660699855,-2.4843810794,0.28485787615,0.454311461927,-0.434158791933,0.141567428673,-0.992677787514,0.00611528810536,22.3936877521
off_to_on,-2.0679180159,-0.797428056796,-1.14458419391,-1.05118276984,-0.599566990083,-1.87826354172,-1.46471001004,-2.19876863145,-0.498964345621,-1.2172415947,-0.497687160452,-2.53837728527,-0.429743448449,-27.6365821178
off_to_on,2.80807491378,1.64720343272,1.83228938131,0.900159176768,0.391214846126,-3.30975316045,4.00607786899,1.80942330646,0.542949797134,3.54418195461,1.17635705586,4.31352362068,2.10100781493,50.9012381002
off_to_on,0.0988878942775,-1.34030671719,-0.762339171533,-0.105392269253,-0.851693974523,1.86535111844,-0.758951677895,-0.0622176590845,-0.581536107297,-1.82942788108,-0.912495815123,-0.601739968658,-1.98338682423,-34.1324095837
off_to_on,-1.37425771091,0.476249214907,-0.583543442173,-0.283383396072,0.74789966927,4.91149755779,-1.69280171038,-0.104069082647,0.618850595121,-2.19738421035,0.056495523036,-2.99199817528,-0.311544585119,9.5882016111
off_to_on,-0.620989455635,0.41187217671,0.034242648411,-0.597435522665,-0.129932596266,-4.27935834815,-0.247672141552,-0.62435734914,-0.658445534202,1.9521134111,-0.051965780173,0.709858451931,1.35873118487,-20.6423907698
off_to_on,1.40704707718,-0.809448918129,0.918588978965,1.66119058635,0.339976488709,-4.21066386062,1.34228342202,0.140714023671,0.695500058213,2.05995961154,0.849659141909,2.98416612601,0.213637266383,24.8330822556
off_to_on,-0.00693000203888,-0.39998801079,-0.525580108063,-1.26727633936,-1.0335664806,5.28802100222,0.38116584294,0.37089312633,-0.727325249766,-2.81835306268,-1.16749306685,-1.64897810887,-1.70991804855,-2.71259071257
off_to_on,-0.122655435911,2.07220384124,0.157761902012,0.0807550073698,0.552651312412,3.97875419295,-0.378011047136,0.652088353338,0.758863206237,-0.519486654971,0.708830726914,-1.72024655038,1.0673417097,17.6474192875
off_to_on,-0.971646937862,-1.23537542798,-0.726775520227,-0.085605191394,0.424552064694,-7.04285331075,-1.99309270184,-1.46642159335,-0.791589112422,1.48594491821,-0.321123975549,0.853277142619,0.213701920364,-70.5914825585
off_to_on,0.940165602279,-0.842704294181,0.945228505512,1.16261583393,0.476248718173,-1.58306224183,2.50391923132,0.918910898855,0.82032796014,1.77562907,0.576722496972,2.75579895454,0.191696433594,67.5001477291
off_to_on,-1.06836312432,-0.395013622591,-0.980472780226,-1.43677056079,-2.57082906862,5.33412983865,-0.905566156989,-1.07922681684,-0.844485680586,-3.75342105785,-1.21500766297,-3.45750421625,-1.93409341675,-1.55034218801
off_to_on,2.53487790807,3.67468947315,2.06072263699,0.661914256123,2.53086929784,3.2713286779,0.50367996609,2.27901783315,0.86898879862,1.65428950449,1.44297128021,0.943728201219,2.52342204756,-21.2934946591
off_to_on,-2.28158250044,-2.82981300846,-2.46885361869,-0.387886210826,-0.229611418389,-8.29993731923,-1.25496827113,-1.56843645031,-0.893348474498,0.628599052293,-0.792185103902,0.707894653064,-1.00336234292,-17.7435493319
off_to_on,-0.618775691061,-1.52137898943,0.221737971107,1.01005966671,-0.789733753749,0.426249959806,0.956642433203,-0.973801224081,0.912816080608,-0.0656056452127,0.138372687818,0.102188220251,-0.501479963057,21.7868573126
off_to_on,1.78262533067,2.22096106153,1.85672485608,-1.3468440604,-0.576868378253,6.28659071769,0.00666561584621,1.21835557981,-0.928642778112,-1.17772783914,-0.71921321401,-1.34969454598,0.120608260466,32.1528955555
off_to_on,0.444935790248,1.39074535113,-0.314897373434,0.991351758928,1.58866502414,-1.38995849461,-0.123770287629,1.42978846156,0.945043931328,0.785138462379,1.75474811109,1.09335038859,0.873675381612,-65.6503142962
off_to_on,-2.09046394052,-2.71020714898,-2.43306068836,-0.761231506647,-0.949392032106,-4.6047454363,-0.514458206711,-2.51660537362,-0.959941802177,-0.130281279032,-1.34671644761,0.144305719277,-0.830740604797,52.053333296
off_to_on,1.38027472289,0.526066893481,2.25912482171,0.96831788152,0.414887322395,2.61955705428,1.2541004855,0.497014295409,0.969614559631,0.897680187638,0.0741474943162,-0.178750576968,0.737224688197,-33.0804412277
off_to_on,-0.81862555093,-0.0895572478301,-0.40582949937,-1.10051613578,-0.848418705679,0.319762523753,-1.61532295342,0.685324114833,-0.976690126764,-1.87927479215,-0.343701730432,-1.71206574572,-1.4765734055,23.3597406384
off_to_on,1.04400379301,2.03676147233,0.375229916297,0.990727949054,1.25577805529,0.980500901179,1.19236700163,1.22796383718,0.984189165309,1.55470934941,1.85648821417,3.06282871737,1.53949817324,-17.0405067723
off_to_on,-0.868794194448,-2.17327605141,-1.68026900977,-0.921400231625,-1.4218269412,-1.09779861324,-0.904502414256,-3.20522460288,-0.988988145201,-1.0238119484,-1.9027667908,-1.75983461823,-0.638719402265,14.0639808518
off_to_on,1.35771325247,0.724622008476,1.93508759422,0.920814900793,1.71430376297,-0.495637207722,1.8948371564,2.36353649216,0.988755839465,1.68125456163,0.436958431876,-0.0586158995823,1.06487299326,11.4221531944
off_to_on,-2.60291733182,-0.915473140884,-1.21889887293,-0.892003923425,-1.45903848265,-1.91811452932,-2.38914885556,-0.115959072428,-0.98691023604,-2.07433111422,-0.134887440562,-0.503345639063,-2.49936407212,-56.2930964871
off_to_on,1.39711355521,1.39507533841,0.491212861027,0.965923259077,0.46385705816,4.63614624038,0.225716291556,-0.846311347642,0.985040856215,0.383735442684,1.2563234332,1.73685767804,1.45086477916,39.5107862078
off_to_on,1.75140053382,0.23466832908,0.309435652967,-1.15969711692,-0.0877412095776,-0.230720096051,1.93223156315,0.16292808741,-0.979586345048,1.44874796694,-1.43727154049,-0.674982147303,1.46645804714,39.7419611979
off_to_on,-1.26402670491,-1.06572072775,-0.428417286894,1.21157194191,0.712038086989,-4.6254695045,-0.268040114426,0.933676651177,0.969719001113,-0.252843400983,0.505731607753,-0.805558305286,-1.18973872474,-35.011835208
off_to_on,-2.75341250773,-1.32604299333,-1.06243441196,-1.02546785817,-0.970729423561,0.0274070768235,-2.80554361859,-1.5421927334,-0.959043353728,-2.51819321151,-0.519259471147,-0.484399145975,-2.3519754655,-68.3390585592
off_to_on,3.18795162138,2.96820765934,2.33661435186,0.8151112069,0.681079674808,6.40405688399,2.48453713612,1.45126771087,0.947722975457,2.55359394732,1.42020981967,2.44171767429,3.22929715286,61.9345255475
off_to_on,0.479754940356,-1.00971178873,-1.38649301027,-0.777544586109,-1.10030412284,-2.94608879309,-0.262265111032,-1.06090979971,-0.932335345115,-0.151927323748,-1.37311574661,-1.58182986781,-0.318931313716,81.2759012118
off_to_on,-0.545344673882,-0.341787430624,0.313045658213,0.910009679599,1.85401003537,-3.33298279183,0.509058011895,1.10419840755,0.913441644039,-0.109463559763,0.610973425854,0.0666280855082,-0.633698475864,-92.0512212429
off_to_on,-3.50667620334,-1.77246592214,-1.54895245336,-1.00779277835,-1.39742853494,0.432041364976,-1.91794955449,-1.55949053825,-0.894300333415,-2.27652411646,-0.705652510718,-1.34828236176,-1.95662710825,-67.4850974721
off_to_on,3.31567524876,2.94931441322,2.5175017814,0.850992882533,0.319953650471,5.24567493268,1.00361159605,1.43076425687,0.873857004818,2.6633285323,1.28235903731,2.80020925851,2.77534967783,71.678387779
off_to_on,1.65655475785,-0.269383142144,-0.383092484956,-0.643081785358,-0.390637152815,-2.22816426837,0.297441310965,-0.398212788679,-0.849296598023,0.0772557755746,-1.08091454722,-0.66461829049,-0.168021656139,122.27617643
off_to_on,-2.42541017074,-1.81015533369,-1.66270533879,0.846809312866,1.102574697,-3.61026686411,0.896028062966,-0.370077342958,0.82227868689,-1.31270195423,0.572685936848,-1.9824263458,-0.99443892076,-135.412165842
off_to_on,-2.04077850897,-0.0292366239198,-0.0781102764293,-1.23757086762,-0.796983968032,1.47599682948,-1.68776717831,-0.0303872556816,-0.795317807685,-0.714374459376,-0.62794531702,0.524319086898,-0.853252059447,-73.8675313252
off_to_on,2.97927226602,2.0844499248,2.45846843837,1.01393144928,-0.00958923247076,3.64002438985,-0.525200912256,0.850650115517,0.766490828584,1.79718656528,0.708792191994,2.4016531725,1.45601916002,76.3940800767
off_to_on,0.761973506071,-1.15349448752,-1.20652724945,-0.333288230209,-0.244803577832,-2.1437342398,1.55796929004,-1.04298057279,-0.733918544318,-0.13817319064,-0.495881551914,-1.82525289658,0.121125234547,162.610383849
off_to_on,-1.03123228066,-0.0207223842675,-0.868095080869,0.361595582472,1.18769657008,-1.74347886715,1.76328301881,0.864363435416,0.700154623973,-0.204465035672,0.772416631307,-0.359352005902,0.220941502369,-167.527208034
off_to_on,-2.89547855306,-1.06964887214,-0.658626974751,-1.12307566692,-1.46195175435,-0.135410596311,-4.31240788194,-1.0798005997,-0.667429944257,-2.28621921727,-1.33016458134,-0.406005684784,-2.61860968565,-84.9588786375
off_to_on,3.20351256794,2.15336770689,3.1217717057,1.14692703472,1.05153682431,3.88170306345,1.49855399996,1.50961678296,0.633844562443,2.92648494814,0.914750615143,2.40530198801,2.31957083917,78.3193343506
off_to_on,0.581580705096,-1.1365074657,-1.78620620482,-0.17691244484,-0.628253360654,-2.1907818819,1.96420655594,-1.35521392245,-0.59595375408,0.23383693183,0.0395181890884,-1.40750258423,0.766614484858,193.872319713
off_to_on,-1.1918598374,-0.281306109639,-1.16538225052,-0.0712142156528,0.321943945162,-1.69998194323,-0.59408073492,0.409687939441,0.550925537062,-2.03367675547,0.151927093865,-0.886779252093,-1.27151802341,-179.223218934
off_to_on,-1.55372592053,0.345855631561,0.938413468471,-0.911003716273,-0.270274604622,1.14228498585,-2.0317330899,0.639927948114,-0.500860113788,-0.39847457332,-1.0949926241,0.460274004067,-1.40713247854,-107.48570829
off_to_on,1.16534363018,0.0811083961109,1.02105875593,1.22377660807,0.523580973795,1.76527737072,0.650510301298,-0.842120039006,0.457239106735,2.12845890208,0.88883859452,1.09168253804,1.79066318118,83.2848415711
off_to_on,1.82141759467,-0.0683639236025,-0.595956047286,-0.116261311945,-0.328943120892,-1.43537256539,1.81497240457,-0.0824829442418,-0.426128849036,0.229914318978,0.189632854675,-0.216548907533,1.14653544421,212.615536922
off_to_on,-1.17787017594,0.186853229706,-0.824372061982,-0.382566370687,-0.454706189286,-0.957986195803,-0.486303823542,1.21665566759,0.390686011687,-1.98397994621,-0.167340526943,-1.18710502929,-1.88203229658,-172.265652799
off_to_on,-2.23206605467,-0.740647587867,-0.297917841992,-0.675294841413,0.31329599867,0.905642484964,-2.21315027652,-1.33688515286,-0.336148859926,-0.61875780686,-0.843869655208,-0.326186258381,-1.21895784204,-138.306257424
off_to_on,2.33990570589,1.07727063427,2.15218596755,1.13510932485,1.20979082463,1.21019705834,1.82376513346,0.553174869012,0.281848459213,3.07180357524,0.907894537571,2.58968188911,2.88405367179,91.3964015727
off_to_on,0.285572072921,-0.941156724343,-1.18322599642,0.144295588394,-1.86803887241,-1.9830553106,-0.0362224598225,-0.210331516448,-0.247024979465,-1.15518334798,0.082336298073,-1.77903696321,-0.709657095729,219.4706219
off_to_on,-0.406707227063,0.713477843149,-0.713684850319,-0.890460255212,0.443909905731,1.0679953182,0.229067377369,0.793127415671,0.209670015554,-1.20925682082,-0.361205894783,-0.536273322807,-0.997265485998,-152.683439026
off_to_on,-1.39668847403,-0.404147902251,0.05317548155,-0.284623779776,0.783718319623,-0.293388547866,-0.858243861803,-1.04554817539,-0.152194427772,-0.0642878636023,-0.383747200342,0.795147133948,-0.286965328728,-170.521125719
off_to_on,0.7543466171,-0.265559130311,1.18962651384,1.11177762041,-0.141288569069,-0.310809167954,-0.347612066363,-0.00694043076669,0.103167371692,1.35470416336,0.637729332888,0.214750357221,1.21479285182,99.8258475151
off_to_on,1.47209349025,0.90410312881,0.294153061282,-0.0105084588459,-0.489529619743,1.45202364758,1.3540744608,1.20352399436,-0.0737347748722,0.872264039728,0.0961341041687,-0.0691724388808,0.354211930068,216.992066122
off_to_on,-1.31700484313,-0.725048320376,-2.16004400474,-0.862071435475,-0.293086955338,-1.64224422723,-0.259750501529,-0.892275618478,0.0217383132459,-2.51228281855,-0.604516423881,-0.552304499118,-1.57448948558,-126.283920551
off_to_on,-0.50989847929,-0.0551670959798,0.846457288552,-0.0907187645063,0.68721004118,-0.695325361871,-0.676614120261,-0.235826162603,0.0586205772602,0.0924513371818,0.208664901675,0.445154182797,0.508322618999,-199.115238429
off_to_on,0.627757934485,0.270717896768,1.36048153028,0.761307249782,0.206161215768,3.00168845023,-0.30962945768,0.219781092473,-0.106738794282,1.85301330565,0.284847305899,-0.49238845758,0.655539838822,106.676309431
off_to_on,0.405547310724,0.185389581328,-0.843424450045,0.369336102954,-0.368136775328,-1.00705035511,0.924038165776,0.450274970158,0.114982448335,0.188098281321,-0.143981792183,0.496381485731,-0.410410148161,208.293606597
off_to_on,0.085789583171,0.0500526293594,-0.469757360099,-1.12905749973,-0.580668899288,-3.44587805911,0.588216817851,0.45334098639,-0.157246035473,-1.43714449521,-0.224366119757,1.04133351122,0.203993074384,-98.6553163187
off_to_on,-1.27039224648,-1.0922377492,-0.329542955869,0.0586054241398,0.229717708626,2.80761714706,-1.86038107514,-2.00071037443,0.244686174419,-1.26832829581,0.208385642098,-2.32063021705,-0.483383233232,-220.575248298
off_to_on,0.512953530807,0.852367044376,0.95296093889,0.572806355538,1.22379415103,3.70485892487,0.51900707984,0.689040622275,-0.296760862106,2.35900155098,-0.0478185171034,0.234590524105,-0.147336542798,110.941057151
off_to_on,1.42105283135,1.23127295583,0.896077555881,0.625853025694,-0.561323674916,-5.53064213234,1.75388182369,2.66486547897,0.301025263809,1.44736992775,0.301078796229,2.78621728855,1.15644943179,196.251748222
off_to_on,-1.5871937889,-2.26907262863,-2.00468514742,-1.25187869911,-1.88247433972,-2.69461551336,-2.00087347325,-2.79056760323,-0.339618115511,-3.80429146497,-0.72502252286,-1.96478479343,-0.686924010793,-74.0218031434
off_to_on,0.0583969023896,0.62745813043,0.0652358064602,-0.0224445403675,2.03152178591,8.92270014485,0.399621082955,-0.788424621313,0.422448715474,0.578731454886,0.602357785672,-0.832293904461,-0.214001627387,-233.500405348
off_to_on,0.197443520416,0.733850923241,0.882863510292,0.623503982557,0.246871541429,-1.97003705672,0.428722346536,1.86217466143,-0.468024295951,2.14856858227,-0.122735830412,0.379026792931,-0.750247448691,112.687015046
off_to_on,1.46133640594,0.585740255488,1.70491157958,0.789162042028,-0.630557877707,-7.46265482778,0.574355951005,1.54420643683,0.47113913447,0.294291163417,0.212776556928,1.90057225378,2.11493927847,183.186509151
off_to_on,-1.91130956084,-1.8105386134,-2.80949531649,-1.56302847944,-1.37513803996,3.3542844398,-1.47740068448,-3.0662887245,-0.510573392528,-2.79122138923,-0.776476091795,-1.11031814915,-0.90096530824,-55.0377149
off_to_on,-0.492922727697,0.177701395676,-0.916634933552,0.351322508327,1.50017031548,7.11402923003,0.353143415783,-0.457548502873,0.585041263368,0.782458336629,0.730395318334,-1.18357982566,-1.42224851441,-238.335986608
off_to_on,2.37797952173,1.59942945585,3.54650320044,0.248065394016,0.816075415295,-5.54503638939,1.48641490641,2.89880177161,-0.619540227816,1.78844726903,-0.156248413494,0.447654795735,1.11320018298,113.177701454
off_to_on,-0.341119224376,-0.352409119233,0.042524080613,0.981947715462,-1.14986774355,-4.85236508514,-1.09588534441,-0.0614637491141,0.621990975314,-0.830456995408,0.299753503763,1.49713569954,1.15439673551,167.85176734
off_to_on,-2.91709239505,-1.71163759763,-4.19640533483,-1.50369261927,-1.40081517499,5.60147116525,-1.44602302507,-2.89003616289,-0.661682995681,-1.32327666084,-1.02297379374,-0.654250309653,-1.72315740245,-31.7837446889
off_to_on,2.487251572,1.61624216833,2.12287440184,0.316415995725,2.47476757179,3.59957506763,2.80563156775,1.54723715316,0.723420515713,1.87069269553,0.924880301503,-0.654056942607,0.549129492954,-261.542036663
off_to_on,0.343390632262,-0.99250628572,1.82431224581,0.0484500567973,-0.629552964785,-6.31613336695,-1.54856924614,0.111463993021,-0.744492710277,-1.67673319136,-0.305154538546,-1.18562896969,-0.547074356696,142.897488224
off_to_on,-0.258795932833,1.66991858784,-0.193930995614,1.20785758679,-0.375098735982,0.230802374915,0.136571724966,1.42580777008,0.747012884104,1.44469888525,0.740805789387,3.28890147039,1.74103518414,151.98423527
off_to_on,-2.37699182928,-1.51456042011,-3.76797186321,-1.53351443233,-1.12074460289,1.79856037681,-0.464836251548,-2.49561021359,-0.78617217589,-0.628792999416,-1.62638526606,-1.78650781052,-1.56583671303,-70.4965530841
off_to_on,2.21348276609,-0.408075621468,2.2971324557,0.263114817,2.10958059922,1.79213591682,1.14987975977,0.415662226864,0.833319831394,0.0492858762312,1.04748171182,-0.87649746999,0.0424403782657,-188.599192014
off_to_on,0.73862575133,0.69339628116,2.18818342618,0.0264431594974,-0.94883617258,-1.16783869161,-0.842853375132,1.06141366001,-0.840889307614,-0.482819833091,0.122555369061,0.805897037256,0.228274021356,116.00329162
off_to_on,-0.99882389087,1.65664317487,-1.5499967273,1.34872866477,-0.199035249825,-2.269442924,0.371463177278,0.364629043435,0.842666606875,0.719250228337,0.451785535937,0.968160235079,1.09088170705,113.096244329
off_to_on,-1.57663333974,-2.16109539289,-2.73828261583,-1.89720957897,-0.0690185271299,-0.52084952381,-0.249947171174,-1.24785796694,-0.878134762125,-0.283996187114,-1.7770591734,-1.57738391052,-1.40577094028,-42.6315730257
off_to_on,1.56059838333,-0.688085239812,2.5449465094,0.765989332636,0.638621001007,5.07602067484,0.0168456537508,0.0765281768168,0.909626069727,0.474219667612,1.22438029292,0.767017727522,-0.0868419679464,-160.028251529
off_to_on,0.730782902982,1.49234095611,1.2338664481,-0.0787014393835,-1.03009187417,-1.40149631497,-0.490918193296,-0.323552343944,-0.905703892216,-1.18875991178,0.0960321080711,-0.000502929605505,0.589606605779,91.8237874787
off_to_on,0.404444824527,2.22221784854,-0.548937819452,0.786815006574,1.74104563755,-4.05643251913,2.29715076348,2.60988713683,0.906198040174,1.18754048602,0.613368781999,0.638841126553,1.55285989611,76.4718524048
off_to_on,-3.84692427812,-4.53231028153,-3.86839657929,-1.36202041214,-1.89823241405,-0.310515469461,-2.99493369244,-2.7105392516,-0.934327266915,-1.20815113066,-2.05366425029,-2.58568223512,-3.36499723512,5.63226165504
off_to_on,2.95860572225,1.5902157592,3.70328863114,1.01481370484,0.762660396847,7.218665296,0.873146747867,0.0810122836618,0.949474569368,2.13001471802,1.31287857459,3.13166441309,1.87346296583,-149.44059947
off_to_on,0.97155646941,1.27385811178,0.811468659435,-0.708404510074,-0.174478169253,-3.26011065536,0.721131618551,0.495242368656,-0.936361156074,-2.08321144125,0.10974391476,-0.482127388452,0.456944586833,46.1419529762
off_to_on,-0.819337651994,0.295876010877,-1.54319851409,0.888617933122,1.36443810359,-4.81295557754,0.959619910375,1.8120399029,0.934912401459,-0.0257498987985,0.678324477475,-1.86144709868,0.092693550401,98.8241500288
off_to_on,-2.0833063039,-1.91289986723,-1.71286230799,-0.996640247399,-1.85628168813,2.35543471416,-2.14703870232,-2.01821519205,-0.952800441305,1.43286413665,-1.8883256825,0.151175861894,-1.59319477475,-23.5076521529
off_to_on,1.03169390663,0.0823150822867,1.77028597524,0.970697778855,0.0268709723684,5.45193602474,-0.280601694781,-0.797267798674,0.952020508819,-0.0160143678922,0.781989636413,2.42114549861,0.465033174646,-43.0306068043
off_to_on,1.54185672761,0.678977947481,0.998065412281,-1.12304648754,0.919783505185,-3.76631270176,1.62847040545,1.20761793333,-0.931904741171,-2.05595315807,0.334464737413,-1.40479990498,0.813839719019,-98.0979531879
off_to_on,0.971865988859,2.14175277107,-0.00725937332818,1.15724746827,1.28084152617,-3.95240351093,1.78204640232,2.07903948518,0.927447981745,2.17731980101,1.20976143052,-0.367784441737,1.42150201817,151.537309449
off_to_on,-4.44235555072,-3.04409122001,-3.35636462842,-0.841881452578,-2.86898889308,2.94680184449,-4.17526609226,-3.28469214643,-0.933097034408,-0.889546312768,-2.48115295067,-1.05617483713,-3.42992185769,50.5006865869
off_to_on,1.41884826744,-0.0991766240281,2.44846621922,0.707316788587,0.805371798652,5.5291871972,0.865879137515,0.547164382543,0.917810955939,0.055158246266,0.672950975724,2.49919259473,0.732186460888,-133.5857426
off_to_on,2.70786688161,0.792693330871,0.761845531843,-0.980969480676,0.862662418106,-6.92286507931,1.79363576379,0.380139409225,-0.892540950849,-0.720469711445,0.772220228205,-0.95975722501,1.75935771466,-81.6673322893
off_to_on,0.780868647231,2.94332740219,0.360690469596,1.02602546726,1.54099659611,-0.945281409324,1.7004106646,2.51223928303,0.883794238462,2.47720962811,1.19189623854,0.450557604267,1.57566409389,165.569506104
off_to_on,-5.81662153969,-3.54809577864,-3.37181165258,-0.64370117296,-3.56813985333,5.05696418022,-4.49805342761,-3.09141831275,-0.876344477378,-2.82116546104,-2.79902527687,-2.57270181096,-4.7852161495,92.1703903756
off_to_on,2.07673855331,-1.26877065429,1.55954824676,0.604839358955,0.599494073997,0.475331521733,0.213091766204,-0.997863147903,0.848812577617,-0.0497962885623,0.72565502509,1.62132354348,0.711880093269,-236.292127629
off_to_on,4.67510189188,3.11314738159,2.37446763222,-1.17712016983,2.73406312903,-5.71895791044,3.93610463955,2.91187190684,-0.819783313039,2.73636600984,1.15768425568,2.71002560752,4.14255335559,16.3265066314
off_to_on,-2.54244083127,1.22890317672,-1.364929422,1.40307982436,-0.439597341012,2.0951072302,-0.285007406539,0.94037959274,0.805442620583,-0.556218855064,0.74381384633,-2.04617148312,-0.785869669603,131.516203493
off_to_on,-4.48510918816,-3.60170134101,-2.54658768057,-0.643476716388,-3.60081494219,4.00228575736,-4.51091319397,-3.87915783721,-0.785149833312,-3.64170773015,-2.7327190884,-3.83676594329,-4.86119810391,58.663598458
off_to_on,4.27715525903,0.312959793752,2.63272996141,-0.138350387423,2.44917209158,-2.26203616687,2.07767735153,1.18560783858,0.74818117623,2.93459165927,1.07178472454,4.18739176416,2.70545363629,-192.577836715
off_to_on,1.3582321117,1.28585482395,0.0036582549717,-0.343132960178,1.39174895909,-4.53006398581,1.9703156622,1.40716814287,-0.716393167408,1.27913281135,0.9395899535,1.96196044913,2.4900326848,22.3968497325
off_to_on,-1.60111580408,2.08982769882,0.135012520814,1.53534060212,-0.932611611896,5.30500627816,0.407388202352,1.02592594804,0.695441733546,-1.14789718493,0.380574556105,-2.43301256686,-0.646412064497,96.1715313567
off_to_on,-3.04422049463,-3.41957550928,-2.20168776619,-1.50134611029,-2.63369399547,0.75860044156,-4.08130353504,-3.46922555897,-0.663549428587,-3.13312613208,-2.25920526499,-4.35438949249,-4.29439994629,50.5651756827
off_to_on,3.39622776991,-0.169398541882,1.77741459223,-0.0283060241022,2.86246784728,-3.42910623923,1.54113485393,1.15400803328,0.620119812051,3.42591338911,1.22917010908,5.13618045496,2.69540542519,-140.364176526
off_to_on,0.839636761764,1.81977703432,0.363741272737,0.716628831065,0.200981191387,-0.757675217238,2.29697377034,1.47929083086,-0.586237290119,1.09403162825,0.620658973864,2.44921483275,2.15909100446,0.958671265199
off_to_on,-2.20118516151,1.04478810922,-0.63421078403,0.765441512314,-1.28774378744,3.7230417381,-0.498371497274,-0.133428089827,0.55820988036,-2.58330027744,-0.2904867905,-4.63048685397,-1.45397055237,75.0231384614
off_to_on,-0.284585660564,-1.85801895669,-0.488655791919,-2.0850703524,-0.231935525759,-0.976205972163,-2.2938711183,-1.27424566015,-0.516789269859,-0.633021639933,-0.914915165313,-1.93147525724,-2.0432163982,40.951573798
off_to_on,1.4603379249,-1.287093671,0.532139727054,0.883374326801,0.837653014085,-2.04200089446,0.196793169284,-0.378563550098,0.469746319635,1.93054545422,0.884654285355,4.20560555508,0.944329930816,-83.8094197767
off_to_on,-0.532899265947,1.53117157945,-0.0446725624523,0.921738707794,-0.307335557222,1.1586093219,1.86941203744,0.83864243347,-0.434197143543,0.149810835449,-0.400759921446,1.1876997845,1.65530691627,-31.2025179423
off_to_on,0.396357719944,2.62472764942,0.589804875366,-0.282308890722,0.720565872892,1.14943783077,1.13128074691,1.95493852447,0.39932359944,-0.196552644793,0.469570108507,-2.39295742636,0.4545526503,64.6388218618
off_to_on,-0.779578220635,-3.53224717378,-1.30829140255,-1.45231475213,-1.15341912065,-2.47839994451,-3.71927192834,-2.7342008627,-0.351042279393,-2.09855831614,-0.364879382834,-2.92428250179,-3.26973301995,27.0604496019
off_to_on,0.336156511295,-0.758670548342,1.00268518356,0.957815295279,0.190427908318,2.42702794701,0.941702485443,-0.291185930867,0.302905861889,1.68027232613,-0.00504609992491,3.57217848363,0.907734184938,-28.9168306033
off_to_on,-0.552579576846,2.24531857139,-0.424140296355,0.853217906985,0.144342222147,0.0279085837327,2.0346930886,1.24812228104,-0.266020753511,0.838187192555,-0.319762135487,1.64812000692,2.09773067122,-65.2670863366
off_to_on,1.5603863524,1.61015196612,0.233002688777,-0.596950554312,1.20165214834,-2.86172672479,-0.52898636652,1.36749441533,0.225259480818,-0.60885434408,0.859400099916,-2.17874619457,0.0150069391058,62.9765098628
off_to_on,-0.331677309491,-2.70343390513,0.2523523912,-1.10697065266,-1.08807180405,0.943937557448,-1.3784020653,-1.33083582484,-0.173113591788,-1.04513077014,-0.322972299107,-1.9803891937,-2.48604909079,11.7666997333
off_to_on,-2.52449406212,-1.92601735928,-0.921535671715,0.942401298239,-1.40404807639,3.59792350877,0.14692608314,-2.16498233083,0.125970979934,-0.220897504773,-0.61075248954,1.16285797484,-0.222500362131,10.73311411
off_to_on,1.95155751691,3.80282616972,0.532787422658,0.652002145527,1.88701490699,-1.78756496468,1.16794858581,2.11111934385,-0.0881289207399,1.96426551236,0.398333068145,2.92339964019,3.0102614156,-83.2438260944
off_to_on,1.95418292545,0.909261643884,0.628162943041,-0.564647801703,0.998916448249,-5.09472823812,-0.554123775102,1.93646230133,0.0430962447387,-0.0183786766678,0.422693065359,-1.15472810784,-0.249681768551,59.8418671857
off_to_on,-2.68535991878,-3.74946368659,-0.781319201147,-0.74406918444,-2.04300609699,4.21855447427,-0.0300830186486,-2.28128842508,0.00986121298655,-2.08808073884,-0.375333375303,-3.10629516935,-2.91046266594,-4.26270947378
off_to_on,-0.938908371606,-0.0813536810971,-0.0673640705264,0.365515031037,-0.766308797481,5.44083385794,0.606169849736,-1.42013361577,-0.0543748278814,0.123598526285,-0.181418837555,1.08765148574,0.693614332078,37.4423881806
off_to_on,2.0859514023,2.81212353635,0.0362796721564,1.0374287739,1.94289047331,-7.55270551926,-2.10194164243,1.26178234514,0.0926189303939,1.59339283056,0.104398909229,2.55987193313,2.10033596308,-84.9602674526
off_to_on,1.37196016816,0.597800931505,0.923994618323,-0.603487035529,0.96164732342,-3.35386487991,1.60353136336,2.60507186595,-0.139798018337,1.04176860332,0.210838331508,0.282169414063,0.0518432792798,51.6124336483
off_to_on,-2.61475765892,-2.95104094211,-0.669636850114,-0.793219116429,-2.34033905044,9.38309484588,1.992552168,-1.80256430734,0.190701807912,-2.65889910602,0.0995562767359,-3.52522564612,-2.48786599802,-17.5809181805
off_to_on,-1.26225531068,-0.713014961177,-1.04060791714,0.19818383531,-0.769107885193,0.531098752768,-3.18638160866,-3.19596682541,-0.231362886628,-1.19717388205,-0.540848180869,-0.589559015915,-0.181913263908,52.5490928156
off_to_on,3.59651313567,3.64101309205,1.72835163283,1.41022190533,3.02672170858,-9.58011972403,-0.471191926928,3.32389314655,0.269195849372,4.2873887263,0.414533331397,4.85422872037,3.43658508999,-75.025526824
off_to_on,-0.593301250257,-0.94855205649,-0.579201849202,-0.920847974132,-0.897201058392,1.49486236471,2.37385062475,1.41666986589,-0.31608699004,-1.04317161449,-0.206750469711,-1.40196401589,-1.63147312022,40.00262654
off_to_on,-1.79610841041,-1.51286796567,-0.123336104772,-0.745766632758,-1.31866592538,10.2093014666,1.20503763293,-1.98978596939,0.36244942673,-2.65026778775,0.391044998926,-2.75319905782,-1.57250655655,-26.6252902979
off_to_on,-0.633498486916,-0.31746254247,-0.616944714352,0.357276033524,0.098942752801,-5.35478170782,-3.69298791708,-2.21174974504,-0.398368070654,0.443114812633,-0.483741645696,0.404105085419,0.70021741029,57.0340717941
off_to_on,2.62503952975,1.36458983056,0.702840320042,1.39745305229,1.60183190264,-7.62278049974,0.465847769382,2.7793536783,0.434697133551,2.99135396175,0.277807199123,2.38374576604,1.72501801249,-57.7316697798
off_to_on,0.167062985422,0.842044504389,0.631259824576,-1.34146308528,-0.902849665429,7.02173583262,2.93765627093,1.45380387401,-0.478779278892,-1.30420952888,-0.344909708513,-0.324527066508,-0.988995920415,27.252604325
off_to_on,-2.84898364847,-1.1614225264,-0.923637697689,-0.11934611718,-0.485121236576,4.55107300477,-1.53719894405,-3.03393916597,0.51861249851,-2.20060579419,0.709368938919,-1.19347169292,-1.20103033193,-31.0200699393
off_to_on,0.465169003528,-1.47972710212,-0.708923428693,0.0713745299472,0.602149853479,-7.12919396874,-1.38472333242,-0.132817931884,-0.549139059851,1.48223527473,-0.680973831642,-0.624695468217,0.853570629597,52.8258578361
off_to_on,2.99160871036,1.5618059482,1.50919729495,1.25908455477,0.100022317354,-1.17969689494,2.01924153994,2.54596244097,0.582632697725,1.9381087128,0.291980580952,0.796288588755,1.17688615063,-37.4676142964
off_to_on,-2.01228264993,0.947804944871,-0.294359605707,-1.30239648959,-0.981554992154,4.54076567093,-1.20190031814,-1.48525055996,-0.621517136738,-2.8483743605,-0.321751122482,0.684932135905,-1.63638666697,16.0410541317
off_to_on,-1.02720564161,-0.294103565173,-0.258704350425,0.201681384197,1.47901932855,0.855666956589,0.0340199307503,-0.377721060189,0.653387353881,0.659063599689,0.833682034429,1.06029508866,0.382630662567,-33.7499768121
off_to_on,0.799111262725,-2.69594683144,-1.14412458249,-0.146121608896,-0.666178437389,-4.07050614548,0.718360551199,0.566455596238,-0.678024469242,1.05390463498,-1.09929717769,-3.21404625982,0.21233947277,51.1558991515
off_to_on,2.14591136397,2.34240397113,2.23823393543,0.953584501855,-0.29405943034,1.93432843353,1.27203290819,1.33261641538,0.707205997436,0.216570802812,0.883519561803,0.668173034478,1.06645544857,-34.5822167906
off_to_on,-3.47364680792,-0.242583345627,-1.95606663772,-0.776161231253,-1.04449795002,-0.952899864635,-4.71402021605,-3.93965138273,-0.738828188622,-3.13477337483,-0.642757162367,1.31587817455,-2.87388557624,20.0526796601
off_to_on,2.00257914058,1.36654800443,1.6908507782,-0.0198590138646,3.22761490893,1.54179034116,3.63803364429,3.72792786096,0.761850686109,3.71295351369,0.648676179991,2.53192526364,2.72169056299,-14.3768254666
off_to_on,-0.0333538121733,-2.73458041604,-1.31993386976,-0.299538949959,-2.29511529502,-0.00258168543064,1.67247153207,0.308330878551,-0.78018679586,-0.43716657908,-0.778196120455,-4.63861268296,-0.272453458428,-18.1523073809
off_to_on,-0.525948564964,0.0125874157775,-0.0251244015975,1.26255869868,-0.636842157512,-0.570909708553,-2.68251655402,-2.6099068976,0.803563822127,-2.43119572714,0.882829667886,-0.68664814381,-1.25968119404,43.938585002
off_to_on,-0.329249111929,2.01817708907,0.423043308315,-1.08390079015,0.648987399012,-2.36491905846,-2.16197603856,-0.852068357261,-0.826330319188,0.774011007002,-0.836237339933,4.01907436945,-0.448501708724,-5.26588600425
off_to_on,1.23828018826,0.989915861515,1.26791412092,0.120576407811,1.84739120681,2.54761665183,3.60936659995,4.17866486066,0.840120013781,2.30083813685,0.611230679868,1.13336338962,2.47190654211,-40.6215985135
off_to_on,-0.760604927383,-2.9603602154,-1.62913676516,-0.205001662068,-1.89774773816,2.34399218761,1.03935691994,-0.941853406479,-0.851794342386,-1.66067095947,-0.512026629197,-4.65288274816,-1.09852059697,10.7882509981
off_to_on,-0.585797748319,-0.56849579021,-0.903642021476,1.32369507283,-0.439842736969,-3.28908157445,-2.78596029153,-3.63389546347,0.868003592452,-0.943056369215,0.788985681647,-0.337453178209,-1.51368444659,33.5527541869
off_to_on,0.660765158602,2.75006650868,1.60275911223,-1.77707495856,0.653618534841,-2.75923949878,-1.27392229205,1.55810671728,-0.880883743795,0.886717885917,-1.08319400486,3.83351409601,0.955672538336,5.41456768078
off_to_on,0.790413541071,0.960685502061,1.60198485614,1.10498039709,1.11485936377,5.00384561,2.75747899227,3.35929056942,0.885478546552,0.856546672685,0.948843988249,0.863573244521,1.61815844657,-72.48725469
off_to_on,-1.56683806136,-3.61814271149,-2.95713240716,-0.502095503453,-1.04553787734,0.81725937136,0.515986213253,-2.80322491083,-0.890180431001,-1.20425246118,-0.696559581225,-4.40958194591,-1.93915511579,59.3949565504
off_to_on,1.05706858183,0.917218008584,-0.042060159231,0.651739658337,-0.070615708845,-3.46460985742,-0.516301847449,-0.837385162933,0.898127501115,1.3258165603,0.88856125627,0.861018792162,0.385294255066,4.08514817859
off_to_on,-1.13496202837,0.728020584419,0.91894057612,-1.028469983,-1.08049765806,-2.18437181962,-3.68095228217,0.0571443471575,-0.900687660409,-2.41463615954,-1.28697723278,1.3928044562,-0.478979319128,-19.6535789859
off_to_on,2.00702762719,1.99656606253,2.94199671106,1.16276600511,2.68081821747,5.40163711515,3.60513612329,3.31355414573,0.896461422079,2.03985967679,1.22431202184,2.26306632311,2.01347233531,-8.30460487027
off_to_on,-1.65997457808,-3.10411728101,-4.15081383345,-1.14385630527,-1.29268984756,-0.960667521365,1.07155617698,-2.53788066561,-0.893960129976,-0.1533755144,-0.782563729349,-4.07721556594,-2.03927161621,-1.64103830777
off_to_on,0.213672709332,0.352930443939,-0.421425086195,1.0197683116,-0.705312557386,-1.57141620036,-1.63773978729,-0.917499608695,0.892936355561,0.281542177261,0.651226319373,0.361521573494,0.517492375159,67.3719905828
off_to_on,0.0592152399977,0.931168260814,2.95790788549,-0.798248254019,-0.25575516042,-1.66143190961,-2.11172163695,1.02736051629,-0.885321470346,-1.63571372915,-0.916389165837,2.13834164533,0.30607354706,-110.730524986
off_to_on,0.742150208089,0.415211484941,0.517614266022,0.793781192708,1.72198675796,1.68094262895,2.0412270777,1.327613347,0.872900657914,0.292078929979,0.955786623389,-0.171747179506,0.0320718817885,66.999064917
off_to_on,-0.655225058749,-0.517806339768,-3.08404881839,-1.10045129333,-0.546492569953,2.69908619249,1.42734233762,-1.36906071101,-0.863096637798,1.36332653373,-0.632611697421,-1.79948731122,-0.656038814311,-0.477967615677
off_to_on,0.233329186493,0.310196709601,0.89390281937,1.18270063967,-0.527466332402,-1.01455687761,-0.712613641028,-0.130817919207,0.852859877413,1.34771283271,0.603670901296,1.78231165658,1.34888715248,33.613019822
off_to_on,-1.21787265968,-2.43439347983,0.466142462901,-0.791724734064,-1.1455543875,-5.90030489479,-3.0666813112,-0.484399543587,-0.835732611744,-4.22668939651,-1.08063205974,-1.56005158888,-1.65537235466,-127.877869645
off_to_on,2.33397732921,3.07770157963,1.62971228303,0.556170277051,2.40488989556,4.61612575622,2.85845121401,2.35282566208,0.815926685981,1.24110889059,1.29490669312,0.836517968994,0.941061654438,105.205429395
off_to_on,-1.60470067265,0.205640944762,-2.48864339351,-0.820894782298,-0.93120587244,3.84086492604,-0.121638705186,-2.44389232626,-0.798912104933,2.16433348823,-0.839358600892,0.144314471999,-0.404511951169,21.576098413
off_to_on,0.535229128134,-1.1289864502,0.905894771072,0.92879886092,0.0112121088691,-3.28960581938,0.617826440598,1.01658256999,0.779723947408,1.31657918217,0.509386371513,1.36978297614,1.47854679,-18.1343177596
off_to_on,-1.02588269898,-2.95489143755,-0.698433098832,-0.578755755621,-1.40428003055,-6.09857771405,-2.03074849325,-0.0237878034132,-0.754174510167,-5.27993898824,-0.887680413581,-3.61390067293,-2.39808924756,-127.37908063
off_to_on,1.35033198984,3.71619428411,1.33109117949,0.533722587582,1.6958821087,5.93612731499,0.147965518538,-0.0404138810931,0.727925120726,1.04294632147,1.16878809628,1.27620452119,0.728533981167,126.761076418
off_to_on,0.0939318085304,1.91862128009,0.268242899305,-0.982697565152,0.196530901081,4.88209535932,1.14977259157,-0.517148368004,-0.704040757893,4.6120753344,-0.610392622346,3.13326166389,1.57335957949,50.6658500683
off_to_on,-1.02557197641,-3.85009743046,-1.39167287863,0.937411457081,-0.614908068943,-6.01669583316,1.29218744561,1.02453584546,0.676658592194,-1.50915648364,0.0647035413718,-1.81490762794,-0.751313434207,-63.781637362
off_to_on,-0.392571225915,-2.09805871651,-1.11036444478,-0.291890695957,-1.08537475998,-5.4575584267,-2.10431425016,-0.500785619379,-0.64409916617,-4.54291063963,-0.540895999105,-3.3911520167,-2.07084211806,-130.317304535
off_to_on,1.87588179159,5.12289918447,2.89225653067,0.318316814242,1.36110403837,7.81591697285,-0.923960626825,-0.185717881344,0.612448551663,2.9479704304,1.25751804557,3.49641147344,2.35840019022,138.541727885
off_to_on,-1.38131450088,0.0625898531879,-0.423961138499,-1.06458013779,-0.146448192946,3.86152387312,0.957690497413,-0.950804600256,-0.582325420016,2.1279403541,-0.912993649221,0.975848301135,0.17060127347,87.7426627782
off_to_on,0.566713439643,-2.99186596461,-1.08556321178,0.88747148171,0.636772502858,-6.92931486447,3.41287042909,2.59792870968,0.547953179198,-1.11526816331,0.0440848382889,-1.49902704986,-0.982793016794,-105.169638368
off_to_on,-0.934781709149,-2.03525971233,-1.87646641474,0.312912542278,-1.96422487628,-5.55017668107,-3.78249366907,-1.64973027121,-0.510009625587,-3.08725857283,-0.130064322271,-2.28932791988,-1.55750030783,-134.786249852
off_to_on,1.1017812021,4.94306806091,3.30607009125,-0.446678204068,0.992249090243,10.1432163124,-1.2662856003,-0.504325024773,0.474084698812,2.56685621428,0.955284467273,3.12353902638,3.18181107961,142.223377624
off_to_on,-0.20563595328,0.344684515737,0.369808458933,-0.936275397397,0.679928581949,2.83533519959,2.64219830867,0.184621379715,-0.438661675319,0.825049147947,-0.984087484103,-0.00212286782718,-0.698919879112,124.304857181
off_to_on,-0.293396181039,-4.3128774452,-2.65929880691,1.49164021025,0.0699985192047,-10.2467273396,1.34662815909,1.1588615627,0.398867251757,-1.37384536058,0.0637957120503,-1.83139791042,-2.38203739131,-131.778623762
off_to_on,-0.122521347078,0.257318296683,-0.174457593115,-0.174972273985,-1.2453862082,-0.747813583254,-2.15245084274,0.0470715806883,-0.357278144456,0.207319024932,0.380235655185,1.1082644965,1.35000598066,-148.266016351
off_to_on,0.0213746835864,3.62972148755,1.91301703351,-0.873586170586,0.0138962799718,9.3513435793,-1.49382956082,-1.68974531315,0.318284139363,-0.21493299668,0.174833177285,-0.0757605184375,1.76645702199,143.861153361
off_to_on,0.60153547612,-0.56768356294,0.550391911159,0.0846063952937,1.18551678922,-0.796426921544,1.84396898213,0.00569623706403,-0.278796771556,-0.176344548054,-0.694832626287,-1.18554212247,-1.70778580908,155.380309252
off_to_on,0.0569998967012,-2.68898091205,-1.11673246181,1.06068263704,0.308449331023,-7.57816761234,1.74173802457,2.47581935916,0.235406728385,1.58104828098,0.526486627964,2.22598059828,-0.691020847364,-143.235961817
off_to_on,-1.69026334511,-0.223334879071,-2.17694087551,-0.830290552571,-1.8591874869,0.729961981411,-2.48718122484,-1.61478570617,-0.191936384153,-1.18644420351,-0.162500550391,-0.625772850016,0.416422201667,-168.464577298
off_to_on,1.66010257258,3.56561504857,2.58050973502,-0.198722630093,0.863182709106,7.40931271315,0.161806338625,-0.588310832961,0.151152848975,-0.719286007966,0.0153263323659,-1.97927032733,1.83899090033,144.15305742
off_to_on,0.248756579464,-1.16012673762,1.26409045716,0.637402728729,0.445060615171,-2.3770671956,0.243320920984,0.428176877872,-0.109092704776,0.52274075319,-0.00817472125195,0.706612936101,-1.12750019883,179.496901387
off_to_on,-1.0409850183,-2.42147973186,-1.94551798253,-0.220195226274,-0.0117095668273,-5.2589414763,0.454362009075,0.824086854332,0.0640758764553,1.25293024326,0.168271969032,2.7887387627,-1.43043162934,-143.283216422
off_to_on,-0.141603979503,1.29742747934,-1.66104637016,-0.462070998798,-0.375199478793,2.22913037338,0.86634950374,-0.497315780529,-0.0204445159781,-0.665453825281,-0.323534566563,-1.69583463668,0.679770604091,-189.364527237
off_to_on,0.382937106462,1.25582874677,1.70124303543,0.669930876362,-0.434266775793,4.11998592599,-1.62817933054,-0.769849488367,-0.0207831971969,-1.80848699086,-0.0642122275962,-3.08050338597,1.54193203219,141.220328571
off_to_on,1.29906678344,-0.16015227562,2.72837779921,-0.0198910443023,0.744730405235,-2.04340912922,-0.344537885351,1.41025364838,0.0637353754742,1.99516136854,0.698188199192,3.42687726447,0.256373596315,196.9270949
off_to_on,-1.59309757186,-2.03005396994,-3.10597007324,-0.768946522288,-0.0447650685006,-4.13516855489,1.1680110727,-1.00092133348,-0.108384351244,0.324273614972,-0.464101068365,1.23326564161,-3.11090582165,-135.725663677
off_to_on,-0.803385576284,0.842372768983,-1.85809059088,0.552071445733,-0.125149201434,3.96039770432,0.861957273451,-0.60595326378,0.150553316618,-1.35931519061,-0.437739998431,-2.71973483096,0.625801395829,-206.736662475
off_to_on,1.97344719153,1.73956790054,3.34153737109,0.271045570587,-0.283152228732,1.95874628031,-1.32420220868,1.97560954952,-0.190832358394,0.0398458720607,0.414328155818,-0.791895094251,3.38547873406,134.394383041
off_to_on,0.169761424273,-1.55052651496,0.829127399115,-0.191867184551,0.0588769909299,-4.98986445516,-1.00014392003,-0.610001249543,0.232893333475,0.830885565423,0.637414053122,1.91225574938,-1.36299731872,208.562322912
off_to_on,-1.58414750637,-0.532409567842,-2.56025979748,-0.706091572142,0.352089259119,1.24125631744,1.66233290887,-1.8765347212,-0.275261253976,0.203211366887,-0.93442124836,1.49115876942,-2.8025749832,-124.623383041
off_to_on,-0.29533066413,1.3224506221,-0.632960839595,0.844825520129,0.0110657917445,4.33843371441,0.254335700778,1.04809470233,0.314479179016,-1.06143903912,0.0586617489743,-2.35615586937,1.12418939181,-217.691292476
off_to_on,1.29686939113,-0.749147097145,1.67280758038,-0.106483814907,-0.46870644499,-4.24147748764,-1.25103370686,1.58233930346,-0.352400255249,-0.268928030169,0.294614031023,-1.85552602957,2.38414408025,124.014182036
off_to_on,1.38803128524,0.368618134663,1.6515937287,-0.0561016321558,0.545477767143,-1.65811767525,1.1860316128,-0.177359368349,0.391782448661,2.37405714482,0.496769588618,4.13730592065,0.169399741394,215.353196186
off_to_on,-3.17595732719,-0.452216133393,-3.00619818136,-0.522043201171,-1.09118116396,4.24992144138,-1.8653029256,-3.68771648832,-0.430128759821,-2.27223788908,-1.04447366643,-0.795421265974,-4.20147198563,-113.232704547
off_to_on,0.724680102551,0.97089047629,0.422599306042,0.636461582667,1.6704247237,1.58366513554,1.4356200152,2.76544053293,0.465068716,0.0407551050681,0.708019477204,-2.08327812149,1.64932813699,-221.281117927
off_to_on,1.33245555386,-1.67077450764,0.702413118402,-0.27926849458,-0.680822942809,-6.63958742751,0.9073629105,1.79898292363,-0.499250171264,0.96437038301,-0.394651181996,-0.0664624415931,2.69280494017,111.479064903
off_to_on,0.614823372513,0.909840039763,0.98772819732,0.434642591031,-0.835335587089,1.25716554857,-1.10238043712,-1.93757224763,0.534262159069,0.510234810557,0.422546385166,2.63368921533,-0.705131155173,218.119724181
off_to_on,-1.99041924109,1.41530362833,-0.942102956672,-0.842601824756,0.211984191571,6.50277785932,-1.54576835127,-1.93772683663,-0.567090152571,-1.45969970694,-0.291726197835,-0.978916267516,-3.16882909328,-103.759323709
off_to_on,-0.642911364219,-1.78191201107,-1.09420702274,0.65464357253,1.56562095091,-2.95306451428,1.59505077778,1.92554457477,0.596606995195,0.028185950344,0.302145679327,-1.61612363699,1.34773371111,-218.271399283
off_to_on,2.23766366181,-1.18434752104,0.638357667493,-0.379427105294,-1.10720430205,-6.46606501269,1.4563870298,1.73582054983,-0.625749669706,1.09614921813,-0.892492852179,0.900429612618,2.23173518385,99.2614118393
off_to_on,0.971024332444,2.92104808811,1.93888914785,0.733026595584,-0.835767782757,5.37196139253,-1.12625407795,-1.33497965457,0.654890275409,0.318860447694,1.20296053901,1.17206846552,-0.826800222929,214.562515636
off_to_on,-3.73775621183,-0.690393767826,-2.10200483327,-0.959115502161,0.303419170826,4.25296396378,-2.94316836923,-3.09296473599,-0.68099695839,-2.1109292195,-0.616195094257,-1.59194722485,-2.58883267763,-86.070623837
off_to_on,1.62352798668,-0.81327831635,0.342189628309,0.463342110669,2.38637190158,-4.88013738128,3.50203962197,3.9524088759,0.704144127255,1.93749277705,0.280742561657,1.54085142063,2.70917798766,-235.765692396
off_to_on,0.840650401463,-1.77419924462,-0.749106855513,-0.254759703805,-2.78712674773,-5.10050386955,0.0725721012509,-0.294001703687,-0.727092677185,-0.987307448003,-0.931992919498,-2.01530813052,-1.1397849462,119.211012447
off_to_on,0.707006142701,3.52666155044,2.32708209807,0.874384947417,0.274599838127,8.17379218417,-0.774049858532,-1.40633105567,0.749131257932,0.756113442669,1.26983666082,1.14059083528,0.566271621022,206.411505681
off_to_on,-2.4051515828,-0.429954078115,-1.10987596338,-1.14715327416,0.894445817064,1.0886604483,-1.83805253683,-0.703846638232,-0.767636816254,-0.481592929169,-0.570943039818,0.791001744349,0.00393678715882,-128.810404455
off_to_on,0.442128588334,-2.53737659466,-1.38227735203,0.58190121405,0.820341437277,-6.75722911539,1.57705341784,2.15508801186,0.783682346023,-0.14806023025,0.273813382594,-0.582345832731,-0.297453052434,-156.553072255
off_to_on,1.46605762448,0.351736969262,0.654494271457,-0.434671527157,-2.00763831556,-0.00459029690165,1.0609179385,-0.922285022137,-0.799487402654,-0.0615351561763,-0.995341310621,-1.49341362768,-1.12654346787,85.3068060228
off_to_on,0.266546654731,2.96026793427,2.05103525002,1.09528166747,0.74074126935,6.55334123925,-0.503381040707,-0.610105704962,0.813524917717,0.905099222736,1.12392659511,1.66089145103,1.84602683029,168.234181507
off_to_on,-2.20094545982,-1.9038842886,-1.88646834996,-1.23407785618,0.491927690587,-2.30898355132,-1.79159027006,0.538198878104,-0.823884271799,-0.851056517389,-0.244150526445,0.156490450286,0.131383073598,-99.1379692076
off_to_on,1.03792394568,-0.962546683837,-0.55636795798,0.550335524215,0.368494571405,-3.82281379779,1.11630943293,1.105100332,0.832327015139,0.366110428225,0.317875315586,-0.229856986929,-0.821206610026,-123.914974556
off_to_on,0.0791506127831,0.354973519139,0.302860043015,-0.401502151399,-1.83795667255,1.16413320237,-0.189031822377,-3.08483583868,-0.840302094858,-1.11683895078,-1.66021818975,-1.83039947129,-2.15697995963,56.485183311
off_to_on,1.60447306145,2.64898264625,2.78133044713,0.996355731335,1.94132527164,4.70332718844,2.57667266015,2.91959633898,0.845809851048,2.24173145213,1.8229439432,2.60950211556,3.49539054113,126.897479631
off_to_on,-2.77627358836,-3.26217299101,-3.47974452519,-1.02325766853,-1.0176999065,-4.08972672185,-3.32691298762,-0.0838542383697,-0.847809653844,-1.61420225232,-0.273655427856,-1.20700918026,-0.29278832785,-42.5063252647
off_to_on,0.83800659703,0.813846544437,0.356047494607,0.455783074003,0.448758925054,-0.420029695605,-0.925884080258,-1.36262086802,0.8483952231,0.0458955738834,-0.232711297157,0.117335983114,-1.36276397336,-113.966666599
off_to_on,0.840219237921,1.14347913532,1.72297721663,-0.594072306053,-0.635735125929,1.59512551576,2.90342054003,-1.12722148369,-0.848162668368,0.011866440612,-1.23851811003,-0.39063055719,-1.75633070874,7.84281332043
off_to_on,0.360489831806,-0.485190124197,0.10299576723,1.24824825963,0.891025618917,-0.108162459873,1.7554100737,2.95608743916,0.84499793072,0.985849248128,1.94640814793,0.618404369385,3.06839588272,145.251833927
off_to_on,-1.41034964355,-1.18695274919,-2.24484588487,-1.06703287061,-0.576965936859,-0.586558799726,-4.52321095,-0.114406813533,-0.838742526051,-0.688522936936,-0.584132194484,-0.1444589846,0.810514658272,-63.8153843196
off_to_on,0.129440381573,1.44074447844,1.28140828418,0.399452817334,0.136113203578,1.42731758792,-0.138471583838,-2.49551726287,0.831477205274,-0.477441257244,-0.379458458757,-0.0373370363627,-2.74714831125,-10.2267311248
off_to_on,0.449528228992,-0.392161266407,0.515669272268,-0.612577101012,-0.572347620071,-2.35587148564,3.4076201761,-0.497798328146,-0.822998506519,-0.0499620086904,-0.631076393884,-0.756142346126,-1.3275853338,-136.360451467
off_to_on,1.55495593275,0.290785363064,0.223199966088,1.21216298836,1.61066958719,0.577340496173,1.17318199309,4.40437303233,0.811398175423,2.11726923694,1.66663662978,1.83506450959,4.46213945603,193.384607141
off_to_on,-2.93328580149,-1.83281235216,-2.3044905804,-0.876086209743,-1.71407356339,1.47117848672,-5.25408157761,-2.71296129544,-0.797287658697,-2.76078699296,-1.1295576316,-1.99576040235,-1.75276823334,17.4185390684
off_to_on,1.50301404297,2.65699350588,2.58068794241,0.277156925971,0.708994412038,1.26932069138,1.93466646937,-1.02855844589,0.782447720222,1.04382713379,0.33137280196,1.02436835743,-1.25086639544,-106.090389445
off_to_on,0.125449353941,-1.03353904998,-0.908885296551,-0.664873236411,-0.362786517074,-4.7724745678,1.73827427964,0.416726274682,-0.766035132982,0.577706649758,-0.545355399128,-0.116843016222,-0.151342595249,-114.257203443
off_to_on,0.170276458448,-0.959302142713,-0.571692933682,1.18325787285,1.17401879806,1.47998066291,0.267487918207,2.06192991561,0.746590235197,-0.166597767373,0.925343292348,0.288800183656,2.0245160921,199.073947605
off_to_on,-0.743479011144,0.59099988138,0.65135498653,-0.715900893663,-1.22236436382,3.98168634315,-1.97826464476,-1.13139761758,-0.725293030647,-1.18544194691,-0.672725382177,-0.885466290114,-0.861097881242,66.8452735408
off_to_on,0.287372877092,1.11852087916,0.367297168236,0.326467201039,-0.160866953843,-1.73041550681,-0.6794747292,-1.04357616891,0.703426610094,1.3499773868,0.433057142083,0.697938981061,-0.455598286403,-215.006202411
off_to_on,-0.0421391826424,-1.39032362745,-1.2883461,-0.920378498109,0.686632206764,-4.24969011852,1.5805103935,0.409389358165,-0.679734795591,0.0160887752848,-0.649359906189,0.137511964236,-0.187787371668,-7.68224317831
off_to_on,0.570711587282,0.299453301635,0.837632350305,1.12849845184,0.786509759625,2.96229161549,1.79626984112,1.04046405946,0.653349524301,-1.07760129124,0.791838533105,-0.442475649189,0.645820995526,154.161258828
off_to_on,-0.792822755312,0.0125901209017,0.291362672836,-0.233071292831,-1.82729500923,2.57678986937,-2.87568875262,-0.83783084035,-0.625771023842,-0.0773768183348,-0.629641498699,-0.472733178662,-0.355134066183,41.8424697622
off_to_on,0.700916769406,0.867231427203,0.330979414265,-0.0328151269127,0.743106167384,-1.43897140736,0.0996348888639,1.14155368964,0.597689971205,2.63345379989,0.540544520435,2.07734723171,1.17898880935,-177.796332795
off_to_on,-1.21943720819,-1.67747661593,-2.46879590372,-0.954369752481,0.226535028779,-4.00611070493,0.196614576942,-2.37552423794,-0.567688207343,-3.20276626868,-0.603885024978,-2.68751236474,-2.18178021509,7.51147509103
off_to_on,1.68061425761,1.72316555229,2.42379892322,1.14146138784,0.868059501206,3.46782082805,2.13211071379,1.14549968422,0.535527673733,0.395146605616,0.604779529772,0.933577540974,1.04341623152,107.653222337
off_to_on,-0.801744806125,-0.848705192991,0.533893875506,0.0527083388077,-1.87165401282,1.33352806968,-1.09041408041,1.57854174263,-0.502775666084,2.23366956612,-0.539942308437,1.63102419557,0.698898870519,42.7124806531
off_to_on,-0.606234983543,-0.757390027743,-1.9052322436,-0.297195376982,0.530840820751,-1.60080724996,-1.70733599204,-0.753542083365,0.469535523198,-0.928439575357,0.423183256539,-1.45252877278,-0.310490481969,-133.162129798
off_to_on,0.795391730743,1.49544670788,-0.291291198667,-1.03324087772,1.15136921147,-1.2671702709,0.411614035826,-2.20117022278,-0.434462645136,-2.06063899131,-0.238583975748,-1.42698276213,-0.887645773026,-4.14381786533
off_to_on,0.0660280821629,-0.00934138890506,1.74225661185,1.42945497414,-0.533461300496,0.764860743647,1.82423781967,1.05098186971,0.397893443363,1.67598145176,0.237392442425,2.24025888609,0.427754050081,75.6777698687
off_to_on,-0.572188007636,-1.70558020386,0.0875222684118,-0.11727070059,-0.941352861235,1.1349954779,0.32347975701,2.55647658177,-0.3612404483,1.49036757345,-0.473462670344,0.779194739318,0.597932852556,41.956666867
off_to_on,0.48964837808,0.811957122387,-1.33066314834,-0.467251152537,0.758786821129,0.0262458632465,-1.97615605644,-1.32552198563,0.324107768629,-1.93349982397,0.458813490553,-2.4840323294,-0.227070775992,-84.8173372631
off_to_on,-0.553156040421,0.986524316231,-0.538995351386,-0.511929530012,0.067347907117,-1.59885268674,-1.57260581944,-3.25290834742,-0.285413247923,-1.4264364086,-0.158737565522,-0.618178720204,-0.764553134269,-26.5002064896
off_to_on,0.874788485593,0.188139818705,2.143811827,0.890242806141,0.428990161114,0.881006523624,3.64172602926,3.06052986675,0.245940509699,3.36419956048,0.304627348084,3.74984975093,1.16934887614,55.4714948519
off_to_on,-0.964755506771,-2.93861834557,-1.19307838125,-0.00761816237638,-1.10891022096,-0.578376332942,0.102840628989,1.16958291645,-0.206782811847,-1.17180329471,-0.798621912937,-1.93728686857,-1.30291999847,36.2969782772
off_to_on,0.553836105216,2.06705454435,0.0218426049833,-0.232512111252,0.327289285389,1.05407153561,-1.93878805949,-1.51814931537,0.167190267989,-1.36102692153,0.468339228658,-1.51938838842,0.881835899428,-38.2081151249
off_to_on,0.235936192425,2.08307589801,0.260457028483,-0.479804162711,0.570930824183,0.506520830046,-1.37611197819,-1.58184330085,-0.126465638933,1.00184952295,0.581840780026,1.5066802191,0.77644244498,-51.3549946181
off_to_on,-0.86198186652,-3.21210062165,-1.02191869331,0.38692737986,-0.129349090988,-1.78567808538,1.29456928612,0.849413572753,0.0856696103,0.220389907931,-0.616382037559,0.298995874041,-1.93938836576,45.4406295712
off_to_on,0.699492670214,-0.386219032833,1.22217178606,0.395358423381,-0.219238451259,-0.549847972286,3.3515376808,2.72111837782,-0.0454827859905,0.0347265633686,-0.573072340474,-0.202278274922,0.50534229169,28.2171938315
off_to_on,-0.0712782369418,2.63632342527,0.522147486396,-0.100742772758,-0.628561480658,1.86006477305,-2.33772082963,-1.79648556886,0.0049737291209,-0.545029120292,0.855344673491,-0.553613987697,1.56261981682,-6.34584796353
off_to_on,-0.000267359213173,-0.00209389737148,-1.24707422766,-0.744904879879,0.966632200077,1.56453433146,-3.72473378105,-2.2892136437,0.0361210994523,0.122896370843,0.487659950834,-0.0245264255379,-0.823183201184,-61.2216681433
off_to_on,-0.344464353921,-2.62240978412,-0.864899332697,0.187415815599,0.114281759994,-2.80614612465,2.64726694368,1.87982354364,-0.0766466431407,0.130121837591,-1.18901617764,0.174724161652,-1.54564927228,35.5744369588
off_to_on,-0.123281926131,0.64632831019,1.43019667069,1.00985191045,-0.739587527007,-2.32777624758,3.94822358033,1.86303159519,0.116355626198,-0.0428542747171,-0.0555042373873,0.660473525083,1.43005763037,18.1716268431
off_to_on,1.18339563745,2.50286009047,1.66152334097,-0.646378529919,0.123647595725,4.63284311659,-2.46045598537,-1.30551670855,-0.156190438117,0.826442807698,1.11046870582,0.284617606032,1.25322487598,13.6247969598
off_to_on,-1.01936508437,-1.76423764251,-2.67570494291,-0.527094537133,0.0544003654667,1.3934684223,-4.80141371678,-2.48608211398,0.196001547778,-1.41632397553,-0.0815586786139,-2.27199547121,-2.35444205202,-56.450698341
off_to_on,-0.601573690861,-1.21038276445,-1.09694405272,0.23864935427,0.360502896681,-5.29462152968,3.22300862244,1.7486575326,-0.23470739936,-0.250852457524,-1.33206213764,0.737734162611,0.102996395783,22.4190842575
off_to_on,1.59924389679,1.94501959222,3.20355249424,0.84748982715,0.40014755926,-0.0539118374418,4.86429223582,2.87958724947,0.272450934847,2.32769138138,0.816919136079,3.20471598589,2.43319947066,9.44596480949
off_to_on,-0.964079949462,-0.759467901295,-0.357025160657,-0.592918060931,-1.67124510367,4.36656534566,-4.6735218483,-3.48198966519,-0.310040954558,-1.46109218635,0.536984529158,-3.00586317378,-2.14895617621,23.4733503652
off_to_on,0.194332587063,0.604872653932,-1.23918263823,-0.318946913797,1.00280482469,0.59702792366,-2.17694442276,-0.501263275742,0.346991467824,-0.710337874658,-0.229678703959,-1.19811898855,0.031374803498,-42.0253228946
off_to_on,-0.383230831733,-1.02697504057,-1.32238215803,-0.0724618479664,0.683200616622,-5.64686575665,2.46650110854,1.93127993208,-0.38242648014,0.235565631009,-1.24069666276,2.04428271697,0.817908276498,7.79429469276
off_to_on,0.593106936219,0.0523308489936,2.07563337246,0.988042378997,-0.271731019974,1.91683303625,2.39540534146,0.817228428317,0.416788755529,1.54497727099,1.26326451297,1.49792462713,0.363118790742,3.45772770152
off_to_on,-0.124988482167,1.01010948456,0.976234262106,-0.610390688567,-1.55908959458,3.54850924798,-1.89297660397,-2.10941677096,-0.450651708962,-0.657441516663,0.296738691218,-2.35430324334,-1.28804264247,24.5000256057
off_to_on,-0.254500509919,-0.0875503810885,-1.77141542987,-0.182374536706,1.34370869496,-2.34309081505,-1.74295763226,-0.104828496915,0.48330621782,-1.43878121499,-0.770027964525,-1.06232751561,0.334556152673,-22.4373484507
off_to_on,0.149447242433,-1.18909768131,-1.01401871445,-0.335246617405,0.764739067561,-1.36067070307,0.775275440846,1.75602748221,-0.514165424167,0.686927985578,-0.764789425968,2.24670332954,0.911638663034,-6.04081185729
off_to_on,-0.000265682722504,0.568069986657,1.62910072002,1.25785074939,-1.22988086329,1.63101195877,1.40491375727,-0.539243136339,0.54385477282,1.43653588739,1.82952697882,0.74533340902,-0.282041923418,0.468474895242
off_to_on,-0.493466325871,0.276008186978,0.355385711513,-0.922404331333,-0.750541073038,-0.811892572621,-0.104249601802,-1.52085802971,-0.572661223096,-1.14541566849,-0.715111636097,-2.43817360844,-1.3857922047,18.8075503705
off_to_on,1.61934354813,0.896465785829,0.258641956402,0.0843227849702,2.30911799876,1.31592327732,0.369577776616,2.49033692275,0.599781092671,0.0908494874863,-0.588734517407,0.899893406538,1.72254293843,-1.63618993707
off_to_on,-1.94946055175,-2.25469415154,-2.59849582419,-0.198062661636,-1.69983947972,-0.802275800486,-3.69083344792,-1.98623915454,-0.624947863064,-1.36882628247,-0.21211956638,-0.148698921592,-0.752330602581,-19.7204828303
off_to_on,0.649037994435,1.38115411406,1.66625992817,0.753924882963,0.22695322568,-0.268042356976,2.33420164382,0.251020598001,0.648846804048,2.46452173781,1.77526837644,1.34271173914,0.451631479993,9.62794561058
off_to_on,0.13434535233,0.0702471663184,0.729139793547,-0.78357340003,0.26699124566,-1.25735396905,3.03564282097,0.88506194553,-0.671477575679,-0.500952680772,-1.45456885864,-1.52327932817,-1.09810830331,-9.25241114954
off_to_on,0.964765259339,0.210358740384,0.0440445043848,0.720644063564,0.521723803266,2.90321154766,-1.86403313984,0.356797035296,0.692065440918,-1.24123563636,-0.153910476237,0.270800379755,1.05331048492,30.5909623161
off_to_on,-1.26468296212,-0.801737166372,-1.55072340163,-0.925077045101,-1.3712183492,-0.430011019024,-4.33286132803,-1.81578516159,-0.710647107728,-0.197416218123,0.346407749327,0.366337422511,0.0500258391995,-11.986648882
off_to_on,-0.782230707823,-0.0463170172208,0.0108191623964,0.756709321212,0.901090320242,-2.57938958536,3.08087857323,0.435748703907,0.727857564408,1.40834802763,1.02744094185,-0.287330051292,-0.621450661245,-41.4509241064
off_to_on,1.41374487395,0.537656006686,1.24085315907,-0.330544678427,0.361479231287,0.784474920077,3.74269555593,1.35719479166,-0.743450970181,0.0434337230929,-1.57135613683,-0.0121089767469,-0.238402325495,37.8118651837
off_to_on,1.6468337187,0.964484824537,0.966198018946,0.643076238911,-0.216263385842,2.51766095631,-2.46568859867,0.451249308484,0.756783496921,-0.436165346417,0.63708505852,1.27364685671,1.49582918643,25.9490825286
off_to_on,-3.66046544376,-2.30992829471,-2.68527723124,-1.31519333027,-1.61031007591,-2.08746064183,-5.10193758015,-3.16051422181,-0.768139819924,-1.91325959709,-0.125838598665,-2.47418295887,-1.82249213931,-47.1228594019
off_to_on,1.01245755402,1.50596511968,1.17400355261,0.975963299472,2.36663616687,0.35625021986,4.89213086369,1.90319616553,0.778020973953,2.57936338597,0.850708425502,1.39581984583,1.12588922587,8.51962743272
off_to_on,1.48627312727,-0.40724736764,-0.21637305656,-0.0854434446644,-0.786334554687,-0.79180373366,1.7960642058,0.627498436777,-0.786007566023,-0.232438981468,-1.35699707217,0.374481447155,-0.409527003695,-2.57829240475
off_to_on,0.775451480216,0.947384388466,1.49321217546,0.359922918529,-0.410792699639,1.04395967337,-1.88959003258,0.685066020119,0.791656180244,-0.298658433116,0.860828784695,0.445014879566,0.651571031053,53.2199974151
off_to_on,-3.3625050885,-1.47062152507,-1.36237866293,-1.45104637053,-0.813434438843,-0.0383202063651,-3.23063661534,-2.7970397124,-0.79541993407,-1.89055377413,-0.450256887532,-2.2208502261,-1.45559289299,-88.4009872172
off_to_on,1.11736998077,0.231188641548,-0.531100666157,1.41605784794,2.0982947605,0.845352103152,2.20350587898,0.474910025234,0.797616390664,1.68253289951,0.742417372786,1.24214297545,1.22541093562,78.5049239529
off_to_on,2.08362597218,0.927504427056,0.408752417597,-0.343600282126,-0.841206905802,-2.21799221845,2.60099893415,2.52856548223,-0.797739836744,1.27086495358,-0.89697313135,0.975888786575,0.254221506495,-56.3727841932
off_to_on,-0.827625048329,0.121935284101,1.16226813385,0.196973293918,-1.15284098965,0.0581941778658,-1.20874395237,-0.407522999408,0.795579613625,-1.31544423842,0.548087322767,-0.775696773377,-0.780277691239,40.6123240989
off_to_on,-2.03163321849,-1.74808320139,-0.709762912757,-1.16661492678,0.678749844913,2.07940642918,-3.07438874383,-3.01165099733,-0.791668533756,-1.92103248054,-0.500471044098,-0.848924383959,-0.759192675366,-36.4953698112
off_to_on,1.79411330173,1.43204885749,-0.0961084434968,1.44458197164,1.68781861062,1.36441013398,1.76423917752,1.80387961753,0.786126924918,2.7951976622,1.01207128179,1.46379723015,2.01583839024,39.2378441523
off_to_on,-0.593597895394,-0.312595097997,-1.77115857164,-0.603059956718,-2.72457264893,-4.95641934309,0.898003766234,0.47130868609,-0.778450499349,-0.70839354771,-1.25579529022,-1.96965975974,-1.17058948344,-9.11222658697
off_to_on,1.56587565318,0.971788604494,3.14518804828,0.142950649064,1.36472492128,1.40127248236,1.77190433306,1.26874901128,0.768657750604,0.371669877907,0.846243453422,2.51380788367,0.365550020164,-46.2879279701
off_to_on,-2.11255553266,-2.41246985775,-0.794073750045,-0.638209180697,0.286103175396,2.92425684996,-3.89706470452,-3.02568985887,-0.757277117968,-1.80447139802,-0.413646509862,-0.75902495396,-1.44177240436,29.1334903969
off_to_on,0.150100957659,1.59411328956,-1.21903915322,1.05444098395,-0.171963209347,0.53878621177,-0.22078979698,0.499686941283,0.744249903008,1.1075631133,0.481267052895,-1.69592921788,1.90455168982,58.5560862147
off_to_on,0.935406756307,0.877050970789,-0.607873564382,-0.921698365603,-1.15900593785,-4.99337496435,3.14790036571,1.60339460303,-0.729148904628,0.720937171348,-0.843417272327,0.249334779951,0.199839171119,-51.3813621456
off_to_on,0.614906378229,-1.28178628573,2.05588711911,0.819614617934,1.54237683874,1.03942887276,0.893298832253,0.604979916547,0.712188232473,-0.00751542613311,1.017611077,3.04297423713,-1.59035512243,-64.6727436994
off_to_on,-1.27847174453,-0.890665954667,0.0518911384432,-0.827229438892,-0.273485791931,4.50353724282,-4.01889294793,-2.14868415835,-0.693823541612,-1.56359757926,-0.707241747515,-1.72547232101,-0.503101958174,60.7840803398
off_to_on,-0.146621690014,1.97140672451,-1.35875034267,0.56908511096,-0.76654868776,-1.46911349911,0.217404648087,-0.168492003161,0.673859511549,0.481086199045,0.157710654853,-2.42334660132,2.51950470874,91.9099019455
off_to_on,0.160941744861,-0.465567316984,-0.884480427393,-0.444124396315,-0.12183824916,-4.3809274188,3.04093462574,1.07695249266,-0.652000620261,0.973479932077,-0.173633570679,1.63491694853,-0.832444968217,-102.749488538
off_to_on,1.67645391936,-0.460668052427,2.41235785724,0.893501701459,1.72686820566,3.05769411307,0.442107014345,1.89354658708,0.628602355002,0.817107355702,1.00593511793,3.28943665468,-1.16193881667,-70.295470046
off_to_on,-1.76022452496,-1.1893197989,-0.970617612429,-1.11273304953,-1.7590877469,1.27758753324,-4.36782482755,-3.06832417854,-0.604001803692,-3.21357932803,-1.51631293023,-4.11699161877,-0.687840849917,79.4140441754
off_to_on,0.196178007766,2.56385903927,0.225279608349,0.407874347242,0.426642543711,-0.157642528776,2.51091314047,0.308844656745,0.577923582938,2.00253058758,0.755446209221,0.0317323237278,3.15973986968,124.553867575
off_to_on,-0.45830478389,-1.05343954063,-1.32392732137,0.162016164353,0.115209495273,-3.05407538556,0.945757575874,0.769270599946,-0.550232712917,0.799734265017,0.205688525687,1.81150695892,-1.55148931468,-139.860816612
off_to_on,1.79113642162,-1.04449374547,1.02062150992,0.448101004587,0.693156793703,1.36719828067,-0.840442487533,1.45500356396,0.521361757249,-0.798240772709,0.132070566162,0.579189806866,-1.44798564467,-83.4184256686
off_to_on,-0.72880294078,0.612886538871,0.570805316865,-1.16238247893,-1.17155115442,2.22312942906,-0.579939051269,-1.43680642897,-0.491508700762,-1.1133449178,-1.03131376396,-2.09211192296,0.878891025348,92.6413546501
off_to_on,-1.50624983987,0.950847658331,-0.359893095226,0.700805919354,0.278924225554,-1.34419146508,0.168187991972,-1.78109317945,0.46037829334,1.02347595951,0.805074902914,0.366404275374,1.38811203354,157.12597522
off_to_on,1.22138534723,-0.584662977806,-0.638893237687,-0.0123072843003,0.836045456335,-2.15984621684,0.413825933744,2.15135952447,-0.427998883455,1.00920725844,0.083487742429,1.63298986716,-0.780950737526,-166.082379842
off_to_on,0.8027022814,-0.901462517479,-0.127827907885,0.335346020968,-0.639943095782,2.38303744023,0.525333217811,1.53475083224,0.394816084042,-1.34906716762,0.00505287687998,-1.28966388877,-1.23652458631,-100.806036974
off_to_on,-1.55912555899,0.404793536424,0.431743928053,-0.723632680898,-0.717455210184,0.83273594861,-1.30246100879,-3.19350420108,-0.360892080764,-1.16146779498,-0.729702187232,-1.15393620294,0.400746405412,101.976593612
off_to_on,1.35160049198,1.97137223064,1.91341577232,0.130066377243,1.75063131234,-2.35017801097,0.837733212909,0.781460968981,0.325966167063,3.26999524677,0.634017787815,3.39290214061,2.20726863216,182.072976693
off_to_on,-1.38787328664,-2.87581365861,-3.09271335386,0.265356992482,-1.39973078222,-0.608574805328,-0.542532609615,0.838810963699,-0.29021007762,-1.86078621396,-0.0928289166544,-2.37058103383,-2.34759884372,-172.945096097
off_to_on,0.50603677552,0.740985560957,0.151813606347,0.48708253835,0.0590938587591,4.16713879649,0.811691728038,0.330308218932,0.254027356826,-1.45783051463,0.264158210382,-1.51742595796,-0.0319867353038,-128.783912151
off_to_on,1.1665876396,1.87875504739,2.46482132346,-0.913065720802,0.8361421969,-2.40324042781,-0.293772856993,-0.900148310457,-0.217366947188,2.09135416068,-0.522340586566,2.81334661115,1.36523657429,113.022343718
off_to_on,-0.839162561231,-1.63006385726,-0.595474702075,0.0420926406244,-0.285175097099,-3.21904445652,-0.689393225904,-0.062599593419,0.180044155052,0.970185514284,0.00421288677191,1.02821584651,-0.255837585862,196.175255596
off_to_on,-1.21135971208,-0.99943884338,-2.0641152064,0.467462352974,-0.891181147082,4.17406717517,0.421104886121,0.0907191831496,-0.142337436532,-2.84645664145,0.273781113177,-3.76588641176,-1.19312140128,-162.530545844
off_to_on,0.957984529527,1.87361703435,0.801004355321,0.355884210297,0.73568576679,1.43790192736,0.356076903071,0.174614168786,0.104568054295,-0.247785475227,0.302620888331,-0.100131935885,0.656701038516,-163.850202438
off_to_on,1.69813260385,0.794217083573,1.94820645488,-0.773790885763,0.961922365638,-4.24020802634,0.428847266896,1.40237480465,-0.0666069102442,4.10429247058,-0.326703712648,4.80107490592,1.39837280867,125.667160333
off_to_on,-1.87370731525,-2.78448851044,-1.43402725795,-0.107139725836,-1.63479580596,-0.48168002195,-1.38223870467,-2.01856403401,0.0283696339665,-2.03210583564,-0.469071224729,-1.96606992096,-1.82826886914,200.077005027
off_to_on,-1.31210107785,0.0221290375439,-1.42426279277,0.550319121539,-0.312451096729,3.89988320879,-0.413442640342,-1.43318893461,0.00980457307542,-3.83933676502,0.203117765819,-4.63382199588,-0.882726815128,-140.904066236
off_to_on,2.6106274666,3.79908588207,2.2833655241,0.139932838843,2.18894362986,0.175691346508,2.90441738557,4.21472029177,-0.0476990990208,4.55954600521,0.950530365212,4.49685981525,3.08951715456,-198.895261877
off_to_on,-0.041753210099,-2.25021618952,-0.33669446319,-0.247773813153,-0.841614198719,-4.05566121856,-1.4282995124,-0.75442564971,0.0854805910591,1.26444096997,-0.427529041856,2.1377910252,-0.857382662019,136.895829529
off_to_on,-1.66641358022,-2.65924323273,-1.27977541465,-0.610738246372,-1.63405320052,1.1977701052,-2.35953952768,-3.97122966784,-0.123127076569,-4.46468759261,-1.28695868322,-4.64507087671,-2.70687585089,196.324781304
off_to_on,-0.0317382749872,3.09024885276,0.659132670441,0.643715385654,1.0491091555,2.47729119427,2.25283463983,2.03600294155,0.160286331275,0.325156324758,0.882886964057,-0.302363995227,1.77136923331,-113.831533693
off_to_on,1.0872964435,1.17572158872,0.394883729467,0.298256348822,1.22304882542,-1.60445587095,1.28112013134,2.74043990646,-0.196850954911,3.49717116787,1.05746534249,3.74186272785,1.76734092518,-228.832711641
off_to_on,1.14007961825,-2.27853129355,0.425615838387,-0.369178471166,-0.487210977433,0.212715815851,-1.40874201409,-1.31330096795,0.232986299944,-0.332094821682,-0.612014958368,0.0987550903121,-1.22853193725,144.769212206
off_to_on,-2.79626620691,-1.67648339034,-2.00872483693,-0.483630567096,-2.24048633411,-0.688280064272,-2.39523475082,-3.70405329074,-0.268574676569,-4.08508990966,-1.67257271618,-4.49686842888,-2.51336572793,187.943489194
off_to_on,0.630471941134,3.42975708871,1.37904641774,0.590458563651,1.74319011886,-0.261801520936,2.99669939077,2.83953126573,0.303293665723,2.1408078435,1.4433022737,2.09552659839,2.50579558101,-86.8216877693
off_to_on,2.08652740408,0.132352853615,1.14483329341,-0.0788801715553,1.32545196272,1.40371031636,1.14460041614,2.42993618261,-0.337134354381,2.45112482868,0.930628208621,2.91085822194,1.22328794614,-250.153351827
do_nothing,-1.31666863263,-2.86257671679,-1.89622399941,0.295216694258,-1.38230806924,1.1234259107,-3.01827597019,-2.746409985,0.37022919138,-2.0637036177,-0.980695591932,-2.45430233509,-2.00914794821,148.341367597
do_nothing,-1.11015248852,0.893696700067,-0.15191736748,-0.728721249248,-1.35158918589,-2.91463911331,-0.0836661499478,-1.54358836474,-0.402388274067,-1.45396802352,-1.14694196543,-1.81627667368,-0.682964136942,177.667596648
do_nothing,1.29474045034,1.48444077223,1.6418745705,0.28842099693,1.40964554719,-1.07874488752,2.3174381043,2.11483235,0.433351983471,1.50395017346,1.30509436086,2.20985595409,1.15685221408,-64.0000850961
do_nothing,0.183818630401,-1.00176633643,-0.689693829522,0.0322152544577,0.994493401378,3.86235660626,-0.643308201943,0.960241007516,-0.463188133233,0.91629461903,0.319206765259,1.26079188154,0.709314723799,-261.527098356
do_nothing,-0.162633821291,0.483466520457,-0.205427769303,0.755645976881,-0.533405906149,1.34180374622,-0.539837486167,-0.493211801398,0.491975541563,-0.255048648542,-0.0854011830682,-1.39050935953,0.128356709383,147.839058299
do_nothing,-1.40415570566,-1.59417608814,-0.857613984098,-1.19965110773,-2.34420273341,-6.08275065638,-1.24269099702,-2.91213833051,-0.519483438792,-2.62170495873,-1.46780685653,-2.78653007834,-2.87714203906,167.619905575
do_nothing,1.97352323307,1.61021670525,1.93106777537,0.245997240401,2.22539579603,1.76174306027,2.4286778903,2.47306165582,0.545535348426,2.53345248941,1.08619419055,4.03097948365,2.22050231675,-47.8953747377
do_nothing,-0.952391368089,0.0584064988087,-1.16372466825,0.342695892658,0.522614398462,3.5001323495,-0.923819120044,0.947756861704,-0.570248104662,0.20245486211,0.294186163793,0.027847041916,0.919728220489,-263.536279394
do_nothing,0.0496642044648,-0.304913087431,-0.0439865678675,0.669329756726,-0.707400327188,-0.700817417533,-0.602716852286,-0.863269243801,0.59363853463,-1.00643543501,0.286697897964,-2.59307491319,-1.03350773001,144.778033042
do_nothing,-0.0593270271118,-1.12897096555,-0.0650897249113,-1.48753170195,-1.45352996005,-3.15663458167,0.356623367589,-1.84234314649,-0.615468781701,-0.46821915603,-1.54827803487,-0.0800794991455,-1.47779698307,156.270283079
do_nothing,0.164312992804,1.01559413418,0.676478001594,0.769083961638,1.36528642777,0.525807988759,0.30923983633,1.15611948946,0.635652555664,0.88184720606,0.77461305518,2.49684375391,1.60843916358,-28.2903033102
do_nothing,0.0216060299184,0.708690396069,-0.29162930084,-0.105467350691,0.65197970612,2.09854255903,-0.570220726281,1.79364206027,-0.654327130177,-0.0489831631157,0.470485754216,-0.635342324954,0.56499726895,-283.169247353
do_nothing,0.15275916055,-0.635101710005,-0.443836120938,0.709542351366,-0.556853787804,0.612286898834,0.867137042426,-1.011411981,0.671450789958,0.350723717475,0.389619715579,-1.14559554912,-0.718141049594,170.367121968
do_nothing,-0.947618092175,-1.49388393446,-0.281014005117,-1.20937239309,-1.30602907023,-2.21579599939,-0.772458649287,-2.57652964778,-0.686809840807,-1.31089791485,-1.70303591848,-0.643619239087,-1.21853176449,145.176927182
do_nothing,1.57142176371,2.28307902294,2.17057679352,0.665000287066,1.58619918295,0.0538846607602,0.15316024308,2.91410914871,0.700403192061,0.917275815999,1.04339047678,2.19479137576,1.62523560959,-72.6255952642
do_nothing,-1.35106408633,-0.95540635405,-2.57908640965,-0.291242928151,-0.648898161284,-0.849377718529,-0.621025103562,-0.106662710202,-0.712363429988,-0.36472631282,0.0369706536732,-0.889142115797,-0.524735140942,-203.699173076
do_nothing,0.821684610223,0.357027608266,0.653523052771,0.766433525235,0.900253408446,3.98015930421,2.44656825495,-0.376195516961,0.722603347609,1.6838927264,0.619886137689,0.488309894983,0.95041622546,137.314608479
do_nothing,-0.823939192363,-1.38622842255,0.61859893587,-1.06719592198,-1.52065904042,-1.32084572071,-2.68546694875,-1.85049671581,-0.730958234303,-2.73004363379,-1.59147863469,-2.37389236305,-2.27879405331,111.184617688
do_nothing,0.882740938575,1.46368788909,0.704938678786,0.767753703039,0.668683860581,-3.71971589637,-0.152458182065,1.87497667991,0.737497877682,0.520960840006,0.976868760387,1.75657059632,1.11999348896,-50.0966744043
do_nothing,-0.0189806409357,0.497289249207,-1.58738462605,-0.629307197523,0.379258360718,0.74445081061,2.48720471373,0.945554962073,-0.742331591643,2.35776965877,0.0192480040375,2.06924889428,1.63603899246,-168.381747728
do_nothing,-0.868556877707,-1.65793224194,-0.413490995682,0.797965177694,0.12868552893,5.51186045015,-0.781482170371,-1.77107010708,0.74534603992,-1.17973000455,0.287223940705,-2.47281049339,-1.38971356102,108.51483858
do_nothing,-0.0652674261547,-0.265508481591,1.56895025392,-0.811801589909,-1.03619966307,-2.57205793744,-2.42814666709,-0.922840885492,-0.746441436931,-2.51392872094,-1.12138549508,-2.19388203387,-1.96428226008,74.3711630847
do_nothing,1.95219601885,2.83470024073,1.39693204459,0.8179764373,0.906634736635,-4.89799790169,2.5147342147,2.84570273353,0.745738308172,2.99444282234,1.17070303006,4.34052151438,3.1049151397,-1.74355502023
do_nothing,-1.99005912368,-2.30534249476,-3.92596793987,-0.948338962641,-0.625861279849,3.0091795891,-0.421509316879,-1.51815692351,-0.743312254613,-0.118828620219,-0.718191966048,-0.657599336382,-0.378470518974,-151.846742227
do_nothing,0.479037031616,-0.161832314497,1.34760003374,0.727202238319,1.04899078832,5.20296362822,0.358328774482,-0.0667957953577,0.739045744544,-0.615399253175,0.514771729295,-1.79412873166,-1.08937795421,54.6370936606
do_nothing,-0.484883659589,0.175798787969,1.67377655446,-0.327990760763,-1.29185467203,-6.02966504525,-1.83853071693,-0.664667222192,-0.732910091713,-1.99264305051,-0.628077295764,-1.23506722806,-1.42481494423,99.3687732544
do_nothing,1.83936280152,2.09346612306,0.56014675878,0.582411011546,0.843664780787,-0.23939757698,1.16926960037,1.78746034171,0.725054309163,2.87809735338,0.882906665543,3.64731927928,3.16438637847,-30.3112925643
do_nothing,-1.29824146682,-1.94198419046,-3.53718240179,-1.13097085985,-0.53476256058,2.80450277988,0.71030310418,-1.0437734672,-0.715518113909,-0.0873329001764,-0.998259763413,-0.867479298517,-0.67333692508,-39.9445796577
do_nothing,-0.720019103103,-0.886331771154,0.966238448885,0.88909443211,0.683579446422,-0.218956821035,0.0651881634713,-0.302109296571,0.704200694106,-1.72085414142,0.661644308457,-1.93837557115,-1.6768530209,-101.435981155
do_nothing,0.523011631683,1.16712125372,2.72445430772,-0.347728899652,-0.616434260379,-1.32284796898,-2.11649980173,0.273083545306,-0.691141427864,-0.273949253459,-0.286962250114,0.138520014745,-0.0950336135254,161.09218475
do_nothing,1.34093808097,1.60648014005,-0.731434246685,0.710872447607,0.167271643531,1.00500546835,0.958543754727,0.478338092451,0.676496806689,2.19560337364,0.559696844983,2.02539553657,2.12165387681,40.8689502948
do_nothing,-0.922277695228,-1.70825872547,-2.92547631915,-1.30404130392,0.0465485480685,-1.20846342926,1.96032347473,-0.523912086289,-0.660275627746,-0.614934056086,-0.990809984382,-0.274164436779,-0.383756152938,-127.751507456
do_nothing,-0.819143590391,-1.16900373199,1.5085454366,0.778391626759,0.397248840446,0.913183364203,-1.14779349279,0.43148974566,0.64241074374,-1.38600530521,0.697305773533,-1.41772829117,-1.33690659506,-91.203083899
do_nothing,-0.505879840485,0.396364820045,1.23760303285,0.0889540995835,-1.30741470344,0.16740186642,-3.02176365657,-1.36651434286,-0.622999054906,-0.282667474572,-0.30249328463,-1.30207267874,-1.08379152004,181.164817219
do_nothing,3.40867921241,3.96921282569,0.871794050733,0.230267093399,1.84406794524,0.480201860319,4.52919192382,2.40011907535,0.602187344965,3.45232783823,0.772246009862,4.29232102631,3.65527902621,79.0413420366
do_nothing,-2.47546546309,-3.61830249201,-3.71686207963,-1.11168667282,-1.08009956338,-2.12328543933,-1.24361303054,-1.5583882958,-0.579963561022,-2.9869996734,-1.21091216641,-1.88643634452,-1.50652346153,-227.304967724
do_nothing,-1.18514530601,-2.01513367018,1.15862652899,1.02899422836,-0.369933380182,1.34677018008,-2.40564586651,-0.683121672024,0.556305203588,-0.867179141428,0.504983526254,-2.58800181402,-1.88646477558,2.86939635127
do_nothing,1.60571355447,3.31648226186,2.55094535967,-0.279201444159,0.461212757194,0.856965536211,2.05161740533,1.29620100798,-0.531351078741,2.59677840438,0.191257991843,1.88493211696,1.03914611766,150.467044321
do_nothing,1.11590926396,1.73439753935,-0.995780252369,0.0720494568758,1.02443167623,-0.753310393876,1.35803058775,0.67340254163,0.505226475387,0.0783839897634,0.414528038294,2.66914068182,1.81854849158,42.5362221246
do_nothing,-1.62734740008,-3.54470107585,-2.28484166638,-0.397048925579,-1.4589937386,-1.06642687731,-2.97852635284,-1.80858288315,-0.477911177471,-2.62888668093,-1.00302369873,-3.05669232,-1.4390210448,-179.936728312
do_nothing,-0.508491580351,-0.97192014493,1.22214831654,0.629889010261,-0.290869607078,1.1790063181,0.206755810659,-0.290644997311,0.449431464916,0.941014063976,0.222516034908,-1.66792243619,-1.06837996322,5.92507468593
do_nothing,0.93067664093,2.91798729744,1.41398486125,-0.724221705408,1.37112501849,0.592743758494,2.78977750307,1.97044467324,-0.419950074835,1.87851381902,0.354059956068,3.30204024678,1.06444786043,116.401848743
do_nothing,1.0304461306,1.42922947428,-0.199531528949,0.627506346515,0.39676877004,-1.2897141031,-0.428193335571,0.754045866627,0.389564930275,-0.51527489265,0.704457542294,1.55823976052,1.37320362258,33.0449789572
do_nothing,-2.11000827762,-4.18460654502,-2.72630522108,-0.129404763983,-2.47846164507,-0.880410583829,-4.28607923881,-4.10461940953,-0.358260442817,-3.2824765204,-1.47103761254,-5.19101171073,-2.4295835561,-125.127579493
do_nothing,1.27545021338,1.02543936313,2.30343356359,-0.214758237921,1.65967373589,3.78876707185,3.25770049678,2.02556255437,0.326109126025,3.04417062979,0.215325772311,1.55171990194,0.994974237382,-17.1337271446
do_nothing,-0.0582263116098,1.98771046951,0.556738227954,-0.23660325867,0.710970906484,-2.77463604711,2.29518812843,2.56571983895,-0.293279896209,1.33625407306,0.943142078366,3.38984874446,0.616638225944,94.8764465701
do_nothing,-0.639855320874,-0.595458277063,-1.51409142375,0.750042235066,-1.15465924852,-2.42288624492,-2.88939916444,-2.05057651081,0.259842918347,-2.81805118089,0.128654820802,-1.80922558223,-0.576764240427,23.4256857983
do_nothing,0.412721472225,-1.34319935242,-0.0950835104388,-0.369805068994,-0.428592963118,4.350488233,-1.99156081161,-2.18695273539,-0.225797959797,-0.787397223759,-1.39383932244,-2.76741543637,-0.571051910228,-67.1771227193
do_nothing,0.563250600749,0.428410516269,1.29614028747,-0.153566275179,1.17223128379,1.04083956721,2.62522375853,2.07483317103,0.191255604159,2.7385360374,0.418028191699,2.01870682667,0.851437123439,-49.7625117433
do_nothing,-0.346151649011,1.37765091407,-0.150487900543,-0.250189441803,0.0583012977246,-5.01889571868,2.40621988651,2.27133224159,-0.156375535103,0.763861284127,1.02611161288,2.67613538036,0.707693914627,83.1861885926
do_nothing,-1.44732104983,-1.4913778511,-1.75850815526,0.734868923386,-1.25786851121,0.0659784616526,-3.28921407804,-2.79409313686,0.121204080188,-3.46353419373,-0.359104171617,-2.99709332824,-1.90767347302,10.4198790765
do_nothing,1.13789084767,-0.329830203475,1.1401282761,-0.0832585174786,0.463546855878,4.91271296788,-2.1089663937,-1.63638284759,-0.0857634732758,0.0285500049829,-1.02525655477,-1.82324376159,-0.0220017605872,-12.0826431783
do_nothing,2.35526879119,2.51595948083,2.05732493803,-0.777499478175,1.37482679276,-0.113644467715,4.08258104897,3.49162713413,0.0501902564202,4.09623959123,0.59421742188,3.97675981297,2.88684535968,-83.1744218521
do_nothing,-3.29813748385,-2.11106140725,-3.17853118481,0.340554520995,-1.61160947361,-5.64274377552,0.460658857778,-0.31423220561,-0.0146232493947,-2.03216669483,0.658768297433,-0.403118917181,-1.77245210686,79.6360846906
do_nothing,-0.913244244013,-1.28582574452,-0.133272329751,0.663295922034,-0.192207807839,1.33140454111,-2.7967440384,-1.86774349228,-0.020908425501,-2.43286775974,-0.419795620299,-2.64210711743,-1.92506957878,-3.44945757095
do_nothing,3.26700946257,2.5967710282,2.9058071645,-0.516900577758,1.28175628975,4.43536528849,-0.633556908812,0.0577779744597,0.056357379818,1.83246532213,-0.63197005942,0.62587235792,1.71258020442,26.7055949989
do_nothing,0.411490403059,0.813267112903,-0.835386569089,-0.541357540021,-0.058219491397,-0.771637466823,2.39940104498,1.35562412636,-0.0915752099359,1.67456905675,0.413285530799,2.00396381136,1.91596114979,-99.432676249
do_nothing,-2.77931200444,-2.57749465087,-1.75854203443,0.900623675094,-0.94523091803,-3.39620639163,1.0941001514,0.503717501893,0.126451129259,-0.948086835735,0.725712822707,-0.162649563673,-1.4559496535,74.1420947204
do_nothing,-1.09603927615,-1.59651512552,-0.0742931814229,-0.194586859139,-0.540672813062,-1.53435790618,-3.49156619812,-2.3316975541,-0.160965604733,-2.60754185741,-0.921616402552,-2.90821459521,-3.0047657858,-17.6742048081
do_nothing,3.72463045551,4.16402458525,2.50372041316,-0.478879841434,2.02970126389,5.00208594107,0.775554316703,1.0609659397,0.195047873327,2.06626055284,0.0312426728613,1.64229246871,2.7964460026,51.7121464982
do_nothing,0.0734017222774,0.573732400932,-0.695313669434,0.281658012407,-0.619859463625,1.53536547023,2.29476248556,1.24062050534,-0.228551805496,1.58159169756,0.5053196686,1.746803275,2.37953192628,-98.6054952013
do_nothing,-2.92486962249,-4.12732873857,-1.71543543296,0.536955213946,-1.38532080296,-5.30147480043,-1.31980590727,-1.30261097141,0.261397395579,-1.54672920079,-0.0321811742164,-1.4347688398,-2.71563069218,63.2040342013
do_nothing,0.0304945155333,-0.3009589216,0.439299470376,-1.02557817721,0.642702842175,-1.8895237131,-1.16423811144,-0.315492488805,-0.293567675909,-1.39563283583,-0.687728007891,-1.20643057783,-2.48598817782,-28.8551269648
do_nothing,1.63215829166,3.70795444151,0.989292672385,0.514336456678,0.970747509771,5.5009100976,1.15157736111,0.730520675625,0.324974141758,0.774955812177,0.689337511806,0.65356636444,2.5684557172,64.4479654474
do_nothing,1.16271186264,0.852213786258,0.480253900292,0.307843256516,-0.335866226481,2.31174363565,0.676884088371,0.326407513806,-0.355485440323,2.09545498711,-0.0143319795893,1.6026249113,3.04976074679,-85.5621415275
do_nothing,-1.02411501673,-3.42706547388,-0.686534159124,-0.0567526890976,-0.648947060613,-5.45040391162,-0.877575286458,-0.143478308818,0.385051302742,-0.431067800488,-0.232170804172,-0.0294352991,-2.50713998991,48.6564447152
do_nothing,-3.33559861575,-2.6583764662,-2.22582668537,-1.00383490852,-0.728178001988,-3.72065852679,-1.3305434647,-1.82302910994,-0.41365210741,-3.79003633702,-0.572225516524,-3.22279895317,-4.57701383673,-35.4482993662
do_nothing,3.05502291716,5.81761943305,2.84400804584,1.02328290891,2.02558090577,7.61400675684,2.8720471757,2.20401436871,0.441189995644,2.70789876907,1.27834978324,1.96374097978,4.68327303831,66.0477264229
do_nothing,2.05658718869,0.902262114799,0.38018860753,0.148090285664,-0.572537477564,1.89581441082,-1.42111798102,0.160110496248,-0.467558044538,1.8906790455,-0.657670386796,1.37168320186,2.96507669379,-64.8464953097
do_nothing,-1.78573003466,-4.6531989604,-1.37018307149,-0.331951945779,-0.751295166906,-6.51611257901,-0.81152390006,-1.07831636896,0.492731911001,-1.50619015252,-0.237665478719,-0.220918687513,-3.60059225888,32.8670067775
do_nothing,-3.46337176256,-1.89263214968,-1.30666848536,-1.04788914347,-0.689475981619,-2.68662168893,0.643985519358,-1.34864805392,-0.516686627538,-2.56231185498,-0.222008078449,-2.61200705771,-4.08650311307,-37.126524384
do_nothing,2.62088393044,5.26129408625,1.65000311775,1.64081548575,1.66272656309,7.54552126628,0.780075456729,2.0775562681,0.539324762889,1.93902036106,1.11327156888,0.565240847074,4.59910517876,58.5797324392
do_nothing,3.34742191521,1.79486594467,1.1772377671,-0.419955286642,0.240556862584,1.76483955625,-0.601350643099,1.40269673654,-0.560569955598,2.11985056395,-0.682511459273,2.66122313167,3.67848259142,-40.6046895421
do_nothing,-2.70404954814,-5.30764997026,-1.28867648767,-0.359391770087,-1.23010055855,-7.79301906503,-0.348557263988,-2.83436129526,0.580418413376,-1.53035836056,-0.10529468639,-0.257305221975,-4.65839765854,15.4103490321
do_nothing,-3.45115826249,-1.91863775248,-1.56836711888,-0.646197045059,-1.01924518165,-0.608665861519,-0.171611200336,-1.42227838404,-0.598839856414,-2.36705158219,-0.517220198779,-3.28460856925,-3.8082178687,-24.853775606
do_nothing,3.5154607717,6.07971590658,1.95354585919,1.49441913428,2.2548216985,7.9853882025,1.2936741921,4.40578612545,0.615747055594,2.16480801566,1.40403211591,1.09126026087,5.71191963445,26.7743488786
do_nothing,1.23228855855,-0.318347662301,-0.299891888656,-0.754651489352,-0.240172938119,-2.29588318702,-1.48743861396,-1.2183822069,-0.631096693638,0.41188403762,-0.789168790804,1.54902018761,1.56558983433,-3.52696611985
do_nothing,-0.338419715588,-2.71750241764,1.03513247019,-0.0558725805341,-0.47582293975,-4.13378289798,1.4114676117,-1.63631075852,0.644899764721,0.888785410667,0.00754236061164,1.83756645218,-3.06125477281,18.7002961328
do_nothing,-3.70155838686,-2.17371328132,-2.22926514986,-0.347748901095,-1.99601580002,0.00419104753514,-1.11612554139,-0.839055527394,-0.657123155969,-3.04173463176,-0.732469929994,-4.46375208416,-3.43045069751,-71.7888786054
do_nothing,1.44123087873,3.38444277715,0.127904734096,0.931791446309,2.58198991379,4.80304055472,-0.225446025012,2.76802095977,0.667698365839,0.440512898444,1.41101561709,-0.241835163514,4.13481332297,67.5871376088
do_nothing,2.87254396901,1.72649934621,1.55524713144,-0.849503133105,0.491697272771,-0.524937929911,0.806861939305,-0.0511900756076,-0.676614298427,2.40179446946,-0.524959115842,3.97795740799,2.1860227528,0.669249241963
do_nothing,-0.263124126041,-1.97887944386,0.801553560413,0.77285024066,-1.76545286817,-3.91871888585,0.905251811508,-1.70807467117,0.683891559454,0.12861456789,-0.155135201132,0.576550810092,-2.80909360182,-25.26483299
do_nothing,-3.58656986261,-2.72458807187,-2.15726094022,-0.883562248548,-0.776881429477,-0.453287436315,-1.5739990958,-0.436353443752,-0.689498479373,-2.76520511001,-0.709812887439,-4.55250555123,-2.56802995658,-14.6122062827
do_nothing,0.344180801971,1.68564044365,-0.731286954377,0.544326845014,2.14211654324,5.14143899375,-0.779702196531,1.42701343984,0.693391621406,0.248899846208,1.24491017684,0.278478824045,2.6612631497,20.1958631473
do_nothing,2.81957789293,2.42499278604,1.45529661061,-0.200582525675,-0.570856722273,-0.990003979669,1.06478535342,-0.207302788151,-0.695588670011,1.56441507603,-0.442054831847,3.25828531579,1.55976094634,36.5540578009
do_nothing,1.78632348657,0.69927265217,2.81642952892,0.768353891463,0.121314337776,-4.12148955712,3.11226884707,1.35132954303,0.696115929095,1.93113368864,0.260318833355,1.46624558509,-0.34616354943,-76.6329248659
do_nothing,-5.44056428887,-5.47172255852,-4.1798514528,-1.41621967611,-1.45365833486,0.181980115164,-4.44373512128,-3.15334928341,-0.69494837564,-4.0813085235,-1.23389878671,-5.37833593744,-3.76360242639,65.3104052841
do_nothing,0.621072652699,1.44552731221,-0.314481806208,0.760062882345,1.14905483913,6.20945515478,-0.670416451276,0.569010298956,0.692071234195,0.479852203964,1.22222285366,1.04130531832,2.1670428248,-41.6916090312
do_nothing,3.21693243566,3.70421267374,2.0600821557,0.298714391103,0.0560559685074,-3.84952210525,3.24092885503,2.18331427422,-0.687525789191,2.04846435772,-0.126365024455,2.99135016268,1.5526816032,29.9420438221
do_nothing,1.00603978719,0.328966061003,1.80954869525,0.190044356476,0.941197347254,-3.29894832086,1.85717497677,0.957471921651,0.681341709031,0.71233322118,0.256281143595,0.266630427999,-0.160864953888,-30.6046286062
do_nothing,-3.74987797764,-4.5156668688,-2.67982186186,-1.64746458257,-1.96741715053,3.85662931787,-4.71171007345,-3.92551912119,-0.673505812971,-2.55709615876,-1.31155798718,-3.28074528817,-2.13023318278,34.0092577494
do_nothing,-0.916280812133,-0.478789203423,-1.48916692591,1.62660415787,-0.118527882408,1.66174124583,-1.14648508841,-0.398811417795,0.664032694911,-0.00151400612908,0.858156465767,0.167393147163,0.0123808289404,-3.81602884364
do_nothing,3.2061939254,4.17427826628,1.90947029126,-0.00687295610421,1.87144099818,-3.80594716649,5.15846128512,4.48448217448,-0.652981237009,1.59238055505,0.372582575166,2.44805304062,1.44016503597,-48.7764363949
do_nothing,1.7901507077,1.72862210602,2.60345384676,-0.555718577407,0.440330736633,0.696628553043,0.889643707204,0.350611652267,0.640383695055,0.425295871351,0.294236640763,0.240956475775,1.31088955876,28.4683584323
do_nothing,-4.35445819854,-5.60334798172,-3.16545684394,-0.909532412589,-3.00979323097,1.23098117412,-6.75853252347,-6.24792822357,-0.626243065358,-2.01966494831,-1.85344378723,-2.90497187414,-2.50458682755,60.5441513989
do_nothing,0.388789640893,0.0908002795159,-0.734269443309,1.86151822412,1.6279315418,0.675684346466,2.41307106962,2.86760171333,0.610601348007,1.71240849225,1.2987267952,1.97223728351,0.133276194389,-55.0078112501
do_nothing,1.35416055028,2.95576009777,0.630806595651,-0.570232020939,0.575616739772,-2.65997140671,3.75725109046,3.32325469847,-0.593529023324,-1.58466789941,0.454609751015,-0.808995608759,-0.0390710795262,-58.1201222604
do_nothing,1.7883311027,2.24943509511,2.98423717079,-0.72776686015,0.0750296195066,1.91991227169,-1.0756825953,-1.55810511685,0.575061411219,0.907848924149,-0.249753124976,0.712485538756,2.3713840517,51.9996537373
do_nothing,-2.24010108946,-3.99718656956,-2.07181249482,-0.278088770555,-1.26232853729,0.215545704868,-4.41721606911,-3.76895414675,-0.555220499375,0.973739089488,-1.36022082364,0.219299333014,-1.25541853177,102.141259121
do_nothing,-0.812089198002,-1.52335951049,-1.91780939661,1.75095490837,0.650361753003,-1.12514495796,2.48169015992,2.7015243019,0.534071560043,-0.74748406493,1.40717285286,-0.585924966207,-1.62443439092,-115.402186952
do_nothing,0.911562860367,2.97139380335,1.44171867691,-1.04556494246,-0.084832225295,-0.178120340177,3.07321974804,2.38226098436,-0.511691311082,-1.73451823884,-0.0314581886344,-1.00307526295,0.374535982942,-54.9398376173
do_nothing,0.931912042034,1.53716703159,1.4642286386,-0.397650576812,0.287688133058,1.68440698458,-2.8670877802,-2.9287640031,0.488119378578,1.21808538447,-0.287993606889,1.11363176079,1.91070846571,62.6749626726
do_nothing,0.237300482922,-1.86609895502,-0.546891218298,-0.0915621821299,0.297486104846,-0.532609116874,-1.85587864778,-0.964513018733,-0.463397640196,2.02600471199,-0.611651944284,1.2035745136,0.0659169571075,142.652093722
do_nothing,-1.01709001938,-1.26314477823,-0.964513149285,1.26888859814,-0.483861993342,-1.82502201883,3.49412737505,3.18231312995,0.437609011846,-1.0590905502,0.936699966569,-0.814218964721,-1.56850829198,-160.73007228
do_nothing,-2.38527154727,-0.851820381216,-1.83345778512,-0.614265977864,-1.46010179479,0.643215386795,-0.922286430251,-1.9122771934,-0.410832123616,-3.64261360855,-0.474279143293,-2.79874009119,-1.9576495686,-60.14052154
do_nothing,3.80769877319,4.07603252787,3.69667007215,-0.570223844294,2.49592739224,3.43359179184,-0.994709559112,-0.141221762801,0.383112348233,3.5483829421,0.365333151082,2.83973742716,3.79900668647,68.6377120865
do_nothing,0.575876901264,-0.253282360541,0.137132227468,-0.0909031036332,-0.111495765992,-3.67178279915,-0.073261624719,0.682040204398,-0.354510329244,1.52171168658,-0.605469930841,1.28712276022,0.510473565864,182.221653825
do_nothing,-2.90135212998,-3.5746613384,-3.01993861574,1.12924154611,-1.58221282233,-1.10369037455,1.69701675208,0.512361147539,0.325120242527,-2.50800554792,0.365224904587,-1.77938575387,-2.92871344216,-193.780640042
do_nothing,-1.03216479757,-0.634935078068,-0.39053479794,-0.334332071804,-0.575566927728,3.24747153475,-0.978409447282,-1.48630779908,-0.295019489229,-1.58765223108,0.174948409349,-2.06199012065,-1.11862118454,-71.2141875578
do_nothing,2.97450003055,3.94200341308,3.30041297019,-0.579007015053,1.98972566762,0.478412455212,-1.36920548464,0.122152620676,0.264260285612,2.31757998684,-0.169314312905,1.96027182181,3.15760072234,72.1548084331
do_nothing,1.08594195275,1.26604102447,-0.0357200981016,-0.40871012668,0.627674152447,-2.91695897386,1.73846291231,1.86100488065,-0.232919056614,1.50469236956,-0.362201927731,2.58343516517,1.12169949726,212.731272138
do_nothing,-3.03610044871,-4.61471360358,-3.22930600279,1.23287266205,-2.18410771773,-0.253688654234,0.776511991676,-0.873874517821,0.20109479878,-2.25337017567,0.593722021969,-2.65603247074,-3.20829514483,-205.752049769
do_nothing,-0.736783688582,-1.16417787851,0.73485500265,0.0119792754654,-0.664606267683,2.57180348806,-2.08956455994,-1.75319808564,-0.168861658324,-1.30502834725,-0.195868988566,-2.52131276247,-0.867320194935,-94.8060670903
do_nothing,2.85706544589,5.03351117593,2.75082502798,-0.920379522867,2.480952685,0.728605122867,-0.0706394576212,1.53597786796,0.136279016211,2.52640337685,-0.213122108436,3.67363114482,3.08395418531,79.3189412315
do_nothing,-0.349170867009,-0.0299430406119,-1.92080736484,-0.371991856165,0.119350568163,-3.53666908389,1.43731939852,0.652156792764,-0.103434612725,-0.0210467266729,0.0145811782551,0.914161456763,0.0354249570905,230.419847689
do_nothing,-0.847043279406,-3.29057656166,-0.467076455421,1.21033485364,-1.67034769343,0.476153553875,1.06731752402,-0.212207168353,0.070426350102,-0.964339946406,0.477407845013,-2.52746183596,-1.50666533911,-198.368593357
do_nothing,-0.862524213799,-1.03404375537,0.590596048489,0.247776055006,-0.994400421323,2.83781566378,-2.79894519171,-1.88783896846,-0.0373239789903,-0.802632630122,-0.486616464465,-1.3812806727,-1.14931982278,-127.576028825
do_nothing,0.808245151023,3.31620756122,0.340346819332,-1.18622650551,2.34736608644,-0.40363358051,-0.142367128968,0.914077397658,0.00419332493865,1.28444694504,-0.0439874265726,3.02554387746,1.82294513782,90.1528046121
do_nothing,1.12804737101,1.05684947527,-0.221630910404,-0.261233290549,0.706862633166,-2.77302755023,3.02603028973,2.04784329119,0.0288719830467,0.71420885738,0.439420925765,1.06007404726,1.11475802853,235.770434326
do_nothing,-1.30178696737,-3.47936530021,-0.71596062091,1.26798070644,-2.79150574459,0.14102578601,-1.25225977217,-2.05476127683,-0.0617801172411,-2.16386416824,-0.363976031507,-4.23093823723,-2.40737497241,-177.594985334
do_nothing,0.436556963121,0.527238230113,1.50664104526,0.0824790434654,0.567451280632,3.70320349637,-1.15061304626,-0.327990618635,0.0944662975138,1.29929985644,0.109652050796,1.52797276193,0.61932934679,-162.428161332
do_nothing,-0.463997983428,1.22309950343,-1.0194201456,-1.18867535412,1.58126784412,-1.28238659518,0.0995250786962,0.906336055459,-0.126860089436,0.55908279687,0.0610752164513,2.65723455331,0.809104998805,101.62984199
do_nothing,-0.287436113934,-0.237258705976,-1.05888570076,0.199288934628,-0.521744542126,-3.39765352236,0.793029571958,0.00679678204895,0.158867782005,-1.44583117077,-0.0681668856915,-2.27902944455,-0.943418843196,231.354872086
do_nothing,1.57409585454,0.635839433152,2.10961568247,0.672189949378,-0.845216181855,1.68426198421,1.04551160567,0.262686643797,-0.190407444528,0.630707170675,-0.1911354207,-1.37394572059,0.699790435126,-149.277031121
do_nothing,-0.220347290976,-0.964283275315,0.0040215675494,0.176758817601,0.38082769618,3.34727287568,-1.27269607139,-0.671438484359,0.221419613677,0.709302797921,0.474511050179,2.38166586137,0.518428662054,-194.149583362
do_nothing,-1.75597140919,-1.22760139019,-2.00957435824,-0.95358163614,0.275994140767,-1.89296517264,-1.41304284216,-0.277094215247,-0.251832086958,-0.597726173254,-0.253409373178,0.764101095277,-1.5080470948,111.67342162
do_nothing,-0.126372295291,1.51946753395,0.379281818963,0.428621876997,-0.264826850445,-3.94528552436,1.47547669133,0.607815837452,0.281556696607,-0.646798438775,-0.186395040367,-2.86566041485,-0.268823224689,220.355454096
do_nothing,2.11393762259,1.40110558708,1.40179353284,0.0466258445027,0.111420819655,2.7493635766,1.40997001492,0.177213175413,-0.310524027635,0.300248880076,-0.167985517408,-0.111958183802,2.00072676751,-119.116781305
do_nothing,1.39130813684,-0.679960181879,0.799194831203,0.237997678962,0.794839436453,5.05380708894,-0.349703806966,0.767722961061,0.338680342575,1.96965709401,1.10188708897,4.22830939008,0.853966328732,-219.022816293
do_nothing,-4.61602052561,-3.73415009005,-2.99823276651,-0.319842911915,-1.99459778909,-6.2310320675,-4.02933026581,-2.64199090863,-0.36595525383,-2.54659837301,-1.01336930346,-3.08700318996,-4.2024000696,119.119670127
do_nothing,0.349613452581,2.60092664828,0.655174926776,0.165569082405,1.07780793907,-1.94164300367,2.81920647046,1.12797207591,0.392271102133,-0.0724507096409,-0.221543699768,-1.71665244883,1.27553756864,205.763066006
do_nothing,4.11826957928,3.10819710594,1.70659884767,-0.566263663708,1.12082846898,5.82383490135,3.26385043996,2.10017923989,-0.417572500515,1.78018910476,0.484263219197,2.61095435098,3.29091097057,-91.5286317398
do_nothing,0.12622598258,-2.07017155658,0.580575888949,0.897808416582,-0.640311643422,0.757160605868,-3.28162546013,-1.04617169283,0.441812109543,0.424055026432,0.929005323152,1.4707545571,-0.817517867627,-235.437886882
do_nothing,-4.94428036698,-3.90677115142,-2.29877726104,-0.327212912082,-1.74220050827,-5.57997802273,-3.04478892464,-2.43118607481,-0.464925316113,-2.53242368999,-1.61497341449,-3.13662350922,-4.00799798894,123.91901627
do_nothing,0.102773605958,1.94617765506,-1.0658410371,-0.0253803855701,1.10806659953,0.354156303906,3.73333981856,1.18728896283,0.486848923094,0.147818491758,0.204133087159,-0.727846451208,1.19418313525,190.01565107
do_nothing,5.54298655178,4.92620631842,2.96627983443,-0.816576609118,1.68820682865,4.65436755815,2.59083238957,2.71149050404,-0.507542171852,2.93010767532,0.873609227586,3.35398724564,4.35098346395,-69.3873387024
do_nothing,-0.236877722759,-1.93085842601,1.65488907063,1.38163557905,-0.876480835812,-0.254176563059,-3.52963051375,-1.050894326,0.526965141567,-0.488078173262,0.395401078099,0.262780236761,-1.1873897485,-243.642172954
do_nothing,-7.14499070958,-7.10500420143,-5.159152875,-0.435837435589,-2.75666046455,-5.25195481377,-3.34720630988,-4.11513421826,-0.545062919987,-4.55808551041,-1.86427463087,-4.58329008157,-5.92697572832,127.257502388
do_nothing,3.26703800794,5.16973013667,1.23002906701,-0.403301275407,2.71369500011,2.57469016297,5.63060024126,3.54274229115,0.561789509958,3.99187798823,1.10601335404,2.85507531512,3.99783058865,171.932128829
do_nothing,4.31384788261,4.57904662659,2.71679181282,-0.449138250739,0.715838188876,2.16636044126,0.389081416002,1.47133394535,-0.577118709449,1.48820653414,0.246856585775,1.69023684688,3.41878168249,-42.801386763
do_nothing,-1.85964247858,-4.04979194359,0.198950299888,1.5489266466,-0.970582760584,-0.699043655843,-3.29660464589,-1.64363520145,0.591019353387,-2.87406206538,0.173070086937,-1.7132678602,-2.76493636796,-270.387398953
do_nothing,-4.75990116854,-4.96380685867,-3.3824735714,-1.03366770815,-2.00620743945,-2.75068126185,-1.24782510432,-2.3598032751,-0.603449726568,-1.62369159182,-1.10855030519,-2.00496891296,-3.90906011636,160.15192343
do_nothing,2.62270308272,4.86914016095,0.477104438576,-0.12193174401,1.96009992011,1.63454388503,3.33152735867,2.00778448033,0.614382495753,3.5941187634,0.602889835254,2.64749542166,3.60598106731,153.387550065
do_nothing,3.56996220906,3.56019810506,2.36918374259,0.00808093161761,1.17993988875,1.33627815873,0.968563406896,1.93773472118,-0.623805509727,0.403363581419,0.0590610091988,0.799137519191,2.65920543613,-79.7727866954
do_nothing,-2.06132654362,-4.10320535707,0.28603299908,1.04837916833,-1.32721412669,-1.44630443104,-2.71795471554,-1.5371694159,0.631697880861,-2.97776961775,0.711872673207,-2.31626983823,-2.8666739524,-198.302156543
do_nothing,-3.43846780645,-3.24652153793,-2.49616036124,-1.42187304561,-1.78020395123,-0.460152334418,-1.50286909581,-2.38730424592,-0.63803382173,-0.389630044271,-1.35800154016,-0.589469389669,-2.78509959249,135.071814298
do_nothing,2.77239312339,4.52413695121,0.118088248235,0.789106722778,2.38479888296,2.20760325782,3.63848394923,2.67078289465,0.642804921518,3.66940397203,0.449992101517,3.09677781089,3.67803162996,110.665223506
do_nothing,0.98420739579,0.512241050383,0.587723574123,-0.114349702697,0.0617582562066,-2.7829375307,-0.746217398956,-0.105676804599,-0.646012338546,-1.90092126825,0.162207114811,-1.78927144315,0.507416390365,-48.702730279
do_nothing,0.308342056836,-0.88012166028,3.07515818804,0.0955704199457,-0.417861635717,0.914709564838,-0.389264839176,0.448320639031,0.647646967634,-0.538533001467,0.972674103479,-0.0586812069601,-0.950135676206,-169.843396697
do_nothing,-3.24203498013,-2.7037131542,-3.55239227911,-0.637499807546,-1.89921161239,1.4954312813,-1.91021260322,-2.17161315985,-0.647700675481,-0.627403708391,-1.80155653254,-0.68137882604,-2.49864133343,111.020718419
do_nothing,1.05112741409,1.73816119412,-1.46257076361,1.13970144884,2.17166629005,0.0868458577382,1.54300578631,0.620883528161,0.64618318995,1.93112768322,0.648725757069,1.45287965381,2.42941340918,69.5402720638
do_nothing,2.2589496427,1.66553332608,3.18655730409,-1.01175400821,0.357760273093,-3.51183181051,1.65869396496,1.5501487787,-0.643108137766,-0.097408542494,0.535230782164,0.194191549111,1.07462015631,5.83388355848
do_nothing,-0.434790379124,-0.649987212499,1.4334330119,0.456248120971,-1.3135392966,1.56718033616,-1.19723964995,0.0402724548517,0.638479452269,-1.4267326476,0.172154718124,-1.32779561383,-1.63834249617,-161.210825288
do_nothing,-2.54467221782,-1.82747469945,-3.62700272959,-0.33037232632,-0.622145221183,3.55497317157,-2.55355500957,-2.16424071235,-0.632307251897,-0.292435372475,-1.31911491174,-0.596738702693,-0.927063807859,63.9059990401
do_nothing,0.930768092727,0.540750557318,-0.277326959453,0.727663325974,1.85550746643,-2.22565408117,2.49775685144,0.528762911273,0.624617797382,1.95065599661,1.04043062751,2.28842250721,1.68395605979,90.338873228
do_nothing,1.54542508858,0.855746020831,2.31942038432,-0.779651692168,-0.660278355185,-4.10409111321,1.46208546029,1.43938567752,-0.615436307196,-0.74529237885,-0.184696040303,-0.632567117674,-0.328681735048,-18.4925344396
do_nothing,0.423713286726,1.3882844776,1.31069762339,0.405856291379,-0.337926348789,4.35613510778,-1.89509126181,0.683834909195,0.604780536246,-0.369275506925,0.268315903111,-1.10702767892,0.24105817163,-56.6366867918
do_nothing,-3.47681687997,-2.97393838575,-3.74850710528,-0.55005901326,-0.708189437205,1.37512906486,-2.68147304256,-3.6886353608,-0.592678315505,-1.18380965009,-0.908391276336,-0.835865814266,-1.4356337797,-82.7238703161
do_nothing,2.34403305861,0.965811368662,1.23422581692,1.06192796858,1.96587358553,-2.24340212497,5.02109796566,2.54076170054,0.57917025055,2.62155548009,0.995360884697,3.44496829178,1.55476153887,143.861321077
do_nothing,0.812287813944,0.609815347108,1.00796598775,-0.657809582246,-1.3877619994,-2.45598268673,-1.14351477644,1.02574973459,-0.564292237856,-1.15047645251,-0.540980200432,-1.95274253655,-0.569684558349,58.5522801012
