label,COUNTER,INTERPOLATED,AF3,F7,F3,FC5,T7,P7,O1,O2,P8,T8,FC6,F4,F8,AF4,RAW_CQ,GYROX,GYROY,MARKER,SYNC,TIME_STAMP_s,TIME_STAMP_ms,CQ_AF3,CQ_F7,CQ_F3,CQ_FC5,CQ_T7,CQ_P7,CQ_O1,CQ_O2,CQ_P8,CQ_T8,CQ_FC6,CQ_F4,CQ_F8,CQ_AF4,CQ_CMS,CQ_DRL
off_to_on,-20.1359179605,-25.6048696786,-1.3132593765,-0.293084086708,-30.5443758305,-44.7783920442,-62.3824150079,-16.6136349833,-1.05071415851,-26.1381463834,-37.5948828618,-47.2301972093,-39.4494085736,-46.3091327035
off_to_on,-21.163741771,-26.3970876911,-1.81531415593,-0.5524985179,-33.8037030126,-48.6650964633,-63.133627195,-18.9913649239,-1.2915519622,-28.1523441162,-31.9067912858,-49.97757866,-40.5091459167,-33.3605743714
off_to_on,-16.3774819185,-19.6749263555,-1.96725918081,-0.892515365621,-27.5272750506,-38.6674342456,-45.7793181498,-15.9498777192,-1.42123811866,-21.9719897118,-17.205719163,-38.5600890429,-30.1759797834,-11.7125503313
off_to_on,-7.5822252242,-7.90295787515,-1.79416979659,-1.22739478125,-14.1155031196,-18.4419035649,-16.1478716823,-8.6840728729,-1.40804241505,-9.840454202,1.65259133728,-16.9702305021,-11.9917692083,14.7392785239
off_to_on,2.38090066912,5.10253245107,-1.37674254915,-1.43207770264,2.08876236303,5.5264926092,16.5536134193,0.444764521306,-1.21678309456,4.33192317548,18.8093245262,8.00522190208,8.36405341581,40.2150658319
off_to_on,10.5453765652,15.4047139621,-0.818478555924,-1.38696215844,16.2013343728,26.0045624421,42.6395647222,8.67352869396,-0.828934011509,16.2392962827,29.2515933513,28.9351724768,24.8668013207,58.4605827297
off_to_on,14.7198289523,20.1553524683,-0.215398041091,-1.02584252287,24.2976537141,37.2361876593,54.8750819385,13.6879055502,-0.263350356247,22.5175679253,30.3065848024,40.0043538682,32.9742995985,64.5017089241
off_to_on,14.0986869409,18.4028770231,0.361993628721,-0.369369358565,24.5413163192,36.6117387483,50.5264499444,14.2915806837,0.412275482874,21.7216317542,22.3243935339,38.6786690292,30.9200784611,56.1860672551
off_to_on,9.40566762926,11.2628355946,0.870699887872,0.468936482412,17.6034790443,25.2800986978,31.9359308624,10.6945490081,1.08614276924,14.6492874189,8.37506008134,26.2821804994,20.0895864365,34.9819147584
off_to_on,2.54887672517,1.42822214306,1.28421346609,1.30767277905,6.27619312259,7.55700353203,5.51301389122,4.35024468432,1.62426295765,3.94199644014,-6.88828972601,7.3549732607,4.40203213013,5.72757804357
off_to_on,-4.07611777514,-7.78945542154,1.57664424941,1.94632982292,-5.55466771836,-10.6252184787,-20.461636109,-2.58224997786,1.9039806203,-6.86985059533,-18.7871721688,-11.9466312414,-11.05950971,-24.6312281795
off_to_on,-8.39129891413,-13.5546892645,1.71173870255,2.22234074271,-14.2125420363,-23.6831859231,-38.4678833707,-7.95902843809,1.84872862176,-14.5373149077,-24.0708687565,-25.852726267,-21.6970415713,-48.9370428547
off_to_on,-9.28160153922,-14.3766897298,1.64404018895,2.05802539133,-17.373625799,-28.1101874613,-43.9641132889,-10.3150822653,1.45252876811,-17.0871018148,-21.8058385459,-30.7285188288,-24.7854412776,-61.7556734975
off_to_on,-6.87832815385,-10.4832438343,1.33385220268,1.48254148168,-14.6898746949,-23.421895607,-36.5225477987,-9.26289545145,0.785739983692,-14.3283378847,-13.4562347415,-26.0279545114,-20.1705848607,-60.7491135573
off_to_on,-2.40809782729,-3.60771470376,0.771126786199,0.622481867524,-7.7218168932,-12.0597944345,-19.5996572304,-5.51625513824,-0.0204033373763,-7.74102323275,-2.19242032735,-14.1980900842,-10.0965830375,-47.0859596755
off_to_on,2.31621562666,3.70344346158,-0.00155883983476,-0.334802607283,0.749985337794,1.65010823928,0.884208863471,-0.558716347962,-0.806002371054,0.170248618504,8.28382335825,0.363595724788,1.72358608423,-24.8233836226
off_to_on,5.56887968406,9.0013585304,-0.878130813013,-1.19243620183,7.76207905515,13.0768468378,18.6094896755,3.9083622785,-1.4216590979,6.79959302905,14.9702464286,12.8923383316,11.4368098024,0.461933931941
off_to_on,6.30858694211,10.7438305045,-1.69842567422,-1.79320459347,11.1795982068,18.8384370997,28.8500137153,6.53933322624,-1.76288705832,10.3063318045,16.4390123499,19.8199996872,16.3097257443,23.2896497163
off_to_on,4.49662043711,8.73583263451,-2.27944760665,-2.05209717273,10.3390672729,17.807725083,29.7548811817,6.74691082608,-1.79012695937,10.1340752647,13.0969618929,19.8029434832,15.5043180439,39.6018877532
off_to_on,1.03910277911,4.07569451027,-2.46201212617,-1.96446317123,6.12728044162,11.2658177994,22.5660344386,4.8126417343,-1.52989303946,7.03326806716,6.80362878953,13.9121417017,10.1449876609,47.4269911027
off_to_on,-2.60729038163,-1.34123280545,-2.15965306055,-1.59098987745,0.509217903695,2.21120020774,10.8020714897,1.6920334335,-1.05888795415,2.62329797195,0.0428004413883,4.98952297872,2.71056721178,46.7939823638
off_to_on,-5.00896788519,-5.55873160442,-1.3939096749,-1.02837522539,-4.28857632392,-5.87301504829,-1.21429421208,-1.3926917743,-0.478111850256,-1.30842363167,-5.01797561274,-3.53851737748,-3.98326473895,39.0996408014
off_to_on,-5.2927360126,-7.2601582144,-0.302592086342,-0.378224620098,-6.62158165018,-10.3174248187,-9.91479686342,-3.41181997212,0.113687763889,-3.49194962453,-7.23499720493,-8.93010798995,-7.81929075775,26.3068859405
off_to_on,-3.45127733285,-6.18529556039,0.88503268139,0.274707130922,-5.98782076915,-10.1574559868,-13.5784572273,-3.87185025452,0.639028467487,-3.59099608699,-6.73138734122,-10.0210035507,-8.05894246041,10.352938801
off_to_on,-0.311340222081,-3.13031933133,1.90206671781,0.869348588193,-3.11460751951,-6.31754567065,-12.6182184199,-2.92899405638,1.04889134125,-2.2126158641,-4.63261828788,-7.4483728656,-5.44612383993,-7.0206195312
off_to_on,2.81436153566,0.444791890762,2.51303740446,1.36182186864,0.434805375637,-1.06335429368,-9.03937811056,-1.2489214967,1.31884483486,-0.535194859127,-2.44372298738,-3.17404890459,-1.73789456877,-24.0550906647
off_to_on,4.65381207778,3.03429905303,2.5783903233,1.71304257783,2.96061957472,3.02943013733,-5.35404473591,0.315748092981,1.43897060814,0.274517315637,-1.34219531755,0.462831286341,1.12140630097,-38.6378573518
off_to_on,4.47845611958,3.68627081511,2.09460523242,1.87992226347,3.34758207947,4.16862735069,-3.41984598763,1.09440932292,1.40421072551,-0.391043568186,-1.6756970351,1.76869251928,1.84140130416,-48.1850446837
off_to_on,2.39014854099,2.35508544548,1.19653484265,1.81733170044,1.52259545111,2.07013140325,-3.67116009583,0.866985784158,1.21059720214,-2.293326139,-2.858288341,0.387185812013,0.308632898285,-49.9932625983
off_to_on,-0.717808152108,-0.121858038966,0.119733356605,1.49228264214,-1.52909526935,-1.96498112561,-5.034307834,-0.0703091742386,0.859409914074,-4.43842458898,-3.69284721924,-2.60484196617,-2.40860742635,-42.0725845158
off_to_on,-3.51252475794,-2.40576990803,-0.86691960961,0.905226026178,-4.19301186272,-5.6426865774,-5.53590172928,-1.06196371411,0.367134007942,-5.50985646646,-2.97535701507,-5.22177734304,-4.56574224029,-24.1940419227
off_to_on,-4.75406639785,-3.24119535791,-1.53814660502,0.108791791716,-4.92860880882,-6.69631255735,-3.33442058904,-1.40446872734,-0.224108794867,-4.46901420059,-0.124091514389,-5.49291041309,-4.54742275714,1.30739520195
off_to_on,-3.80535286474,-2.01037681846,-1.77486190038,-0.786242576811,-2.96524703772,-3.92324733742,2.26546393634,-0.682392230516,-0.841897779775,-1.07754998795,4.43465438299,-2.40520265994,-1.64241466763,29.4392929835
off_to_on,-0.920209544706,0.965704860919,-1.59248821767,-1.62405530206,1.29302823642,2.18625790152,10.254234527,1.01098123562,-1.38912112555,3.88024928515,9.29909589065,3.52685827851,3.53535633776,53.4252846248
off_to_on,2.8103988065,4.50689907114,-1.12579561654,-2.23529344216,6.33094963225,9.50110164373,18.0788809864,3.06468489292,-1.76061713615,8.78582680085,12.5545462853,10.3157280635,9.16925069798,66.4455777351
off_to_on,5.84727786406,7.01556118115,-0.575298063428,-2.47899847639,10.0526281416,14.9945546245,22.5071560134,4.56663794058,-1.86729914125,11.7383572471,12.5066346925,15.1896706035,12.885017639,63.7694631399
off_to_on,6.79216492439,7.11988595618,-0.133342169258,-2.28214274757,10.594696582,15.9221572395,20.8941479021,4.66963706524,-1.66095587134,11.2778101993,8.41086442906,15.6741407258,12.6890499401,44.5663845881
off_to_on,4.96007069762,4.27370980746,0.0845572314918,-1.6636876087,7.11784566913,10.9896438388,12.3726247731,2.96726625776,-1.15193755022,7.00892162824,0.910055460977,10.6568979872,7.84296321157,12.6929808868
off_to_on,0.713678064466,-0.926706462417,0.0786920130282,-0.734577130536,0.264216284169,1.04866489203,-1.5133395103,-0.271655967913,-0.413612802568,-0.122277508109,-8.01435737442,1.01206541045,-0.677442405924,-23.9629366764
off_to_on,-4.58283752305,-6.85167065536,-0.0402793801413,0.327188720865,-7.92186278006,-10.9859621892,-17.0308303976,-4.11550794949,0.428760435474,-8.03115983813,-15.5998718771,-10.4955853046,-10.3508999739,-55.5264586404
off_to_on,-8.99787997882,-11.3607821309,-0.100508175319,1.31911022358,-14.6203201922,-21.0241707511,-29.3320844774,-7.2458493356,1.22254885735,-14.1366769671,-19.2041258125,-20.0456269027,-17.8917159836,-73.0112188386
off_to_on,-10.7170173659,-12.569782429,0.0548115349056,2.06149553719,-17.2135859087,-25.2167427221,-34.0559251103,-8.41359902407,1.81959138713,-16.2379901042,-17.2479142071,-24.0759281837,-20.3943584239,-71.1273193161
off_to_on,-8.73936117798,-9.58977301866,0.491794749948,2.43561831274,-14.2770747001,-21.4067207525,-28.9141468154,-6.91756747408,2.10738245361,-13.3224189287,-9.86394466253,-20.6182054799,-16.4400506197,-50.0771746856
off_to_on,-3.32811306093,-2.960255607,1.14013607295,2.40262679444,-6.21587564772,-10.0789590868,-14.6874359858,-2.92749476132,2.03204313515,-6.00907678478,1.00031400819,-10.1602900699,-6.75190208959,-15.6838687789
off_to_on,3.96803530817,5.40719179551,1.79780395371,2.00017743133,4.71192425325,5.57798251384,4.77117304377,2.48161755145,1.60806034987,3.55276174522,12.0994922334,4.31659309893,5.87506239266,22.2660078203
off_to_on,10.7608930208,12.7902730233,2.18970725912,1.32135169268,15.0378877599,20.5826249443,23.5997926768,7.62075271445,0.913431954927,12.3265938508,19.8882124829,18.1972892059,17.3950143871,52.9786820538
off_to_on,14.6075060242,16.5555918514,2.06424638856,0.48565268232,21.2070948639,29.7812823524,35.7602094721,10.7248055496,0.0724519257578,17.3770682733,21.6869101533,26.7393737216,23.839115342,67.9647890459
off_to_on,13.8752041972,15.0973496497,1.29614948788,-0.387080551316,20.8147084755,29.6446865185,37.0538256698,10.5638570643,-0.769102030793,16.8769487659,16.6279434145,26.7291362683,22.708749626,63.620092599
off_to_on,8.38408292727,8.48338637298,-0.0415349521055,-1.19228355442,13.5248302272,19.6127847951,26.63751972,6.91637607939,-1.47067020268,10.7841767407,6.04921078803,17.7064802272,13.9439764887,42.2217324321
off_to_on,-0.415083433729,-1.43947830052,-1.66618917908,-1.84422884103,1.32893565933,2.48535660922,7.49086573924,0.727743506516,-1.92036209672,0.93986537714,-6.82698291035,2.29887801048,0.100090235652,11.0192620481
off_to_on,-9.81982323713,-11.5529758623,-3.14654392554,-2.27197476228,-11.9857529583,-16.3342245741,-14.3824356345,-6.12329977053,-2.05158375224,-9.47213885824,-17.8593001522,-14.5054229801,-14.3755764606,-20.2514077864
off_to_on,-16.7142819997,-18.4494912321,-4.02303538379,-2.41553135697,-22.0185978046,-30.5422869435,-31.814032603,-11.3956901716,-1.85114364855,-16.9461075788,-23.3075570551,-26.9503016833,-24.5646681433,-42.5673052295
off_to_on,-18.603981425,-19.5774813232,-3.95302817823,-2.22936244868,-25.2161166464,-35.0447836773,-38.8150272026,-13.2197207586,-1.35875340159,-18.8270032888,-21.0870787629,-30.4625271831,-26.7410714671,-50.4353897028
off_to_on,-14.5022030068,-14.1655001177,-2.83455147384,-1.69580766348,-20.1239017604,-27.7660613172,-32.6369376377,-10.7523977362,-0.658920417987,-14.2423277201,-11.5399105938,-23.3016750351,-19.7144772012,-43.3866987541
off_to_on,-5.35671799655,-3.59604458244,-0.86530815692,-0.844625423446,-7.99175592642,-10.5198379792,-14.8426976882,-4.52694103277,0.133172663029,-4.46896354704,2.5529665299,-7.32262179741,-5.37615611651,-25.6919917434
off_to_on,6.15221014887,8.9280020723,1.48825807926,0.230484135628,7.50464023636,11.400190976,9.01656236372,3.63911682568,0.889853345591,7.40878241984,16.7566529387,12.4572077423,11.7786560647,-4.48164663224
off_to_on,16.4054253449,19.3484839682,3.60921831352,1.36920568016,21.3717040418,30.8292055737,31.0722681868,11.170284817,1.49092111832,17.4593270131,26.3439047498,29.3966940634,26.0370832715,12.987263103
off_to_on,21.9910570366,24.0554590213,4.90425295187,2.36342566542,28.8985170086,41.0469087882,43.6572831654,15.540390063,1.84271249714,22.1813005127,27.8163616734,37.4040715333,32.3346404045,21.894112031
off_to_on,20.8357454823,21.108852525,4.98186293398,2.99787854396,27.2338329518,38.0487446057,41.871013928,15.1061055508,1.89332803843,19.682955116,20.1008271724,33.0357387663,27.9920532764,21.324669744
off_to_on,12.9444000867,10.9677013091,3.77863301253,3.10410867921,16.4125326913,22.0090509284,25.3428407054,9.6922037428,1.64122478998,10.3697326901,5.02266578577,16.8081513185,13.7341162264,14.1607916593
off_to_on,0.489250037822,-3.53586039771,1.59131471977,2.61227745295,-0.529446898368,-2.5823929481,-1.4199565636,0.725007799998,1.13518827823,-3.10044721915,-13.124102181,-6.75265302158,-6.37862110125,5.51032186892
off_to_on,-12.8035014605,-18.0000895977,-0.999230289298,1.58328924591,-18.4209282895,-28.2023785533,-30.2687708726,-9.14836182026,0.465208400176,-16.5984778282,-28.8084071304,-30.393521147,-26.1240959588,0.347942542213
off_to_on,-22.790693213,-27.8010308851,-3.29221883203,0.207904350556,-31.5486110326,-46.6180208333,-51.889467593,-16.8509288614,-0.254279554051,-25.8044993226,-36.9359816489,-46.3759850253,-39.0507582859,1.32501303707
off_to_on,-26.2174900849,-29.5641756454,-4.67059925481,-1.23099091671,-35.4777203772,-51.520893463,-58.7563801496,-19.8357403927,-0.905490386753,-27.5827411129,-34.4552185336,-48.9737965634,-40.5584402411,7.62456323626
off_to_on,-21.7725904366,-22.2879104595,-4.78176472099,-2.42499209358,-28.5140498175,-40.6206773014,-47.6254774252,-16.9114608313,-1.38828358233,-21.0092461015,-21.3914924624,-36.4166520996,-29.4538126194,15.319420269
off_to_on,-10.5486429642,-7.74716884994,-3.63904214721,-3.11767903392,-12.3263256846,-16.5067553547,-20.7512150609,-8.66585082265,-1.6366124332,-7.71791779496,-0.971756130014,-11.6300033079,-8.46182156672,19.0966200671
off_to_on,4.24915619533,9.96993456884,-1.61209311013,-3.17044494559,8.48765719453,14.0246348721,14.5975860201,2.65761360977,-1.62718585847,8.55315766256,21.2239879654,18.5020652208,16.4967564716,14.666435254
off_to_on,18.2623654601,25.6635044536,0.690603374342,-2.59681389382,27.7690926225,41.9871674382,48.2118998821,13.8026779991,-1.37917588225,23.0775492446,38.8481693473,45.1503176432,38.0557262461,0.8881557692
off_to_on,27.3073185433,34.5939832921,2.60973593583,-1.55480096884,39.6764102037,58.9395334151,69.9870989413,21.4698133603,-0.946101006343,31.5695321907,46.6411588132,60.214323439,49.6424612245,-19.270741689
off_to_on,28.6538700314,33.9353561518,3.63391411633,-0.299895086083,40.4835412634,59.5792414858,73.001602862,23.3137682446,-0.402806305287,31.4788704531,42.0008207284,58.8209769248,47.504535396,-39.3973294053
off_to_on,21.8533777416,23.6540794151,3.54665354912,0.886471926535,29.7322466702,43.3792207626,55.672171975,18.6597728736,0.16879365207,22.749428362,25.7916406419,40.8602838573,31.8868311718,-51.7585927733
off_to_on,8.86030109821,6.5386004453,2.47658021004,1.77074515882,10.3789694751,14.7578788651,22.31169101,8.71653059853,0.691992011473,7.8132592072,2.14651794457,11.0734180209,6.99035125122,-50.1582414766
off_to_on,-6.5815857341,-12.627876176,0.837863419883,2.22118310635,-12.1027601727,-18.258890581,-18.0873987837,-3.77818465278,1.10372572708,-9.16444945327,-22.6824391524,-22.3343689098,-20.270735708,-32.4807822035
off_to_on,-20.0847349962,-28.4902015954,-0.816309001524,2.2271081873,-31.3736619958,-46.4497437819,-54.4689236189,-15.3665970531,1.35897241291,-23.540143623,-42.0827781127,-50.1195594644,-42.3205041017,-1.94720693415
off_to_on,-27.9285412664,-36.6957459606,-1.97676194823,1.88070229124,-42.1111620742,-62.1209785868,-76.9228788005,-22.8825757351,1.43221504362,-31.5478598716,-50.9299078076,-64.7083843158,-53.140948179,33.4605387482
off_to_on,-28.1268309856,-35.1372490213,-2.33705803181,1.3310206336,-41.5395012551,-61.2988752688,-79.5118287157,-24.3559327167,1.31756463095,-31.3396471569,-46.9852895494,-62.3555262381,-49.9801158899,63.3040145508
off_to_on,-20.9335290164,-24.4950307989,-1.87719988918,0.72842146183,-30.1502416651,-44.7403789849,-61.8727087041,-19.5400553625,1.02870709747,-23.4084634985,-31.4495159681,-44.1119125908,-34.0449877103,77.9936378257
off_to_on,-8.656270644,-7.93733492777,-0.848346606605,0.179366407542,-11.4236248918,-17.5025754647,-29.149168653,-9.91739260157,0.598822707272,-10.2977301252,-8.53511812613,-15.3477908947,-10.005294916,71.9876121135
off_to_on,5.12987654064,9.89713070493,0.331423436245,-0.273833222822,9.32024849996,12.7297328146,9.66630815834,1.79738724839,0.0795775517115,4.27081199646,15.783119737,15.967045504,15.4921543343,45.783925721
off_to_on,16.6935600294,24.293885982,1.23076165071,-0.644063522507,26.5467366442,37.9834516796,44.4193566105,12.4839855165,-0.462230745575,16.5452343767,35.447464412,41.6490518639,35.8033812619,5.99917127535
off_to_on,23.222561496,31.7940693736,1.55350739095,-0.968308449597,36.0873125188,52.254286479,66.6605654702,19.5081896692,-0.951461821811,23.7953955799,45.9260495063,55.5991847447,46.1397861121,-36.5277290626
off_to_on,23.5377310779,31.0659437007,1.23150935032,-1.26959671853,36.1993515097,53.0057809598,71.8330600366,21.4095175087,-1.31484149831,24.9541625067,45.2992715564,55.3300300101,44.7476972265,-70.000634437
off_to_on,18.2570578727,23.0870329601,0.432744841731,-1.52921297729,27.8231642168,41.5192237713,60.1808655349,18.1956819495,-1.49313288209,20.689219048,34.5531481956,42.3206217884,33.1129225796,-85.2353563333
off_to_on,9.4102760081,10.6373866589,-0.513665934149,-1.68170919587,14.0267223441,22.0939435472,36.2103270711,11.189286318,-1.45264056721,12.9438075097,17.0603673627,21.1900566394,15.211812095,-78.3765957733
off_to_on,-0.320992690157,-2.68080700554,-1.2449987966,-1.6357665237,-1.11483386453,0.459368291787,6.9939764144,2.51456369331,-1.19305261972,4.15448305101,-2.53083851294,-1.95055260394,-3.87582753311,-51.9080615811
off_to_on,-8.45917118419,-13.5516755733,-1.49732702503,-1.31332933459,-13.8003767489,-18.0241109736,-20.0608582763,-5.58434289937,-0.74928698676,-3.55919642462,-19.6259632387,-21.3824077118,-19.5060672556,-13.6841809713
off_to_on,-13.4016383249,-19.8278847666,-1.19544465235,-0.691699951711,-21.5274307485,-29.7901563932,-39.2479368315,-11.3681972961,-0.186513096422,-8.95856281816,-30.8309923888,-33.2955970138,-28.6763628495,25.6314457466
off_to_on,-14.7167632069,-20.939696453,-0.470130221058,0.168639234434,-23.5690739012,-33.718246797,-47.8077556176,-13.9871229073,0.410658408647,-11.8426507954,-34.6147999914,-36.5136502227,-30.5686065748,55.8325543419
off_to_on,-13.021850544,-17.7630815467,0.400111267072,1.12308945659,-20.8238718183,-30.9152232992,-46.1058490549,-13.5390693941,0.952333617612,-12.7987611407,-31.3672274118,-32.3049872999,-26.3513137888,70.0700911339
off_to_on,-9.54674489026,-12.064248209,1.09831958795,1.97203398875,-15.1786438884,-23.8347194091,-36.8456230412,-10.8330770034,1.35770504753,-12.6966001318,-22.9318223568,-23.4747161189,-18.4138108653,66.4988153284
off_to_on,-5.58280820339,-5.76562708427,1.3872925428,2.51228228682,-8.67382371184,-15.1443396492,-23.7246896042,-6.98204479996,1.56684834796,-12.1594788873,-11.8418856566,-13.1479492217,-9.37223234448,48.2551621518
off_to_on,-2.03233349993,-0.309324637601,1.19298025078,2.59490627403,-2.79514021784,-6.78651702508,-10.0792754283,-2.99084204241,1.54827699841,-11.2373012022,-0.544818211454,-3.70963797191,-1.21983459457,21.930223859
off_to_on,0.790521879175,3.67447159821,0.623641737019,2.17079828569,1.86954398999,0.449715147043,2.00769908873,0.515716158708,1.30194183461,-9.41227744243,9.14570843514,3.74909575804,5.10672514591,-4.81729477825
off_to_on,3.06965611748,6.32220217738,-0.0799566479118,1.30904657774,5.53340810833,6.76209640898,11.8915225664,3.35119016429,0.858386236163,-5.92747454442,16.2502202006,9.35693901896,9.66020925215,-25.6405985156
off_to_on,5.18724254275,8.1913173331,-0.642288928951,0.182071757058,8.77643412134,12.7333870527,19.8988482446,5.62858143873,0.275097444607,-0.294440951398,20.5007735915,13.8902138882,13.0276775316,-37.1036277658
off_to_on,7.37023327995,9.79728311662,-0.860474686313,-0.977783882596,12.0005389944,18.6161940643,26.5146110434,7.51574636454,-0.369261775666,7.24069244951,22.0325875736,18.011330058,15.7363198285,-39.0795572245
off_to_on,9.44885794176,11.2443775185,-0.680414218709,-1.93663694216,15.0287074572,23.8500888077,31.6399076493,9.0099493716,-0.982728469911,15.4848377718,21.0719677242,21.6732601368,17.7978557612,-33.9952740198
off_to_on,10.8361210048,12.1063740211,-0.213393777125,-2.51479274862,17.0290772294,27.0412636818,34.277282515,9.83795301657,-1.47044386565,22.4612214814,17.7692490933,23.9509469521,18.5879201549,-25.3696374418
off_to_on,10.7396582221,11.6008821547,0.312115064163,-2.62415323335,16.8027157133,26.4312066589,32.7988583866,9.52826684259,-1.74775005837,25.9311199378,12.2353797096,23.3693177991,17.1040366033,-16.2901035615
off_to_on,8.51854448934,8.97741717883,0.644151369272,-2.27856008605,13.3203245914,20.6712228737,25.6950945919,7.62622243106,-1.7550798791,24.1193806086,4.73496729514,18.5876081204,12.4840607692,-8.41004579364
off_to_on,4.03621393624,3.95195836532,0.61012176987,-1.57752369027,6.2875955732,9.5856369817,12.4895878197,3.96051761702,-1.47221803255,16.4027139269,-4.08857769789,9.15205623203,4.55885758871,-1.77402509412
off_to_on,-2.14079660406,-2.99838172402,0.189252143713,-0.671900187842,-3.49936510635,-5.4016940436,-5.58009069897,-1.1546576165,-0.928226156373,3.71578676618,-13.0985326091,-4.00238174229,-5.80249711596,4.58682373248
off_to_on,-8.791105326,-10.6131632497,-0.473331963162,0.275616574693,-14.1729089147,-21.3842520393,-25.44243734,-6.87633464331,-0.203048916327,-11.4891151393,-20.7581017864,-18.5278453803,-16.7172968126,11.6542337569
off_to_on,-14.3336095117,-17.1275697163,-1.11688703716,1.1229665895,-23.2140290542,-34.6409331797,-42.7571160384,-11.9843938583,0.581953214179,-25.7544768507,-25.4396443757,-31.1652058734,-25.705124384,19.5160421808
off_to_on,-17.2769220631,-20.7677282417,-1.46156951915,1.76676397327,-28.1524339143,-41.6595140206,-53.0338610975,-15.1915973625,1.28462867319,-35.4772015812,-25.8633330141,-38.6250740152,-30.3695515345,26.9730787741
off_to_on,-16.6732508981,-20.2971090145,-1.31573033205,2.14525063246,-27.3203037781,-40.1864877659,-52.9610973966,-15.5159202213,1.77048184205,-37.8777119492,-21.5165945149,-38.5626904398,-29.1213906755,31.8333172612
off_to_on,-12.4247890105,-15.429564115,-0.654300587039,2.23134742265,-20.4096263911,-29.9586014733,-41.5080066721,-12.5940113095,1.94257524819,-31.8009156881,-12.9009752636,-30.3264537294,-21.7033298288,31.7626093794
off_to_on,-5.34267475791,-6.97133358764,0.36109310462,2.02369183425,-8.64674816809,-12.8761027555,-20.4248652802,-6.83226359494,1.76506063175,-18.1160615231,-1.50724691676,-15.2376367727,-9.34467481495,25.3248798864
off_to_on,3.0564740127,3.35274075296,1.42866605153,1.54231126185,5.47580271783,7.43806794853,6.04246919466,0.655244500701,1.27339637751,0.404364245141,10.4888742183,3.6836824155,5.50028998278,12.7682395612
off_to_on,10.9456501622,13.3298985939,2.20413298892,0.831264021371,18.827292387,26.5525584097,32.1560416195,8.30453106285,0.567539522635,19.7012192551,20.724370552,22.4537557091,19.7434349103,-3.77925778667
off_to_on,16.647185339,20.810720296,2.41576535629,-0.0346864239699,28.434048086,40.3344724468,52.1145408312,14.4783927806,-0.210871446923,35.3816264448,27.1929655398,37.0932286993,30.4014255371,-20.800426482
off_to_on,19.0210708823,24.2181856938,1.9571064766,-0.946038741002,32.2083835113,45.927731524,61.4917949693,17.853877041,-0.911570695716,43.7643611191,28.6811318131,44.5492349924,35.2721350426,-34.3913629807
off_to_on,17.6827308197,22.8805163741,0.925676047266,-1.76425662099,29.4137361708,42.3472462672,58.2843767247,17.7173201146,-1.40999851846,42.7579187236,24.9868993157,43.3348511181,33.3806667469,-41.4077150651
off_to_on,13.0159572637,17.1216277706,-0.405005500827,-2.34103084598,20.7632942601,30.5720395627,43.3062065386,14.0994971898,-1.63349567255,32.362918536,16.8894917177,33.758787436,25.1144166167,-40.3457999846
off_to_on,6.01290501539,8.12138583074,-1.66980172424,-2.54918306194,8.16522773922,13.1776965528,19.8750078292,7.73463858718,-1.57246383174,14.6896007733,5.9154710836,17.7484323705,12.0631451528,-31.6688247516
off_to_on,-1.98355305416,-2.38205256163,-2.52377051691,-2.31741378254,-5.77624936664,-6.33122626471,-7.06278810683,-0.125141034521,-1.27433294649,-6.50165632551,-6.00363456228,-1.6272096076,-3.3493732444,-17.5123325793
off_to_on,-9.55147450053,-12.4515291435,-2.74431077466,-1.65759424516,-18.3473256501,-24.2798759889,-32.0897375544,-7.97891948936,-0.823551198777,-26.6232580954,-16.8808634026,-20.7813941203,-18.3299801987,-0.936210277012
off_to_on,-15.4151791559,-20.2884992622,-2.29142317523,-0.673863318086,-27.2507415328,-37.4909036955,-50.4483347748,-14.3629073124,-0.314995612799,-41.2609220616,-24.960867947,-36.2395025016,-30.1817913397,14.9609299314
off_to_on,-18.6026742827,-24.5012941394,-1.30937793567,0.452426920381,-30.9748774778,-43.7559110187,-58.900091553,-18.1006817768,0.170244803042,-47.137281116,-28.9238387929,-45.1836601191,-36.7147288548,27.739750068
off_to_on,-18.5468605768,-24.2930311022,-0.0732812862473,1.50035968132,-28.9746933415,-42.0899442666,-56.1868974404,-18.4877877084,0.579346129175,-42.8384400544,-28.0254158645,-45.8738806253,-36.5795734,35.9286914665
off_to_on,-15.1543014003,-19.5776917089,1.09836105762,2.2605077965,-21.6856248711,-32.8045743045,-43.0908162134,-15.400058348,0.889223729759,-29.1532584949,-22.2025105448,-37.9358322849,-29.5155072706,38.9354815403
off_to_on,-8.85275557384,-11.0288880729,1.93486935431,2.58523193553,-10.4135094042,-17.4452758192,-22.1705962816,-9.32380432837,1.09682704955,-8.94974943456,-12.1533430746,-22.4999214181,-16.4866073889,36.7303020639
off_to_on,-0.60149645046,-0.0463786783929,2.28004279552,2.4236394456,2.86404773412,1.38818286365,2.72137414358,-1.30497333403,1.20424811272,13.399103721,0.639464332707,-2.15101225435,0.342160397405,29.549615265
off_to_on,8.17468008013,11.391509302,2.11708492833,1.8310439764,15.7710312194,20.3551950408,27.0567316425,7.18911855085,1.2063295311,32.9384124489,14.0051885738,19.3684369452,17.8489432093,17.8214836991
off_to_on,15.7678695395,21.0172681045,1.55037767806,0.950592266517,25.8810706929,35.8495726923,46.3298909418,14.498193446,1.08704062514,45.2239791107,25.3613021279,37.7385568565,32.4521506552,2.36253313735
off_to_on,20.496776763,26.6992536191,0.756907303903,-0.0267118849728,31.1302826068,44.6313664306,56.7957672233,19.0732810858,0.82690762508,47.3542759065,32.1844107042,48.8936881249,40.8262085326,-15.2835475387
off_to_on,21.1021485781,26.9398366716,-0.0720319951745,-0.910981115257,30.2501869935,44.5376264244,56.1801164177,19.8140834011,0.418770365585,38.702945962,32.61096777,49.9721806292,40.7099889291,-32.6179954709
off_to_on,17.1312924277,21.3272992544,-0.778846886936,-1.55675291817,23.1316402971,35.1131754548,44.2467868332,16.3670117794,-0.114945625043,21.1571930412,26.0201391701,40.1560974517,31.6028880651,-46.3211183452
off_to_on,9.18383679576,10.79346754,-1.26505500314,-1.88880684393,11.0025416416,17.9556078681,23.0644007077,9.29588403301,-0.711753896713,-1.23484047308,13.4040987286,21.1320420134,15.1172537777,-52.8669050102
off_to_on,-1.0958134862,-2.44895354342,-1.49264835816,-1.90523240316,-3.68589844526,-3.40682715567,-3.18008946685,0.0491219652066,-1.27194977047,-23.1677775184,-2.6493303991,-3.04580572234,-5.19046122571,-49.5195747074
off_to_on,-11.3312608754,-15.3380410176,-1.4692748013,-1.66034327898,-17.7074700502,-24.178653029,-28.8971096091,-9.30887087738,-1.67673328299,-39.3477982682,-18.4424136206,-26.7644802137,-24.5549177215,-35.4042145807
off_to_on,-18.9876539226,-24.697561781,-1.22930969037,-1.23635664653,-27.7867637674,-39.4100082996,-48.2734984988,-16.567036341,-1.81784362839,-45.8250240157,-30.0555204556,-44.2015837106,-38.171190655,-12.2370709573
off_to_on,-22.0633754443,-28.0951264416,-0.82094996247,-0.715394188002,-31.4390108989,-45.296215695,-56.6813994398,-19.9318470681,-1.63013051486,-41.0417653877,-34.419842248,-50.8842785915,-42.5019329443,15.6439956915
off_to_on,-19.6950730684,-24.5733034119,-0.303079416359,-0.161586395784,-27.689564368,-40.2921618852,-51.9533622853,-18.5323514213,-1.11644097621,-26.2961127035,-30.2585739336,-45.0084940388,-36.3385522771,42.0967191635
off_to_on,-12.4735973524,-15.0105190582,0.251647244756,0.382202050095,-17.4378383324,-25.6744192527,-35.1287414333,-12.7083306564,-0.355798973206,-5.45951031003,-18.5798008693,-28.0877618665,-21.2644359707,60.6890772987
off_to_on,-2.3426938653,-1.9615197883,0.755576574573,0.885076350085,-3.31250058345,-5.31860596837,-10.3776484238,-3.97294020175,0.509306478646,16.0130202561,-2.51576508011,-4.66958478347,-1.32402265213,66.4875752606
off_to_on,7.92056501777,11.0168919373,1.11429221143,1.31357295485,10.988265293,15.3081849183,15.9707665824,5.3668583744,1.30420708414,32.5352403948,13.5001652758,18.866237615,18.0595221518,57.5549496251
off_to_on,15.5052798104,20.37906244,1.24669963397,1.6211696168,21.7103537909,30.6824213428,37.090503423,12.8410799081,1.8636283776,39.9109124283,25.007076475,36.114096163,31.6283618782,35.6488704666
off_to_on,18.4050392414,23.6416331328,1.11191906145,1.7490857134,26.1202664491,36.8356482745,47.5619325263,16.5201075259,2.07186551489,36.4897572082,28.8610984902,42.5218665913,35.8365003458,5.85555219517
off_to_on,16.0269692002,20.1393044191,0.73202669266,1.64041786126,23.3110634731,32.5363162569,44.9475060634,15.5767601979,1.89020678717,23.6132636554,24.2204922474,36.7548811076,29.9120118266,-24.7603134742
off_to_on,9.36683492549,11.2308543743,0.198463102396,1.26339761059,14.4714980138,19.6490178741,30.5325790088,10.5264855341,1.36417817254,5.20503319812,12.8338090602,21.0941553694,16.0822463963,-49.0790983088
off_to_on,0.682195776838,-0.128886941759,-0.345408833544,0.634741838891,2.51396790903,2.53156637183,8.96054758338,3.06061854539,0.609352368736,-13.3863355757,-1.49169561309,0.714717397295,-1.13165798364,-61.8227695579
off_to_on,-7.23870227084,-10.3282088229,-0.744024289852,-0.167335166756,-8.8368904333,-13.3565414557,-13.1647330626,-4.4836753825,-0.21921054272,-26.9544669687,-14.095573895,-17.948558871,-16.342902014,-60.8419564294
off_to_on,-11.9766426275,-16.2518006725,-0.880137380909,-1.00817100128,-16.2118537663,-23.1939000241,-29.2969647705,-9.85357850687,-0.964418508768,-31.9439984646,-20.9659055082,-29.2344991567,-24.9989218768,-47.4300143083
off_to_on,-12.2530448124,-16.2719688585,-0.718253475318,-1.72152285362,-17.6456082047,-24.3189584671,-34.9559910524,-11.5785437258,-1.5008724294,-27.4449785882,-20.0469363302,-30.0327030406,-24.8037281995,-25.6382155656
off_to_on,-8.31619241201,-10.7484950738,-0.323350027359,-2.14888194791,-13.1629467455,-17.0312893534,-29.0822331629,-9.41034200479,-1.75648546047,-15.3734609802,-11.9133805852,-20.7229392999,-16.3975619054,-0.897169012107
off_to_on,-1.81344075192,-1.8684187778,0.155178189475,-2.18215168437,-4.70926962173,-4.40661288995,-14.2937120167,-4.36233578742,-1.71825621392,0.20774223463,0.424840233115,-4.96800942909,-3.07147054165,21.5465802445
off_to_on,4.80464279259,7.12151082933,0.53195362734,-1.79644188468,4.54954028633,8.8087183125,4.04164712575,1.66268071745,-1.42369827711,14.4043962011,12.5342172826,11.567899485,10.3843586103,37.8622800124
off_to_on,9.14206572872,13.0303266522,0.651281049264,-1.06202019811,11.3199525349,17.8454823217,19.6133446808,6.52938874751,-0.943431638119,23.019894743,20.0546594288,23.1430491617,19.3090692928,46.1993000743
off_to_on,9.6814523519,13.8072665097,0.446925242988,-0.130554265753,13.2952627401,19.5387505316,27.2555824023,8.58960938813,-0.361958183991,23.8135664208,20.1814259573,25.8563956252,20.7273597764,46.5367907973
off_to_on,6.29169939308,9.22634927663,-0.0267803528801,0.80130959415,9.91444495773,13.3807051029,24.6210046439,7.22273551125,0.237554038563,17.0988389248,12.6311386038,18.9173283395,14.3117939244,40.0476993789
off_to_on,0.248027629659,0.940091222376,-0.606174337401,1.54088303934,2.51203317568,1.64608816023,12.8890067638,3.01761886643,0.781757381493,5.51232638491,-0.23764022079,4.84843234463,2.43517611272,28.3599446673
off_to_on,-6.23607221049,-8.11072169774,-1.07061954808,1.94681189661,-6.1830917505,-11.4402055491,-3.71374458708,-2.45953348085,1.20970835568,-6.94306864348,-14.1932126188,-11.4306276632,-10.6902087517,13.0725157848
off_to_on,-10.7957375589,-14.7222306071,-1.21936551285,1.96135552758,-13.0174862828,-21.1927339943,-19.3990571505,-7.22466724725,1.4728547347,-16.245302649,-24.5311699409,-24.3086680904,-20.4783938894,-4.29939324123
off_to_on,-11.7422754778,-16.5303242013,-0.946323262963,1.61883147343,-15.5097178974,-24.0882344384,-28.7895706443,-9.56545850308,1.53619135297,-19.6385856316,-27.6351422111,-29.3848297791,-23.5307475929,-22.0307344439
off_to_on,-8.64305818877,-12.8108900825,-0.285548365765,1.02892857727,-12.6936223708,-18.9595485579,-28.7025707495,-8.62250492802,1.38274850692,-16.441820965,-22.174939307,-24.9179271022,-18.7593561591,-37.8325271058
off_to_on,-2.45682252277,-4.70724689193,0.590366823108,0.341218868181,-5.4231168223,-7.35803323802,-19.1493364175,-4.66580204336,1.02076815235,-8.1388168259,-9.54636977422,-12.3437109473,-7.7013896048,-48.7876221212
off_to_on,4.81344036279,5.182637908,1.4205074845,-0.297447039188,3.95342204643,7.02074800062,-3.23702340939,1.02032113144,0.49027382034,2.24243779832,6.58255963592,4.28818142614,6.06017198889,-51.8076464554
off_to_on,10.8183652787,13.7033697572,1.93861982434,-0.779538634525,12.4196923822,19.6248950782,13.9558622594,6.59327448826,-0.135451754135,11.217636905,21.4524891663,19.7312187885,18.1446465461,-44.5867518464
off_to_on,13.6598478722,18.2036242133,1.96095778616,-1.05710497172,17.3185376655,26.5822449956,27.1108993727,10.2823804322,-0.757021384672,16.0132437471,30.7155838454,29.3009377416,24.8426918197,-26.7440280932
off_to_on,12.509600585,17.3932788076,1.44882399786,-1.14129400828,17.2186556541,25.9475226388,32.3971989745,10.9714102999,-1.26541897282,15.4191392726,31.7611102791,30.3653867545,24.2979749348,-0.664154599229
off_to_on,7.84136808424,11.7098134936,0.52413936634,-1.08373547458,12.3288384253,18.2435905487,28.6124121944,8.5362918971,-1.56479516589,10.0621689387,24.4424627758,23.0745379192,17.012350625,28.4390596206
off_to_on,1.21238688175,3.08837727025,-0.567356232585,-0.9481260522,4.3377343899,6.14376913992,17.3857349627,3.83378544633,-1.59554270568,2.0490130444,11.0018843913,10.1220696119,5.53666355225,53.4801919665
off_to_on,-5.30941378598,-5.75782575087,-1.53251308872,-0.782989745099,-4.23548248166,-6.54905280835,2.43513917725,-1.63686398519,-1.35053080592,-5.85430163531,-4.73486737176,-4.32055169134,-6.50099418176,67.3487233471
off_to_on,-9.85542550686,-12.2732824745,-2.12055773151,-0.605380916144,-10.9254477924,-16.2300382511,-11.7996579529,-6.26409471993,-0.878854693704,-11.1913460822,-18.5855721991,-16.076581102,-15.6542950584,65.1315161667
off_to_on,-11.3485634488,-14.8755379362,-2.19605143576,-0.400810021534,-14.115723218,-20.642478898,-21.6299908945,-8.85082045879,-0.275110916053,-12.5898175267,-27.2358128207,-22.3045141342,-19.7501749403,45.9676752696
off_to_on,-9.7780958929,-13.373924025,-1.77162693816,-0.138527838465,-13.4709827471,-19.4577457048,-25.1788412884,-8.95545317554,0.343199361929,-10.0935639218,-29.0731401756,-22.2498900555,-18.4454243129,13.8215709805
off_to_on,-6.08275279456,-8.87263333087,-0.991992899827,0.204371816682,-9.88067405625,-14.1233061032,-22.6994358267,-6.94271154547,0.863654243469,-4.98015622758,-24.4110468225,-17.1943895584,-13.0965514893,-23.2348125035
off_to_on,-1.71408941363,-3.23230626994,-0.078014558018,0.619863206662,-4.97572123765,-7.09611293689,-16.1188924457,-3.75150752541,1.20405359909,0.819357854719,-15.11096922,-9.69557656113,-6.05039571742,-55.1480725117
off_to_on,1.93539132718,1.67906733509,0.746978867144,1.05656891247,-0.434651873236,-0.800064955745,-8.06309218832,-0.489964270996,1.32755085873,5.45064705259,-3.81301462178,-2.4658190494,0.331710651664,-72.8286434803
off_to_on,4.01666267687,4.65178726709,1.32190389304,1.42409472532,2.63910563634,3.27129164816,-0.79160128378,1.97650392238,1.24410198608,7.73906233564,6.90884952953,2.65118874889,4.52631332105,-70.9897453284
off_to_on,4.4459590037,5.47259663585,1.58236568623,1.6144337553,4.03268173043,4.96840151135,4.53247647281,3.28806988399,0.999226872023,7.46456684285,15.1738959293,5.21854292171,6.2615141197,-49.9261512873
off_to_on,3.80060963725,4.83179776778,1.55658645845,1.53468746287,4.33122939693,5.28781833224,7.98324853793,3.6174694813,0.655216358538,5.25315066577,20.0401461454,6.0879472245,6.36865790618,-15.5873854153
off_to_on,2.95669151914,3.86990575514,1.32985222062,1.14098997165,4.48625763426,5.68773020839,10.4312702038,3.47343577963,0.272033332133,2.18234211321,21.3799522066,6.72805169547,6.17968182756,22.1478119188
off_to_on,2.63533274884,3.57412273745,0.996024339006,0.462327306032,5.25016498117,7.23674981251,12.7750933331,3.38247732178,-0.105476425649,-0.701492912793,19.5442521931,8.32410626462,6.75669715895,52.4799584274
off_to_on,3.05395755236,4.28692294985,0.618056281797,-0.394622015219,6.73227947697,9.97709200579,15.2294332469,3.59576122977,-0.450514035647,-2.74565347269,15.0341494806,11.0578331488,8.29850059103,67.0141373377
off_to_on,3.82885039031,5.53500993226,0.213706912106,-1.26311276192,8.27650189007,12.7883558474,17.018460725,3.95143550622,-0.748116082664,-3.80193540844,8.35287610028,13.8920497284,9.98567660372,62.3097125117
off_to_on,4.16747287855,6.24998907993,-0.229599788842,-1.95318611978,8.72317879337,13.8261021593,16.6375892213,3.95285026895,-0.984311915498,-4.08111323882,0.0871378643283,14.9676400717,10.3369484473,40.8127882848
off_to_on,3.26672868095,5.28748723253,-0.720334630166,-2.29849165223,6.95348747004,11.3653218718,12.5900958007,3.02879195498,-1.13699360497,-3.86572348681,-8.87520281748,12.4587778103,7.9309551041,9.87598447492
off_to_on,0.745730566016,2.02474002237,-1.22752808592,-2.20036832611,2.48952766273,4.70050508737,4.2828154679,0.861553756653,-1.1739993297,-3.25518968508,-17.1766063051,5.53097044272,2.18740482377,-20.7777169408
off_to_on,-3.07644363495,-3.22164995856,-1.66410828384,-1.65669727012,-4.11151096686,-5.2862759199,-7.32852896883,-2.36473487526,-1.06071244882,-2.0913275138,-23.0533784479,-5.01306747572,-6.13567542949,-42.2624655591
off_to_on,-7.18850858628,-9.15016600584,-1.9006695469,-0.766944392037,-11.2594779452,-16.1614120883,-19.6764845687,-5.91543585891,-0.775169802438,-0.11335015584,-24.7130553543,-16.7065411949,-14.9695811307,-49.3081024116
off_to_on,-10.1974818163,-13.8482262156,-1.808053306,0.288698648932,-16.7685535955,-24.6215799227,-29.2113457464,-8.69774398625,-0.324952987172,2.73495998861,-20.9492701198,-26.0814045064,-21.5248798727,-41.6823773657
off_to_on,-10.8359448044,-15.4642879461,-1.31366640691,1.29097431313,-18.5946895503,-27.6064444568,-32.550838119,-9.63659454491,0.241486182111,6.01804815581,-11.7720742067,-29.8178912486,-23.254699471,-23.8271477869
off_to_on,-8.47539134423,-12.9313601486,-0.448578525132,2.03313130839,-15.6097487344,-23.4444603527,-27.7481159218,-8.09689854272,0.835199979972,8.72917276983,1.2321954863,-25.972856479,-18.8417162882,-2.9202556366
off_to_on,-3.44293820539,-6.46199208698,0.636323202394,2.36883404604,-8.11753027811,-12.5978558945,-15.1931751919,-4.18661363388,1.34122148925,9.52889467143,15.0406431559,-14.8244105372,-8.82875302129,13.8730117776
off_to_on,2.99455443901,2.3907589704,1.69652300834,2.24402335779,2.10215591186,2.29842781285,2.23372602764,1.18862722672,1.64457823486,7.26763313875,25.8948706863,1.00901550389,4.37197035278,21.9310412334
off_to_on,8.9934430114,11.1561367686,2.45809387482,1.7050208337,12.2693876044,17.1601264591,19.8801259115,6.55996267431,1.66085083664,1.6077626678,30.4052036608,17.262662744,17.1353508376,20.5784068494
off_to_on,12.7271487606,17.222614013,2.70049351168,0.881909455264,19.4578218495,27.7174579346,32.71514689,10.3511342823,1.36203041252,-6.52825637508,26.7131265779,29.3248444001,25.7451783146,12.8975380694
off_to_on,13.0043584684,18.7035752808,2.32989695443,-0.047004763159,21.5402909899,30.8934853531,36.9423687496,11.4011555545,0.789232563695,-14.9359558592,15.293218579,33.7077734583,27.6028920185,4.09791524189
off_to_on,9.68984020443,15.0860562089,1.41658921855,-0.899045327046,17.8978580899,25.8186101299,31.2734037902,9.36772083666,0.047505245421,-20.6478586838,-0.943287712802,29.1833813545,22.1019718764,-0.86591740604
off_to_on,3.77284533966,7.42824306037,0.181468421374,-1.52725382387,9.64016042959,14.1231674362,17.4043216149,4.86243993907,-0.716668707219,-20.8974192416,-17.3620540609,17.1876218334,10.8562972967,0.536342738522
off_to_on,-2.94725326214,-1.97065734201,-1.06581612365,-1.84677820902,-0.746307602805,-0.598876347124,-0.49217332432,-0.737511791367,-1.34930352587,-14.227099244,-28.9692256751,1.35023797193,-2.80530862777,7.3197733956
off_to_on,-8.45150935375,-10.3176513834,-2.017510901,-1.84252947834,-10.2047032751,-13.9712296579,-17.1012527108,-5.74080838742,-1.72496653183,-1.32667593628,-32.0083716208,-13.6877738889,-14.9089753275,15.4072985825
off_to_on,-11.162761601,-15.2321631897,-2.45729857827,-1.55904665069,-16.0922630982,-22.2525018947,-27.6763320486,-8.70037850276,-1.77513451845,14.7751261875,-25.2569136101,-23.7603430747,-22.103647162,19.404912519
off_to_on,-10.447962116,-15.4985000318,-2.31915226045,-1.07857959498,-17.0050952166,-23.5021004947,-29.5402414437,-8.88319521243,-1.50153148938,29.3508901315,-10.5560647876,-26.458350824,-22.6945496408,15.029203802
off_to_on,-6.79010731218,-11.4095900676,-1.69680403736,-0.495988741879,-13.1656391904,-18.1035565926,-22.8667534156,-6.48737111908,-0.971739314405,37.3416675956,7.6520995774,-21.7817561126,-17.098039796,1.21469597748
off_to_on,-1.57778866838,-4.59495709565,-0.802582368847,0.101494540336,-6.2529612192,-8.48756477489,-10.488585759,-2.5337242473,-0.29952335294,35.0581281194,23.6730860337,-11.9667591451,-7.5822307533,-18.9722005937
off_to_on,3.40351913625,2.59075718463,0.108032786789,0.644848344386,1.24617622707,1.81828721529,3.17713090134,1.52361546098,0.383650805449,21.6473317985,32.3745904613,-0.586186491319,2.59015637529,-39.0475635013
off_to_on,6.59124134525,7.89063268422,0.818500989004,1.08393182487,6.9218343019,9.45397079528,13.6873649842,4.3226858355,0.957694870554,-0.227980967517,30.8705176376,8.72996901603,10.296317346,-51.2712707158
off_to_on,7.15610255943,9.88555551094,1.2113733084,1.38205307095,9.2429607304,12.3495588408,18.0577924543,5.06397946933,1.33624466607,-24.8310525394,19.5031146736,13.4909189548,13.5612822011,-49.5091059517
off_to_on,5.22965889287,8.39881056113,1.28741989127,1.51025661237,8.00065723051,10.319537326,15.6598535038,3.75836530983,1.47790380098,-44.8844913097,1.77748673237,13.0495549133,12.0986912904,-31.7495205547
off_to_on,1.78338989917,4.44300889815,1.1407819727,1.44642516056,4.25600016327,4.94888399161,8.24421580665,1.1704128299,1.38583231257,-53.7796516263,-16.7462500432,8.60448686611,7.22665300279,-1.3110427892
off_to_on,-1.77860498841,-0.243532702502,0.903718425286,1.18120312188,-0.160203374159,-1.14569401072,-0.871663636946,-1.51152756582,1.09846269264,-47.7734041288,-30.2427374314,2.55346018303,1.23232772848,33.7821260446
off_to_on,-4.15128866978,-3.87903529554,0.685154168203,0.728646520612,-3.38855938594,-5.37374288038,-8.11523770794,-3.14740150636,0.675949978288,-27.4307668161,-34.4980407008,-2.51721943013,-3.54736880026,63.1332042667
off_to_on,-4.58611524517,-5.27903485902,0.52809558708,0.136166355479,-4.23827238069,-6.14173823013,-10.968069595,-3.07953579694,0.186912899289,2.22656406204,-28.2476397416,-4.80887161673,-5.57505685441,77.2736921747
off_to_on,-3.11339218047,-4.22608748997,0.402001770888,-0.51271907757,-2.58576993685,-3.38311636315,-8.79624019039,-1.36759684802,-0.301544832879,33.0038425812,-13.5352795547,-3.89390004426,-4.58646805545,70.8249568186
off_to_on,-0.464023235768,-1.45246173329,0.231148158017,-1.10743252631,0.656593183786,1.52392236579,-2.92604000656,1.25793423472,-0.729766441008,55.9132904749,5.01188843202,-0.719758019484,-1.54169006293,44.4334486679
off_to_on,2.26006837629,1.72926844238,-0.05503914031,-1.53153430687,3.96605368784,6.38475915048,4.01636547124,3.69818771961,-1.04854900573,63.9296146984,21.7280144926,2.92113539997,1.88695819455,4.79467426815
off_to_on,4.02691982368,3.98301285472,-0.47277041811,-1.6913303065,5.84669424121,9.09439958074,9.207582369,4.92265062823,-1.22118445399,54.2410539243,31.7374796644,5.20826010515,4.05900032098,-37.2749618764
off_to_on,4.25367187464,4.4679536789,-0.958400223605,-1.54327309935,5.42394559216,8.46055942217,10.725988875,4.37055719013,-1.2260895757,29.2473613983,32.451028497,5.05376709948,4.03520783045,-70.0996602155
off_to_on,2.9847069416,3.12242592592,-1.379433172,-1.11056330682,2.76928009041,4.63186112304,8.22530710781,2.16438568241,-1.06029767364,-4.05602448431,24.2459729375,2.50703561431,1.91253701703,-84.6751101476
off_to_on,0.815105184226,0.618783305938,-1.57959343696,-0.481976172278,-1.1588768269,-1.01490981788,2.9463120357,-0.942348095612,-0.742642171141,-36.1479624458,10.1443937938,-1.3385334881,-1.28932028257,-77.3262843672
off_to_on,-1.39244965287,-1.97059469582,-1.44101761809,0.208527021472,-4.91925257005,-6.45920144562,-2.90000006734,-3.85785718115,-0.314605015274,-57.8663308303,-5.34572067169,-4.87046186109,-4.11922988062,-50.6590709315
off_to_on,-2.87119566137,-3.64382169778,-0.93868283562,0.816257408233,-7.16556965702,-9.84322954841,-7.09773371079,-5.56875905212,0.163018790894,-63.1924260776,-17.7824245094,-6.67514179349,-5.34384262139,-12.555146478
off_to_on,-3.24346677546,-3.87730753256,-0.164095337633,1.22395554679,-7.16507014641,-10.1745670632,-8.33212634628,-5.51869953928,0.61829889081,-51.0450488108,-24.1805448691,-6.1399090265,-4.47851143381,26.3921866594
off_to_on,-2.62909690115,-2.80625249164,0.69352520603,1.37146718956,-5.05562537997,-7.65234976511,-6.66720297024,-3.80449637744,0.980121558714,-25.5151680852,-23.7782788563,-3.68809703043,-1.98032713952,56.1133179708
off_to_on,-1.53549888552,-1.11313404768,1.40406889101,1.26725654253,-1.74861455596,-3.50379668935,-3.41222483896,-1.11814320853,1.1913020666,5.51745135571,-17.9686674473,-0.555373489252,0.971687576498,69.9101176246
off_to_on,-0.587527961983,0.317159465839,1.77185310932,0.978188763742,1.47216011907,0.582902477295,-0.451038235438,1.53766544224,1.21953005759,32.9158841221,-9.49900463984,1.78961545747,3.01117398796,66.0497416215
off_to_on,-0.220482527818,0.820377376138,1.70205950618,0.60163875963,3.48521218496,3.18335087624,0.668079157701,3.24553026524,1.06325674294,49.1281490804,-1.29955167424,2.32702012576,3.2044495067,47.7085473686
off_to_on,-0.472457035373,0.268049626076,1.23342036575,0.230333952068,3.77935416736,3.71554885714,-0.515460577575,3.52420776405,0.751074539215,50.417520158,4.58761494718,0.97214725538,1.48981243717,21.4414736484
off_to_on,-0.968187364728,-0.86469439655,0.524390736092,-0.0770279699063,2.63319229561,2.63425811647,-3.11383115394,2.49730736042,0.335047552372,37.7833525073,7.58254561119,-1.351936343,-1.2572885597,-5.17895924964
off_to_on,-1.10394759207,-1.7131170662,-0.202741665662,-0.308573446,0.95560054621,1.16466451951,-5.25159366926,0.815710226618,-0.119884159995,16.3277269509,8.46832964031,-3.10205728369,-3.57339442073,-25.898678233
off_to_on,-0.355871723493,-1.43274081638,-0.739555309914,-0.491075049753,-0.144303601465,0.690944382178,-4.91679542349,-0.6327926246,-0.547471716125,-6.65343134937,8.72139871347,-2.81435362803,-4.03806593996,-37.3384801247
off_to_on,1.42191639142,0.367590311923,-0.962423969188,-0.664737584976,0.122310380811,2.06060905999,-0.956824263931,-1.10887053361,-0.889978436376,-24.1622501914,9.59919114381,0.171903670836,-1.93189405026,-39.3685963572
off_to_on,3.84436205856,3.35925203852,-0.870513633247,-0.851945729937,1.83234318801,5.10536038297,6.20574813846,-0.346136373007,-1.10464600597,-31.7157816355,11.3994115646,5.27830232209,2.35550914362,-34.357060401
off_to_on,6.06784021274,6.52283940691,-0.577031087814,-1.03394324501,4.25858069747,8.59666578832,14.4702966634,1.31815532175,-1.16664450878,-28.562599335,13.2213654808,10.7488730758,7.35503920383,-25.7374521251
off_to_on,7.0776961104,8.48519182426,-0.25757426103,-1.14690297436,6.12898535018,10.6807678198,20.6695032093,3.06361114427,-1.06949997633,-17.5502291037,13.3421433061,14.2265156074,11.004302528,-16.5278831878
off_to_on,6.09068007854,8.05056124242,-0.0757428885727,-1.10151083883,6.14723766397,9.64106161931,21.7117937797,3.91679793464,-0.824396722511,-3.77610487773,10.0568915272,13.6527101081,11.4268626293,-8.36557525789
off_to_on,2.91801319011,4.72559289957,-0.11490569243,-0.820602737211,3.57415997818,4.69344409577,15.8449316925,3.16497000743,-0.459310325927,7.42995699301,2.62862022866,8.15602840047,7.71510001329,-1.34830063062
off_to_on,-1.8603192691,-0.973101419764,-0.34280680009,-0.281178922463,-1.36440833372,-3.51003711676,3.55286227362,0.690591389556,-0.01794449368,12.4381990751,-8.06903408242,-1.42349561024,0.409301847723,5.38273512752
off_to_on,-6.99561137429,-7.56845665585,-0.623282671353,0.456391424022,-7.42063330022,-12.8971896935,-12.2949613958,-2.91063479935,0.442517807099,10.4821060628,-19.5262699731,-12.6091602487,-8.53416212372,12.6796549322
off_to_on,-10.93032178,-13.0401894655,-0.771373909157,1.24621981661,-12.6676270637,-20.549525578,-27.1638971753,-6.48635698899,0.856217477745,3.67824991414,-28.2632271503,-21.9825884139,-16.3090439447,20.529445661
off_to_on,-12.3042403766,-15.4814701378,-0.631315034523,1.88724615233,-15.1393176507,-23.6596623438,-36.2482956375,-8.71342833724,1.15683293992,-4.03958282967,-30.9870300977,-26.2879375156,-20.1834510327,27.7016693851
off_to_on,-10.432934628,-13.7704001808,-0.147626053654,2.17973987308,-13.5459346967,-20.5430949553,-36.0837778303,-8.57867493176,1.28876141599,-8.62024823217,-25.8311265845,-23.5711368269,-18.4645881014,32.0600220369
off_to_on,-5.58639008739,-8.01530475967,0.598628952814,1.99103759742,-7.80467636671,-11.3377713352,-25.8183258798,-5.77950145209,1.21923490359,-7.56195819161,-13.2099128916,-13.9485383028,-11.1581558375,31.399767085
off_to_on,1.03923446232,0.395443949384,1.4039889412,1.30828942978,0.818379187656,1.87818747481,-7.67866022559,-0.892801610656,0.948153270318,-0.914722145258,4.06062305221,0.285084619612,-0.0741140911295,24.4480559406
off_to_on,7.65845046375,9.17315186058,2.00434392949,0.258308071134,10.0259681262,15.6220360805,13.5662405805,4.75932929556,0.512245774078,8.74557511345,21.4715582495,15.275583528,11.6793836173,11.5975616708
off_to_on,12.4357051831,15.8217522792,2.16383566297,-0.915709542983,17.1756941948,26.0377589704,31.999682742,9.51083076731,-0.0187334870939,17.3412898626,34.1559837349,26.7691577918,20.6571844168,-4.94432085842
off_to_on,14.0494305567,18.4162981861,1.76003713702,-1.9167650533,20.1106866778,30.0887036514,42.3659378055,11.8872568146,-0.553951033872,20.9113045353,38.4142549857,31.4349663602,24.1744285068,-21.6707280945
off_to_on,12.0939060387,16.2072343472,0.835153785301,-2.47842310398,17.8562555161,26.5156279503,41.7004856473,11.0931851017,-0.999282540446,17.2027886488,32.9126680277,27.9115924188,21.1697799181,-34.7720772826
off_to_on,7.18786889701,9.84939355657,-0.405574865323,-2.44494768286,10.9467029585,16.2407948371,30.2444076777,7.28363153435,-1.27668822983,6.63262536304,19.1414086716,17.2294444503,12.5430612801,-41.2494388097
off_to_on,0.759514358509,1.18294111494,-1.64898430373,-1.82117031498,1.27159259412,2.08565967558,11.3453509507,1.52564742903,-1.34020933256,-7.74548138893,0.968468942017,2.47237874313,0.856025426191,-39.747835746
off_to_on,-5.41316641073,-7.35457465747,-2.56503323207,-0.774874491685,-8.50632683358,-12.0994938594,-9.6124034064,-4.53702232362,-1.1844709495,-21.2613385841,-16.5642038957,-12.201637381,-10.4973716851,-30.8366378471
off_to_on,-9.74844329705,-13.4839908622,-2.90421560133,0.410536766312,-15.7662282003,-22.602004659,-26.8847568019,-9.20200474896,-0.843742261477,-29.2652708555,-28.7981986637,-22.8490680391,-18.3667389319,-16.6864051173
off_to_on,-11.3126430604,-15.7570812151,-2.57010537048,1.41912243302,-18.7082651521,-26.927363082,-36.0953229306,-11.234524154,-0.382357444142,-28.7870261623,-32.8506063592,-26.9122219608,-20.805780721,-0.317737360751
off_to_on,-10.0374428289,-13.9322448145,-1.64477466276,1.99535146038,-16.8471301502,-24.4536005769,-35.4579786284,-10.2282809982,0.120304704592,-19.6170915988,-28.3880007848,-23.8999571579,-17.6054869445,15.2632807291
off_to_on,-6.64895807942,-8.94846575733,-0.360936827293,2.01755276601,-11.0742141439,-16.474125234,-26.1264333776,-6.68814789428,0.585856381195,-4.42364886567,-17.5517646536,-15.3817385649,-10.2426985378,27.7272801369
off_to_on,-2.35513958835,-2.53220174263,0.967947119653,1.5287618502,-3.29133354279,-5.65369025492,-11.6071913031,-1.81930586447,0.949832743155,12.1322583999,-4.09945660686,-4.33612799977,-1.2901635392,35.6932102715
off_to_on,1.58399746009,3.40777342236,2.03572671271,0.715824905633,4.23995301151,4.887108117,3.51547369023,2.8934281798,1.16903541631,24.9635092131,7.91002423792,5.89284747763,6.48626361827,38.6143400359
off_to_on,4.24920338617,7.38227860514,2.622054634,-0.155409109304,9.60438020597,12.536575743,15.0812531734,6.1660507705,1.22306565687,30.2494496512,15.4204971192,12.6624541176,11.0235100314,36.4543256732
off_to_on,5.29009600129,8.72260692327,2.63917654078,-0.826758113209,11.7627077411,15.8926078911,20.5761762268,7.29377163179,1.11180770763,26.6648055906,17.2340314363,14.7686396734,11.5509565411,29.4019955612
off_to_on,4.92993042974,7.66708150221,2.13721589906,-1.12751925282,10.7495576362,15.0002836927,19.6992009789,6.3097851007,0.851566214167,15.7325408388,14.1608804024,12.6374683169,8.69724895443,17.8190910334
off_to_on,3.77272101455,5.13741568123,1.27234236486,-1.02176569311,7.50735284247,11.1002029212,14.1460500448,3.88887894809,0.472160273453,1.20653760737,8.46836637442,7.95550074617,4.11458843928,2.46159732322
off_to_on,2.50629010682,2.3156743482,0.253139676545,-0.609068490708,3.44945856495,6.02855922798,6.75886453196,1.04952719574,0.0157994946379,-12.2681387207,2.87910564341,2.91707281972,-0.212620314263,-15.163877196
off_to_on,1.62284905253,0.191469378694,-0.715294857531,-0.0806040422553,-0.0713894676065,1.51353145731,0.39439222094,-1.22712430379,-0.463254049616,-20.7268676304,-0.488006817283,-0.615798457534,-2.70964681984,-32.5650794821
off_to_on,1.25965282767,-0.757358336448,-1.47311421936,0.352523694901,-2.19827792051,-1.37852243896,-3.07037802768,-2.32377847132,-0.900508618193,-22.13802604,-0.846603106099,-1.73900981603,-2.73944521703,-46.4015798309
off_to_on,1.20680122516,-0.651526342987,-1.92523890359,0.53325808148,-2.77074275831,-2.47438663296,-3.26160092955,-2.15154982234,-1.22687383206,-16.9222426923,1.10075074135,-0.715745455612,-0.746011552278,-53.1089365453
off_to_on,1.06089691491,-0.0597058027878,-2.04009001725,0.409710151098,-2.24922302683,-2.36395724228,-1.22338542573,-1.11059027414,-1.37909500693,-7.60153559868,3.59591189723,1.26829617371,2.00988956867,-49.9060173635
off_to_on,0.448717743808,0.306906970643,-1.83592736409,0.0471913262253,-1.42398161519,-2.0040729773,1.18466711615,0.120016477137,-1.3137281027,2.24541976495,4.64705117314,2.67672634411,3.99925411742,-35.8742762013
off_to_on,-0.776057781789,-0.0769547812803,-1.36507999804,-0.400961553554,-1.03999824396,-2.23738763013,2.13807358212,0.872372826729,-1.02111667539,9.31059703213,2.90485583159,2.2866117809,4.04110587554,-12.6940911774
off_to_on,-2.44215053419,-1.32706096278,-0.703225916371,-0.75166787483,-1.48610673948,-3.41866801736,0.610126246957,0.74846672674,-0.534558515303,11.6790175738,-1.74432345293,-0.305939974612,1.75962805293,15.3195189358
off_to_on,-4.10790050806,-3.10788284447,0.0550975110754,-0.858000972111,-2.65810807684,-5.28041245889,-3.23006368685,-0.24333887374,0.0697076012584,9.3613750831,-8.08449681621,-4.51525988289,-2.27407228116,42.0275843695
off_to_on,-5.22206787573,-4.7742863237,0.799120150345,-0.659704354856,-4.03077794694,-7.06667046347,-8.10611198709,-1.71348038616,0.68381495777,4.08771104979,-13.9964189698,-8.97539509543,-6.75062504618,60.9740300103
off_to_on,-5.33092446206,-5.62934340888,1.4092489748,-0.201854771662,-4.89323750432,-7.86057775239,-12.1448224043,-3.05632974738,1.18956677309,-1.510285832,-17.2320671675,-12.0358101547,-10.0911300466,67.1679742007
off_to_on,-4.25031280859,-5.1931567858,1.77376288798,0.382930075191,-4.64602894509,-6.96569817531,-13.5952593079,-3.68536617087,1.48493055363,-4.98572584161,-16.2436859311,-12.3549753536,-11.0003980645,58.5826581131
off_to_on,-2.13956904139,-3.38254056172,1.81376099862,0.920577267453,-3.04468214135,-4.19420214078,-11.4831816172,-3.24935151696,1.50869705011,-5.01113900582,-10.7653216166,-9.38109238964,-8.91096346619,36.8675825056
off_to_on,0.544770803467,-0.543141952436,1.50915089647,1.25265291206,-0.304369932672,0.0372630410461,-5.97064429945,-1.75474218289,1.25617466457,-1.82152525877,-1.9459810889,-3.56155458876,-4.17402387227,7.00900503015
off_to_on,3.19138010839,2.66522144851,0.914837125852,1.28468481534,2.96191678029,4.82416466493,1.68770366285,0.441016832666,0.7810382004,2.97201599412,7.99838708904,3.77516605498,2.05159730482,-23.9846791407
off_to_on,5.21554784668,5.47675426242,0.157401697446,1.01050410948,5.93756936354,9.04602170078,9.5505345118,2.75268006943,0.182413009747,7.09346838509,16.476717285,10.8095376438,8.15812867165,-48.9734038235
off_to_on,6.21428772134,7.24151835545,-0.591401157008,0.506899435292,7.85233644419,11.6894820953,15.5957804891,4.55570886664,-0.419317790071,8.54194314903,21.3102128631,15.7545410487,12.5653899765,-62.5651554205
off_to_on,6.04737046926,7.58730696826,-1.15919265666,-0.09646600873,8.20139212756,12.1149222313,18.3122582095,5.37256530967,-0.911116869534,6.39286326264,21.3511383972,17.3456268408,14.1604194454,-62.4140565455
off_to_on,4.83016442133,6.4805084617,-1.42237135345,-0.659049397713,6.86860883636,10.1941696895,17.0906207161,4.99823234972,-1.21224192501,1.16128705002,16.7464094834,15.157852479,12.5734284307,-49.5769475546
off_to_on,2.85871742203,4.18739100555,-1.34347803052,-1.06803765338,4.13027122325,6.30142774071,12.3160216334,3.53422286476,-1.28886633522,-5.39460522241,8.79491676245,9.67869660445,8.22820233514,-27.8949603369
off_to_on,0.508681353354,1.1712592781,-0.982300098675,-1.2616092597,0.557719024579,1.18910656603,5.17493927427,1.33440272548,-1.15518838514,-10.9374278954,-0.512636176609,2.1443211557,2.18007985402,-2.68680160978
off_to_on,-1.84986591987,-2.0260686768,-0.475055403273,-1.23220822604,-3.13515237395,-4.19325506901,-2.72240562555,-1.10693974125,-0.86221721231,-13.4191465707,-9.08894651002,-5.78956745403,-4.18649386664,20.7614406002
off_to_on,-3.89763890601,-4.87999058984,0.0124938902409,-1.01329116701,-6.2484876194,-8.8809589128,-9.76353015252,-3.28280298841,-0.479157408191,-11.8264573517,-15.2791070454,-12.4405292853,-9.50249445579,38.4152470709
off_to_on,-5.37347720117,-6.94200208983,0.342053263391,-0.658633629857,-8.22042639833,-12.0437571735,-14.6751722133,-4.78026450432,-0.0741449101596,-6.53446246997,-18.1759975067,-16.4584165402,-12.7107607775,48.0945616108
off_to_on,-6.06680435822,-7.87227990412,0.449400353398,-0.224415400759,-8.70476634401,-13.0970177368,-16.7165728818,-5.34618382182,0.299544041813,0.844385638061,-17.6721127657,-17.0816786398,-13.2562988428,49.4078264304
off_to_on,-5.8237511783,-7.46832708843,0.36310550522,0.23909050476,-7.60791904001,-11.7842081087,-15.7217624187,-4.91028058141,0.608436260718,8.03991672398,-14.2964223694,-14.2584748562,-11.1516432725,43.2240055636
off_to_on,-4.58315438536,-5.7055342212,0.187828272741,0.685468927754,-5.0976568339,-8.23761838617,-12.0349010344,-3.57653033227,0.835334719283,12.9052305518,-8.94679851454,-8.63056624122,-6.92977399257,31.0324622917
off_to_on,-2.43488488132,-2.78509550177,0.0579477407631,1.06484252652,-1.59011093794,-3.00706498386,-6.39572962891,-1.59628678079,0.970999955422,14.1125903543,-2.63536503077,-1.39626987928,-1.51292966356,14.515199774
off_to_on,0.329858297928,0.837463588812,0.0789335934875,1.31930483172,2.29058122509,2.97164922457,0.18585825864,0.669230298578,1.00631706327,11.526830062,3.67789187444,5.9225592878,3.97232533738,-4.51643973557
off_to_on,3.21590151804,4.47989569182,0.279265536319,1.38781858564,5.79321446113,8.50000449401,6.55876661432,2.79754839719,0.929545946188,6.15125946827,9.15266873829,11.7781608637,8.40740404071,-23.9033497207
off_to_on,5.59747286765,7.34277492699,0.592491604388,1.22230287803,8.16926516408,12.3429057371,11.5788657013,4.36893352239,0.730609849946,-0.297899902825,13.0810221676,14.9174796625,10.8965179556,-40.9067582554
off_to_on,6.86667533109,8.69608387438,0.878057676589,0.810204740134,8.84081171989,13.5283170872,14.2910589368,5.04579421036,0.410856449716,-6.00472980954,14.9086447054,14.6698870979,10.954453117,-52.276576134
off_to_on,6.6201363623,8.09915843495,0.974751120397,0.19394494565,7.57047810933,11.6460942607,14.1339445689,4.65648139153,-0.00623340984843,-9.62140598419,14.3063855898,11.1351934841,8.63003575508,-54.8095414067
off_to_on,4.8201192351,5.58099362956,0.767525612869,-0.523330115153,4.577987943,7.04443333643,11.1190853736,3.26045488328,-0.469070852469,-10.5990886116,11.2847612949,5.20864618264,4.52584215991,-46.3396247806
off_to_on,1.86248234312,1.70407043321,0.242212554309,-1.19243680561,0.547587186919,0.831092967322,5.91204041389,1.16650916098,-0.901194839305,-9.19958531151,6.2955653726,-1.5936790906,-0.313164186927,-26.8395135555
off_to_on,-1.49188349491,-2.53667404661,-0.494141211433,-1.6526124789,-3.50474317518,-5.36333462562,-0.251192424636,-1.11715551953,-1.21498304973,-6.23446705495,0.243686130396,-7.49585603607,-4.63966478254,0.845212954063
off_to_on,-4.31939894186,-5.97383550457,-1.23768437702,-1.77686254357,-6.49035697259,-9.82363014923,-5.83475371995,-3.00243124672,-1.33303365703,-2.67524862869,-5.64674009828,-10.9350993767,-7.32878771011,31.0709596105
off_to_on,-5.8154228779,-7.61908499523,-1.75092257296,-1.51364893387,-7.5689802539,-11.2721213206,-9.41374596923,-3.98526041697,-1.21102175623,0.692361847627,-10.1104427026,-11.0211107476,-7.70476051502,56.4798022992
off_to_on,-5.56356199067,-6.99424352462,-1.84377305946,-0.909788110236,-6.43180344236,-9.30703859621,-10.1109324829,-3.80612459362,-0.854460039335,3.44115725675,-12.1925481112,-7.83745802027,-5.76753982912,69.9199377669
off_to_on,-3.69502457272,-4.3223258481,-1.44393752717,-0.104595206989,-3.44325185201,-4.59468661195,-7.90993789412,-2.55075462455,-0.323077946991,5.46613934604,-11.5532084927,-2.46938125773,-2.23189811278,66.6675002264
off_to_on,-0.870952318144,-0.496069312158,-0.630563130012,0.705324302859,0.426526582907,1.2798245588,-3.71467124604,-0.647084874681,0.279842023753,6.80233975221,-8.60152205345,3.28284197686,1.65893508237,46.2088476415
off_to_on,1.9205342082,3.18620478611,0.382643757455,1.32095046051,3.88017018192,6.28738520816,0.90083193134,1.25401441092,0.831054447511,7.42173587042,-4.38508479405,7.44486632158,4.51045194658,12.8955545577
off_to_on,3.69385038187,5.44404875027,1.31105081708,1.59830382075,5.70860667307,8.62099328133,4.20005515912,2.4857051907,1.21746057087,7.13375591709,-0.249811109366,8.50948276342,5.23867002737,-24.8959618677
off_to_on,3.81281515053,5.46022589527,1.88891438877,1.48974791303,5.2120049276,7.33704274433,4.89434226271,2.59568909618,1.36403539653,5.65368333571,2.62247600186,5.97235691118,3.46707511626,-56.9772889511
off_to_on,2.23181648073,3.19151813428,1.95503245364,1.05535604963,2.47895396551,2.74435093608,2.64477477064,1.52027771685,1.25140222126,2.81211351103,3.63235455824,0.57150877875,-0.285558541391,-74.3171372301
off_to_on,-0.461411455585,-0.574655852329,1.50476983939,0.440508553848,-1.58699555016,-3.61656626435,-1.73838852193,-0.365653278095,0.918093888609,-1.20141905278,2.97349806319,-5.87664090336,-4.71276621897,-71.8374961617
off_to_on,-3.22803299648,-4.45456430325,0.690355928627,-0.172640542393,-5.5243839755,-9.42890631898,-6.5007930615,-2.35186207218,0.447343993607,-5.69910521813,1.54098529564,-11.022418031,-8.11427757045,-50.1024482682
off_to_on,-4.93254156614,-6.92849008486,-0.230761415144,-0.62329386116,-7.78744330327,-12.3627093065,-9.51671454385,-3.62516553081,-0.0569823943687,-9.56489427056,0.554710912533,-12.7536939629,-8.96515485646,-15.2892940958
off_to_on,-4.7519844179,-6.87760359493,-0.981679736075,-0.820102578973,-7.28727583817,-10.9009482321,-9.05453795824,-3.55837719472,-0.497583190426,-11.5522930738,1.02942500782,-9.94665553723,-6.47720870523,22.6137442967
off_to_on,-2.49709605825,-4.01218374357,-1.35633604316,-0.763401779582,-3.81658420966,-4.94474948947,-4.47451667127,-1.95681252811,-0.805827420312,-10.7238254795,3.2934083214,-2.93919682179,-0.956405846108,52.8412563715
off_to_on,1.27307717841,0.96557506022,-1.28344442211,-0.535120268725,1.79844681334,4.02758952004,3.39915204515,0.828943984388,-0.952807175308,-6.86859332776,6.75370193999,6.45380737705,6.18508571235,67.1438636047
off_to_on,5.39385725197,6.53551058305,-0.842766559816,-0.26138009357,7.89104653728,13.3321734874,12.3938773908,3.97425231743,-0.947445198218,-0.719658276209,10.0236741918,15.4201404725,12.7948055347,62.2643762569
off_to_on,8.45753177878,10.8271574603,-0.229364140757,-0.0622678681067,12.4487117139,19.8879836054,19.5928577165,6.42411264251,-0.824199960526,6.14779718435,11.3954662874,20.9963253388,16.6286267648,40.7861025957
off_to_on,9.2803656487,12.2341930781,0.320281728135,-0.00733062819584,13.7608897789,21.2139300583,22.2569285937,7.23642438716,-0.626129250028,11.7422348533,9.50394158786,21.0211043632,16.0837093742,10.0916409449
off_to_on,7.31830214735,9.97228465311,0.613380802007,-0.0926521569852,11.0100550346,16.2897969486,18.7707732901,5.9127481598,-0.390012662388,14.2832436044,3.94234448764,14.8879921072,10.7763543784,-20.1873544959
off_to_on,2.88830003155,4.389149747,0.567007304352,-0.247017892889,4.60538564835,5.98773354901,9.29325666306,2.60261580621,-0.138682968241,12.8190264478,-4.41108338673,3.84092973024,1.76384649144,-41.3399779131
off_to_on,-2.88555901278,-3.08605191437,0.232635992414,-0.363835139137,-3.8644317074,-7.0871362984,-4.12607497459,-1.89492521922,0.117625868263,7.60784990565,-13.5065350454,-9.30294184109,-8.6822001124,-48.2806928829
off_to_on,-8.39112573839,-10.3482235293,-0.228345773232,-0.346143468785,-12.0608849454,-19.3180513045,-18.0349121741,-6.34332511306,0.372915218247,0.108364758811,-20.6754348915,-20.9362930444,-17.6994563076,-40.8910168464
off_to_on,-12.013632805,-15.2521863045,-0.607996649363,-0.147588272611,-17.5831987251,-27.1453511954,-28.5432377229,-9.43334160112,0.614869581376,-7.44264072368,-23.4615254413,-27.717529736,-22.6720385628,-23.6008209535
off_to_on,-12.632634986,-16.2761186083,-0.730419363316,0.205866131899,-18.7011591562,-28.1499074315,-32.4764655994,-10.1868414952,0.817743685019,-12.7377973318,-20.4587002808,-27.5740061746,-22.0229154804,-3.44331491424
off_to_on,-9.97106433597,-12.999031297,-0.517227589452,0.621312695526,-14.9010940472,-21.8083514,-28.3574701145,-8.26986867943,0.942834919836,-14.1562285859,-11.8658511233,-20.3389878408,-15.7116901296,12.6484405284
off_to_on,-4.68547921255,-6.23908002656,-0.0169400959142,0.96916864025,-7.06936944176,-9.67927072336,-16.9048946267,-4.11250962036,0.947521777913,-11.3078687587,0.446949206654,-7.82255461482,-5.27805662154,20.2916711028
off_to_on,1.82886315928,2.18970034945,0.611279353165,1.12720683973,2.74795135161,5.03969560023,-0.884197943423,1.20524136674,0.800220859226,-5.17067543699,13.4071903905,6.70523798027,6.58607139817,18.9693915516
off_to_on,7.85268855516,10.0211526218,1.15281575065,1.02259904185,11.9361464476,18.4443646914,15.6493268891,6.26694248409,0.495905258995,2.23380015732,23.6097233371,19.4566996965,16.8044918345,11.7815284898
off_to_on,11.8434029538,15.2054415226,1.41162629455,0.657404357026,18.0700055283,27.053966445,28.4864457698,9.73387088198,0.0660682630563,8.51891983506,28.3158851585,27.2023768062,22.7882717463,3.80289718044
off_to_on,12.8652164212,16.4913779334,1.27712774162,0.109258783441,19.6051338178,28.7899153848,34.4344105991,10.7301323732,-0.421479415028,11.7322047443,26.2633246875,28.1540652656,23.1462918136,-0.255999424373
off_to_on,10.8207124169,13.7464892568,0.761388727551,-0.492042628305,16.2935310088,23.5109172239,32.1730184575,9.08054054205,-0.874333832622,10.9985324106,18.0287520398,22.3982590735,18.0266415122,1.86332142938
off_to_on,6.42442462041,7.92919847759,-0.00486924444393,-1.00318506695,9.20561892011,12.9595260105,22.5525367517,5.33274682756,-1.19622672593,6.78561502172,5.83327615963,11.771371338,9.00145530955,8.96742130514
off_to_on,0.943037732781,0.741614824485,-0.814483587349,-1.30775905362,0.366659378013,0.163539463911,8.26756424998,0.565437664508,-1.31110395764,0.704142852584,-7.13736975607,-0.756149721277,-1.44841739289,16.9020580496
off_to_on,-4.20204869412,-5.90960382148,-1.4486380151,-1.34552447303,-7.86568100933,-11.497883093,-6.96797439675,-3.94843306395,-1.18357161068,-5.08042131892,-17.6706588795,-11.9738731522,-10.672991767,20.348695603
off_to_on,-7.83844049395,-10.4650057661,-1.74203775367,-1.12254115674,-13.4820113674,-19.2616245937,-19.476401646,-7.11244023166,-0.829650995684,-8.61162718218,-23.4214178321,-19.3200564443,-16.5832448014,15.2201775034
off_to_on,-9.33062883419,-12.107073983,-1.62771433267,-0.701476278533,-15.3524755558,-21.6885244679,-26.5819167091,-8.29649286051,-0.314621990924,-8.81024375975,-23.4889520648,-21.5041964968,-18.1572339078,0.696032209925
off_to_on,-8.67765830537,-10.8923139784,-1.1490399283,-0.178112899032,-13.4596977406,-18.9198027749,-27.2156145309,-7.4638555298,0.261477965555,-5.81484387313,-18.521685705,-18.7054794147,-15.5931490473,-19.9487266745
off_to_on,-6.41366573226,-7.60838519719,-0.438339661078,0.346201824481,-8.78671254251,-12.4450479313,-22.0186517067,-5.11105083957,0.786634213119,-0.883890407648,-10.3568713038,-12.3330036763,-10.0997146579,-40.1253763322
off_to_on,-3.36749060093,-3.43317828534,0.32763279459,0.786792660476,-2.92337673784,-4.50016411919,-12.9646473004,-2.05748301699,1.16172386753,4.09327441727,-1.35284995167,-4.46898657916,-3.42669553901,-52.1192435018
off_to_on,-0.37571559981,0.471713569515,0.978845763048,1.08703293469,2.46300796206,2.6811432376,-2.66373412202,0.834029606414,1.32109935753,7.29139600868,6.34268644766,2.80001519239,2.69251276139,-49.9300537076
off_to_on,1.95367805003,3.29465896924,1.39334923085,1.2186868191,6.11745780138,7.51422786162,6.41186469551,2.91063277565,1.24417461376,7.59701509027,11.3485706616,7.94891594092,7.0069334119,-31.7295432811
off_to_on,3.35971768548,4.73739382301,1.51811114272,1.17555508453,7.50068969719,9.41832157181,12.5458097144,3.88019164028,0.956131925622,4.98015274449,13.2758115507,10.3217902011,8.99460114634,-0.99646952926
off_to_on,3.91049422772,4.98043554849,1.36716095788,0.966580813976,6.8325323528,8.80312461757,15.0817069673,3.8251553768,0.518883447583,0.4669910958,12.5995869043,10.1287380876,8.84842584271,34.1655388854
off_to_on,3.87949520601,4.49414658023,1.00282688516,0.613151215219,4.89209597222,6.73908906447,14.3731962566,3.09471615227,0.015696015325,-4.26273044134,10.2800114684,8.1856033188,7.24974272101,63.3831860701
off_to_on,3.5789695001,3.78707067534,0.510335153655,0.151592890858,2.66797899531,4.46160196265,11.4550227798,2.12949488611,-0.466147559377,-7.49643455032,7.30971856219,5.52455914719,5.03996664655,77.2944895022
off_to_on,3.21893267,3.19318939209,-0.0241551800642,-0.362263236709,0.99067287545,2.89768722452,7.58566851416,1.28911871167,-0.850686489776,-8.09798251208,4.36813217353,3.02482069511,2.9171863422,70.6586242666
off_to_on,2.84095900058,2.77210137161,-0.52610553648,-0.851995782793,0.271096933147,2.37507837397,3.82850043868,0.742862883392,-1.08404283873,-5.88877596949,1.69609688093,1.18056970381,1.25522224901,44.2296552506
off_to_on,2.34103198498,2.34460889022,-0.935501933381,-1.22796408983,0.420842971798,2.59358792362,0.797747400522,0.453199491009,-1.13974801263,-1.67436911628,-0.798631172901,0.0559247934061,0.0835759615675,4.73438054278
off_to_on,1.55984745732,1.63197216183,-1.20455797985,-1.40462012978,0.960952346447,2.83951867255,-1.38092656315,0.244439128377,-1.01919948137,3.07734884708,-3.29146569558,-0.597096145153,-0.797418581017,-37.0684175766
off_to_on,0.395322185412,0.43037623803,-1.29632038614,-1.32426217386,1.2616475288,2.34096528719,-2.92719218993,-0.0820242849494,-0.748552944027,6.77568141529,-5.78580315249,-1.13497618191,-1.63730576561,-69.624217152
off_to_on,-1.11198129949,-1.25510199989,-1.18843503636,-0.979480670206,0.816463634966,0.621966930386,-4.17027614639,-0.637540780922,-0.373379840687,8.26170839517,-7.98196311638,-1.82728322529,-2.57555957089,-84.0614745608
off_to_on,-2.75485704196,-3.17054132274,-0.88213108063,-0.425088819564,-0.54868057357,-2.27381420657,-5.32838829029,-1.38527386925,0.0480058308044,7.18003237218,-9.33506902897,-2.74230949839,-3.56350487552,-76.7919207493
off_to_on,-4.20483737792,-4.88003891735,-0.412112649496,0.227334465423,-2.60015463859,-5.76312716087,-6.38752976897,-2.14917872727,0.452122108368,4.04612840091,-9.27674520987,-3.7417474702,-4.38846958012,-50.422863245
off_to_on,-5.10803869107,-5.90985293847,0.14925772299,0.833582400425,-4.77265290211,-8.90378288643,-7.11297682236,-2.6842801642,0.778551819845,0.0044162714685,-7.49889544102,-4.56433999978,-4.77599213274,-12.7469872438
off_to_on,-5.19518369074,-5.91238707101,0.699064122817,1.25406989706,-6.36175599683,-10.7040360897,-7.17050661116,-2.7761357677,0.978366254264,-3.61556535443,-4.16660612312,-4.94652711427,-4.51671475357,25.7902493219
off_to_on,-4.36701263353,-4.78840482444,1.12367462568,1.39312550967,-6.76184231575,-10.4501132967,-6.29410661372,-2.32809293692,1.02177494917,-5.7708238523,0.0459513777673,-4.72274959941,-3.56059407624,55.2699461104
off_to_on,-2.72795002669,-2.72503224938,1.32719162367,1.22740925745,-5.66843313769,-7.94285400998,-4.4255154579,-1.40234791436,0.903581696207,-6.03164905708,4.12934216764,-3.86767874369,-2.04115367681,69.0890376032
off_to_on,-0.560842008602,-0.140520539976,1.25981077089,0.813343801545,-3.18156178981,-3.57185055462,-1.76949132992,-0.200846645326,0.644951602921,-4.65594966605,7.06580758759,-2.47553888781,-0.226042915137,65.5160355153
off_to_on,1.74438778759,2.43927379213,0.935895620501,0.270145983261,0.216842726193,1.78715312327,1.25291398373,1.00382074134,0.290491092314,-2.40526582467,8.18467900627,-0.701876869283,1.57798532722,47.6323719445
off_to_on,3.78239270972,4.52587219499,0.434100065774,-0.256652941077,3.79692353617,7.00934666285,4.12902599167,1.95871146419,-0.0993421804918,-0.19420989184,7.40355447665,1.29265080134,3.12060686079,21.8359507481
off_to_on,5.21636989916,5.78508579014,-0.122302539538,-0.639413477955,6.77858307124,11.0127804357,6.40415233624,2.5067925968,-0.459244676276,1.2779499841,5.25297344404,3.36379376049,4.26288262866,-4.46192858665
off_to_on,5.83390068943,6.09192956824,-0.599700675492,-0.805635537123,8.53047484126,13.0170873101,7.79703786392,2.62156284712,-0.731198364054,1.76832140273,2.66614259216,5.36121176903,4.97239799979,-25.1130797534
off_to_on,5.56712565377,5.51588499288,-0.892318173392,-0.755837262448,8.71395663591,12.7007688453,8.23969037067,2.39030076609,-0.874996672143,1.51845983637,0.609518061926,7.08061044837,5.26862492072,-36.7504502061
off_to_on,4.48220190413,4.25480682563,-0.951720999273,-0.556387832795,7.33826007675,10.2270467962,7.83326762889,1.95691975742,-0.874777693618,1.07408495627,-0.303023758521,8.22802845966,5.15217192505,-39.1599006999
off_to_on,2.75046012844,2.55157858341,-0.797790204149,-0.310427649251,4.72319049848,6.15044681186,6.74694709723,1.45081837134,-0.740226230141,0.985227691557,-0.0577191208634,8.43410589645,4.55930769291,-34.5621490145
off_to_on,0.6143538974,0.628292231414,-0.507631694826,-0.117716048974,1.3928694076,1.24857422542,5.11024558047,0.932486933389,-0.50252803991,1.5208833124,0.755162028363,7.33667393911,3.37168684129,-26.2372530048
off_to_on,-1.64347832557,-1.34041796229,-0.186583398536,-0.038043143177,-2.05976165974,-3.66278440588,2.95206081569,0.378681541346,-0.206494742402,2.52195791399,1.19321575447,4.71826513887,1.48543398924,-17.1015489831
off_to_on,-3.72650071316,-3.21364544494,0.0683085504923,-0.0713424844968,-5.09636771886,-7.87960461065,0.220478564659,-0.28686604199,0.0988918395975,3.45598070524,0.38023499838,0.654378245115,-1.08549285452,-8.77922808655
off_to_on,-5.34943420303,-4.84763868721,0.199528220446,-0.161398514685,-7.31481752029,-10.8945352667,-3.11707256049,-1.1303036899,0.369168432228,3.6517844244,-2.06910329914,-4.38795644647,-4.11706697736,-1.44597041964
off_to_on,-6.26677602369,-6.06365563119,0.204421905754,-0.221347220501,-8.47836835247,-12.4140480121,-6.93091682346,-2.13916726513,0.570560334131,2.61654513273,-5.78959801633,-9.55528904783,-7.14199664142,5.62105947338
off_to_on,-6.3060256852,-6.64479861443,0.129976086318,-0.171198377493,-8.50132313964,-12.3283555969,-10.8069686797,-3.17927314871,0.682898212756,0.301406101151,-9.68792476268,-13.7416221037,-9.50619571734,13.134678169
off_to_on,-5.40165096938,-6.37297583852,0.0498910802466,0.0267445057844,-7.41315429838,-10.6664915436,-14.0126129466,-3.99963870517,0.699593432696,-2.80033368179,-12.2624136989,-15.8338449313,-10.5142189871,20.994199282
off_to_on,-3.62129561194,-5.09881498238,0.033046652673,0.347877944255,-5.32592943484,-7.56663960617,-15.5958320211,-4.29110464328,0.625699322329,-5.77378029011,-12.123400702,-15.0103383127,-9.62881610788,27.9670032608
off_to_on,-1.17440320066,-2.82144060139,0.115207423368,0.708389843159,-2.4223059428,-3.27748513308,-14.6196127985,-3.78443093485,0.475274860619,-7.58670966895,-8.53625396319,-11.0089128846,-6.66531261067,31.9998672007
off_to_on,1.60383183886,0.252461597711,0.284186379199,0.990781331654,1.0331597847,1.8139877459,-10.4819836469,-2.35771586249,0.268955916019,-7.46816199558,-1.79001936537,-4.28016162117,-1.91598833056,31.0225095546
off_to_on,4.29445048288,3.69730490453,0.483435146929,1.08311765279,4.67231253481,7.15145958871,-3.22874864193,-0.116570457014,0.0320440724005,-5.21872600279,6.75386185818,4.03118687863,3.8443469065,23.8939150024
off_to_on,6.45722123007,6.9187809831,0.632224230619,0.91845350812,8.01480736174,12.007990323,6.25265595212,2.58406339898,-0.207152048587,-1.33093904079,14.9729399408,12.2887112946,9.48748187581,11.0831904337
off_to_on,7.70300595857,9.26105412149,0.654757645246,0.500860479738,10.4969656541,15.5440280149,16.2534963733,5.19167841833,-0.419282343274,3.13387224735,20.5725830369,18.7111524078,13.772043992,-5.21204040536
off_to_on,7.76313650044,10.1489579359,0.507782489534,-0.0908172181256,11.5520780087,16.9373188058,24.5221914936,7.07515347637,-0.576685429833,6.87657161793,21.7721680723,21.7826492719,15.6374300709,-21.5776203018
off_to_on,6.54376978629,9.23160896362,0.197319037643,-0.722728483286,10.7371064724,15.5711138337,28.7695329992,7.6835441882,-0.656911218224,8.78582556801,17.870667775,20.6251407757,14.4760669619,-34.3435062621
off_to_on,4.15603446716,6.49116573819,-0.220601382381,-1.242759497,7.87889983392,11.2394195454,27.2909039665,6.70330329538,-0.646514897153,8.30867293319,9.50854360669,15.2383626376,10.3116875108,-40.6423001278
off_to_on,0.91624503156,2.2869336197,-0.654622448376,-1.52244297403,3.1961714184,4.30845449231,19.5390439091,4.16960297534,-0.544190548296,5.63452205576,-1.4615003459,6.54406414691,3.83410502897,-39.1904250646
off_to_on,-2.68632987074,-2.68134310185,-1.00265436515,-1.49113802032,-2.65118184638,-4.22960468281,6.46762855371,0.496835786345,-0.362233484995,1.62718082974,-12.4585954271,-3.78187873386,-3.72320757501,-30.5396014536
off_to_on,-6.05358546819,-7.48965391708,-1.17831006846,-1.15279620459,-8.62219583814,-12.8565959128,-9.49303672492,-3.58705231562,-0.125627064484,-2.4706785578,-20.8660073754,-13.6550783121,-10.8374232824,-16.7595207037
off_to_on,-8.57022256991,-11.1662946393,-1.1315952665,-0.58172849144,-13.4740837751,-19.7908167268,-24.8765327297,-7.19288344171,0.131359679585,-5.45560863599,-24.7240941193,-21.0295617177,-16.0250523813,-0.725348186207
off_to_on,-9.71321496691,-12.895199595,-0.859145756314,0.0995250354715,-16.0341608474,-23.3724948491,-35.9671784611,-9.47595604812,0.370512372641,-6.55677517061,-23.222928924,-24.3456784595,-18.1697152146,14.6900829521
off_to_on,-9.16277130632,-12.2037238483,-0.403167072935,0.752149596313,-15.503405389,-22.4873394592,-39.7507666667,-9.84554189546,0.555888529476,-5.66837349347,-16.8626481634,-22.8777134292,-16.7738432738,27.2255489168
off_to_on,-6.89233451124,-9.09185677489,0.158530960515,1.25298251121,-11.7094314308,-16.9157469548,-34.7758398323,-8.12435034683,0.659654823676,-3.34432556856,-7.25568091351,-16.9016583006,-12.076513613,35.4746438146
off_to_on,-3.21260056093,-4.06821807111,0.72748010677,1.51816231741,-5.22814703497,-7.49789161097,-21.6702524908,-4.61384024338,0.666440211934,-0.564381401577,3.34799368075,-7.64308089976,-5.00977693099,38.779409596
off_to_on,1.25135553971,1.92464510499,1.20088739282,1.51419200103,2.67936048102,3.95802238524,-3.13332748941,-0.0432112206212,0.57551187684,1.63836188465,12.6575798932,2.98609131998,2.99801960547,36.9478208715
off_to_on,5.6584920198,7.68941421098,1.48723540963,1.2566409959,10.3202147021,15.0320395606,16.638373478,4.59089220793,0.400586594745,2.55152779347,18.885162268,12.805094482,10.3290607267,30.0285045544
off_to_on,9.11544089629,12.0255440436,1.52047240942,0.800120334533,15.9629485729,23.2445499447,32.9705945416,8.25778996663,0.167526887058,2.02516719842,21.0963917242,19.842826083,15.52496616,18.3142922006
off_to_on,10.8741740205,13.999473592,1.27255341563,0.224432520927,18.2730556855,26.6704551839,41.9153281256,10.141925522,-0.0895590720917,0.498029927994,19.3014913096,22.7676055937,17.5992511342,2.59373682934
off_to_on,10.5165784841,13.1689545861,0.763252369368,-0.379082202324,16.6715229144,24.4500244824,41.3071393888,9.84353819611,-0.333198348238,-1.1952700664,14.3037866462,21.1673245714,16.2420230748,-15.5001573506
do_nothing,8.07464409251,9.70196302782,0.0646411856652,-0.919121092774,11.5097591605,17.0466200369,31.3648682385,7.47695247579,-0.527808980473,-2.16096829356,7.38932942015,15.6128150986,11.8696534346,-33.2985874288
do_nothing,4.04634943222,4.35271175409,-0.703389491819,-1.31413692031,4.00102031993,6.16408780814,14.651493712,3.63837593414,-0.644751790832,-1.80124103764,-0.0288424745177,7.48927748864,5.50837404008,-47.298769136
do_nothing,-0.706880814269,-1.70755392632,-1.38954082,-1.50140061128,-4.08301409418,-5.66927628262,-4.612312762,-0.750051550275,-0.666592317676,-0.0577254943331,-6.70889918577,-1.36114069671,-1.45902472168,-53.8497681449
do_nothing,-5.16166222883,-7.16780425477,-1.83959979784,-1.44607244052,-10.871675864,-15.7449667579,-21.6937575055,-4.67884486573,-0.589962237402,2.54462722874,-11.7590363358,-9.09316405599,-7.61997431394,-50.1959738243
do_nothing,-8.38248968748,-10.8930411309,-1.93275979904,-1.14932844972,-14.882433861,-21.8699145664,-32.6247430919,-7.30748939867,-0.426444624496,5.06921997248,-14.6873945658,-14.2899513913,-11.8501382614,-35.5530999054
do_nothing,-9.75148317301,-12.194820404,-1.61709387615,-0.652923484655,-15.3956240961,-22.9162711818,-35.2386923019,-8.16792580703,-0.201092938753,6.49437845269,-15.3568444495,-16.2596498194,-13.5430420998,-11.8019840179
do_nothing,-9.11223187758,-10.9822776737,-0.933099903282,-0.036970034338,-12.6082355482,-19.0678452153,-29.6668637919,-7.25960139347,0.0514272985496,6.08035510626,-13.8988229474,-15.1223800412,-12.6962307501,16.5431980259
do_nothing,-6.78577928578,-7.75200409966,-0.0154383450601,0.591185177774,-7.52458545235,-11.6955016812,-18.1587637463,-5.01224978058,0.29256240723,3.64920423652,-10.6348084208,-11.6738431478,-9.83919598324,43.214712616
do_nothing,-3.45520022343,-3.42172177117,0.931816923979,1.11646484765,-1.62252449844,-2.90637877146,-4.29965511421,-2.13185358951,0.486426953363,-0.318999820079,-6.02970085636,-7.07750435129,-5.83312796783,61.7446469168
do_nothing,0.0440229292151,0.940822630859,1.68309607354,1.44020029883,3.59697125585,5.08882602166,8.11671203017,0.620014759469,0.605833071663,-4.80691678747,-0.671952318999,-2.4877233387,-1.60835109441,67.2548036107
do_nothing,2.96124185968,4.41104847071,2.05084400025,1.50271509939,7.03430106061,10.5926657012,16.2003510049,2.64416963734,0.636463015576,-8.55812134061,4.74539837063,1.27536417133,2.0792680149,57.9213925236
do_nothing,4.82129807231,6.43477458799,1.93957930387,1.2976711539,8.25911516515,12.8343760563,18.7176411506,3.65267883368,0.578291929168,-10.4555524485,9.47209524495,3.89892305124,4.80189761449,35.6225825231
do_nothing,5.51161934309,6.92445455133,1.3771784429,0.873424532917,7.54551777223,12.0636592307,16.2664556165,3.70635271866,0.444109088587,-9.85934713733,12.7917212684,5.55185403828,6.48517610984,5.5257918704
do_nothing,5.24524091224,6.20350827631,0.511725627984,0.320482769099,5.67778195151,9.31676239483,10.8517338128,3.13622520353,0.255797112199,-6.79969775126,14.147564525,6.68350693475,7.312193559,-25.2844187901
do_nothing,4.42229435692,4.82839683528,-0.427499837678,-0.251411407575,3.60656728463,5.95529378377,5.03802385307,2.38300906562,0.0396232631184,-1.96974300201,13.2715066871,7.73138078389,7.55421890372,-49.7199649881
do_nothing,3.44692104438,3.35776309827,-1.19471723918,-0.739670157055,2.08360461038,3.14996610946,0.989939617257,1.81504899696,-0.178051766852,3.47214508185,10.2729660118,8.85478080388,7.40010026318,-62.5510216825
do_nothing,2.56997999032,2.15297580647,-1.59882048881,-1.0708193121,1.40543201472,1.49211194186,-0.263188733075,1.59066923798,-0.373602578801,8.22367337703,5.65085054621,9.80192868888,6.8536567358,-61.652053713
do_nothing,1.81547782173,1.27953211368,-1.55875788745,-1.21191456827,1.35338627131,0.862451932283,0.906961593511,1.61315037971,-0.527200376582,11.1836157879,0.212832612065,9.96903511364,5.74013511259,-48.2900859217
do_nothing,1.01494561723,0.539388451032,-1.12513771356,-1.16924255549,1.34333158799,0.588907266648,3.00327068947,1.59204758272,-0.622627669603,11.7209757367,-5.08473627336,8.63783947406,3.81897186375,-26.4440297443
do_nothing,-0.0684683900665,-0.385324828011,-0.460658921019,-0.976712031843,0.721076938505,-0.181374182627,4.09696516824,1.18537561567,-0.646931152704,9.79966926811,-9.33694197924,5.30852698639,0.956718719898,-1.46098882067
do_nothing,-1.57974161376,-1.73850448684,0.214572733613,-0.679784842056,-0.913933947732,-2.04773339412,2.66970358163,0.167315277277,-0.591039415483,5.93882332651,-11.8775048493,0.00323597622216,-2.71263781584,21.4556656575
do_nothing,-3.44391834074,-3.52606367217,0.695003256944,-0.321776439368,-3.48396560744,-5.03145480929,-1.71367339469,-1.44367369518,-0.451934393456,1.03828657319,-12.4035745142,-6.58214803501,-6.71209360826,38.4336291127
do_nothing,-5.32711524808,-5.45009763572,0.855068071037,0.0624728314852,-6.39750318837,-8.48920352112,-8.15229005538,-3.34746036956,-0.236034985936,-3.86644924295,-11.0077428156,-13.1527372075,-10.2743923394,47.4818877445
do_nothing,-6.7097137369,-6.97227680903,0.686396170929,0.444394324116,-8.72240749612,-11.3017491017,-14.6704843944,-5.03385098671,0.0374967254726,-7.84513685077,-8.11486083732,-18.1137570659,-12.5201712412,48.3689033679
do_nothing,-7.05139475773,-7.48815094241,0.294623102579,0.794012104308,-9.50889466286,-12.2709858977,-18.8989356474,-5.94155493417,0.335356316866,-10.2483370293,-4.34865255537,-20.011991205,-12.7107472504,42.0528067284
do_nothing,-5.9908414112,-6.5510180515,-0.142536184039,1.07262717256,-8.14635992415,-10.5791947089,-18.9291237422,-5.650322751,0.61226184216,-10.7865988244,-0.371270098723,-17.9831768688,-10.4936129879,30.0245340042
do_nothing,-3.50680019398,-4.06340173658,-0.441015354482,1.23180134576,-4.62313391611,-6.13974443142,-14.0328029987,-4.03878367298,0.817406042251,-9.51640985204,3.25729874656,-12.0600974687,-6.056126924,13.8904565019
do_nothing,0.0218258824429,-0.363763377684,-0.476868849319,1.22184106927,0.408791055883,0.293139246776,-4.98809239876,-1.35140411352,0.904479172792,-6.76236714492,6.16386969211,-3.23675093582,-0.130541687221,-4.65999770425
do_nothing,3.88479423588,3.82761703724,-0.230347067456,1.00846205067,5.79313604656,7.30089308071,6.10414017352,1.85081199929,0.843084009814,-3.01573115342,8.17564083501,6.7393999379,6.15812378704,-23.5965040404
do_nothing,7.2209263736,7.59004096395,0.207582592603,0.591875743982,10.202205048,13.2056571972,16.4483660934,4.84104057014,0.628430524977,1.15642752632,9.27158869729,15.7888083599,11.5580850529,-40.2809287597
do_nothing,9.25327956386,10.0528987111,0.668194416119,0.0201190786003,12.5312634293,16.565009602,23.4068891525,6.9292407493,0.286199931398,5.1747290534,9.49996654527,22.0103183803,14.9907849161,-51.5145635095
do_nothing,9.50305188515,10.6337659411,0.965564753166,-0.610726729951,12.2216086637,16.5880931908,25.2838958887,7.65038226012,-0.129490139488,8.48694266751,8.89933478113,24.1322582488,15.7964807773,-54.0926421743
do_nothing,7.91414745788,9.18865044182,0.963338735403,-1.17274441883,9.4064185204,13.3368559822,21.7817968834,6.87898133629,-0.545266752277,10.600473754,7.45707937743,21.7809350558,13.8589310654,-45.8061445558
do_nothing,4.85218044875,6.03147519055,0.624381160399,-1.53622082032,4.83761983822,7.65641122435,13.995371418,4.8381740281,-0.883029158251,11.1268221108,5.12464692542,15.507013148,9.58595955006,-26.5631186102
do_nothing,0.985285402741,1.82604482394,0.0262336126473,-1.60532386129,-0.370681419063,0.875993304029,3.97687231497,2.00905585946,-1.07640762535,9.84664026448,1.88724420266,6.58835595547,3.77049223723,0.856594153963
do_nothing,-2.90688448884,-2.60403524662,-0.662607493668,-1.34814154483,-5.08485692162,-5.60024696385,-5.94714435815,-1.02063363599,-1.085090417,6.78640548073,-2.13611034579,-3.30766205768,-2.60895413101,30.8610373047
do_nothing,-6.12934428178,-6.4792213286,-1.23699262787,-0.810617542715,-8.45916736824,-10.6638151636,-13.8525968084,-3.71237933159,-0.903493893656,2.2808453093,-6.60188146497,-12.4900888048,-8.58043238587,56.1227342558
do_nothing,-8.21170939551,-9.21747681332,-1.52112263267,-0.108576884471,-10.108150918,-13.7130029039,-18.6578257224,-5.68612628389,-0.561799097669,-3.01280424737,-10.9043529931,-19.5391878507,-13.3134084987,69.4994970569
do_nothing,-8.95774411858,-10.5006950478,-1.42391700459,0.600950840328,-10.1016164482,-14.6560593015,-20.2051737732,-6.75553685305,-0.11942816495,-8.17688505397,-14.2245413722,-23.4762709916,-16.1814647738,66.2611769057
do_nothing,-8.40803320234,-10.2560792044,-0.965771223791,1.1609707719,-8.80996468832,-13.7442370523,-19.0107439368,-6.89433848708,0.347072093365,-12.1804693406,-15.6760539337,-23.8113875766,-16.7738339107,45.8781054974
do_nothing,-6.75176699419,-8.58754840011,-0.269104593399,1.45582534902,-6.68277643021,-11.3377688543,-15.8367757526,-6.1663253852,0.758604926572,-14.0925319609,-14.5271774282,-20.5149064221,-14.8967618286,12.6811117027
do_nothing,-4.23805549897,-5.70620760771,0.482383311796,1.43989278943,-4.06270452199,-7.72588804266,-11.2987742076,-4.66293484746,1.04726723253,-13.3150861637,-10.4478242352,-13.9716335636,-10.6007757137,-24.9756639477
do_nothing,-1.12840850116,-1.89862862185,1.10065689887,1.14516110566,-1.11303270314,-3.08642527614,-5.68589303032,-2.48315240519,1.16674315391,-9.77376209362,-3.70950683767,-4.95529291067,-4.24233672595,-56.9256143917
do_nothing,2.29528736419,2.45736315403,1.4470196989,0.666181573356,2.11868201761,2.40296013216,0.936022612155,0.234917031724,1.09812373479,-4.00456850123,4.73520472288,5.38044391623,3.44874859414,-74.1568721125
do_nothing,5.68623666495,6.85365112563,1.46567277515,0.128323230717,5.54319468934,8.36949209339,8.40743539234,3.25185882108,0.851208608163,2.90347640168,13.3459296539,15.5381627983,11.3526358222,-71.6060433093
do_nothing,8.59457364722,10.636229927,1.18855798984,-0.349558295391,8.86702860834,14.0843815601,16.1214350676,6.17679521619,0.462157427099,9.51383965054,20.2703865493,23.7997331498,18.0522343917,-49.8444709284
do_nothing,10.481633481,13.0587614137,0.713432504289,-0.685748750537,11.5213766407,18.4530664328,22.8425256315,8.47424463638,-0.0114847018821,14.3580612684,23.7592563717,28.4751071726,22.0646716464,-15.0478265829
do_nothing,10.812175216,13.4246283727,0.165997607414,-0.850457866958,12.7438907345,20.2165288989,26.845621425,9.55326963648,-0.497720840362,16.2880197198,22.6261975627,28.2630186171,22.1867342738,22.8055233254
do_nothing,9.21330552331,11.2944631921,-0.338978267737,-0.861807761646,11.8095215232,18.3323479607,26.3897710065,8.92908116802,-0.918811587019,14.7740815934,16.6293821266,22.6449194093,17.8710898952,52.9650189426
do_nothing,5.65096341692,6.69526586456,-0.724356212848,-0.766954750697,8.33693423516,12.4147101171,20.3880701128,6.41050395908,-1.20174633067,10.0657349362,6.65436648659,12.1854986683,9.51176261581,67.1962056172
do_nothing,0.55266698144,0.246613116078,-0.958401360099,-0.617279306924,2.55180483513,3.06302733663,9.02502872137,2.24397118037,-1.29004748514,3.1632322793,-5.38089138409,-1.39249338655,-1.48075035357,62.2521875734
do_nothing,-5.18953643729,-6.86873389466,-1.0451375059,-0.447934017314,-4.612130698,-8.0764817617,-5.94588209504,-2.85267524486,-1.15553513259,-4.40241837657,-16.9068967005,-15.4435971432,-12.8856823903,40.7195580615
do_nothing,-10.368021693,-13.1183469448,-1.00543954663,-0.269386821885,-11.6454613349,-18.5926022611,-21.4037056159,-7.80329314096,-0.807604229533,-10.9312932525,-25.2944631526,-26.9382144742,-22.1463815598,9.97837649728
do_nothing,-13.7402010375,-16.9831009765,-0.859556107789,-0.0731146875687,-16.8191213101,-25.8920916561,-33.571291937,-11.4214730496,-0.296953992348,-14.9673606101,-28.5127181232,-33.1912780554,-27.0067710309,-20.3437013029
do_nothing,-14.3684877285,-17.3751047792,-0.619454848127,0.152475141011,-18.6692656334,-27.9260719701,-39.0576057251,-12.7309512265,0.288903378331,-15.6543292878,-25.6751855787,-32.5854797318,-26.1351110416,-41.5357291798
do_nothing,-11.9156744133,-13.983011172,-0.293557000895,0.404079582994,-16.4593775769,-23.8336888269,-35.9121560294,-11.2624078376,0.839424757163,-12.9395291482,-17.3136453108,-25.0686854778,-19.5436013268,-48.5043758068
do_nothing,-6.7945918781,-7.42604766544,0.100206059679,0.652456804984,-10.4623335547,-14.2843900177,-24.3378449697,-7.2282887948,1.24263148,-7.57103646127,-5.28750021868,-12.2535953904,-8.65896240207,-41.1161376459
do_nothing,-0.110086133374,0.850226798843,0.521559846038,0.844308816239,-1.9556028316,-1.38569803973,-6.79820158631,-1.5093734499,1.41028355615,-0.88982729213,7.66261227714,2.94061464802,4.00161717135,-23.7841355129
do_nothing,6.60459583381,8.92410964384,0.904175055348,0.917589841916,7.08635895091,11.8396992544,12.5567975445,4.55576291933,1.30041448946,5.52456373638,18.6037592138,17.0239624032,15.4731753689,-3.53192149967
do_nothing,11.7873260875,14.9008002138,1.16603138562,0.824908217189,14.5181736212,22.2617699448,28.9982307134,9.52331572107,0.930678032685,10.2562834715,25.1538952126,26.8446375863,23.1245865907,12.7014732479
do_nothing,14.2654083387,17.4212875249,1.23226400961,0.555870034324,18.6092969243,27.4929500112,38.5292740529,12.2354311833,0.377699761851,12.3931894884,26.0706031267,30.4052034795,25.3497217096,20.5076455675
do_nothing,13.5657544149,16.0229873588,1.06259202255,0.148969928025,18.5088386039,26.5196851201,38.9952565682,12.1312319737,-0.238828921059,11.7151389198,21.5198642812,27.3431328614,21.9622926455,19.3277945332
do_nothing,10.0223808471,11.241967928,0.672166601817,-0.312857325748,14.4477246908,19.9251296164,30.6483533192,9.38280248597,-0.784177893011,8.68734692793,12.9543628897,18.9362730449,14.1794953002,12.2150630092
do_nothing,4.65098062226,4.4278023269,0.136051362183,-0.72293850967,7.62278296707,9.64557252511,15.9982147558,4.81691253998,-1.14170345014,4.27339670617,2.64849440286,7.64424956857,4.20880602456,4.2084388871
do_nothing,-1.16521288182,-2.66661608877,-0.426760984085,-0.981552938471,-0.189156604215,-1.64632674938,-0.98909557175,-0.348045457855,-1.2420134581,-0.366176768982,-6.96010018644,-3.65645353064,-5.4233011542,0.00866157723456
do_nothing,-6.07496812557,-8.38767022559,-0.886029293347,-1.02632940248,-7.15437094858,-11.3225500308,-16.0744379562,-4.8621901669,-1.07976620294,-4.19459366682,-13.9185252271,-12.4931047197,-12.5843800649,1.89874393001
do_nothing,-9.11716869507,-11.6180796417,-1.13898136073,-0.851772129483,-11.8727471565,-17.4940274859,-25.9291279472,-7.78571077557,-0.713027776562,-6.54504489903,-17.2043586465,-17.4150269082,-16.0697632522,8.7412129178
do_nothing,-9.93022050657,-12.0182982621,-1.14135316257,-0.51093999445,-13.6877456333,-19.4114924506,-28.9546010306,-8.70769729501,-0.245209663293,-7.22899199012,-16.8512782741,-18.2313757813,-15.8049127364,16.4548141955
do_nothing,-8.76035463692,-10.0125317646,-0.919245077574,-0.0985038478654,-12.7386627022,-17.4779915851,-25.5126646392,-7.78412011336,0.20509703216,-6.49149894334,-13.7468507599,-15.8278672918,-12.6816672368,19.7889204464
do_nothing,-6.28646574367,-6.54721410738,-0.557115295258,0.279064756031,-9.77049737521,-12.9154870141,-17.5476656738,-5.60040876411,0.537303546822,-4.8482802223,-9.20289121545,-11.6678399967,-8.11778821706,14.6965522437
do_nothing,-3.33921227287,-2.72344182556,-0.166143227963,0.535957246663,-5.79690143448,-7.24089013005,-7.78268321105,-2.92232544258,0.694980259301,-2.87364835018,-4.46768558197,-7.18509844732,-3.51640246804,0.354469867232
do_nothing,-0.621374629477,0.560743717563,0.155256168812,0.6311504548,-1.75150281701,-1.75619986639,1.20290537256,-0.431393948897,0.677207497656,-1.01694772708,-0.355781722284,-3.29871069005,0.177399966973,-20.0098835935
do_nothing,1.47416248704,2.83778623908,0.353828735401,0.576351359383,1.74962796122,2.77107751063,7.69706149287,1.46245182384,0.532143437747,0.494071839416,2.88569955167,-0.217378763202,2.67647199591,-39.8871485472
do_nothing,2.8971904006,4.10480489696,0.434464918172,0.425820795494,4.46839822476,6.15220193083,11.1641215667,2.67506849811,0.335628673966,1.64283968249,5.45302084935,2.42122797235,4.26307577551,-51.6496408309
do_nothing,3.83282737584,4.67818940488,0.448975648661,0.252577680304,6.43876787904,8.57694576538,12.0931176947,3.36797938621,0.162509510904,2.52904722178,7.68449172665,5.16524764271,5.47966639409,-49.3642127376
do_nothing,4.51636359223,4.94871541303,0.465475176932,0.120136368162,7.77110315683,10.2942916229,11.51088162,3.78423967986,0.0606401317762,3.24269255655,9.72949281458,8.30187004246,6.74823960818,-31.2283477138
do_nothing,5.05847456656,5.1491505484,0.531136378897,0.0601472015107,8.47315396135,11.3373325706,10.3956792215,4.07946404485,0.0364198670548,3.7685615923,11.3429327483,11.5535379058,8.08780481221,-0.69707101601
do_nothing,5.35863763445,5.23290294635,0.644166870598,0.0637483057219,8.37749633419,11.4240954328,9.23900010462,4.22327240969,0.0565862912286,3.96545894361,11.9051227816,14.0595483527,9.05239394532,34.1909980949
do_nothing,5.14337587221,4.91048146848,0.747672148361,0.0891378591335,7.21116425244,10.0804653389,7.91864394931,4.01243787685,0.0652190417517,3.62961059697,10.6707020692,14.6658954907,8.91695002758,63.1471343794
do_nothing,4.11101694281,3.82187714898,0.749643545918,0.0818502578758,4.77493810609,6.92821924034,5.9039827733,3.18730383637,0.00949851622082,2.61330621883,7.15011620506,12.4159122173,7.03323618342,76.8857683137
do_nothing,2.11814552099,1.76499597548,0.562748377591,-0.000322807732514,1.14611507203,2.00317395267,2.67313293758,1.59776309239,-0.135403032625,0.943626056357,1.46295165244,7.04457512381,3.20406862655,70.2101679373
do_nothing,-0.676636548403,-1.12412707688,0.148973992405,-0.167289549095,-3.19794167894,-4.05217988754,-1.86250629519,-0.657581505133,-0.351710639823,-1.11712979625,-5.49909205281,-0.733754630513,-2.08899961414,43.8737421521
do_nothing,-3.78092141497,-4.32500424474,-0.449038504664,-0.388984543955,-7.41029867959,-10.0315429903,-7.1271702265,-3.18645457746,-0.58057378419,-3.10609869485,-12.1974825811,-9.2840772725,-7.71613524982,4.56106718145
do_nothing,-6.47415606537,-7.05193367129,-1.10441825917,-0.602891917086,-10.4723172475,-14.45907181,-11.9569774831,-5.38235265901,-0.739891130088,-4.48806479878,-16.8504183525,-16.4675651962,-12.1997073427,-37.0358098231
do_nothing,-8.02100551936,-8.50261205938,-1.63512188729,-0.734076307661,-11.5016681208,-16.0459132133,-14.9648707326,-6.60794026579,-0.752719268404,-4.83566746487,-17.993355661,-20.2898103062,-14.1888718495,-69.4293031946
do_nothing,-7.91780514599,-8.14521787996,-1.85842528619,-0.720666726224,-10.0622968502,-14.146245261,-15.0523011179,-6.41788914269,-0.576561057875,-3.99456647221,-15.0033520724,-19.5586853902,-12.938407789,-83.7923838436
do_nothing,-6.08078603805,-5.93339725182,-1.65350526514,-0.536012947165,-6.35800681256,-9.0382560072,-11.861403594,-4.73688526609,-0.223149254743,-2.16659863303,-8.39142840876,-14.3152665696,-8.61143574083,-76.5458900344
do_nothing,-2.90311446698,-2.36220212603,-1.01042179267,-0.200115406874,-1.22747014084,-1.91194646552,-5.98131224484,-1.92137056282,0.238734030223,0.129083100879,0.261788179975,-5.87455986443,-2.28409801467,-50.2715424701
do_nothing,0.845485624567,1.66375766352,-0.0471245196394,0.223245979061,4.07183293912,5.44996477072,1.18252770896,1.32529722916,0.699287034073,2.2123418493,8.73029558514,3.55149647065,4.36313335815,-12.7149722328
do_nothing,4.2453449927,5.10815112349,1.01382346128,0.642470152028,8.22610488532,11.1987794043,7.83552574204,4.16058853638,1.0381112809,3.46579243596,14.800979747,11.5275952757,9.56769944205,25.7269235054
do_nothing,6.50225763831,7.12932053932,1.90367182928,0.961916503646,10.254324859,13.9765742654,12.3617762079,5.86346137415,1.15962879302,3.54713620951,16.9511196249,16.1373343159,12.0406230188,55.1666243576
do_nothing,7.17671239329,7.33867796295,2.38379480217,1.10623111935,9.79221148708,13.3118844159,13.8234295936,6.05713071884,1.02224673469,2.51132210938,14.8156314192,16.541430357,11.360789867,69.0049409724
do_nothing,6.28969541804,5.89950402901,2.31609227239,1.03842189235,7.17563285279,9.72028220028,12.211458663,4.81598791544,0.651912434316,0.793881219589,9.28181615641,13.165545719,8.07023029605,65.4882812058
do_nothing,4.27381912691,3.43413814337,1.70510590349,0.767413039533,3.29917611,4.48208482852,8.36622859458,2.62056124963,0.135695261134,-0.943272392883,2.17633462814,7.46481202319,3.44105358389,47.6620218201
do_nothing,1.79511477466,0.778925849875,0.698415097548,0.344275709604,-0.695065009962,-0.815151744064,3.6142202618,0.179533569608,-0.40255925618,-2.05082212526,-4.34899512686,1.36320668015,-0.996216892322,21.8911279559
do_nothing,-0.483575918019,-1.31795072477,-0.454732103576,-0.150533708421,-3.78545635928,-4.80046303459,-0.726658906368,-1.81455146783,-0.836789349352,-2.12966626337,-8.52037798739,-3.42110528203,-3.98774816356,-4.42810138502
do_nothing,-2.10911586682,-2.44182423754,-1.47334762401,-0.624740359977,-5.36713975192,-6.72368337572,-3.77812942306,-2.90701710782,-1.07272814498,-1.17905543583,-9.49142266327,-5.9198077612,-4.95998953055,-25.1381046999
do_nothing,-2.94248672502,-2.61125340752,-2.12134581697,-0.992178977841,-5.38031156847,-6.60636726145,-5.31018393641,-3.00255736648,-1.07113317732,0.401645672895,-7.55219848829,-6.1404050452,-4.14981884499,-36.842561523
do_nothing,-3.13237339542,-2.2021991786,-2.26780015044,-1.18765581534,-4.24020113928,-5.10596828981,-5.66702721729,-2.34880722291,-0.853837011464,1.96091206856,-3.93461016302,-4.91188203787,-2.424785409,-39.2915375801
do_nothing,-2.9817230547,-1.7362579557,-1.91399191125,-1.17688175744,-2.61272495123,-3.16850419307,-5.46907604952,-1.39726898722,-0.491974679792,2.83989278531,-0.296155430829,-3.43285749185,-0.874697470816,-34.6799429797
do_nothing,-2.77201666303,-1.62527335623,-1.18178421725,-0.960983132417,-1.13366725302,-1.6201403622,-5.24001296436,-0.602436530779,-0.0814156497202,2.62377197972,1.92132192947,-2.7148011216,-0.340934879777,-26.2846122762
do_nothing,-2.62339062374,-1.9799355495,-0.270199734001,-0.575842141392,-0.1828760739,-0.861748368228,-5.13238373213,-0.240702698782,0.285882455506,1.30515898997,2.01958454581,-3.14620090276,-1.07014095567,-17.0444214597
do_nothing,-2.44984688733,-2.56191770946,0.603790832645,-0.0866716658581,0.205313390839,-0.779120258087,-4.87470193808,-0.319060982348,0.545321972845,-0.703415697506,0.266703215616,-4.34884135159,-2.62696526446,-8.62396147053
do_nothing,-2.02581472372,-2.89894803338,1.26117525276,0.421816394628,0.274756045155,-0.887435059295,-3.95960864555,-0.604910229471,0.671228077331,-2.71478062257,-2.26052793195,-5.37686129259,-4.09666526671,-1.24109965612
do_nothing,-1.13115242284,-2.51403838473,1.59787563584,0.859053318632,0.368131677246,-0.630653673726,-1.98077962824,-0.758207995496,0.674498437313,-4.0174252915,-4.14573948508,-5.17046061637,-4.49301089508,5.80088261085
do_nothing,0.29334825133,-1.17132881953,1.59535511439,1.14469574448,0.72427250433,0.305442524323,1.04564559437,-0.50587709928,0.589285336579,-4.13754500914,-4.22817382224,-3.0733350146,-3.20496704259,13.2170568539
do_nothing,2.05413426035,0.968375612905,1.30696114688,1.22462512276,1.34584560708,1.80910654183,4.53923274012,0.217797862779,0.455162154932,-3.01399593656,-2.092290562,0.80366235317,-0.299148029358,20.9387546843
do_nothing,3.72541261509,3.35484306904,0.829473742022,1.08335642827,1.9959464911,3.37067396755,7.48298690623,1.22573562072,0.302096048934,-1.01949471892,1.73799718067,5.52997390358,3.44915170251,27.7844656769
do_nothing,4.78346685607,5.2256448707,0.272125105218,0.749209547954,2.32247088342,4.31145777708,8.79201881172,2.14809193266,0.143627124491,1.18042977004,5.97636984538,9.64764482372,6.81674814825,31.752074833
do_nothing,4.80642087361,5.8902098716,-0.266821137064,0.289764048776,2.05045221987,4.11188650822,7.78113836856,2.58918627356,-0.0201795632711,2.8770285113,9.05558624663,11.7034035606,8.58917580823,30.8020506692
do_nothing,3.65941887619,5.01033318885,-0.711436074635,-0.202466308999,1.15008537085,2.68975172177,4.53077482814,2.30511221432,-0.192633696139,3.5805284846,9.72914831553,10.8159656876,8.03670419825,23.7901259069
do_nothing,1.58547361617,2.76252028681,-1.00918506306,-0.631197620275,-0.103726585892,0.495723171366,-0.0245719207833,1.32527417311,-0.368709329531,3.19346100345,7.56164809578,7.0536443804,5.22108788324,11.1469352371
do_nothing,-0.844265006106,-0.19057121294,-1.12756283497,-0.918910738052,-1.21834688961,-1.63173357437,-4.35809948286,-0.0375335829957,-0.527800639049,2.02765871559,3.1175784393,1.4654193774,1.00626729323,-4.99122433237
do_nothing,-2.91257649391,-2.91942167622,-1.05260425482,-1.02431257283,-1.68960554747,-2.80610042557,-6.8925205177,-1.29867797787,-0.635021192514,0.65849905227,-2.22709919151,-4.25993915045,-3.2405386131,-21.2724324164
do_nothing,-4.0080424443,-4.56147614146,-0.792439093831,-0.94945645855,-1.24292448307,-2.49159496464,-6.62626477956,-1.99397259242,-0.651411695963,-0.325322795148,-6.78194408918,-8.38744088237,-6.14961503369,-34.0660981217
do_nothing,-3.85209108705,-4.64424044623,-0.384174836704,-0.734402537625,-0.00150202464281,-0.788596203896,-3.59392959775,-1.875724146,-0.549477656774,-0.575245231329,-9.15975123831,-9.76119571299,-6.86157315981,-40.5048801507
do_nothing,-2.61064395918,-3.2707248451,0.101652755531,-0.441426673305,1.50430910069,1.53211214446,1.04486701687,-1.02985762415,-0.327876974807,-0.134630853839,-8.77922995054,-8.22232036309,-5.35245065608,-39.2629135242
do_nothing,-0.840182521668,-1.08860615305,0.565808018178,-0.134409966935,2.51115697504,3.28831848555,5.36185327791,0.14033431185,-0.0188810553001,0.57764800214,-6.05932233227,-4.65445189041,-2.4392460626,-30.8198076392
do_nothing,0.719496346683,0.95423766488,0.898109440477,0.139259324125,2.32797615547,3.35959379724,7.36230561246,1.06614451377,0.315412965995,0.951830049664,-2.22935126677,-0.631838923359,0.544627264191,-17.1675445533
do_nothing,1.43264375584,1.98135538788,1.00625890843,0.357939885307,0.658050894512,1.19779634284,5.78645590517,1.2474781793,0.598071383589,0.470719619437,1.17253893646,2.20188106688,2.28546417549,-1.12575348386
do_nothing,1.02646853298,1.54627537798,0.847557579592,0.52328122008,-2.19639929677,-2.83520118432,0.702462483077,0.477982527765,0.759189547323,-1.02214184001,2.91792041863,2.78856407183,2.03163075042,14.4445212287
do_nothing,-0.281750111477,-0.163861013067,0.451562852367,0.647890605919,-5.34778116031,-7.4628613902,-6.36137241273,-1.03244573373,0.757445489144,-3.18490792032,2.58027702836,1.08903559098,-0.0729042844656,27.2426431107
do_nothing,-1.84693931371,-2.36807158855,-0.0774032058625,0.73908324529,-7.57786457367,-10.8640472845,-12.8395395817,-2.69673574397,0.593829963131,-5.24078127456,0.702779544428,-1.8814770858,-3.00539488001,35.7815359519
do_nothing,-2.83500348135,-3.97312266007,-0.583166959691,0.786531395896,-7.76271123669,-11.3141261372,-15.9958293191,-3.74975539992,0.312461310217,-6.23666782263,-1.43289532515,-4.44381698038,-5.24183291381,39.306044967
do_nothing,-2.55595989897,-4.00156449775,-0.902276351548,0.760313482452,-5.32239778938,-7.87676850737,-13.9439823171,-3.54211997127,-0.0122543459355,-5.41266627073,-2.35536406208,-4.93497800249,-5.36511850465,37.5422075478
do_nothing,-0.767930397741,-2.00901441852,-0.917511756339,0.621697093853,-0.525888314568,-0.885525078157,-6.45295017124,-1.82105714614,-0.298112992046,-2.5467099863,-1.05984066744,-2.4240977645,-2.67773873624,30.5004695054
do_nothing,2.16796338796,1.6715225008,-0.602348546282,0.343465378393,5.47970187795,7.98941946249,4.77916396421,1.11250624968,-0.479824502103,1.86350564154,2.48933685285,2.81404224391,2.42080551125,18.4948875181
do_nothing,5.35253173331,5.96439084781,-0.0393375543303,-0.0681273893999,10.9547348186,16.1558723705,16.5239073644,4.44222520874,-0.52767379169,6.66860629083,7.22266732881,9.26634453466,8.45450819687,2.39182656843
do_nothing,7.62557791153,9.37244193869,0.597144281704,-0.559601184065,14.0939692327,20.8894593764,24.998855999,7.07264602986,-0.453933574912,10.3857354109,11.2756316448,14.6300148948,13.3099403661,-16.0624209727
do_nothing,7.96778959279,10.4856993527,1.09148496035,-1.03258808289,13.6277855928,20.2475579656,27.1122429431,7.99218851338,-0.305111518916,11.673873006,12.6551254896,16.6039621929,14.9583815816,-34.0837062988
do_nothing,5.88887744624,8.50387550818,1.25632824637,-1.36476087764,9.29248353646,13.7942709168,21.5543178422,6.6398778255,-0.143084039562,9.80864904377,10.0292523607,13.7502479719,12.2128135789,-48.0876039578
do_nothing,1.66043615483,3.58453583696,0.998522248393,-1.4447994425,1.99809647828,2.87117127433,9.34851188214,3.14399279229,-0.02205000762,4.98816462372,3.34614425934,6.11414490951,5.24556098205,-54.4024484138
do_nothing,-3.69970674126,-3.11819920772,0.358489123115,-1.21072771056,-6.38122318105,-9.70634184278,-6.35065068505,-1.66038015179,0.0303658865168,-1.64919797935,-5.96615210358,-4.63515191894,-4.33465024288,-50.3229156744
do_nothing,-8.7011123085,-9.75581774895,-0.492468183563,-0.678223477671,-13.5419714945,-20.4532677807,-21.1712671573,-6.45373581912,0.0211263369284,-8.31947325604,-15.3257633874,-15.6194340208,-13.8990099188,-35.1754115157
do_nothing,-11.8315646254,-14.3413300885,-1.29889318167,0.0524963261971,-17.4455432276,-26.2708904041,-30.8613785984,-9.82956865292,-0.0138025626792,-13.1174225331,-21.7692488329,-23.6048091239,-20.5887752713,-10.9829183944
do_nothing,-12.039750593,-15.3804071497,-1.79889953158,0.816219611108,-16.9473696771,-25.4119220281,-32.6115949552,-10.7384707751,-0.0263468020052,-14.6051354275,-22.9243555513,-26.0196214858,-22.2247015219,17.6063499847
do_nothing,-9.08890166658,-12.3679080243,-1.80857509839,1.42493817845,-12.1538597829,-18.0355401308,-25.9250643431,-8.83067454952,0.0219295767441,-12.2720567532,-17.8536682458,-21.7994563244,-18.032324853,44.2379582757
do_nothing,-3.66044273372,-5.9808214209,-1.28533065467,1.72078589777,-4.38903589909,-6.16641894259,-12.7488886859,-4.58040700857,0.141526158696,-6.71192750867,-7.47023719924,-11.7743295448,-8.93561179781,62.4323978213
do_nothing,2.83117686332,2.10169672335,-0.348404171822,1.62327064374,4.21726173426,6.92970461792,3.16828196588,0.851934959957,0.307274111981,0.545782587731,5.63643431849,1.53579503653,2.68619975063,67.3830209934
do_nothing,8.65520184829,9.696265408,0.751695369891,1.15526546544,11.3819339669,17.7468527181,17.4668996142,5.97533694417,0.46449717381,7.49786807855,17.9281263702,14.6541053941,13.7041955294,57.4059205978
do_nothing,12.2787381491,14.7704010063,1.70628356918,0.438532524462,15.3464392608,23.5860165289,26.5104312372,9.4237624804,0.547333962812,12.2732905792,25.9741905087,24.1711796172,21.179012324,34.5528045731
do_nothing,12.8131134635,16.0429759248,2.24138513112,-0.340719029855,15.3611259224,23.3097690717,28.4214512241,10.361716779,0.502973160144,13.6867817537,27.4965644107,27.7307187374,23.2289530064,4.15223427181
do_nothing,10.2519957169,13.339077254,2.20084268304,-0.985862014862,11.8287523241,17.5720780957,23.4959999887,8.70919685057,0.3132037026,11.5638696835,22.0640935124,24.6673703797,19.5503071355,-26.6079486122
do_nothing,5.43230743677,7.5930867822,1.59309444678,-1.34648444534,6.07957184648,8.47458328764,13.8977734218,5.11937291742,0.00536269138963,6.74013424427,11.2123702702,16.1103046603,11.434135001,-50.6266825177
do_nothing,-0.258296939789,0.512233329278,0.586936309152,-1.35967275609,-0.124661796,-1.20488918458,2.78464203895,0.727585430109,-0.351734658168,0.747675929645,-2.04397340924,4.54702889185,1.29421529973,-62.761229205
do_nothing,-5.32189936988,-5.97633062843,-0.541702205448,-1.06307214957,-5.17414240427,-8.92861547145,-6.7936593575,-3.23352209537,-0.666183610448,-4.6954442072,-14.1398140404,-6.9832375431,-8.11898357747,-61.0561359298
do_nothing,-8.59013721504,-10.3063981506,-1.49406457055,-0.576286894458,-8.07983032394,-13.1437535194,-12.8304251867,-5.81719891405,-0.850048439129,-8.21685860674,-22.0218712724,-15.7878760088,-14.5483338691,-46.9904581705
do_nothing,-9.52364674058,-11.6937543165,-2.03638446051,-0.0577304219933,-8.67895190628,-13.6180952499,-14.820435774,-6.61662581939,-0.846382291872,-9.16860690295,-24.0036322149,-20.2223589306,-16.8345416133,-24.7416565805
do_nothing,-8.28701447255,-10.2738402858,-2.06335934683,0.347954329841,-7.53178751668,-11.2880990513,-13.6272257091,-5.81458879823,-0.647391191433,-7.74004824978,-20.1527344659,-19.9942812365,-15.1176376024,0.213643250737
do_nothing,-5.59608089501,-6.93529563823,-1.61843743529,0.554067496141,-5.57825575653,-7.71932662077,-10.8699782737,-4.02980305766,-0.297800606663,-4.78899534824,-12.1157821607,-16.0186632735,-10.605758691,22.6518447043
do_nothing,-2.41133716602,-2.9326556446,-0.867082916242,0.553244876828,-3.70541645602,-4.41272294845,-8.11280281268,-2.03278090867,0.117656992428,-1.47231452107,-2.47526672186,-9.92823255787,-5.03073992261,38.8023810523
do_nothing,0.402699018445,0.56963039817,-0.0348884939537,0.410044704154,-2.39930713293,-2.23108728732,-6.19519649907,-0.445870738499,0.498544405321,1.17941016597,6.11849277833,-3.44823713711,-0.00820103365442,46.8774846941
do_nothing,2.33137663269,2.85829673455,0.666610767102,0.228925678483,-1.61066545363,-1.15702291572,-4.96575451037,0.460262733843,0.756997658384,2.58987795413,11.7398563087,2.13194290734,3.46520893691,46.9002434938
do_nothing,3.29838514181,3.82097020302,1.1009276373,0.110280283589,-0.873004800859,-0.453816969776,-3.50548166653,0.805195505762,0.841115074806,2.7608547944,13.6527713691,6.22056110279,5.21385640407,40.0671776074
do_nothing,3.57742929226,3.85354750778,1.2352238131,0.110944835135,0.390763568244,0.86091954287,-0.723025119466,0.971064162858,0.746501726852,2.16682731289,12.3281405473,8.86737604547,5.74464642364,28.0243767957
do_nothing,3.58231714638,3.58549095419,1.13000040257,0.223427695294,2.51114633203,3.44067046178,3.94821439254,1.37206391967,0.513144649996,1.48161960648,9.05839789989,10.4651475475,5.85858409587,12.4029378539
do_nothing,3.63211462634,3.54670746822,0.897646013121,0.380891083373,5.32063829004,7.18261788145,10.0630790214,2.22235138428,0.209670107585,1.25642927521,5.3511345144,11.3712114086,6.1915771422,-5.22611223511
do_nothing,3.79028785938,3.91348444379,0.648335190539,0.485378448063,8.12081558763,11.134185365,16.1158678899,3.40095008647,-0.0890289837346,1.67927858346,2.34573177408,11.6282245808,6.87959980372,-23.0666897256
do_nothing,3.84097477741,4.43239806135,0.445184376853,0.448366526374,9.89284829843,13.7859911079,19.9814984441,4.47120745635,-0.323107130883,2.50690389852,0.466118949877,10.9072563221,7.48366796727,-38.7694322866
do_nothing,3.40695917348,4.54676516924,0.285686801181,0.228425466875,9.67828282425,13.6485172465,19.698320566,4.8493833705,-0.461340230871,3.18838539414,-0.584344372985,8.69343867456,7.20019538974,-49.399931142
do_nothing,2.1557634094,3.6692123407,0.115325691636,-0.14796605719,6.98638205164,9.89321000202,14.2984931818,4.05655904401,-0.503498209531,3.12368885,-1.51943189043,4.62685550913,5.26553300074,-51.9188885274
do_nothing,0.00475296809337,1.48684057176,-0.133785533345,-0.590165121607,2.06819870003,2.80522382672,4.35743190476,1.95337898555,-0.472240680784,1.9487142463,-3.00989785395,-1.15807102468,1.38450028706,-44.1360617148
do_nothing,-2.76375189216,-1.82701713199,-0.496425927705,-0.970517970218,-4.05781304643,-6.14230670437,-7.97436565996,-1.13871509323,-0.398877090959,-0.269830696391,-5.27193058402,-7.85607589145,-3.99911887565,-25.8249096132
do_nothing,-5.53143546799,-5.58472648765,-0.940411199089,-1.16550388185,-9.85497347797,-14.6467020729,-19.5088751164,-4.48482262171,-0.309119843749,-3.00954372965,-7.8807628575,-14.0776542117,-9.71324592254,0.485434690607
do_nothing,-7.51523078366,-8.76063249464,-1.36110692354,-1.09669083866,-13.7184564479,-20.2622011434,-26.9695349828,-7.14479666993,-0.214368668638,-5.45044176404,-9.88905474286,-18.1963722697,-14.1657852665,29.499100741
do_nothing,-8.02369263371,-10.3152367466,-1.60912648271,-0.757640910983,-14.4777383014,-21.1864256058,-28.0371936146,-8.2739460621,-0.111436408791,-6.75841810429,-10.2039037095,-18.8501886065,-15.852862436,54.1465460251
do_nothing,-6.70727133574,-9.55469446484,-1.54294501445,-0.218005519222,-11.7810288594,-16.8763801429,-22.1335683131,-7.41182450825,0.0099666015698,-6.38863337573,-8.07082154755,-15.4240244304,-13.8904408992,67.4338063899
do_nothing,-3.71096114856,-6.39805228203,-1.08780620739,0.39603505346,-6.2299336398,-8.27757612475,-10.6666151479,-4.65660696994,0.155838569203,-4.29604702147,-3.46788159584,-8.3380394241,-8.37799503745,64.6308118261
do_nothing,0.32896725175,-1.45550457235,-0.278590132884,0.937986293006,0.782602600135,2.41912123196,3.3551297502,-0.6615318699,0.317980241128,-0.975127516995,2.75513123448,0.972257612234,-0.457538695195,45.0654298478
do_nothing,4.44820015652,4.11420773314,0.731227129629,1.28183823475,7.47776300314,12.4174260792,16.2164722017,3.54845500792,0.47034939556,2.6861617683,9.06226189236,10.3943783386,7.96478069704,12.8303764796
do_nothing,7.62626519288,8.92393911413,1.70118077947,1.35467103908,12.2062949316,19.1432128908,24.6032984544,6.87979875592,0.57392042504,5.68581740528,13.6887177053,17.6980227166,14.7515923194,-23.9812169186
