label,COUNTER,INTERPOLATED,AF3,F7,F3,FC5,T7,P7,O1,O2,P8,T8,FC6,F4,F8,AF4,RAW_CQ,GYROX,GYROY,MARKER,SYNC,TIME_STAMP_s,TIME_STAMP_ms,CQ_AF3,CQ_F7,CQ_F3,CQ_FC5,CQ_T7,CQ_P7,CQ_O1,CQ_O2,CQ_P8,CQ_T8,CQ_FC6,CQ_F4,CQ_F8,CQ_AF4,CQ_CMS,CQ_DRL
off_to_on,9.77731112205,7.8275251722,8.56940384882,6.24051240764,5.55246777143,4.95391377097,3.39043694825,4.59364277491,5.88391132205,9.60585077892,6.41330717537,11.2731524073,5.72915913315,-2.51104614352
off_to_on,8.2597794966,5.22851520872,5.9567450373,5.1214388986,4.47009657202,4.76607472382,1.3261750777,3.07777437278,4.70785357089,8.54316470801,5.06809987872,9.65105755598,4.16090077352,22.0526611578
off_to_on,6.20861283557,2.3761359892,2.99569352653,3.77940149845,3.14933017407,4.33773364105,-0.680656729706,1.4083928113,3.32729463552,6.83924649432,3.46982759886,7.30492297112,2.33607825124,42.431471514
off_to_on,3.71370010016,-0.539086614337,-0.132741009768,2.29975553078,1.66855497618,3.65887664183,-2.48999047656,-0.312583291684,1.8273240312,4.58851093659,1.72456125561,4.36758956143,0.355450503103,56.7188668126
off_to_on,0.902693481943,-3.32911407793,-3.23725489745,0.770798049235,0.115084643535,2.72652758701,-3.99740041769,-1.98545373411,0.296053944528,1.93969485671,-0.0542079020698,1.0304287103,-1.663994158,63.736045053
off_to_on,-2.06646363415,-5.82483828513,-6.13047148064,-0.724089656755,-1.42256713463,1.54899646807,-5.14194566076,-3.52120362402,-1.1831284662,-0.918255513984,-1.75690648155,-2.4740526963,-3.600130738,63.1894105675
off_to_on,-5.01608045667,-7.88971189724,-8.64240720179,-2.11299408767,-2.86183240608,0.150956885292,-5.90739245098,-4.84776757107,-2.5381816369,-3.77457923492,-3.28819277485,-5.89395713527,-5.3372779904,55.7200525927
off_to_on,-7.76150989555,-9.42915467017,-10.6320489034,-3.33998829244,-4.13187711166,-1.42174794202,-6.31708670297,-5.91353626646,-3.71315919301,-6.41725174582,-4.57495663308,-8.98162670108,-6.77676653213,42.833522318
off_to_on,-10.1251177479,-10.3949229662,-11.9961632542,-4.36721361182,-5.17751782725,-3.09885699019,-6.42368933834,-6.6880142649,-4.67063895838,-8.65337747158,-5.5710820555,-11.5165520402,-7.84519682052,26.7140064312
off_to_on,-11.950214345,-10.7843114229,-12.6747851133,-5.17449202038,-5.9610684451,-4.78524020404,-6.29571715644,-7.15998137467,-5.39173001824,-10.327195039,-6.25853759365,-13.3251213429,-8.49946927675,9.94302206063
off_to_on,-13.1137011194,-10.6347225406,-12.6531842484,-5.75679890998,-6.46223374508,-6.36418892445,-6.00324317762,-7.33386341052,-5.87390581495,-11.3338057906,-6.64489586369,-14.2952141164,-8.72816257976,-4.84324478672
off_to_on,-13.5362719718,-10.0146988327,-11.9604452678,-6.12022501997,-6.6764330811,-7.70487906634,-5.60514531508,-7.22522823032,-6.12720960637,-11.62727909,-6.7578875042,-14.3842964185,-8.54936490707,-15.3139464436
off_to_on,-13.1892093822,-9.01288863434,-10.6650767933,-6.27724785433,-6.61211510903,-8.67377353063,-5.13995160749,-6.85636225233,-6.16958263889,-11.2224622703,-6.63799338276,-13.6204467723,-8.00554618881,-19.7727142318
off_to_on,-12.0971102615,-7.72656521075,-8.86826706345,-6.24219038634,-6.28769081428,-9.14901411021,-4.62167239243,-6.25275240371,-6.0221468841,-10.1905457265,-6.33031559383,-12.0965379964,-7.15642724981,-17.410037401
off_to_on,-10.3362395838,-6.25122891726,-6.69551265205,-6.02766203658,-5.72866382836,-9.03620151941,-4.04114135009,-5.44102825099,-5.70522414502,-8.64912012594,-5.87701196687,-9.95852604475,-6.07100475071,-8.44175624078
off_to_on,-8.02860703919,-4.67251892456,-4.287367422,-5.64256931145,-4.96539034775,-8.28349017336,-3.37244671703,-4.44856123976,-5.23570299385,-6.74803719594,-5.31142899262,-7.3893737094,-4.8199072616,5.88921257764
off_to_on,-5.33225578268,-3.06120034471,-1.79000512132,-5.09198564946,-4.03168817502,-6.89372706345,-2.58317005052,-3.30453858548,-4.62610382095,-4.65278901701,-4.65475189188,-4.59050893345,-3.46909546745,23.4528787694
off_to_on,-2.42860508312,-1.47145191547,0.653815527396,-4.37883011446,-2.96427798314,-4.93150003405,-1.64649922387,-2.04199702463,-3.88538316567,-2.52731655262,-3.91555992961,-1.76285681331,-2.07561355448,41.4996400252
off_to_on,0.492034079884,0.0578546983315,2.91292299048,-3.50697692582,-1.8028250769,-2.52344015427,-0.552948022744,-0.700076049477,-3.02121105097,-0.518134718652,-3.09219799153,0.910607498831,-0.685705123552,57.0230273454
off_to_on,3.24547735465,1.49963823491,4.87470962099,-2.4851545358,-0.590196830076,0.149097225289,0.680549234635,0.674327765512,-2.04319780479,1.25856825111,-2.1774253737,3.27913313456,0.664807441854,67.171504011
off_to_on,5.66787354047,2.83389927868,6.45068766479,-1.33083593544,0.627512163987,2.86486050583,2.00599682883,2.02623903032,-0.966379877406,2.72560026401,-1.16444750179,5.23409366675,1.94834911772,69.654945579
off_to_on,7.62782917553,4.04296378758,7.58047695064,-0.0732963332943,1.80159684633,5.38386278504,3.34527056919,3.29411375883,0.185777066538,3.8484676963,-0.0532279431112,6.7138557127,3.14235739283,63.0904917742
off_to_on,9.03537945792,5.10772172688,8.23412467926,1.24487496109,2.88227720981,7.47271156541,4.5968388469,4.4133362513,1.37952785493,4.63395431219,1.14405467263,7.70353013806,4.22584333158,47.2390543547
off_to_on,9.84703724588,6.00562899022,8.41268566714,2.56829119138,3.82122670025,8.9311823726,5.64752400387,5.32146148063,2.57063799286,5.12399464527,2.39939581764,8.23005618808,5.17657429546,23.0971732972
off_to_on,10.0665320223,6.71084503204,8.14701494962,3.83148111855,4.57493250891,9.6167053476,6.38768854808,5.96458396492,3.70603820033,5.38576780473,3.6678951493,8.35351680121,5.96953064414,-7.17253935395
off_to_on,9.74127080047,7.19643330456,7.49476156174,4.96361506396,5.10850361048,9.46346543557,6.72759568512,6.30392219199,4.7272638315,5.49932877779,4.88952231733,8.15590473178,6.57700813349,-40.4678670169
off_to_on,8.95497142621,7.43813453673,6.53561772605,5.89472819077,5.39937462326,8.49330990434,6.61239531266,6.32155696045,5.57530463314,5.54433155264,5.99357213529,7.72873250148,6.97040148143,-73.104738809
off_to_on,7.81729321463,7.41890572009,5.36497982536,6.56266298098,5.4402760908,6.81656975729,6.03327893625,6.02428570403,6.19624984534,5.58746177951,6.90524822371,7.16090018173,7.12337178137,-101.262524238
off_to_on,6.45158148434,7.13325412624,4.08631476542,6.91980271358,5.24087478336,4.62212941775,5.03282480723,5.44475807632,6.54696551718,5.67208415433,7.5534887436,6.52811434993,7.01582791905,-121.460562401
off_to_on,4.98202009805,6.59041300941,2.80268496965,6.93865451571,4.82763263427,2.15746646685,3.70335393513,4.63941627728,6.60000840963,5.81133655146,7.87895908228,5.88491214294,6.63798518029,-131.004381928
off_to_on,3.52152957153,5.81560024933,1.60804471813,6.61546847264,4.24167202869,-0.299255589679,2.17812450287,3.68322587074,6.34706937176,5.98549978059,7.8411103256,5.26001736252,5.99372943141,-128.342992462
off_to_on,2.16165134402,4.84893931179,0.579050604016,5.97133118433,3.53473333127,-2.47181425697,0.616259228965,2.66167933918,5.80043533072,6.14398143889,7.42333984228,4.65537675419,5.102616558,-113.289426299
off_to_on,0.965429926192,3.74204521713,-0.231801450045,5.05051198937,2.76362095946,-4.11928836098,-0.81673169716,1.66100729309,4.9922332345,6.21172542711,6.63556728025,4.04883055784,4.0000553355,-87.0740153574
off_to_on,-0.0360332181318,2.55271337237,-0.800917803271,3.91621823631,1.98380573636,-5.0659125418,-1.9702474246,0.757867039785,3.97152976777,6.0993494038,5.51391105297,3.39999706208,2.73551928857,-52.2214372918
off_to_on,-0.843091737981,1.33851986193,-1.13555456079,2.64427672182,1.24303632667,-5.22349461108,-2.72876529511,0.00993690351802,2.79966036082,5.71587334808,4.11755889859,2.65862712333,1.36895833474,-12.2654905963
off_to_on,-1.48331111966,0.150381504843,-1.27252726323,1.31554820429,0.575875692953,-4.60331107639,-3.02799177125,-0.55120548629,1.54440470554,4.98257975213,2.52330903316,1.77443705128,-0.0341210939836,28.6632109735
off_to_on,-2.00407087894,-0.972813070467,-1.2735611567,0.00805746669861,2.14967715451e-06,-3.31568358563,-2.86458458683,-0.923803238137,0.273777226846,3.84637536365,0.818558915791,0.707276257907,-1.40821839017,66.3247590641
off_to_on,-2.46296885499,-2.00752087459,-1.21754401562,-1.21014375342,-0.48509727906,-1.55700496807,-2.29787454459,-1.13556083474,-0.949762413941,2.29102715949,-0.906306120309,-0.563558000101,-2.69324860955,96.8709534353
off_to_on,-2.91723292794,-2.94613941549,-1.19034353829,-2.28647521867,-0.896735169831,0.414377782309,-1.44310003485,-1.23908767509,-2.07395620858,0.344825874637,-2.56514461372,-2.03197776107,-3.83903109955,117.296327963
off_to_on,-3.41345750631,-3.79465019925,-1.27321410989,-3.18702424352,-1.26501496644,2.31052609994,-0.456845297424,-1.3036275216,-3.05971744881,-1.91642449255,-4.08205065733,-3.66067418928,-4.80824223082,125.782387633
off_to_on,-3.97894301338,-4.56758823076,-1.53108845962,-3.89711249431,-1.62668308179,3.85048503698,0.483522808677,-1.40411024869,-3.88215217565,-4.37171414016,-5.3954875654,-5.38026511391,-5.57747369584,121.892357472
off_to_on,-4.61572898338,-5.28110253334,-2.00218086788,-4.41928903116,-2.01766538055,4.79641884145,1.20375391072,-1.60898512343,-4.52965984223,-6.8624888688,-6.46026901803,-7.09233240568,-6.13635348322,106.593408494
off_to_on,-5.29809513298,-5.94525959394,-2.69028764988,-4.76917644373,-2.46535149071,4.9846453388,1.55677229447,-1.96852115526,-5.00142761214,-9.20512676641,-7.24744378718,-8.67626010573,-6.4850091582,82.105879081
off_to_on,-5.97389507549,-6.55695864105,-3.56094653382,-4.96990247661,-2.98178366621,4.34751912019,1.44364211106,-2.50525140954,-5.30386444587,-11.2071298344,-7.74246124664,-9.99937038799,-6.63042850866,51.60141353
off_to_on,-6.56963085119,-7.09483034487,-4.54222296956,-5.04604414478,-3.55883337382,2.92327178754,0.828562907778,-3.20798995933,-5.44666250777,-12.685465766,-7.94223588292,-10.9294683142,-6.58245446059,18.7911942163
off_to_on,-6.99872600379,-7.51726702278,-5.53036691645,-5.01806629731,-4.16621257399,0.85247176194,-0.254204850881,-4.03039275939,-5.4392035931,-13.4851837108,-7.85185340329,-11.3485895147,-6.35020805037,-12.5409962322
off_to_on,-7.17206340294,-7.76430639409,-6.39998805212,-4.8981438844,-4.75279641625,-1.6384905235,-1.7025137804,-4.89442863611,-5.28794370828,-13.4963113448,-7.48165183758,-11.1665359991,-5.93965410123,-39.000029343
off_to_on,-7.00956797442,-7.76351903243,-7.01780461786,-4.6880307058,-5.25127919323,-4.26478885038,-3.35741583792,-5.69845766871,-4.9952239254,-12.6671409897,-6.84527334267,-10.3327151891,-5.35282029236,-57.9761913672
off_to_on,-6.45146857949,-7.43941390827,-7.25850997243,-4.37931091888,-5.58570927021,-6.71789470021,-5.02178005052,-6.32897568511,-4.55969998856,-11.0123284974,-5.95904227794,-8.84488465336,-4.58888337133,-67.9284407559
off_to_on,-5.46788585184,-6.72527228481,-7.02094401136,-3.95599169441,-5.68101957962,-8.70318298082,-6.48405618642,-6.67456621993,-3.97829755694,-8.61473391346,-4.84272510875,-6.75365256951,-3.64699388252,-68.5212602709
off_to_on,-4.06556357982,-5.57584249176,-6.24261002368,-3.39902246164,-5.4733512718,-9.97558381777,-7.54412136486,-6.640279203,-3.24932966835,-5.62057814705,-3.52141994428,-4.16197607003,-2.53037871886,-60.60232491
off_to_on,-2.29087116137,-3.97905629752,-4.91067216848,-2.69201389886,-4.91980785336,-10.368749801,-8.0378880118,-6.16057539301,-2.37620079437,-2.22820677636,-2.02806124592,-1.21940236746,-1.25099417836,-46.0295478702
off_to_on,-0.228618103705,-1.96491348984,-3.06790465336,-1.82722507463,-4.0063023069,-9.81410796055,-7.85754397525,-5.20914920607,-1.37100149309,1.32853912825,-0.40585415344,1.88863922886,0.166153283326,-27.3757111919
off_to_on,2.0033095482,0.390059878433,-0.812608730613,-0.810821046507,-2.75237076737,-8.34754387127,-6.96490746478,-3.804345904,-0.25728866186,4.80072724518,1.29009622446,4.95562418041,1.67991689812,-7.55421059306
off_to_on,4.26301122986,2.96386699582,1.70779362043,0.333513455137,-1.21219718147,-6.10312958368,-5.3963206586,-2.00946515267,0.928548976017,7.94644338674,2.99261141517,7.77143356703,3.23191655837,10.5815320289
off_to_on,6.39643677429,5.5960037608,4.30902349305,1.56329707005,0.528425342342,-3.29502653304,-3.25864112397,0.0720896059005,2.1377375719,10.5523086849,4.62416709523,10.1408397709,4.74794628328,24.6107777581
off_to_on,8.25084461305,8.09993679305,6.78687441938,2.81867608701,2.35894471052,-0.190231912032,-0.717059171863,2.30619152238,3.31150377497,12.4521381225,6.1006696104,11.9010653807,6.14202779175,32.8418285411
off_to_on,9.68846710073,10.2799290379,8.93701440436,4.02652664144,4.15396148751,2.92401783629,2.02349051766,4.54070602716,4.38522872609,13.5407667981,7.33708797615,12.9365350963,7.32285582655,34.4956997847
off_to_on,10.5989768468,11.9503966105,10.5754724603,5.10682020753,5.78505059724,5.77377288166,4.74078435021,6.6199503694,5.29392140261,13.7815969296,8.25441597469,13.1891929999,8.20199877262,29.757459192
off_to_on,10.9094849155,12.9555508692,11.5574877141,5.98049968007,7.1330929571,8.12843196838,7.21869325164,8.39913345799,5.97834540445,13.2071212516,8.78717094286,12.6632112344,8.70291255481,19.6943786884
off_to_on,10.5910774884,13.1869368917,11.7925497606,6.57787761249,8.09965505823,9.82357395814,9.26856951878,9.75708417267,6.39101153059,11.9124759982,8.89047676453,11.423524248,8.76964508601,6.05828747386
off_to_on,9.66127788337,12.5966518728,11.2538800212,6.84646924043,8.61608732151,10.7739260838,10.746126852,10.6058751664,6.50124116549,10.0428739993,8.54575739589,9.58831670511,8.37408312964,-8.99531053229
off_to_on,8.18225992213,11.2044991843,9.9812459655,6.75722556777,8.6493198732,10.9753060564,11.5620453234,10.8964259424,6.29861459755,7.77646812254,7.76419202513,7.31629010637,7.52073115575,-23.2286926656
off_to_on,6.25508500276,9.09804845245,8.07678410261,6.30832910125,8.20377293742,10.4959651356,11.6854852537,10.6197496438,5.79432839268,5.30471000704,6.58733934976,4.79014632846,6.24829636747,-34.637500882
off_to_on,4.01063793068,6.42543676463,5.69433514051,5.52602921139,7.3193059835,9.45923852812,11.1407117813,9.80410509543,5.02026612082,2.8125329,5.08469160918,2.19817622132,4.62774745917,-41.7168507671
off_to_on,1.59825142581,3.38164654838,3.02356058083,4.46238139815,6.06563375156,8.02056665562,9.99796526858,8.50884156438,4.02589582012,0.460665192997,3.34831872344,-0.283933163709,2.75696238223,-43.6432055018
off_to_on,-0.826796028882,0.18981092103,0.270716625614,3.19016059283,4.53406834883,6.34262435234,8.36042835195,6.81610375466,2.87340003836,-1.6279264146,1.48515107568,-2.5089923179,0.752519582345,-40.3506326456
off_to_on,-3.1156665966,-2.92028293351,-2.36166853922,1.79558633932,2.82774628582,4.5723963342,6.34954135674,4.82174798738,1.6316771615,-3.37602104415,-0.392231055566,-4.37011675969,-1.26044419735,-32.4959220785
off_to_on,-5.13707068767,-5.73398179025,-4.69388051823,0.36977634888,1.05162897071,2.82356296862,4.09095676033,2.62678777845,0.369992137268,-4.75384621397,-2.17523026351,-5.80718144357,-3.15914046523,-21.3230449223
off_to_on,-6.78613301414,-8.07132117394,-6.58473828465,-1.00000342039,-0.69648861883,1.1665922053,1.70310909291,0.330452228832,-0.847919124217,-5.77460884467,-3.76815975351,-6.80733934697,-4.83354195566,-8.45129279874
off_to_on,-7.99034616292,-9.8021356967,-7.94228517814,-2.23821900924,-2.33295020202,-0.372374462151,-0.710228741046,-1.97445116841,-1.96857714194,-6.48476219492,-5.09543894444,-7.39978237148,-6.19512429023,4.37874504332
off_to_on,-8.71228534019,-10.8551111651,-8.72845471966,-3.2871463347,-3.79253648799,-1.80419888865,-3.06282306472,-4.20365794201,-2.95179452012,-6.9505882435,-6.10627212624,-7.6456613752,-7.18299540922,15.5626872598
off_to_on,-8.94911266944,-11.2199637195,-8.9574899675,-4.11047826119,-5.02986626845,-3.16270282296,-5.28455708433,-6.28132842959,-3.77175886255,-7.24313288742,-6.77637474902,-7.62470054981,-7.7668305485,23.8558933489
off_to_on,-8.72922315998,-10.9428220886,-8.68867708457,-4.69414171185,-6.01811815196,-4.4866889015,-7.31673775085,-8.1383799541,-4.41619576191,-7.42371393386,-7.10671733569,-7.42045569903,-7.94645917225,28.5321448907
off_to_on,-8.10664254981,-10.1157498618,-8.0146398536,-5.04438984206,-6.74567503104,-5.80142525787,-9.10571943088,-9.71023162443,-4.88392525529,-7.53210425581,-7.11965913682,-7.10631858057,-7.74838746898,29.4573702328
off_to_on,-7.15395535756,-8.86205889717,-7.04694384733,-5.18359914668,-7.21156461143,-7.10306134691,-10.5966980648,-10.9350101409,-5.18135035357,-7.57908961058,-6.8531837674,-6.73423723136,-7.21992398412,27.0715590769
off_to_on,-5.95460800811,-7.31953748048,-5.90101472451,-5.14449636212,-7.42068967136,-8.34895582289,-11.7294626695,-11.7531511434,-5.3185528064,-7.54446584325,-6.35417790316,-6.32772046198,-6.42185351608,22.2857228279
off_to_on,-4.59539837299,-5.62388730278,-4.68235683025,-4.96372542113,-7.37979703434,-9.45593048368,-12.4375040298,-12.1090356026,-5.30569965984,-7.38075852399,-5.67177923405,-5.88007594903,-5.42073864962,16.3129115979
off_to_on,-3.1598430391,-3.89451439186,-3.47577570729,-4.67571703546,-7.09493599418,-10.3071656228,-12.6512369529,-11.9548731296,-5.15038158449,-7.02212501784,-4.85175056065,-5.35807860162,-4.28190382163,10.4611872926
off_to_on,-1.72292996445,-2.2243785974,-2.33880683579,-4.30773852272,-6.57084012396,-10.7670208062,-12.305297273,-11.2565547562,-4.85632458579,-6.39714651929,-3.93262576314,-4.71048176488,-3.06398163626,5.92090287776
off_to_on,-0.34754542133,-0.674942641887,-1.29990747574,-3.87679456522,-5.81228396013,-10.7017214813,-11.3490574524,-10.0007288324,-4.4236694875,-5.44363897952,-2.94405433351,-3.88007669729,-1.81560522992,3.57817307736
off_to_on,0.917359696252,0.723525704887,-0.361271738256,-3.38875294379,-4.82708055897,-10.0028045029,-9.7587994387,-8.20198572044,-3.85073767642,-4.12328761323,-1.90739439955,-2.81747472672,-0.574460994783,3.88130316109
off_to_on,2.03700046095,1.9668407066,0.494521049699,-2.83972718342,-3.63005991245,-8.60963008165,-7.54950879337,-5.90883612407,-3.13694039525,-2.43388637586,-0.838228414239,-1.49450750985,0.631469942008,6.77810620494
off_to_on,2.98967875725,3.0682068894,1.29532855868,-2.21941019423,-2.24715454484,-6.52724113349,-4.78409406078,-3.20717548322,-2.28628330646,-0.417247505118,0.249840699216,0.0848442072399,1.78099687532,11.7309328651
off_to_on,3.76478692157,4.04766547025,2.06935138517,-1.51576737286,-0.718652364188,-3.83639772259,-1.57802645879,-0.220152371656,-1.31080036297,1.83859869096,1.34096306613,1.87777244468,2.85589714761,17.8045872048
off_to_on,4.36032329382,4.92160982067,2.8358020251,-0.720303713515,0.899230074272,-0.69366252917,1.90207979297,2.89622210058,-0.233239848153,4.20353988053,2.41330226224,3.80142710925,3.83707277312,23.8118449902
off_to_on,4.78032675536,5.69421651655,3.59783599586,0.166957191918,2.53506139029,2.6791845624,5.44663546503,5.96182943741,0.911576996494,6.51562750425,3.4366155213,5.73763016637,4.70154721507,28.4935170523
off_to_on,5.03256778548,6.3522733257,4.33884918236,1.13359549038,4.10545423799,6.01557087762,8.81773589823,8.78505139585,2.07711255989,8.59636989399,4.37176382437,7.54315892355,5.42099795016,30.7059390856
off_to_on,5.1267324458,6.86429755553,5.02269723109,2.15266716279,5.52072096622,9.03208463258,11.7690911519,11.1781301052,3.2073154656,10.2693026232,5.1724349714,9.06444747592,5.96224185946,29.5888531559
off_to_on,5.07322096607,7.18411800434,5.59777370237,3.18271939986,6.69237791099,11.4604656994,14.0691650601,12.973710651,4.24051680235,11.3795831718,5.78898246872,10.1549090019,6.2897427817,24.6906697871
off_to_on,4.88257153754,7.25835073861,6.00428487009,4.17003566085,7.54161912258,13.0794333364,15.5248717138,14.0407175267,5.11460135445,11.8121653964,6.17390909265,10.6926708157,6.36984793545,16.0352764361
off_to_on,4.56542681176,7.03654534838,6.18356739372,5.05288173082,8.00767104254,13.7420294382,16.0029321318,14.2976767766,5.77282659016,11.5062365327,6.28821559304,10.596398024,6.17613862098,4.1236644067
off_to_on,4.13289515035,6.48231298918,6.08798083521,5.76724521966,8.05488703163,13.3946493116,15.446137586,13.7218093177,6.1695432071,10.464030562,6.10764210186,9.83707920677,5.69505063598,-10.1267751015
off_to_on,3.59712526901,5.58354127228,5.68981400062,6.25335615505,7.67755632918,12.0849796104,13.8822896643,12.3526661641,6.27506028426,8.75281125293,5.62778525955,8.44413457478,4.93081753243,-25.493840909
off_to_on,2.97191080622,4.35988656488,4.98778384475,6.4621720068,6.90167240239,9.95752358766,11.424427163,10.2896981216,6.07899783645,6.49965755541,4.86718844578,6.50491945316,3.90883261616,-40.5951757574
off_to_on,2.2731655233,2.86610116949,4.01005604816,6.36101820665,5.78329379087,7.23706511701,8.26199746145,7.68387025248,5.59166550558,3.87957375255,3.86776223643,4.15753843802,2.67670943011,-54.0448299795
off_to_on,1.51915247722,1.19034929385,2.81322510256,5.93769059736,4.4035815884,4.20207068793,4.64374620251,4.72414981118,4.84326955511,1.09827110173,2.69226132645,1.57774486815,1.30262055759,-64.6006053416
off_to_on,0.730402573,-0.552594270021,1.47728419113,5.20253007675,2.86104687708,1.15141983814,0.854134358376,1.62031913832,3.8810425205,-1.62837990155,1.418969392,-1.03853934018,-0.129131027904,-71.2842018275
off_to_on,-0.070689271409,-2.23259297228,0.0972051689308,4.18824127901,1.26192368036,-1.63120904205,-2.81409306618,-1.41599158394,2.76466789116,-4.09583013275,0.134161913069,-3.49498900365,-1.52495818534,-73.4617611672
off_to_on,-0.860555612365,-3.71847727718,-1.22774877907,2.94750897723,-0.290157416502,-3.91062397408,-6.08807674154,-4.18995218285,1.56059542234,-6.13077533703,-1.07673421747,-5.61454756141,-2.7905430898,-70.879337129
off_to_on,-1.61536545461,-4.89356993117,-2.40551303492,1.54872931059,-1.70392110365,-5.52669776834,-8.74054947034,-6.53982233819,0.335978839851,-7.60725145014,-2.138140325,-7.25665484102,-3.84011436227,-63.6549120209
off_to_on,-2.31205839757,-5.67026892639,-3.36191630452,0.070383546132,-2.90842787853,-6.41076137701,-10.610190992,-8.34916174172,-0.847002282953,-8.45712954219,-2.99227596848,-8.3300137024,-4.60531805138,-52.234656296
off_to_on,-2.92940271484,-6.00159663649,-4.04907808025,-1.40528555679,-3.85832902414,-6.58971493402,-11.6144173313,-9.55376758687,-1.93575395484,-8.67394856164,-3.60495948929,-8.79947047589,-5.04255614027,-37.325265741
off_to_on,-3.44897873727,-5.88797278847,-4.45031737336,-2.7985939081,-4.53581538133,-6.17743007643,-11.7533351585,-10.1428142956,-2.89030532539,-8.30985120034,-3.96843041751,-8.68635201559,-5.13782133982,-19.8158633656
off_to_on,-3.8560005154,-5.37807630002,-4.58086345962,-4.03808255334,-4.94913077896,-5.35474623592,-11.1046790619,-10.1543870646,-3.6845092126,-7.46622414813,-4.1007626922,-8.06244096762,-4.90834488465,-0.702035777241
off_to_on,-4.13990669505,-4.56344569255,-4.4842452057,-5.06500952312,-5.12798620726,-4.34091098991,-9.81063670824,-9.66627079304,-4.30541774031,-6.27938215883,-4.04190691768,-7.03856729183,-4.40075806517,18.9785405267
off_to_on,-4.29467364247,-3.56732289726,-4.22484274224,-5.83633110793,-5.11662385356,-3.36046607598,-8.05841292041,-8.78339203953,-4.75111015391,-4.90318456118,-3.84687456279,-5.74944260866,-3.6858985608,38.1939877102
off_to_on,-4.3188285533,-2.52905267729,-3.87762867956,-6.32604792795,-4.96558295967,-2.61017786145,-6.05707003471,-7.62364691722,-5.02746483883,-3.49076908089,-3.57698897091,-4.33678113877,-2.85081338513,55.9497544088
off_to_on,-4.21516658291,-1.58599660765,-3.51652958125,-6.52499783527,-4.72337034407,-2.23057326143,-4.01352735824,-6.30394444996,-5.14450098084,-2.17760187441,-3.29041705045,-2.93288673288,-1.98886685791,71.3083460387
off_to_on,-3.99020316056,-0.855314444326,-3.20304540246,-6.439351554,-4.42921775222,-2.28597736874,-2.1105735965,-4.92814879818,-5.11294834991,-1.06778290926,-3.03331800893,-1.64672925389,-1.18910845754,83.404773518
off_to_on,-3.65341953738,-0.418048323567,-2.97674568917,-6.08818670137,-4.10792114513,-2.75575253287,-0.489359988058,-3.57824423273,-4.94163301993,-0.225055916242,-2.8328810775,-0.554115148535,-0.526160089487,91.466096658
off_to_on,-3.21638451063,-0.307700020938,-2.84901828919,-5.50056962226,-3.76743258714,-3.53787864086,0.761837367446,-2.30953148792,-4.63610498551,0.330676031055,-2.69327876958,0.307058545196,-0.0518319605745,94.8420110186
off_to_on,-2.69185548288,-0.504946332049,-2.80101163163,-4.71256113987,-3.39946185561,-4.46430840246,1.61166929115,-1.15007028265,-4.19870697392,0.621245180572,-2.59516751935,0.93619989944,0.210522677845,93.0499667539
off_to_on,-2.09297406703,-0.939361214313,-2.78614387788,-3.76449081181,-2.98290267667,-5.32591544012,2.08260497654,-0.103995423378,-3.63002836137,0.703131021749,-2.4988767673,1.36452740512,0.268226172077,85.8334808933
off_to_on,-1.43267151574,-1.49810608994,-2.7369280022,-2.69873159898,-2.4894912089,-5.90354826167,2.24157530457,0.842166293287,-2.93144421849,0.65657502503,-2.35090810969,1.64577608034,0.15778683808,73.2270746986
off_to_on,-0.723383986522,-2.040630448,-2.57526519615,-1.5580749415,-1.89078962744,-6.00088589286,2.18599848647,1.71139912381,-2.10824533157,0.572481846285,-2.09289022514,1.84464816575,-0.0601406631953,55.6167292977
off_to_on,0.0228548587708,-2.41761492296,-2.22487011615,-0.384678226607,-1.16540871868,-5.47456809298,2.02728382049,2.52769713962,-1.17275091578,0.538867415286,-1.67176985529,2.02477069324,-0.308765996632,33.7819340011
off_to_on,0.793925698161,-2.49179609816,-1.62417604146,0.780546846131,-0.305363302561,-4.25746860436,1.87407554555,3.30848512256,-0.146779539084,0.628560061052,-1.04981636528,2.23788606162,-0.505214383001,8.90507443395
off_to_on,1.57678411211,-2.15801625259,-0.737968409092,1.89830043063,0.679407173656,-2.37193244458,1.81736250101,4.05905255729,0.937061750339,0.889596517894,-0.213007481625,2.51572705061,-0.571446259269,-17.463565673
off_to_on,2.3563830466,-1.35988361594,0.433874752306,2.93122769327,1.75904639202,0.0688290802841,1.91917824992,4.76971432664,2.03563771951,1.33932747884,0.823449544257,2.86556372353,-0.444768512027,-43.4916697443
off_to_on,3.11453603811,-0.10080709313,1.85181363534,3.84440258641,2.88464305445,2.8713915878,2.20602175343,5.41595503172,3.09722828306,1.96272278552,2.01334713644,3.26983067585,-0.0867031250971,-67.2007766861
off_to_on,3.8289511372,1.55216191895,3.4370143622,4.60607989152,3.99186586075,5.78341735455,2.66743359067,5.96134889999,4.06502858212,2.71481818405,3.28185664534,3.68963680535,0.510837493501,-86.6430088993
off_to_on,4.47269049562,3.47237229072,5.07680337576,5.18874469263,5.00690344836,8.52280255003,3.25946755411,6.36264272556,4.88183345445,3.52674551853,4.53190974245,4.07141425251,1.32281767374,-100.10143707
off_to_on,5.0143000655,5.48521923062,6.63471778619,5.57039513373,5.85392837493,10.8108708257,3.91219557821,6.57610153114,5.49533938885,4.31439629958,5.65389827189,4.35555397029,2.29215296902,-106.29057549
off_to_on,5.41880229318,7.38616448544,7.96407709295,5.73591390577,6.46310813357,12.4053326035,4.53994895292,6.56408175534,5.86338390858,4.98852587274,6.53755685995,4.48565511001,3.33453346646,-104.530143122
off_to_on,5.6496522544,8.96309758824,8.92354797988,5.67833112494,6.77813124226,13.1288261598,5.05277532572,6.30082613572,5.95842817567,5.46502996786,7.08458517173,4.41700679191,4.34652213849,-94.8656586723
off_to_on,5.67163122356,10.020445858,9.39290665954,5.39976546783,6.76230603538,12.8895038243,5.36759055581,5.77665411559,5.77067610681,5.67421165062,7.22044537682,4.12311455576,5.21609230643,-78.1139638007
off_to_on,5.45450471861,10.4021960683,9.2871549202,4.91185422774,6.40250634951,11.6912245061,5.4177060266,5.00001548499,5.30939979905,5.56807817688,6.90385174737,3.59944109653,5.83449764886,-55.8200589329
off_to_on,4.97712366237,10.0110906195,8.56732134163,4.23554197763,5.71054651554,9.63230402356,5.15976752307,3.99723135796,4.60228059493,5.12502218393,6.1327429516,2.86399046372,6.10821687776,-30.1227441558
off_to_on,4.23151979537,8.82169303079,7.24665506064,3.40018136317,4.72192058243,6.89326379899,4.57758533812,2.81010673111,3.69284230861,4.35160013099,4.94595765263,1.9548528834,5.96969794286,-3.53902892119
off_to_on,3.22646240393,6.88572804928,5.39144856835,2.44199369974,3.49218544855,3.71540503429,3.68279427759,1.49190631917,2.63630861287,3.28147264944,3.42036410656,0.925268917752,5.38574391875,21.3106582785
off_to_on,1.9899219769,4.32900322376,3.11634285945,1.40202546427,2.09155565131,0.373138145552,2.51268879826,0.102394654927,1.49442291565,1.97187291724,1.66375538841,-0.162897675228,4.36262124435,42.0045903286
off_to_on,0.569939935894,1.34020130799,0.574597789853,0.323804639328,0.598470329581,-2.85632116648,1.12587938599,-1.29727526305,0.329896354166,0.498188890482,-0.195659030482,-1.24621403822,2.94730522982,56.6113189003
off_to_on,-0.966465180641,-1.84722261191,-2.05562248934,-0.749062922652,-0.907032638507,-5.72209292177,-0.403420168243,-2.64908971303,-0.79882005938,-1.05263304268,-2.02192390166,-2.26619456382,1.22467288023,63.9318008595
off_to_on,-2.53652429279,-4.97801194325,-4.58746089631,-1.77511796043,-2.3493485356,-8.02413220138,-1.9916455862,-3.90155003061,-1.84181284095,-2.58913227016,-3.68467884281,-3.17438025872,-0.689131496255,63.6575614332
off_to_on,-4.04699657675,-7.80037125059,-6.84232735975,-2.71689135643,-3.66211376982,-9.63036564918,-3.5519539638,-5.01157884281,-2.76056480237,-4.02215764705,-5.07161626968,-3.93537898682,-2.65653905648,56.4198963343
off_to_on,-5.40115025074,-10.0907033432,-8.66580422236,-3.54223190561,-4.7913955281,-10.4848219202,-4.99959294328,-5.94492811938,-3.52914861828,-5.27092717675,-6.09863847854,-4.52763979445,-4.53065735202,43.7186698421
off_to_on,-6.50684106191,-11.6750945855,-9.9408463075,-4.22506787316,-5.69714271383,-10.6063529637,-6.25628861398,-6.67533695319,-4.13375961699,-6.26793978455,-6.71660510422,-4.94212444919,-6.16844355376,27.7351389052
off_to_on,-7.28488288734,-12.4452307179,-10.5969617834,-4.74563929386,-6.35304569623,-10.0787716587,-7.25361034955,-7.18290414235,-4.57083442745,-6.96252195498,-6.9140036219,-5.17938022931,-7.44364843585,11.0492824736
off_to_on,-7.67678958777,-12.3670982544,-10.6145377141,-5.09031334153,-6.74517287182,-9.03428400667,-7.93545716258,-7.45226254653,-4.84419917454,-7.32294272683,-6.71539011704,-5.24575630918,-8.25824630464,-3.70392712745
off_to_on,-7.65096216521,-11.4816798627,-10.0240335821,-5.25114580301,-6.86989296285,-7.63283782002,-8.25991548898,-7.47114965802,-4.96181375379,-7.33714995614,-6.17596799156,-5.14960642938,-8.55121440881,-14.1950760844
off_to_on,-7.20651104357,-9.89778218506,-8.90034001338,-5.22536947777,-6.73163529705,-6.04036009599,-8.20075002203,-7.22986222081,-4.93270990257,-7.01226244005,-5.37313207895,-4.89827087953,-8.30379130305,-18.729372397
off_to_on,-6.37413435363,-7.77803009134,-7.35312159449,-5.01497275096,-6.34098439204,-4.40878558193,-7.74871407378,-6.72188158176,-4.76465708902,-6.37299841094,-4.39614764205,-4.49644378724,-7.5407009683,-16.4983611968
off_to_on,-5.21379712117,-5.31981722142,-5.51437330748,-4.62648242625,-5.71346454305,-2.86032209253,-6.91272796233,-5.94569609064,-4.46294301527,-5.45923934978,-3.33531735146,-3.9462420301,-6.32724220943,-7.71732730956
off_to_on,-3.80933601294,-2.7335322028,-3.52467575977,-4.07099348634,-4.86917270734,-1.47763846444,-5.72080931087,-4.90757252675,-4.03044886973,-4.32293056847,-2.27199550089,-3.248950608,-4.76256851528,6.37424578796
off_to_on,-2.26050193892,-0.22062491031,-1.51971050122,-3.36440808224,-3.83320027139,-0.300720788024,-4.22048922898,-3.6247880131,-3.46896642695,-3.02451798863,-1.27064174129,-2.40808455486,-2.96987746607,23.6538242919
off_to_on,-0.673295989712,2.04598575578,0.381509528865,-2.52777175258,-2.63658521883,0.669837377708,-2.47835176171,-2.12866981079,-2.78148159321,-1.62912231274,-0.37379310315,-1.43313614645,-1.08454852741,41.3840209245
off_to_on,0.850296728634,3.93701817153,2.08550948914,-1.5875408014,-1.31739083165,1.46422580711,-0.57831941361,-0.466733375935,-1.97497211779,-0.202660576321,0.399582173513,-0.343214115229,0.758521797694,56.5754338939
off_to_on,2.22195540778,5.37590678071,3.52953403597,-0.575591783164,0.0785591396623,2.13126842497,1.3816117586,1.29672722736,-1.06316381751,1.19186158941,1.05234577841,0.830243451049,2.43706246076,66.3977657737
off_to_on,3.37487557151,6.34108347091,4.68272562169,0.471202181459,1.49773397395,2.72487991724,3.29431297118,3.08206357286,-0.0686762330711,2.49765311842,1.60450667538,2.04238353293,3.85179146835,68.5848420583
off_to_on,4.26884737674,6.8615364967,5.54347570439,1.51195360479,2.88007068071,3.29130948231,5.05002632709,4.79790873579,0.975932349534,3.66680466112,2.08640745614,3.23593903941,4.93395157958,61.778342659
off_to_on,4.89192337438,7.00653708477,6.13357544956,2.50334749139,4.16142034276,3.85907241362,6.54404896067,6.34689942157,2.02855090355,4.66211381262,2.53084525299,4.34444671992,5.64929440993,45.7617681733
off_to_on,5.25847875165,6.87111159558,6.49015052834,3.40178268137,5.27719484243,4.4329326381,7.6849612678,7.63303237051,3.03944698654,5.45791814959,2.9652974978,5.29744972046,5.9981970683,21.5496538898
off_to_on,5.40394952137,6.55931636541,6.65659029203,4.16591956344,6.16691818087,4.99259771744,8.40256983722,8.56992180272,3.95461813815,6.03987299342,3.40537038886,6.02711277802,6.01203996639,-8.68437104274
off_to_on,5.37699380377,6.16758816366,6.67375170654,4.75940284503,6.77919692976,5.4960334819,8.65464333991,9.08903279024,4.7202117814,6.40372385149,3.85038978283,6.4754165608,5.74640431135,-41.8358342881
off_to_on,5.2301929706,5.77037299516,6.57262864176,5.15347413728,7.07650211806,5.88661121687,8.43155332597,9.14689454066,5.28748372867,6.55324952922,4.28174030195,6.60095713868,5.27201205334,-74.2280723281
off_to_on,5.010637146,5.40989192935,6.36944209942,5.32917471924,7.03912226348,6.102764068,7.75809842674,8.73036206927,5.61766263943,6.49767247661,4.66417271981,6.38438132077,4.6645852546,-102.057371486
off_to_on,4.75178543108,5.09132994322,6.06375831243,5.27886821451,6.6677125517,6.08852066634,6.69207606246,7.85918962916,5.68607681232,6.24892680606,4.94989408097,5.83164058952,3.99491370025,-121.868246892
off_to_on,4.46784145206,4.78400503104,5.63982388117,5.00688339077,5.98402122013,5.80323553337,5.31953728935,6.5854807565,5.48498291498,5.8192213995,5.08488244416,4.97452486968,3.32037340637,-130.997416428
off_to_on,4.15155286955,4.42828124987,5.07087229348,4.52917961495,5.0295995275,5.22904043079,3.74706977929,4.98994862911,5.02470188743,5.21932048393,5.01657571684,3.86830213229,2.6789379696,-127.928082831
off_to_on,3.7758692819,3.94722970634,4.32575772561,3.87205711884,3.86256368494,4.37495457584,2.09184480443,3.17530753746,4.33289115605,4.45788046788,4.70190721306,2.58668719454,2.08639230302,-112.507038424
off_to_on,3.29933839324,3.26141020949,3.37695844687,3.07005353838,2.55273706775,3.27714222783,0.470480188652,1.25746966157,3.45203161268,3.54203408792,4.11461896137,1.21473416455,1.53703423821,-85.9944749021
off_to_on,2.67456127039,2.30472217918,2.20880138492,2.16326923684,1.17572002889,1.99540486013,-1.01203543105,-0.644506480102,2.43544595253,2.47921692264,3.25087929525,-0.15946334377,1.00768639819,-50.9379403763
off_to_on,1.85854356257,1.03910992639,0.824714422211,1.19443126944,-0.193420381683,0.606550717408,-2.27207323716,-2.41861502881,1.34235710355,1.28001310767,2.13244835942,-1.45321490046,0.464397593548,-10.8847713649
off_to_on,0.823442747799,-0.533973704162,-0.747580857114,0.206029045487,-1.48609968194,-0.804283222045,-3.25459382262,-3.96913188663,0.232613790394,-0.0384105551715,0.806943517056,-2.5967533186,-0.129152456984,30.0315291798
off_to_on,-0.433924288757,-2.36705307416,-2.45377882009,-0.76216992696,-2.64511829034,-2.15303098839,-3.93700237699,-5.22387986022,-0.838261927178,-1.44887515026,-0.654884583639,-3.53890166031,-0.802769976328,67.5789437345
off_to_on,-1.88535637166,-4.36616124159,-4.21409151744,-1.67498467942,-3.62798244188,-3.36545193534,-4.32915994414,-6.13878183233,-1.82311611707,-2.91144356604,-2.16459113726,-4.25022309615,-1.57168875821,97.9268723869
off_to_on,-3.46855184082,-6.39675332827,-5.92781301134,-2.50292867134,-4.40833469266,-4.38403675982,-4.46955536562,-6.6992896837,-2.68585296844,-4.37202340596,-3.62359423961,-4.72334764951,-2.43054441546,118.095013755
off_to_on,-5.08912169803,-8.29552221966,-7.48098255342,-3.22254376983,-4.97545129843,-5.17219778305,-4.41812533673,-6.91865774245,-3.40254101987,-5.76286414216,-4.93200816702,-4.97056706082,-3.3503294154,126.294637135
off_to_on,-6.62742314747,-9.88686732011,-8.7563865043,-3.81606183913,-5.33203150857,-5.71532461287,-4.24663765414,-6.83340643398,-3.96093931877,-7.00527365589,-5.99777280447,-5.01916722263,-4.27888454946,122.119897619
off_to_on,-7.94963460514,-11.0021402434,-9.64482914957,-4.27059403198,-5.49073362636,-6.01877600109,-4.02786797756,-6.49664671685,-4.35867539164,-8.01458340186,-6.74508033494,-4.90527214339,-5.14500703791,106.566563012
off_to_on,-8.92187533189,-11.4993878669,-10.0564180115,-4.5771105922,-5.47007095902,-6.10333482631,-3.82496051539,-5.97016895481,-4.60049322319,-8.70705758405,-7.12119944859,-4.66716089813,-5.86575926694,81.8780788499
off_to_on,-9.42569511654,-11.2811869645,-9.93057349335,-4.72949069035,-5.2903448051,-5.99900938624,-3.6823456214,-5.31631422845,-4.69510654616,-9.00811691166,-7.10099861094,-4.33906393593,-6.35611153226,51.2412564725
off_to_on,-9.37299309493,-10.3083357619,-9.24359138659,-4.72388968044,-4.97025294294,-5.73827204649,-3.61939346461,-4.59063095871,-4.65222407101,-8.86098119769,-6.68874579515,-3.94634312503,-6.53970873869,18.3730366506
off_to_on,-8.71841350182,-8.60761951264,-8.01284676571,-4.55859522135,-4.52467769616,-5.34986125795,-3.62763711198,-3.83618124113,-4.4802554879,-8.23467180319,-5.91707710387,-3.50272831523,-6.35936318911,-12.9467775676
off_to_on,-7.46751910043,-6.27254755962,-6.29709854959,-4.23443619325,-3.96394889296,-4.85413696539,-3.67194489342,-3.08012105287,-4.18507042369,-7.13028713064,-4.84334220258,-3.00995798107,-5.78587168228,-39.3359437199
off_to_on,-5.67953271337,-3.45678687366,-4.19279119259,-3.75568687485,-3.29462627947,-4.26069932662,-3.69551907866,-2.33287005575,-3.76998926651,-5.5845865667,-3.54381333727,-2.45980174834,-4.8239389909,-58.2046626167
off_to_on,-3.46410246736,-0.360890654829,-1.82670083088,-3.13129371461,-2.52159167276,-3.56860307798,-3.62811005475,-1.58985076037,-3.23696560523,-3.67018379167,-2.10645575412,-1.83808296861,-3.51433980078,-68.0361468499
off_to_on,-0.972299992178,2.78626812647,0.654316927078,-2.37616297549,-1.65102210252,-2.76908354258,-3.39642428137,-0.835455597204,-2.58870945472,-1.4920310339,-0.623078849057,-1.13002209246,-1.93192274034,-68.520299512
off_to_on,1.61719829987,5.74930139899,3.0954012812,-1.51220060757,-0.693664600383,-1.85031695537,-2.93542174118,-0.0486323809312,-1.83133141111,0.81967503236,0.81829076745,-0.326028337833,-0.179591306805,-60.5281029345
off_to_on,4.11516986914,8.30889199429,5.34631652699,-0.568800588508,0.332226148457,-0.803423309518,-2.19907880676,0.790706264455,-0.976986819516,3.11957670459,2.14004872148,0.572996101825,1.62108364786,-45.9356655733
off_to_on,6.34014189962,10.2826034001,7.27333419453,0.417463716457,1.39888551903,0.37127341802,-1.1692486935,1.69532737702,-0.0459818048507,5.25923500738,3.28005870734,1.5517019375,3.3415269857,-27.3264821717
off_to_on,8.13575727928,11.5415692377,8.76917973105,1.40408582816,2.46843592052,1.65876157199,0.138525123571,2.66523058282,0.932127451343,7.09992208557,4.19471882333,2.5783553772,4.85870833243,-7.61570830235
off_to_on,9.38516535808,12.021221287,9.76011182378,2.34481407789,3.49393908782,3.02557038698,1.67302671792,3.68384161466,1.91876491521,8.52471011674,4.85991445121,3.60529599886,6.06707339209,10.3508324214
off_to_on,10.0207848225,11.7249447657,10.2095624596,3.19263699337,4.42210959105,4.41841929774,3.34954931833,4.71637559226,2.86801698946,9.44849065776,5.26997569535,4.57183145692,6.8884383743,24.1686568
off_to_on,10.0283965831,10.7204144657,10.118183246,3.90328506684,5.19744034952,5.76567464559,5.05608654917,5.71064219952,3.72966558207,9.82478966406,5.43497928007,5.40927327519,7.27870042488,32.1692586237
off_to_on,9.44526899281,9.1292550796,9.52056416305,4.43886426395,5.767268792,6.98162949255,6.66291600638,6.60028447315,4.45325708574,9.64862881976,5.37690141387,6.0475273465,7.23063916795,33.6012392968
off_to_on,8.35279276718,7.1114694232,8.47926070519,4.77118408966,6.08715598407,7.97325183218,8.03457237458,7.31017014506,4.99272180094,8.95517316465,5.12522207041,6.42244728447,6.77259851504,28.6785738748
off_to_on,6.86480082528,4.8466860435,7.07703756802,4.88435200383,6.1258835006,8.648723582,9.04294230014,7.76341731442,5.31095687579,7.81443193305,4.71259456457,6.48306326467,5.96337249591,18.4955048725
off_to_on,5.11327188319,2.51461442905,5.4083785587,4.77627794813,5.86940382371,8.92685578553,9.58009573527,7.88935689355,5.38376929325,6.32277076136,4.17112950903,6.19782163922,4.88409985857,4.82581325412
off_to_on,3.23339386319,0.277118669324,3.57130830826,4.4588596538,5.32320487659,8.74634003464,9.56950704859,7.63162762032,5.20264682829,4.59237945587,3.52971101486,5.55910266401,3.62833311587,-10.1606335301
off_to_on,1.34995731369,-1.73597246012,1.66042686935,3.95678461214,4.51274963352,8.07379280161,8.97450397752,6.95557232449,4.77597405926,2.74006497258,2.81258490146,4.58550169537,2.29163939821,-24.2211193622
off_to_on,-0.433235680256,-3.43576853977,-0.238201928153,3.30506516673,3.48189851814,6.90966364172,7.8030873198,5.85415579255,4.12851566488,0.876771489524,2.03925842037,3.32162937542,0.962088159371,-35.3564728929
off_to_on,-2.03978038531,-4.77714735943,-2.05000274833,2.54559317245,2.28948014951,5.29129242879,6.10865073829,4.35174759249,3.29922027983,-0.900936137747,1.22555529939,1.83547007972,-0.287212170999,-42.0769394276
off_to_on,-3.4224032439,-5.7555809352,-3.71273540154,1.72313491657,1.00440853097,3.29268743111,3.98655280307,2.50529502071,2.3376212687,-2.51652792124,0.385504208272,0.213597956319,-1.40271904463,-43.5828092774
off_to_on,-4.56025499366,-6.39885622828,-5.17561917609,0.881264971649,-0.300080070763,1.02092194708,1.56690573271,0.402635728166,1.29929339715,-3.91586654237,-0.466375922655,-1.44524439394,-2.35185051401,-39.8385656481
off_to_on,-5.4526685366,-6.7552769066,-6.39736868133,0.0587466061862,-1.552402693,-1.39062220915,-0.995695386603,-1.84205176416,0.240940216896,-5.06634391626,-1.31287979227,-3.03756818277,-3.12131190153,-31.5352627805
off_to_on,-6.1108009025,-6.88038304387,-7.3439093243,-0.713196540065,-2.68814680111,-3.79163308601,-3.5345069135,-4.09540780162,-0.784280170319,-5.95336018315,-2.13247361818,-4.4628756634,-3.71295159592,-19.9519052294
off_to_on,-6.54885785046,-6.82437568516,-7.98653886631,-1.41239990988,-3.65454427062,-6.02608906913,-5.88387591972,-6.21417029886,-1.7306371888,-6.57509460305,-2.89858337022,-5.63105363183,-4.13809125546,-6.7404834016
off_to_on,-6.77660207543,-6.62226132061,-8.30116477432,-2.02592495452,-4.41347783801,-7.94436752162,-7.89218241152,-8.05587432326,-2.56249535204,-6.93674190366,-3.58004632401,-6.46885358385,-4.41146491156,6.33087204468
off_to_on,-6.79457162854,-6.28826156719,-8.26899699439,-2.54892605456,-4.94280480037,-9.41519973939,-9.43335497646,-9.49011717572,-3.25553329492,-7.04541410214,-4.14278000669,-6.92501828244,-4.54590428536,17.637675693
off_to_on,-6.5929265517,-5.81533260056,-7.87875193457,-2.98245996329,-5.2360093653,-10.3364328942,-10.4160042474,-10.4094403605,-3.79649661238,-6.90673146223,-4.55253226108,-6.9737607418,-4.54872527976,25.9241650852
off_to_on,-6.15417802051,-5.17980795654,-7.13007777701,-3.330636062,-5.30040638514,-10.6436498537,-10.7894709034,-10.7388619879,-4.18167850043,-6.52377400229,-4.77840016501,-6.61644381212,-4.42043310586,30.4626852656
off_to_on,-5.45933973759,-4.35033835901,-6.03760044586,-3.59760366441,-5.15428605708,-10.3158670463,-10.5463872346,-10.4431575769,-4.41449757727,-5.89859251718,-4.79666816306,-5.88143165247,-4.15592531399,31.1272609801
off_to_on,-4.49638978893,-3.29957773439,-4.63476667935,-3.78489723893,-4.82349007973,-9.37776547145,-9.72167307218,-9.53113514971,-4.50265567538,-5.03596183792,-4.59443660366,-4.82218135161,-3.74790392015,28.3745754641
off_to_on,-3.26944893344,-2.01656568731,-2.97656692581,-3.88960674682,-4.33793392823,-7.89819328294,-8.38819856642,-8.05637635329,-4.45539387179,-3.94858470141,-4.17250330367,-3.51371486386,-3.19178621366,23.1393559624
off_to_on,-1.80685060454,-0.517563100293,-1.14027900271,-3.90371479493,-3.72853840052,-5.98498978808,-6.64962173883,-6.11420587752,-4.28131863988,-2.66260378321,-3.54702619863,-2.0476658491,-2.49109882623,16.6633706088
off_to_on,-0.16634391122,1.1467537916,0.776416137327,-3.81476217344,-3.02491868866,-3.77649748099,-4.63112697763,-3.83498567532,-3.98715037543,-1.22211666965,-2.74962837606,-0.526144031114,-1.66220405919,10.2861528674
off_to_on,1.56396613687,2.88935652185,2.66025583544,-3.60779419967,-2.25402214652,-1.43042650534,-2.46893694416,-1.37418039765,-3.57757339809,0.308549684886,-1.82579254461,0.945287851118,-0.737268178943,5.23001665031
off_to_on,3.26972298922,4.59105171386,4.3900395503,-3.26833253456,-1.43973318811,0.88901024486,-0.299536556338,1.10002718083,-3.05616760097,1.84576055443,-0.831607592705,2.26516567376,0.235365494424,2.41143300215
off_to_on,4.81947063403,6.11074307842,5.84653089858,-2.78594163624,-0.603302923979,3.02458740404,1.75046785089,3.42051267601,-2.42720868461,3.2911675802,0.170852034216,3.34377026262,1.19382523444,2.30567578777
off_to_on,6.07802797054,7.30076375385,6.92364567149,-2.15784255751,0.235663468352,4.83898226986,3.57302405513,5.43512831534,-1.69796672496,4.53984944109,1.11904155133,4.11035639335,2.06830090453,4.88275325519
off_to_on,6.92250839308,8.02542112011,7.53965104843,-1.39198811675,1.05799962421,6.22592287161,5.08517465784,7.01943594099,-0.881036306596,5.49123827883,1.95574377401,4.51938699505,2.78897061037,9.62148102835
off_to_on,7.25885277347,8.18027375127,7.64695650783,-0.509060372238,1.84389836565,7.11849887734,6.23300739123,8.08698505383,0.00378925839092,6.06150552721,2.6344717002,4.55516342609,3.2952023623,15.5968539946
off_to_on,7.03648117324,7.70936989965,7.23912222576,0.457020667092,2.57225646151,7.49379826172,6.99280853166,8.5960621334,0.928528616498,6.19568076841,3.12381630862,4.23426688902,3.54465708902,21.6253834332
off_to_on,6.25875246659,6.61777588402,6.35395255274,1.4602953817,3.22064225505,7.37336312818,7.36947629823,8.55216140593,1.85720809258,5.87761872778,3.41018482224,3.60532433461,3.52081036388,26.4452749466
off_to_on,4.9873567511,4.97721436143,5.07195913285,2.44565668324,3.76595693013,6.81936018337,7.39250623463,8.00585208091,2.74736299746,5.13605526788,3.49855536103,2.74579391011,3.23753308493,28.9042618285
off_to_on,3.33950593573,2.92346410958,3.51002298569,3.35318454999,4.18572583424,5.92679833121,7.11008474051,7.04620122709,3.5527622489,4.04540443997,3.4111102021,1.75572658071,2.73972003211,28.1280070246
off_to_on,1.47773914956,0.645241643118,1.81068952058,4.12346048794,4.45983802042,4.8125528151,6.58199894374,5.79040252546,4.2270790056,2.72060255009,3.18387328178,0.748783427756,2.0994882542,23.6460338926
off_to_on,-0.406807313352,-1.63454980405,0.128115292812,4.7032459887,4.57246912355,3.60232373896,5.87217322928,4.37070162349,4.7280727097,1.30611930076,2.86173488291,-0.158860912469,1.40811263014,15.4593481252
off_to_on,-2.11584701534,-3.68321622559,-1.38783047961,5.05083605639,4.51388733894,2.41692003989,5.04166262619,2.92004302981,5.02175259081,-0.0398814670643,2.49246384093,-0.860763911125,0.764530853906,4.04303908106
off_to_on,-3.46752697152,-5.28544364775,-2.6074937361,5.14041819302,4.2818586777,1.35937958696,4.14286581001,1.55804489056,5.08597419641,-1.16446397831,2.1204550987,-1.27237819902,0.261833984572,-9.71326477699
off_to_on,-4.31913071719,-6.26984311435,-3.43548559978,4.96487787384,3.88243106599,0.504387567716,3.21556922883,0.378905968977,4.9129821948,-1.93957263385,1.78101600207,-1.34174985447,-0.0264317734371,-24.6156254086
off_to_on,-4.58584831767,-6.53137821131,-3.82110011143,4.53667966163,3.32997474564,-0.108767097718,2.28521157012,-0.557345769981,4.51054580506,-2.27977410528,1.49594748803,-1.05737532085,-0.0581630774268,-39.3088962233
off_to_on,-4.25294827157,-6.04656234175,-3.76373164045,3.8866938069,2.64647094788,-0.478838369881,1.36348606072,-1.2292269545,3.90151830064,-2.15552235422,1.27102848493,-0.45202404286,0.169070222035,-52.4315872697
off_to_on,-3.3794589502,-4.87912805927,-3.3125022058,3.06109893875,1.86015188164,-0.64051611818,0.451105852411,-1.65327272835,3.12186192289,-1.59982389545,1.09577895951,0.398305186924,0.614925318637,-62.7614580096
off_to_on,-2.09253166856,-3.17502746633,-2.56000960555,2.11673664537,1.00368391482,-0.657777657985,-0.45772147718,-1.87868440912,2.21738342046,-0.706954863193,0.945586485094,1.38061488355,1.19913623595,-69.3339988856
off_to_on,-0.572876093041,-1.14697647718,-1.63084213477,1.11548965226,0.112138108948,-0.613477282546,-1.36979597335,-1.9778304206,1.23959351385,0.377106073285,0.78596903953,2.35603726757,1.81032988155,-71.5215689812
off_to_on,0.967132103095,0.949869353947,-0.666179196341,0.11837487929,-0.778999494711,-0.596447202267,-2.28724248204,-2.0338189942,0.241211575394,1.47174481808,0.578453317268,3.17493422467,2.31997250799,-69.0679087949
off_to_on,2.31003880443,2.84830794937,0.193680943039,-0.819930637308,-1.63556075369,-0.687736513489,-3.20253196223,-2.12676100369,-0.72813048068,2.38441981126,0.287312597957,3.6944620625,2.59982824006,-62.0798255378
off_to_on,3.26125307638,4.30187211259,0.826727149093,-1.65548277226,-2.42602500482,-0.947774388093,-4.09503147656,-2.32054477642,-1.6254775522,2.93627533181,-0.11373557757,3.79665391878,2.54071481861,-50.983884801
off_to_on,3.67472352338,5.11589552851,1.14440687969,-2.35789058448,-3.12239039804,-1.40617915258,-4.92972958573,-2.6519177267,-2.41704404876,2.98737972336,-0.635801580213,3.40484486059,2.07002555485,-36.4600102837
off_to_on,3.47293204744,5.17286391445,1.10264421682,-2.91129336645,-3.70062648829,-2.05564392719,-5.6585091554,-3.1234070393,-3.07939039284,2.45818667044,-1.27090319234,2.49629891254,1.16550915205,-19.3654535747
off_to_on,2.65845445754,4.44868340058,0.707286696854,-3.31347900443,-4.14082673787,-2.85083976676,-6.22399839714,-3.70113925146,-3.59926067864,1.34415617526,-1.99048331248,1.10921097143,-0.136826681589,-0.661574378699
off_to_on,1.31538928423,3.0175862561,0.0132551700635,-3.57338129331,-4.42722817417,-3.71264464653,-6.56566473762,-4.31799125266,-3.97225247236,-0.278755949686,-2.74669882497,-0.657169688707,-1.7421324907,18.647345022
off_to_on,-0.399741109779,1.04480512842,-0.882533507592,-3.7074097371,-4.54827400735,-4.53730908164,-6.62747253097,-4.88180060159,-4.20065114088,-2.25891335806,-3.47646039252,-2.64977046402,-3.50397763048,37.5586723533
off_to_on,-2.27663084268,-1.23229849325,-1.85360459304,-3.73521403677,-4.49686160972,-5.20949712168,-6.36615262844,-5.28767215951,-4.29086656301,-4.38396828204,-4.10783907901,-4.67586512165,-5.2389397003,55.0998788169
off_to_on,-4.07710979987,-3.53247008228,-2.76016485498,-3.67554649453,-4.27084897209,-5.61758614329,-5.75897104533,-5.43283346955,-4.25094467327,-6.40447623884,-4.56812880408,-6.52286962254,-6.7469955998,70.3458155992
off_to_on,-5.56508352535,-5.56474175268,-3.46708610428,-3.54285097506,-3.87380072659,-5.66924972178,-4.80986461508,-5.23209482655,-4.08858604578,-8.06344168786,-4.79260798511,-7.98166848853,-7.8353384517,82.4326680694
off_to_on,-6.53665849918,-7.06432080476,-3.86134109031,-3.34508245381,-3.31585805705,-5.30524105003,-3.55294546615,-4.63182098739,-3.80999615031,-9.12819397339,-4.73291435637,-8.87081686475,-8.34268284286,90.5772131434
off_to_on,-6.84654358317,-7.82567540612,-3.86666172653,-3.08306490994,-2.61453503092,-4.50946392094,-2.05265512215,-3.62044814596,-3.41973474656,-9.42055818458,-4.36395462693,-9.05871444242,-8.1609325876,94.108446503
off_to_on,-6.42726376067,-7.72861064397,-3.45354202753,-2.75145588521,-1.79519502092,-3.31385137351,-0.400244395049,-2.23397414268,-2.92155032196,-8.84137525318,-3.68841862348,-8.48095827879,-7.25130868769,92.5150272067
off_to_on,-5.29863307053,-6.75398203694,-2.64330691047,-2.34113801467,-0.89095777645,-1.79721926757,1.2932793091,-0.555467553873,-2.3200082721,-7.38604313453,-2.7382406835,-7.15055611862,-5.65265319509,85.5069931272
off_to_on,-3.5661921094,-4.98699032764,-1.50573566427,-1.84263698431,0.058164451532,-0.0780425870261,2.90711888339,1.29159358545,-1.62257655887,-5.14882770664,-1.57271715825,-5.15947530712,-3.48056568367,73.0848179595
off_to_on,-1.40875556274,-2.60757515588,-0.150564902309,-1.2500035099,1.00700829862,1.69808579452,4.32252598851,3.15552830204,-0.841742625232,-2.31509508129,-0.273402612857,-2.67102514579,-0.917175459869,55.6042254036
off_to_on,0.943355229864,0.130928064199,1.28601006772,-0.564517438685,1.90785508389,3.37482067151,5.43515722834,4.87282351066,0.00328541635545,0.857834342711,1.06368417218,0.0963017787737,1.80744394296,33.8222955407
off_to_on,3.23659281034,2.9321994906,2.65806955611,0.202413429685,2.71371323607,4.80320887763,6.16644444134,6.28669406084,0.885688400657,4.06902018787,2.33766348881,2.89181482556,4.44011068459,8.91007666379
off_to_on,5.2253170497,5.49258210459,3.82775983358,1.027680517,3.38198364581,5.85927689882,6.47251656868,7.26550869122,1.77123477759,7.00800539408,3.45308231505,5.45981665049,6.73266478339,-17.5804807099
off_to_on,6.70174824563,7.53746335306,4.68183450722,1.87656440079,3.87810113854,6.45874566883,6.34944728418,7.71870968128,2.61968254991,9.39046946405,4.32965712693,7.56778245275,8.46995758968,-43.8020632132
off_to_on,7.52087014936,8.8538042396,5.14482171963,2.70458902584,4.17869532668,6.56689149798,5.83401353404,7.60811887912,3.38731248063,10.9909573177,4.91029488787,9.0321077945,9.49422743057,-67.7492856668
off_to_on,7.617092069,9.3147393961,5.18715272909,3.46098844904,4.27383033363,6.20218497361,4.99968915073,6.95307395095,4.03034061127,11.6685411525,5.1664196043,9.73823976023,9.72280297192,-87.4384528406
off_to_on,7.01058211741,8.89321117826,4.82726726306,4.09339899946,4.16796836738,5.43315320012,3.9481989307,5.82860933071,4.50881199979,11.3821552188,5.09996432449,9.65265707871,9.15689496232,-101.112272632
off_to_on,5.80256169698,7.66303222,4.1275185148,4.55320566951,3.87944893157,4.36881770354,2.79754455324,4.35678842229,4.79048778168,10.1936652223,4.74180736664,8.82515782002,7.88035708908,-107.445509894
off_to_on,4.16031810045,5.78740490807,3.18452712909,4.80086501708,3.43846531605,3.14393766673,1.66790546821,2.69219045605,4.85421821271,8.25832261018,4.14688303268,7.38112596667,6.04857248276,-105.724081319
off_to_on,2.29404939532,3.49654684908,2.11536780771,4.81051317849,2.88372661925,1.90101380982,0.667145560991,1.00333712687,4.69234872549,5.80389847344,3.3866220235,5.50472552737,3.86888625569,-95.9704728616
off_to_on,0.428720511162,1.05746466188,1.04151557913,4.57324905359,2.25818636879,0.771478206174,-0.122230725065,-0.547596186531,4.31182660955,3.1012715139,2.53971876414,3.41514543373,1.57508866674,-78.9929243887
off_to_on,-1.22526109459,-1.26009880026,0.0727585405721,4.09864827476,1.6043676053,-0.141361202692,-0.652954984915,-1.82418138071,3.73384518822,0.430359025809,1.68243565838,1.33893265178,-0.600786856588,-56.3442420226
off_to_on,-2.49863063885,-3.21707424033,-0.706736995729,3.41429041011,0.959893939122,-0.775262573752,-0.918343673774,-2.73173044476,2.99205556112,-1.95412339559,0.879708331134,-0.518021359318,-2.45575387541,-30.1874073653
off_to_on,-3.28361159744,-4.63351250707,-1.24834071338,2.56333866701,0.353830697835,-1.11606128943,-0.952308787024,-3.22777897832,2.12956486038,-3.85259191427,0.178202455648,-1.99521134032,-3.83879406325,-3.0778757198
off_to_on,-3.54541002751,-5.40846678328,-1.54355402042,1.60046275917,-0.195653865759,-1.19773724565,-0.823896887939,-3.32566415471,1.19509703754,-5.14233983916,-0.397794569687,-2.9957516414,-4.66654661927,22.3152063999
off_to_on,-3.32348024777,-5.52889765193,-1.62273418186,0.586607082225,-0.68197064681,-1.09548540992,-0.626941054467,-3.09070166188,0.238794838921,-5.78835342346,-0.847150564647,-3.49574435645,-4.92987372816,43.5165417258
off_to_on,-2.72259330568,-5.06668376112,-1.54821082931,-0.416750864105,-1.10902880837,-0.912721476571,-0.466075537958,-2.62944513789,-0.691824550517,-5.84195292714,-1.18929278552,-3.5435850688,-4.69062653918,58.5424531459
off_to_on,-1.8951293154,-4.16442058673,-1.40283660902,-1.35315181507,-1.48854154828,-0.763826357481,-0.440885039652,-2.07343875117,-1.55528676791,-5.42768011018,-1.45866093871,-3.24935198746,-4.06923620245,66.1492023692
off_to_on,-1.01719547817,-3.01217865816,-1.27564606915,-2.17585525881,-1.83611239816,-0.755067869518,-0.630265395887,-1.55962386813,-2.3185821368,-4.72045876129,-1.69703854928,-2.76576113513,-3.22496370517,65.9965494397
off_to_on,-0.261983635481,-1.81857179545,-1.24669756539,-2.85115597459,-2.16669182352,-0.966441536241,-1.0791126216,-1.21003124642,-2.958378476,-3.91637937141,-1.94488965085,-2.26332119338,-2.33159871513,58.7008468611
off_to_on,0.225883402886,-0.780199832145,-1.37328741112,-3.35998025028,-2.49011018798,-1.43709565251,-1.78921901515,-1.11351418715,-3.46099161514,-3.20132029722,-2.23297306438,-1.90312915666,-1.55197378786,45.7657006705
off_to_on,0.35145041799,-0.0536873119673,-1.67953815377,-3.6976635739,-2.80740922825,-2.15655175651,-2.71576134549,-1.3120346091,-3.82125929311,-2.7218964021,-2.57547837368,-1.81109878211,-1.01478015722,29.3943627908
off_to_on,0.0830781753342,0.265876036925,-2.15089922751,-3.8720575386,-3.10860349849,-3.06315646612,-3.77007460238,-1.79343122809,-4.04061483285,-2.56288263758,-2.96572797692,-2.05725477971,-0.796820795941,12.2043687116
off_to_on,-0.543190532085,0.157213966389,-2.73442134849,-3.9003332578,-3.37231478559,-4.05020645193,-4.82860080979,-2.49175098275,-4.12475743072,-2.73434031244,-3.37514344192,-2.6430717735,-0.913065058236,-3.12080586007
off_to_on,-1.42907472009,-0.325710006292,-3.34486782285,-3.80501168603,-3.5674600693,-4.9791100091,-5.74708856367,-3.29522198942,-4.08135190429,-3.17030343278,-3.75572707742,-3.49877032458,-1.31578333786,-14.1982360322
off_to_on,-2.42847169615,-1.06318236061,-3.87591475978,-3.60983610452,-3.65687279809,-5.6979355215,-6.37840175354,-4.06092096647,-3.9181581165,-3.73924959009,-4.04582062255,-4.49114154939,-1.9027882857,-19.2810913951
off_to_on,-3.36877232444,-1.88870700551,-4.21497804423,-3.33609815511,-3.60244061998,-6.06289209771,-6.59177171335,-4.63427685211,-3.64189536686,-4.2649093902,-4.17843804302,-5.44103456355,-2.53356155592,-17.5165097199
off_to_on,-4.07606147924,-2.61471926313,-4.25968467218,-2.99993830285,-3.37109372203,-5.95980743668,-6.29106900766,-4.87087780944,-3.25800560152,-4.55449129577,-4.09109189834,-6.14829971237,-3.0509707013,-9.08801062923
off_to_on,-4.40067349912,-3.06140523248,-3.93375033751,-2.61097876431,-2.94081464885,-5.32258603889,-5.42971905871,-4.65770290534,-2.77131411179,-4.4303201147,-3.73579484159,-6.42091715775,-3.30552427345,4.78085391054
off_to_on,-4.23954572628,-3.08457807865,-3.20006901595,-2.17243606158,-2.30578979843,-4.14596655901,-4.02024047758,-3.93093124322,-2.1874236821,-3.76035817395,-3.08785356395,-6.10440135619,-3.17877509298,21.9666992557
off_to_on,-3.55227502881,-2.59870928712,-2.06915856741,-1.68263222707,-1.47989623494,-2.49061199713,-2.1370068775,-2.68788905307,-1.51454355063,-2.48317437419,-2.15219299728,-5.107448335,-2.60260544621,39.7159105225
off_to_on,-2.36866412344,-1.59188889336,-0.601694601072,-1.13761111719,-0.497908987751,-0.479568819518,0.088352779938,-0.991427995006,-0.765369198871,-0.623638043839,-0.966240323832,-3.42020735693,-1.5716942417,55.0110205489
off_to_on,-0.786721220712,-0.130598558208,1.09537463458,-0.534399504584,0.585899547288,1.7137121407,2.47859471591,1.0340088672,0.0413936720674,1.70315249497,0.401175184115,-1.12246269456,-0.147395796698,64.9869745278
off_to_on,1.03861625574,1.64642812882,2.87880704931,0.125645032778,1.70175256202,3.88444568918,4.82833873496,3.21430876961,0.880223880044,4.30060848864,1.85494401569,1.61970977521,1.54757475163,67.3421388504
off_to_on,2.91450545147,3.54450216646,4.58401882021,0.833972639202,2.77058388107,5.82033250924,6.92543507425,5.34424043819,1.71895751748,6.91122987466,3.28233685869,4.56875800803,3.34301191231,60.6879749623
off_to_on,4.63440374982,5.33730388122,6.04323579504,1.57297070141,3.71178878142,7.32709570246,8.57375650551,7.21041296619,2.52005033157,9.24656461493,4.56425388814,7.44038464408,5.04185662367,44.7880035285
off_to_on,6.00421240182,6.7960268783,7.10464285096,2.31544688088,4.45159212898,8.25240624394,9.61473901134,8.61583980557,3.24287210051,11.0227711672,5.58776201644,9.9353158281,6.44490213477,20.6503008588
off_to_on,6.86688210659,7.71948617464,7.65018357918,3.02563343538,4.93100162634,8.50502246604,9.94511084642,9.4030829519,3.84681049402,11.99718712,6.25843015773,11.774267003,7.37632816114,-9.54340587985
off_to_on,7.12224376674,7.96120629224,7.60981508632,3.66166114369,5.11233721378,8.06655274593,9.52868390279,9.4731168558,4.29482666457,12.0010966172,6.51097118277,12.7317868304,7.70671251112,-42.6674075805
off_to_on,6.73949862962,7.44990513726,6.97045259069,4.17923812847,4.9834877028,6.99419255179,8.4007800883,8.79758045709,4.55702006132,10.9643187163,6.31688670548,12.6647333491,7.37050374556,-75.0143841487
off_to_on,5.76080706701,6.20066047847,5.77848896217,4.53609223387,4.55932323367,5.41396350662,6.66474212844,7.42290911091,4.61373894333,8.92825248358,5.68816375586,11.5317534566,6.37566833547,-102.746062625
off_to_on,4.2956129606,4.31526757272,4.13556080471,4.69661986017,3.88005112885,3.50523644714,4.48092339625,5.46584822499,4.457819461,6.04547830692,4.67654593533,9.40122004685,4.80425026348,-122.375022975
off_to_on,2.50656616237,1.97170386807,2.18805420777,4.63614499505,3.00669529554,1.47848372057,2.04944711289,3.10091594103,4.09564352882,2.56573453797,3.36843552142,6.44649234027,2.8037613036,-131.215240302
off_to_on,0.588993428824,-0.595977524435,0.11159604845,4.34423442886,2.01425234637,-0.450879863484,-0.41123975224,0.541366102932,3.54685846431,-1.19016337529,1.87600937007,2.92892354329,0.570498918094,-127.741963494
off_to_on,-1.25332463509,-3.12478391332,-1.90763262383,3.82663222061,0.983379992375,-2.08916846703,-2.68750870989,-1.98401974977,2.84277720577,-4.86534787145,0.325583905272,-0.82945297902,-1.67308879755,-111.812532157
off_to_on,-2.83288874379,-5.35352940303,-3.69256705696,3.10555151066,-0.00833677985266,-3.28812088222,-4.59270428608,-4.25550784458,2.02365115896,-8.10661260436,-1.15541345617,-4.48036362451,-3.70413667252,-84.7173376878
off_to_on,-4.00055259958,-7.05334598029,-5.09363471259,2.21827010697,-0.894445303904,-3.96250864266,-5.98578014311,-6.08543507343,1.13515316978,-10.6039668731,-2.45135664015,-7.68680255865,-5.32498337256,-49.0520362052
off_to_on,-4.66218075934,-8.05418630597,-6.00375180156,1.21418907096,-1.62600982892,-4.09933919444,-6.78434402217,-7.337009274,0.224504848055,-12.1252163019,-3.46974145471,-10.1591946647,-6.38552930779,-8.42540921121
off_to_on,-4.78791889366,-8.26409811741,-6.36829681899,0.150701894236,-2.17554998474,-3.75744481079,-6.9707406339,-7.93679390412,-0.663283077872,-12.5414011793,-4.14965281332,-11.6859925726,-6.79964291128,32.9611806169
off_to_on,-4.41311695534,-7.67900253896,-6.18904580338,-0.911639144967,-2.53809443902,-3.0575226358,-6.59065680616,-7.87960741772,-1.48862072341,-11.8400934263,-4.46648126777,-12.1551961544,-6.55372059722,70.8098821131
off_to_on,-3.63105578519,-6.38192947426,-5.52178739919,-1.91410078486,-2.72930090032,-2.16396248269,-5.74463332878,-7.22552637908,-2.21965548374,-10.1250880777,-4.43245751853,-11.564413322,-5.70652135346,101.235162719
off_to_on,-2.5786826976,-4.53198993524,-4.46808150849,-2.80433482467,-2.78098743225,-1.26089661364,-4.57370108194,-6.08964998657,-2.83349002764,-7.60272214367,-4.09308133062,-10.0184848756,-4.38049781767,121.220804092
off_to_on,-1.4174231679,-2.34462548326,-3.16229223296,-3.54005139831,-2.73476388997,-0.525682393365,-3.24102398218,-4.62613882862,-3.31626062802,-4.55669187637,-3.52000662794,-7.71519379414,-2.74588818963,128.967386515
off_to_on,-0.31169616294,-0.0657100781872,-1.75553574684,-4.09145296864,-2.6346991931,-0.103379886338,-1.91185017803,-3.00867726389,-3.66219831029,-1.31460988804,-2.8013477272,-4.92098278338,-0.999685840884,124.086983087
off_to_on,0.592043466403,2.05723557302,-0.398480808071,-4.44225618767,-2.52007663208,-0.0856644353208,-0.734200631887,-1.40985328581,-3.87193459827,1.78952327578,-2.03064494018,-1.93974122587,0.657836583819,107.621847736
off_to_on,1.18309275156,3.80319872422,0.775003676472,-4.58931633039,-2.41926013256,-0.497034510716,0.177446781981,0.0180311292675,-3.95040814937,4.45237125204,-1.29584115351,0.921540206142,2.04616543675,81.8868747812
off_to_on,1.39899376717,5.00186678908,1.66154010981,-4.54104414994,-2.3455242631,-1.29021421818,0.753659207652,1.15850223346,-3.9047649804,6.43346931489,-0.669565666075,3.38619225879,3.02442373546,50.1584353853
off_to_on,1.23137987842,5.55111856956,2.19784442487,-4.31494405604,-2.29541413495,-2.35143506718,0.975563937043,1.94115284158,-3.74261898838,7.57895148847,-0.201810327072,5.23655312476,3.50585687867,16.2518018099
off_to_on,0.724736050495,5.4259857519,2.36534606347,-3.9346877811,-2.24983857724,-3.51497377866,0.87396906378,2.34566223006,-3.4709563367,7.8343230525,0.0842520625427,6.33479689039,3.46544170313,-15.9568415423
off_to_on,-0.0314391571783,4.67835554397,2.18954655132,-3.42715976024,-2.17771175688,-4.58509490012,0.522468258639,2.39950296459,-3.0958409599,7.24523173794,0.192969512892,6.63382774385,2.940029844,-43.0016133494
off_to_on,-0.915765544967,3.42782913753,1.73445305106,-2.81986929229,-2.04159862981,-5.36256061141,0.0256181477847,2.17002895711,-2.6229293688,5.9466929787,0.153530431676,6.17741725252,2.02136080319,-62.2313332741
off_to_on,-1.79149833881,1.84519352294,1.09296762223,-2.13902924605,-1.80453783036,-5.67225467976,-0.496174015073,1.75229697999,-2.05865484764,4.14260679333,0.0144016822749,5.09006332575,0.843115358842,-72.0971234229
off_to_on,-2.52419778678,0.1307803381,0.374525891761,-1.40846820168,-1.43705023811,-5.38830296285,-0.92308705664,1.25442268202,-1.4118174129,2.07849494175,-0.164292063786,3.55823632928,-0.43617430618,-72.2897367331
off_to_on,-2.99830251495,-1.50951600684,-0.308480379458,-0.649393897272,-0.923314507615,-4.45337940749,-1.15160633977,0.782465120085,-0.695236013292,0.0110605736139,-0.319419573575,1.80560963129,-1.65215537049,-63.7137376101
off_to_on,-3.13063293964,-2.88765370244,-0.853911434779,0.11911631462,-0.265604997018,-2.88962251305,-1.10766235607,0.426760346466,0.0729040233485,-1.82163780809,-0.393427896199,0.0654463303458,-2.65332997977,-48.3075010322
off_to_on,-2.87936255947,-3.85361113189,-1.18126582986,0.879136450841,0.513674022485,-0.799655219371,-0.755714155414,0.25130988825,0.868338536821,-3.22590082977,-0.341832486288,-1.44652164045,-3.31727112418,-28.7380960758
off_to_on,-2.24765942432,-4.31016391256,-1.24008153341,1.61273266626,1.37269502249,1.64253888592,-0.102855467926,0.287329834355,1.66088583812,-4.07120956691,-0.138774221887,-2.55563010083,-3.56270726766,-8.01579224042
off_to_on,-1.28191859959,-4.22089435692,-1.01458990512,2.30094869565,2.2536182536,4.2098420193,0.802343847409,0.531457979245,2.41558828072,-4.30039356574,0.219914710081,-3.14574346302,-3.35640692335,10.9178534134
off_to_on,-0.065179486603,-3.61094017424,-0.524320466692,2.92322327274,3.08830385712,6.6471397694,1.87591163126,0.94848714598,3.09478781884,-3.93056340487,0.716363786244,-3.16901087965,-2.71447804415,25.5726994691
off_to_on,1.29313672913,-2.56087386483,0.179184013434,3.4574425408,3.80561163152,8.70031152193,3.0085517956,1.47792691533,3.66093936187,-3.04539836419,1.31292777097,-2.64729163058,-1.69836927522,34.2137949491
off_to_on,2.66968598169,-1.19487987016,1.01897147396,3.88071378308,4.33936307693,10.1455404276,4.0783942428,2.04326401028,4.07984174085,-1.78039554659,1.95665333638,-1.66563510659,-0.406437304168,36.0489830528
off_to_on,3.94024786311,0.335025329019,1.90171430197,4.17081660585,4.63595397823,10.8153823003,4.96484282683,2.56254115983,4.3238871729,-0.303423936314,2.58531258245,-0.359096261891,1.03763716928,31.2802348484
off_to_on,4.99184520048,1.86666135615,2.72808529498,4.30816453531,4.66065488792,10.6184511943,5.56190670324,2.95882499918,4.3749086077,1.20669144589,3.13423283443,1.10515452583,2.49808014088,21.0179275782
off_to_on,5.73270121418,3.2451227358,3.40332180552,4.27801290597,4.40181268954,9.55038442038,5.78955056351,3.16927609309,4.22624398928,2.58082798027,3.5431205438,2.54807462167,3.84037853277,7.07603235454
off_to_on,6.09920544034,4.33808043228,3.84688499031,4.07259269293,3.872443161,7.69483416289,5.60190969589,3.15183337219,3.88373180605,3.67708771066,3.76214357261,3.79890972152,4.94339965802,-8.31821805152
off_to_on,6.05952332471,5.04745815346,4.00029126998,3.69284291536,3.1090431476,5.21445588286,4.99163814197,2.88892694926,3.36548953565,4.3934294296,3.75668334306,4.71304864853,5.70922277383,-22.856217876
off_to_on,5.61393342015,5.31655444898,3.83244411041,3.14945720147,2.16780509154,2.3330698114,3.99013397061,2.3880731736,2.70048568978,4.6744507265,3.51037004882,5.18580557094,6.07001759801,-34.4735693464
off_to_on,4.79234823064,5.13229680621,3.34209189162,2.46304630708,1.11873876326,-0.68878896768,2.66385451232,1.67961948126,1.92607389768,4.51220153259,3.02623946204,5.16098524954,5.99171344228,-41.6244122157
off_to_on,3.64972599687,4.52290265962,2.55734655747,1.66333467725,0.0384531621059,-3.58196961439,1.10734178676,0.812238868147,1.08479090529,3.94168018625,2.32606793029,4.63378300104,5.47457487288,-43.4686574531
off_to_on,2.26019065664,3.55171313815,1.53248548453,0.787438075632,-0.997505089229,-6.09712295096,-0.566117956742,-0.153014037147,0.220810314292,3.03226120489,1.44812630779,3.64824772221,4.55109107643,-39.9500638341
off_to_on,0.710650031153,2.30830698439,0.342499230475,-0.122608216439,-1.92183767064,-8.03015179433,-2.23510247664,-1.14919898109,-0.623522268177,1.87666396331,0.443724773547,2.29011210284,3.28177006787,-31.7594511195
off_to_on,-0.905436059146,0.898167849438,-0.923977690293,-1.02280295285,-2.68138222917,-9.2418514327,-3.78079435461,-2.10971097556,-1.41067343625,0.579166475668,-0.627010739159,0.676209067205,1.74949938906,-20.193860419
off_to_on,-2.49369405467,-0.567832280575,-2.17261645064,-1.87028663394,-3.24107813809,-9.66967127648,-5.09680942149,-2.97356744939,-2.11010823229,-0.755387446252,-1.69968301342,-1.0580849956,0.0531047220796,-6.93679638883
off_to_on,-3.96366658257,-1.98303420732,-3.31146397856,-2.62626217487,-3.5856576321,-9.33052837147,-6.09726125946,-3.68934260877,-2.69948552282,-2.03059628099,-2.71008746466,-2.77191491791,-1.69936582208,6.20514690489
off_to_on,-5.23282245443,-3.25285310435,-4.25841968345,-3.25842107733,-3.71901357449,-8.31469894598,-6.72247302377,-4.21759470419,-3.16481733196,-3.16481497857,-3.59827725507,-4.33120299536,-3.39724549084,17.5692674349
off_to_on,-6.22987554762,-4.30041198965,-4.94750934419,-3.74264276226,-3.6614902676,-6.77186791783,-6.94204177938,-4.53187646562,-3.49969566124,-4.09458570334,-4.31201285483,-5.61905951728,-4.93349715042,25.8685625756
off_to_on,-6.89759819667,-5.06980088741,-5.33349400986,-4.06383919833,-3.44559113113,-4.89130077115,-6.75524858087,-4.61860566455,-3.70381779528,-4.77546685216,-4.80948031188,-6.54366415731,-6.2104751507,30.3563473025
off_to_on,-7.19528587963,-5.52711720708,-5.39452580124,-4.21593470411,-3.11076600935,-2.8787155306,-6.18905824377,-4.47617715564,-3.78112866976,-5.18089454843,-5.06124743898,-7.04330541501,-7.14513267304,30.9027907786
off_to_on,-7.10093160735,-5.65966855676,-5.13274696303,-4.20108411186,-2.69801268593,-0.932710235392,-5.29414374626,-4.11371175065,-3.73793421386,-5.2998995865,-5.05148587193,-7.08860097204,-7.67361308038,27.976185745
off_to_on,-6.6130309411,-5.47384933932,-4.57290837763,-4.02832475299,-2.24499738504,0.776477122121,-4.13948966162,-3.54976937987,-3.58131844567,-5.1345137873,-4.77851597877,-6.68218398558,-7.7551224209,22.5359710582
off_to_on,-5.75180034217,-4.99223440116,-3.75924590049,-3.71191594196,-1.78227725262,2.12350947744,-2.8061757109,-2.81122677587,-3.31812394731,-4.69754995243,-4.25473392369,-5.85630774866,-7.374910786,15.857148429
off_to_on,-4.55949122212,-4.250379262,-2.75098645645,-3.26963627575,-1.33101580475,3.03810356878,-1.38092322935,-1.93236527623,-2.95464254665,-4.01117242408,-3.50596414835,-4.66889089475,-6.5461199106,9.31499081521
off_to_on,-3.09945087022,-3.29370097401,-1.61695238434,-2.72128315312,-0.902350377725,3.50795716272,0.0500817067605,-0.954067415897,-2.49702891087,-3.10635153669,-2.57025766992,-3.19851080342,-5.31021192927,4.16360820345
off_to_on,-1.45363705198,-2.17466656043,-0.429786073352,-2.08755605275,-0.498332852977,3.57452596917,1.40667697527,0.077086297261,-1.95231574847,-2.02298210853,-1.496139084,-1.53877927382,-3.73570370579,1.34150880045
off_to_on,0.281564159739,-0.950367995706,0.73967579646,-1.38941651111,-0.114154374068,3.32258629889,2.61923100452,1.11007356425,-1.32979665668,-0.810205156906,-0.340303218172,0.207567117329,-1.91500703356,1.33202807748
off_to_on,2.00115541096,0.31955992987,1.82738845982,-0.647918422209,0.258791259682,2.86522552011,3.63199083866,2.091264075,-0.642469129027,0.473651114153,0.835217864834,1.93462883992,0.0406814995312,4.09735422747
off_to_on,3.59866892685,1.57480176312,2.7800388219,0.115591318222,0.629534272033,2.32637490366,4.4052012239,2.96695816856,0.0917925162223,1.76207795154,1.96635464065,3.53919703017,2.00829902103,9.09335113934
off_to_on,4.97407687706,2.75615458368,3.55765208361,0.879074394639,1.00437844389,1.82319195322,4.91601216889,3.68660919188,0.849632786701,2.98275412253,2.99064415252,4.92637086163,3.86127404399,15.3602586759
off_to_on,6.04172437881,3.80738283537,4.13472574102,1.619417271,1.38443571022,1.45050156443,5.15826024981,4.20653692197,1.60239623726,4.06142940899,3.8510284669,6.01480081123,5.4787320692,21.6734433833
off_to_on,6.73743582969,4.6772075654,4.49991205411,2.31227501733,1.76417785226,1.26914286268,5.14125821929,4.49377843607,2.31719239281,4.92715988997,4.49955569064,6.74137777629,6.75477859312,26.7302383024
off_to_on,7.02395935337,5.32142437956,4.65442794471,2.93231707428,2.1311699944,1.2994976989,4.88776185967,4.52960519812,2.95880448507,5.5184156442,4.90068861304,7.06513198214,7.6069866507,29.3446317168
off_to_on,6.89405302832,5.7050639492,4.60950908275,3.45397745078,2.46697234571,1.52077634471,4.4313065833,4.3121873387,3.49226611713,5.78932769738,5.03391379618,6.97005876105,7.98321555059,28.6216064773
off_to_on,6.37076803849,5.80444331721,4.38332594766,3.85271845833,2.74903333145,1.8758965269,3.81312221872,3.85792336944,3.88581692269,5.71519907297,4.89537023805,6.46657294953,7.86599968345,24.087094449
off_to_on,5.50481634156,5.6089177548,3.99782999388,4.10671720396,2.95327084381,2.28110449336,3.07884416457,3.20107694535,4.11387568925,5.29640583238,4.49828343872,5.59132675154,7.2739653093,15.7569865818
off_to_on,4.36927734709,5.12213728201,3.47598875321,4.19879397629,3.05696376919,2.63893167956,2.27524208238,2.39155803465,4.15964868367,4.55996494659,3.87209309515,4.4052151464,6.26003645559,4.13815789354
off_to_on,3.05224501461,4.3626381369,2.83979762884,4.11833631795,3.04155954621,2.85271857676,1.44718137934,1.49092730878,4.01702567056,3.5583280553,3.06028980936,2.98953475676,4.9065418811,-9.83549239557
off_to_on,1.6482900623,3.36365059518,2.10932908789,3.86294327038,2.89504265203,2.8408037097,0.635015041374,0.566954145668,3.69150163107,2.36533224974,2.11711241698,1.4404418766,3.31768792032,-24.9199509321
off_to_on,0.249767519004,2.17206996266,1.3029108732,3.4395268451,2.61359309842,2.54857681079,-0.127428501755,-0.312718591933,3.19998615515,1.0696435093,1.10338463595,-0.137950551133,1.61016900666,-39.712189717
off_to_on,-1.06098939383,0.846605487953,0.438334757251,2.86466166478,2.20237703151,1.95691007305,-0.814142705387,-1.08709197494,2.56950684874,-0.233598832713,0.0818697855607,-1.64131761825,-0.0970942991666,-52.8131597873
off_to_on,-2.2176871539,-0.544817964594,-0.465187822844,2.16406199392,1.6754343605,1.08596449764,-1.40746702613,-1.70773402176,1.8349568305,-1.45194761121,-0.887419470116,-2.97305340231,-1.69300250787,-62.9803868549
off_to_on,-3.17367020599,-1.92828517395,-1.3847595726,1.37117572191,1.05474231221,-0.00604311548586,-1.89784892912,-2.14337253656,1.03615862708,-2.50449257478,-1.7515123447,-4.05166478344,-3.08306068107,-69.2511942643
off_to_on,-3.9028304739,-3.22759373075,-2.29175160183,0.52500137684,0.368623425661,-1.22890564449,-2.28292675621,-2.38256753521,0.214599945611,-3.32927588854,-2.46797439809,-4.81692009768,-4.19601945679,-71.0234793361
off_to_on,-4.39795795811,-4.36827163304,-3.15052653996,-0.332660159484,-0.350278400405,-2.47053613988,-2.56608224712,-2.4341056525,-0.589770745781,-3.88835583125,-3.00730176258,-5.23414682331,-4.98777433748,-68.0883512432
off_to_on,-4.66703592481,-5.28173967871,-3.91840926759,-1.16022862975,-1.06721331414,-3.60986237456,-2.75466257638,-2.32504753854,-1.34132320646,-4.16991927782,-3.3540414788,-5.29625218637,-5.44227433873,-60.6165230788
off_to_on,-4.72827338415,-5.90944381858,-4.54722966641,-1.91931117973,-1.74751044582,-4.53092987599,-2.85810057917,-2.09666375471,-2.01080630898,-4.18725575298,-3.50661225497,-5.02327660603,-5.56956396785,-49.1068965213
off_to_on,-4.60482558176,-6.20677200473,-4.98653788302,-2.57728681997,-2.35855626938,-5.13651439397,-2.88616349786,-1.79877194484,-2.57651015781,-3.97484456612,-3.47594598977,-4.45955247991,-5.4014263902,-34.3102831743
off_to_on,-4.320153719,-6.14655091164,-5.18832621326,-3.1092321215,-2.8714516331,-5.35962219785,-2.84753386871,-1.48319839878,-3.02448259375,-3.58220485079,-3.28319488097,-3.66879590722,-4.98536364144,-17.14306735
off_to_on,-3.89481679633,-5.72189194403,-5.11281891243,-3.49899947206,-3.26229662692,-5.17152192104,-2.74887400699,-1.1972002723,-3.3478886022,-3.0664554806,-2.95683566189,-2.72767344047,-4.37780645191,1.39529099211
off_to_on,-3.34519599106,-4.94813017409,-4.73465258696,-3.73937266134,-3.5131071881,-4.58537113118,-2.59445475933,-0.977684388255,-3.54571786706,-2.48468289908,-2.5295410779,-1.71853259754,-3.63747295522,20.2903219737
off_to_on,-2.68427256507,-3.86358568423,-4.04860477861,-3.83134737984,-3.61240430474,-3.6550241274,-2.38634957038,-0.846944861232,-3.62112671699,-1.88719794407,-2.035176082,-0.722046289208,-2.81969290924,38.5605237343
off_to_on,-1.92417666407,-2.52888794589,-3.07396929208,-3.78269866271,-3.55553177306,-2.46917364852,-2.12511773919,-0.81043129071,-3.57973458536,-1.31258228861,-1.50621704116,0.189507545924,-1.97230179138,55.2851204778
off_to_on,-1.0798648955,-1.02465331815,-1.85674360806,-3.60608680464,-3.3447525451,-1.14152325636,-1.81083699888,-0.856782353814,-3.42817777075,-0.785111401724,-0.971797991721,0.957721288971,-1.13342285116,69.6164702186
off_to_on,-0.173032276039,0.552597669773,-0.468989655025,-3.31700486593,-2.98915203864,0.201852715077,-1.44430413313,-0.960055965086,-3.17315853947,-0.314745063564,-0.456475058394,1.54185340545,-0.33114079833,80.7854829051
off_to_on,0.764733820873,2.09625132456,0.99496096229,-2.93187719689,-2.50434776595,1.43648067247,-1.0282085779,-1.08379972693,-2.82112647606,0.100537760905,0.0203128462216,1.92072229768,0.415222714932,88.109702894
off_to_on,1.69047068727,3.49692206737,2.42539563403,-2.46657872933,-1.91197794306,2.45315844953,-0.568098748349,-1.1863740459,-2.37860795208,0.470649240482,0.444204227131,2.09269485259,1.09274974793,91.0125424361
off_to_on,2.55069021799,4.65085693058,3.70671820157,-1.93556523747,-1.23892628198,3.16973167909,-0.0730005290393,-1.22679596875,-1.85307804394,0.808398147155,0.805476842922,2.07396291258,1.69213020988,89.0587366228
off_to_on,3.28483570457,5.46879086093,4.72867039908,-1.35169741621,-0.516242249485,3.53960726297,0.444395551034,-1.17033208194,-1.25416649301,1.12455430748,1.09841553878,1.89545182771,2.20509068016,82.0060787016
off_to_on,3.8311534679,5.88445099378,5.39807474082,-0.726722697009,0.222261929681,3.5560212105,0.967997504506,-0.993135651701,-0.594921624644,1.42388660182,1.32067321766,1.5987960126,2.62260926949,69.8678729523
off_to_on,4.13431818465,5.8618077786,5.64971188789,-0.0722662441744,0.941716475777,3.25158117514,1.47898343861,-0.685382952593,0.107165735799,1.70288671197,1.47276022609,1.23184307297,2.93428449466,52.9754564596
off_to_on,4.15375753853,5.4001682935,5.45493111812,0.59890631209,1.60812921103,2.69316648276,1.95679136374,-0.252589774672,0.829648800169,1.94957039174,1.55772316383,0.844116923467,3.12897419019,32.0266953302
off_to_on,3.87137524924,4.53632071937,4.82676384556,1.27164343112,2.19042524113,1.97282473587,2.38030858327,0.284953916165,1.5453194268,2.1453639081,1.58099349414,0.482596063737,3.19655406053,8.10541613327
off_to_on,3.29732223378,3.34317239463,3.82065817432,1.927474581,2.66242142903,1.19578814603,2.72913558273,0.894443633365,2.22320135707,2.26870033452,1.55031630209,0.188065526585,3.13041060062,-17.341258486
off_to_on,2.47263509697,1.92466321903,2.53044301235,2.54424362645,3.00454070952,0.467085703751,2.98481329273,1.53412017359,2.83030772791,2.29963336874,1.47562497209,-0.00779929665813,2.93012024954,-42.5757984967
off_to_on,1.46793681322,0.407149672816,1.07970701091,3.09648031692,3.20507274477,-0.121595488481,3.13193122644,2.15759899601,3.33400493521,2.22457941801,1.36871844265,-0.08454391116,2.6037041256,-65.6942979359
off_to_on,0.377930201987,-1.0721046308,-0.390631410206,3.55656928886,3.26081892496,-0.503169549378,3.15906894929,2.71838768582,3.70472171671,2.04025634803,1.24262729916,-0.0342263883422,2.16889707786,-84.79409439
off_to_on,-0.68796349755,-2.37828509954,-1.73725996244,3.89665034481,3.17701956795,-0.643126182271,3.05955544485,3.17404593923,3.91867548168,1.75600857048,1.11061900903,0.138097221426,1.65302389644,-98.1690353672
off_to_on,-1.61785278521,-3.39286072942,-2.83022340611,4.09106318647,2.96654254998,-0.543216769561,2.83205217024,3.48955313933,3.96026797303,1.39397488448,0.984879813805,0.41467813107,1.0913094851,-104.509596524
off_to_on,-2.31102861672,-4.02635000611,-3.56760943697,4.11905224514,2.64840445841,-0.240382847094,2.48097088605,3.63961082633,3.82383279105,0.986924967584,0.875004683054,0.766167113383,0.52372498209,-103.081040584
off_to_on,-2.69121287614,-4.22847384929,-3.88733536438,3.96738761205,2.24578406996,0.198940781784,2.01672584601,3.60979134623,3.51449405857,0.574002020688,0.786508373362,1.15350118534,-0.00925799999406,-93.8525672396
do_nothing,-2.71751588854,-3.99435275302,-3.77448847379,3.63254582479,1.78375947263,0.68842116861,1.45579539521,3.39661823903,3.0480075527,0.194993979574,0.719621961618,1.53058637342,-0.471413988237,-77.5543409824
do_nothing,-2.39141365886,-3.36579617009,-3.26317493892,3.12213216495,1.28704232205,1.13408123337,0.820538242967,3.00680070281,2.44958670204,-0.115952007041,0.668646363509,1.84774423299,-0.835291421903,-55.6471524348
do_nothing,-1.75851443813,-2.42727603845,-2.43249222869,2.45530971859,0.777987405335,1.44761152567,0.138684983777,2.45592405901,1.75184688697,-0.336109627353,0.622090383646,2.05582251994,-1.08578830995,-30.2003849369
do_nothing,-0.904550720428,-1.29681230481,-1.39697719967,1.66211871312,0.275120255053,1.5589778479,-0.557583442699,1.76691196096,0.99211349923,-0.458412664295,0.563727507307,2.11077387669,-1.22215062239,-3.68649654675
do_nothing,0.0541808152494,-0.11264792113,-0.292601402449,0.781706505118,-0.207646419838,1.42662940235,-1.23304309033,0.968527659034,0.209416148166,-0.493321154058,0.474573649489,1.97839365022,-1.25798493769,21.2873863643
do_nothing,0.984912282398,0.982832127642,0.740010195609,-0.140374743533,-0.66103579007,1.0439033835,-1.85134855873,0.0940855422759,-0.558477514963,-0.467834210606,0.335635934509,1.63879944072,-1.21917086089,42.2798032795
do_nothing,1.7553207299,1.86006094849,1.57305607032,-1.05552804887,-1.07970985911,0.440705688361,-2.37742576974,-0.819576883008,-1.27765352709,-0.421618216718,0.131134027528,1.09015514558,-1.13988532463,57.3095993187
do_nothing,2.25107875185,2.41805122552,2.10750613426,-1.91577222856,-1.4610012455,-0.319835123464,-2.78020270652,-1.73293590117,-1.91999891939,-0.400695322031,-0.148224050295,0.351115107861,-1.05725872987,65.1055168851
do_nothing,2.39166260506,2.59694079489,2.28544266575,-2.67731027357,-1.80331101104,-1.14937090467,-3.03544978724,-2.60458910281,-2.46433534094,-0.449564516363,-0.502397403116,-0.538491848887,-1.005422008,65.2751464779
do_nothing,2.14218293263,2.38563373114,2.09714197257,-3.30362789242,-2.10446371143,-1.94598523687,-3.12841967672,-3.3922406974,-2.89669080502,-0.602935078574,-0.920084136437,-1.5190942913,-1.00983349579,58.3666777817
do_nothing,1.51946851656,1.82341541686,1.58190202361,-3.76780866829,-2.36032123385,-2.60796574705,-3.05592661864,-4.05405977868,-3.20978443392,-0.878385800497,-1.37811868952,-2.51508091423,-1.08277045657,45.8101905466
do_nothing,0.591367686574,0.995161272246,0.822428739495,-4.0538556997,-2.56392097019,-3.04784611428,-2.82750417513,-4.55053782093,-3.4019058042,-1.27119469018,-1.84245670835,-3.44066955977,-1.22072794075,29.7411036961
do_nothing,-0.530860299108,0.0205826859425,-0.0665533762765,-4.15693773677,-2.70532564879,-3.20478659135,-2.46533789687,-4.84685782649,-3.47544527431,-1.75231546316,-2.27080753965,-4.20754990987,-1.40420477086,12.7247184045
do_nothing,-1.70623425681,-0.961247224513,-0.954016052623,-4.08261269564,-2.77226247072,-3.05354436163,-2.00278732502,-4.91564976814,-3.43536399387,-2.27004303429,-2.61674313439,-4.73362997061,-1.60000946682,-2.58475911681
do_nothing,-2.78211900995,-1.81018028285,-1.7106093834,-3.84520437552,-2.75150390447,-2.60871272053,-1.48148080903,-4.73987187552,-3.28787824914,-2.75537138696,-2.83488381686,-4.95199266822,-1.76583877176,-13.8068857661
do_nothing,-3.61431167011,-2.40374931696,-2.22650912115,-3.46560255133,-2.63082019454,-1.92352942926,-0.947167544196,-4.3154523514,-3.03957563862,-3.13048280348,-2.88657024225,-4.81903822588,-1.85652561453,-19.17072858
do_nothing,-4.08643971104,-2.65391361799,-2.42670060639,-2.9688100605,-2.4012329468,-1.08328971408,-0.444716267944,-3.65327463293,-2.69709011461,-3.31930313096,-2.74530807669,-4.32078042818,-1.83107727287,-17.7768682759
do_nothing,-4.12598989086,-2.51950566149,-2.28157396196,-2.38156679257,-2.05923585655,-0.194149980953,-0.0128267791697,-2.7801062889,-2.26735400155,-3.25869261036,-2.40124063693,-3.47639494773,-1.65947290761,-9.74720833281
do_nothing,-3.71469103114,-2.01259821802,-1.811304977,-1.73034024321,-1.60863327089,0.631229266977,0.320863362212,-1.73816063529,-1.75833523672,-2.90867603432,-1.86397611277,-2.33838105512,-1.32818940465,3.76183445386
do_nothing,-2.89170865445,-1.19777636934,-1.08331814311,-1.03989280105,-1.06168340868,1.28927331428,0.543565547938,-0.583132266017,-1.18007478903,-2.2601813211,-1.16326692579,-0.989069647749,-0.843580066913,20.6892602927
do_nothing,-1.74907954119,-0.184227535218,-0.203065739449,-0.332530005748,-0.439316683046,1.70016358128,0.659382847578,0.619257400474,-0.545777311959,-1.33904966568,-0.347291430624,0.466351975643,-0.232522980777,38.3295942068
do_nothing,-0.419887330036,0.888466481437,0.700715814252,0.371981972769,0.22968044877,1.81950580352,0.689149807454,1.79795954236,0.127312566301,-0.205566451599,0.521408153204,1.90968035891,0.459855602657,53.6919203732
do_nothing,0.939293698636,1.86906928357,1.4943213331,1.05594991755,0.910486036975,1.64527611872,0.667878303901,2.88210708513,0.81749191143,1.05062640573,1.37196274284,3.22138597984,1.17514886122,63.912006729
do_nothing,2.16932745593,2.61552548686,2.05847261122,1.70294350237,1.56489805536,1.21893869943,0.639945102563,3.80675815421,1.49881758833,2.31972585932,2.13253679186,4.29285010962,1.84868870023,66.6629584646
do_nothing,3.1299427874,3.01509712686,2.30609282354,2.29689605681,2.15453595972,0.620414360046,0.652498994431,4.51823297874,2.14204296493,3.48396572347,2.7381512602,5.03771284356,2.41765721974,60.5083517887
do_nothing,3.71866461511,3.00101693264,2.19591491326,2.82137720345,2.6442181566,-0.0425675690293,0.747873029385,4.97842658438,2.71624262276,4.43126181426,3.13800520471,5.40094665893,2.82914578427,45.1479538334
do_nothing,3.88455913884,2.56326605626,1.73989167414,3.25926203594,3.00511342305,-0.649399530525,0.956010590785,5.16759174033,3.1909826312,5.06851116084,3.30135439044,5.36450503072,3.04699838583,21.5192803792
do_nothing,3.63479348602,1.75181429176,1.00318187372,3.59294825473,3.21728737985,-1.08383584431,1.28801103233,5.08527401568,3.53880025707,5.33276574147,3.22115564333,4.94879276253,3.05643028633,-8.26325733294
do_nothing,3.03299804486,0.671640874973,0.0964846614319,3.80517406812,3.27134010534,-1.2511909476,1.73184475099,4.74931753733,3.73769602138,5.19876806044,2.91494861456,4.20971652983,2.86572115041,-41.1284288031
do_nothing,2.18956997511,-0.530042646939,-0.838448177946,3.88038091238,3.16894753221,-1.09308334235,2.25107298539,4.19311177304,3.77332242462,4.68182105387,2.42279050033,3.23163516857,2.50470137052,-73.402795919
do_nothing,1.24520845469,-1.68286623297,-1.64831920236,3.80646278692,2.92226104844,-0.597587520223,2.78705173521,3.46147884071,3.6405807172,3.83560076847,1.80243986818,2.11706429376,2.02022071651,-101.256548911
do_nothing,0.349961983889,-2.61626260247,-2.19025477829,3.57666385018,2.55226676136,0.196763649883,3.26464204591,2.60577261329,3.34440620916,2.74521655766,1.12235220119,0.974424457955,1.4692404784,-121.184104305
do_nothing,-0.359248721266,-3.18329934746,-2.3532551174,3.19134019495,2.08633750507,1.20387156705,3.60094892999,1.67884867172,2.89962391322,1.51647995387,0.453351452323,-0.0946067339366,0.910555765131,-130.457210781
do_nothing,-0.779395504771,-3.28215022371,-2.07611355258,2.65929765791,1.55530850104,2.29966938218,3.71613785575,0.730554040463,2.3298751191,0.262864608256,-0.139964455206,-1.00651243993,0.396376828901,-127.490781665
do_nothing,-0.857342391611,-2.87219167985,-1.35917503743,1.99845627735,0.990458206555,3.33730282967,3.54500193048,-0.195721176008,1.6657345541,-0.908050473906,-0.606970224187,-1.70465246026,-0.0349594079127,-112.07219473
do_nothing,-0.598651302951,-1.98234402278,-0.268055465679,1.23566854232,0.420772781204,4.16597631005,3.0477365281,-1.06507524316,0.942239870333,-1.90680942176,-0.916890889692,-2.1641633082,-0.364024604689,-85.422050665
do_nothing,-0.0677494857959,-0.710251320395,1.07152633923,0.405622393814,-0.129182962705,4.65099831436,2.21836421269,-1.85159243203,0.196125695189,-2.67134721673,-1.06202266325,-2.39244488874,-0.592279004515,-50.076105841
do_nothing,0.620773629942,0.787912355748,2.48747486332,-0.451123326491,-0.640564462206,4.69234264322,1.089457957,-2.53744133642,-0.536916448158,-3.17211101141,-1.05785345043,-2.42524173438,-0.740644131328,-9.60140495005
do_nothing,1.3187000829,2.31596584101,3.78210377272,-1.29080980592,-1.10062031132,4.23919086493,-0.267779266535,-3.11093276361,-1.22464701969,-3.41246511494,-0.940050913885,-2.31893812646,-0.844830946589,31.8185930741
do_nothing,1.86635413893,3.662376028,4.75747857933,-2.06959983673,-1.50218077869,3.29842257358,-1.74845011783,-3.56405703343,-1.84010874344,-3.42450350269,-0.758709186096,-2.1402174956,-0.9480905142,69.8778155256
do_nothing,2.11734837713,4.62795834341,5.24211339328,-2.74683162252,-1.84243050338,1.93580893252,-3.22362537496,-3.89009130936,-2.36272151154,-3.26106303619,-0.570622683215,-1.95461062935,-1.09247225273,100.657760495
do_nothing,1.96238885808,5.05303434876,5.11552519042,-3.28806404798,-2.12123210088,0.269635881532,-4.55378309358,-4.08183574406,-2.77859443573,-2.98527624336,-0.430634287212,-1.8156185867,-1.30994175561,121.08931085
do_nothing,1.34865571355,4.8404226011,4.32731093073,-3.66759347372,-2.3393229359,-1.54249672392,-5.60450380899,-4.13090679692,-3.08011898451,-2.6593434772,-0.383245372512,-1.7560182925,-1.61478172619,129.307766649
do_nothing,0.291801191466,3.97108497369,2.90802070745,-3.87018305877,-2.49671281335,-3.32202648339,-6.26250747552,-4.02830734223,-3.26500404855,-2.33428986821,-0.455655065675,-1.78264879952,-1.99855926602,124.856729498
do_nothing,-1.12143702608,2.51013028019,0.970084583086,-3.8918382179,-2.59156587454,-4.89055226985,-6.44996580037,-3.76623973018,-3.33498201813,-2.04229012873,-0.653215800228,-1.875474866,-2.42860479071,108.716317609
do_nothing,-2.7407479763,0.602083083998,-1.30170882076,-3.73957353233,-2.61976299804,-6.09097080452,-6.13514712677,-3.34087161585,-3.29444496133,-1.79272155903,-0.957973842928,-1.99110080832,-2.85045586726,83.1541536721
do_nothing,-4.36922816351,-1.54429495049,-3.66934459426,-3.43023240617,-2.5752251153,-6.80586292295,-5.33784657148,-2.75554866243,-3.14925816993,-1.57250641823,-1.33054861655,-2.07024948485,-3.19414066828,51.4205542056
do_nothing,-5.78783180834,-3.67996995762,-5.86822225917,-2.98852595256,-2.45095079814,-6.97074365298,-4.12867957546,-2.02381141146,-2.90594756554,-1.35061993682,-1.71514887223,-2.04812329713,-3.38359244145,17.3292777899
do_nothing,-6.78419208791,-5.54553925541,-7.63817855957,-2.44453881353,-2.2406024533,-6.58049638294,-2.62209582281,-1.17154236359,-2.5713765583,-1.08597386778,-2.04708907158,-1.86611389997,-3.3479833017,-15.2205832884
do_nothing,-7.18201534205,-6.90338624097,-8.75512127584,-1.83099727598,-1.94038227876,-5.68824798106,-0.963801068613,-0.237654052704,-2.15293029553,-0.737339652646,-2.26181567885,-1.48309283846,-3.03341845211,-42.7193045739
do_nothing,-6.86705521881,-7.56802473673,-9.05932872084,-1.18060432586,-1.5508856154,-4.39697701247,0.685956324328,0.727078412541,-1.65912664731,-0.273634529657,-2.30423000756,-0.884534639691,-2.4132959669,-62.4572320796
do_nothing,-5.80602014288,-7.43071708685,-8.47679692766,-0.523717630287,-1.07861329425,-2.8451349798,2.17117844166,1.66316208496,-1.10048956565,0.317187669663,-2.13703401825,-0.0879991098104,-1.49573910758,-72.8205721168
do_nothing,-4.05561849127,-6.47510753298,-7.03081206789,0.11341470613,-0.536866782543,-1.18836103765,3.3585955129,2.50731329452,-0.490464997072,1.02220643882,-1.7469381961,0.856004049299,-0.326841159846,-73.4376100719
do_nothing,-1.76019499736,-4.78170255599,-4.84209467983,0.709729903664,0.0541660016193,0.420129219288,4.15340977828,3.19866250414,0.153858785199,1.80168959502,-1.14784285962,1.86809500991,1.01101266435,-65.161227333
do_nothing,0.862103180598,-2.52041714524,-2.11726057135,1.24970213077,0.668212893132,1.84777055637,4.51019305054,3.68547938366,0.811442683876,2.59183271653,-0.380500433608,2.84866143513,2.40583335304,-49.8955319775
do_nothing,3.54316832073,0.068086035786,0.873204849665,1.72302736877,1.27456027511,2.99703746789,4.43742900474,3.93150792856,1.45755752751,3.31186633834,0.491366495574,3.68999260845,3.72712802693,-30.2947857903
do_nothing,5.99596114015,2.70010300282,3.82494110848,2.12377796007,1.84036868569,3.81414813384,3.99501753569,3.92097880566,2.06468467569,3.8746151622,1.38804117547,4.29031026075,4.84018532575,-9.37887032614
do_nothing,7.94889817156,5.0823039972,6.43413791995,2.44921892448,2.33339630742,4.2910979721,3.28499938557,3.66148449954,2.60402569084,4.19901846978,2.22301375766,4.56777418869,5.62183732077,9.88079533944
do_nothing,9.17925091408,6.94676132748,8.4322657185,2.69850457175,2.72480537534,4.46103148831,2.4366871835,3.18415210198,3.04748998,4.22275981672,2.9132334812,4.47248556359,5.9757221849,24.9488547758
do_nothing,9.54125786042,8.08324784997,9.6169100354,2.87146963723,2.99171200399,4.38793931418,1.58817479152,2.54089809834,3.36994567652,3.9130661114,3.38908888473,3.99473574524,5.84506265507,34.0366327852
do_nothing,8.98526410585,8.36477085717,9.8749570644,2.96769676129,3.11917260127,4.15248622431,0.866727579562,1.79895201744,3.55146517697,3.2739404718,3.60282064137,3.168226888,5.22123116256,36.2974910356
do_nothing,7.56530754713,7.76312787801,9.19529780046,2.98598782323,3.10137475983,3.8363153217,0.370751927346,1.03323398087,3.57928129838,2.3485654494,3.53427297152,2.06765952953,4.14686472591,31.8856811968
do_nothing,5.43402455214,6.35250520234,7.66949569398,2.92429910954,2.94190614213,3.50735464446,0.155867813019,0.317505828599,3.44919580736,1.21628847529,3.19323780973,0.800850449994,2.71296002666,21.8768357412
do_nothing,2.82536294624,4.30063038806,5.48033815525,2.78012935963,2.65309595298,3.20844949148,0.22707979292,-0.28456561783,3.16624570976,-0.0156165522336,2.61809408819,-0.50369535482,1.05013562405,8.06720766307
do_nothing,0.0271553691178,1.8485466882,2.87968022184,2.55128491902,2.25454269137,2.95108828017,0.538225041591,-0.727228689226,2.74452509118,-1.22444264534,1.87093209475,-1.7121889994,-0.685005072199,-7.31528313764
do_nothing,-2.6530836747,-0.718498498215,0.15830210858,2.23689551813,1.77104215551,2.71516594927,0.998880346127,-0.988249177944,2.20616805941,-2.2871762008,1.02981395217,-2.70193037729,-2.32683858584,-21.9443383562
do_nothing,-4.92489064887,-3.10544918304,-2.38852394036,1.83852305285,1.23019734028,2.45476146333,1.48786859474,-1.07145798979,1.57960577035,-3.09620269223,0.179193619127,-3.37647475895,-3.71899871505,-33.7247314489
do_nothing,-6.54952973339,-5.04286409742,-4.49555010528,1.36119660998,0.660018115459,2.10894158374,1.87156402903,-1.00580104953,0.897302012352,-3.57339485302,-0.600246575813,-3.67755138397,-4.73176182517,-41.0723075168
do_nothing,-7.36827666737,-6.31899530265,-5.95795849126,0.814219211555,0.0868008006129,1.61578873626,2.02448789684,-0.840919786083,0.193234206524,-3.68055986436,-1.24102193401,-3.59210878836,-5.27642710575,-43.1077683374
do_nothing,-7.32077870586,-6.80458478505,-6.65399640286,0.211622010402,-0.466480187894,0.927311787131,1.84931553736,-0.639774972474,-0.499588818938,-3.42469249039,-1.69632644562,-3.15350760824,-5.31494100239,-39.7411516705
do_nothing,-6.45121749158,-6.46737063816,-6.55716968283,-0.427815340336,-0.981124920057,0.022719435179,1.29344041333,-0.469255600534,-1.15129738296,-2.8571860679,-1.94463572766,-2.43666927681,-4.86360153473,-31.6403159385
do_nothing,-4.90154789262,-5.37459659925,-5.73663627937,-1.0810100148,-1.44296620184,-1.0822523598,0.359663888015,-0.390025144024,-1.73679931459,-2.06699488823,-1.99089539247,-1.54781001701,-3.99041308828,-20.093452262
do_nothing,-2.89272012297,-3.68332645963,-4.34591547923,-1.72146944205,-1.84200070398,-2.33169287031,-0.890650513476,-0.447002411989,-2.23674924235,-1.16860047075,-1.86422268846,-0.610129854496,-2.80645012702,-6.7902796296
do_nothing,-0.696303824815,-1.61988538574,-2.6014747962,-2.32057122843,-2.17155085546,-3.63242854405,-2.34260460384,-0.661827955665,-2.63781189858,-0.286386792281,-1.61251738981,0.252617528837,-1.45232705111,6.44287636332
do_nothing,1.39987242893,0.548909458122,-0.753994815725,-2.84913347332,-2.42717779633,-4.86336606975,-3.84049848752,-1.02843089782,-2.93228363124,0.462434512971,-1.29478615914,0.932454898541,-0.0814660175176,17.9138259232
do_nothing,3.1277257703,2.54907456211,0.944011489695,-3.27915664863,-2.60559115784,-5.89012812054,-5.2067172416,-1.51241325739,-3.11722339064,0.983969182357,-0.972277987692,1.35120385245,1.15777056102,26.3016715853
do_nothing,4.27205754252,4.13316580066,2.27014116115,-3.58560771012,-2.70378699718,-6.58298446911,-6.26434159354,-2.05446098904,-3.19330468827,1.22057299868,-0.699668120676,1.47030798713,2.13890694927,30.8274977322
do_nothing,4.69671918072,5.11019700931,3.05962974399,-3.74811777727,-2.71859392601,-6.83550643669,-6.86049698357,-2.57744131649,-3.16362485726,1.15871373302,-0.517496857636,1.29514326998,2.77113181492,31.3367285523
do_nothing,4.36061852408,5.36813582161,3.22509484362,-3.75247448531,-2.64672789825,-6.58117405875,-6.88730289381,-2.9963300416,-3.03269436425,0.830599029607,-0.446874203306,0.873261996181,3.00843612379,28.285040086
do_nothing,3.32169130161,4.88632078439,2.76614307651,-3.59180646018,-2.48536096782,-5.80537978626,-6.29756106481,-3.22970260172,-2.8057798613,0.309277036662,-0.487130514741,0.286853234515,2.85313124255,22.6341031603
do_nothing,1.72849383891,3.73644050289,1.7677896413,-3.26737788753,-2.23311349826,-4.55087545209,-5.11299344042,-3.21127743435,-2.48869850815,-0.302160248964,-0.616674356186,-0.35950069705,2.35348820081,15.6763531489
do_nothing,-0.199374291902,2.07216015911,0.388054921055,-2.78893395702,-1.89129767091,-2.91561753348,-3.42381913551,-2.89995640804,-2.08807035133,-0.885795845131,-0.796870633325,-0.95404651899,1.59597494612,8.8176049472
do_nothing,-2.19943274867,0.108887910618,-1.16354759741,-2.1745619155,-1.46518532335,-1.0430494429,-1.37961171604,-2.28697395826,-1.61194490627,-1.32640813077,-0.978336929058,-1.39393119176,0.69322401616,3.35137801411
do_nothing,-3.99945511756,-1.90363373887,-2.6538021842,-1.45005712739,-0.965053694083,0.894039437414,0.827454220718,-1.39912432179,-1.07064214754,-1.52881998934,-1.10873062678,-1.59988485068,-0.230644176488,0.258701740703
do_nothing,-5.3514070992,-3.71239483585,-3.85628618234,-0.647808977504,-0.406781780715,2.71398303859,2.98483575306,-0.29753846902,-0.477599120979,-1.43259906711,-1.14090750158,-1.52748281689,-1.05544635982,0.0621435972379
do_nothing,-6.06199670582,-5.09195286412,-4.58071017989,0.1947521563,0.188174777561,4.24827554046,4.88446656344,0.927937812327,0.150000624242,-1.02197776032,-1.04029849135,-1.17344111581,-1.67919286106,2.75376507828
do_nothing,-6.01614674416,-5.87126660493,-4.69744581662,1.03707839866,0.793518953113,5.36214184872,6.34700016653,2.16813376357,0.791014058694,-0.329513464839,-0.790477555933,-0.576100591592,-2.02948242591,7.80514186117
do_nothing,-5.19065064232,-5.95334857652,-4.15424040361,1.83770256801,1.3795467201,5.97077235805,7.24232748455,3.30657992261,1.42068363861,0.567122402409,-0.396159828041,0.189930018727,-2.07077289838,14.2552803043
do_nothing,-3.65654151114,-5.32552523105,-2.98313750224,2.55658953605,1.91516807039,6.04893759346,7.50375873065,4.2326856332,2.01159828675,1.5548750928,0.116763593255,1.02418667717,-1.80683876438,20.8610579363
do_nothing,-1.5701230438,-4.05931178917,-1.29687138643,3.15749751496,2.37031343752,5.63262245704,7.13412531461,4.85442400158,2.53523207977,2.50028283245,0.704132523844,1.81433271749,-1.27836236942,26.2863126311
do_nothing,0.846003177798,-2.30021357566,0.72468018734,3.61019146013,2.71846124718,4.81245135713,6.20315388068,5.10893848716,2.96392775251,3.26767320733,1.30893956433,2.45173854724,-0.556217846144,29.3010419544
do_nothing,3.32939926465,-0.248990680464,2.8561826352,3.8923465934,2.93899407687,3.71985039108,4.83663845156,4.9697518588,3.27311396279,3.7380810818,1.86850165852,2.84647809873,0.268483874743,28.961873073
do_nothing,5.60839393684,1.8630841945,4.85389954612,3.99098905589,3.01910175847,2.507938709,3.19902455,4.44969693002,3.44349574784,3.82626344609,2.32238959858,2.93966227215,1.0961762884,24.7488764843
do_nothing,7.43308622857,3.80180100688,6.4847407118,3.90334459424,2.95499846024,1.32990317857,1.47187057856,3.59923960923,3.46294474536,3.4934272585,2.62003869415,2.71142163294,1.83088993184,16.641153448
do_nothing,8.6030896457,5.35702095939,7.55375500282,3.63700502463,2.7523008395,0.317973916678,-0.168849604149,2.50045377774,3.32784208731,2.75386176834,2.72702903605,2.1834765639,2.3910895124,5.12317581113
do_nothing,8.98888175596,6.36592271902,7.92678909064,3.20937405562,2.42551496161,-0.4339735562,-1.5735586601,1.25745525263,3.04368908668,1.67449758116,2.62922684437,1.41600240879,2.7180657013,-8.87592608313
do_nothing,8.54451098895,6.72988177686,7.54569887319,2.64641486337,1.99668728465,-0.881700683582,-2.63530186784,-0.0154640197405,2.62489024494,0.367385162977,2.33428778162,0.499299482609,2.78105194815,-24.0986001358
do_nothing,7.31053453872,6.42326554835,6.43446883666,1.98078578384,1.49337523131,-1.03418968529,-3.29940030889,-1.20649656238,2.09371696253,-1.023940096,1.87039305041,-0.458501208056,2.57871685395,-39.1120050918
do_nothing,5.40726808783,5.49348444769,4.69573591063,1.24951060237,0.946172491985,-0.949088804549,-3.56552039394,-2.21820822178,1.47856373167,-2.34239716476,1.28246631923,-1.34592801334,2.13717204201,-52.475476841
do_nothing,3.01956515352,4.05272558364,2.49838126265,0.491378832283,0.386072969602,-0.720791376969,-3.48224491592,-2.97723355894,0.811696695798,-3.43720224086,0.626451025844,-2.06280642121,1.50506618795,-62.899405268
do_nothing,0.375273137315,2.26277208276,0.0579001201328,-0.255697590718,-0.158030755547,-0.463023121809,-3.13528758531,-3.44068311758,0.12675472298,-4.18295562621,-0.0375317866713,-2.53301236204,0.746652477873,-69.3756408287
do_nothing,-2.27986980957,0.315059597996,-2.38793952629,-0.957136601068,-0.66144429909,-0.288638834747,-2.63135924585,-3.59862866373,-0.543712842356,-4.49542259073,-0.652206305485,-2.71361430784,-0.0661163190243,-71.2653053277
do_nothing,-4.70788708854,-1.59143978321,-4.60517362814,-1.58372982928,-1.10515283149,-0.2897558916,-2.08024770805,-3.47256118452,-1.17040284222,-4.34191966696,-1.16942279186,-2.59922507815,-0.861405288761,-68.3372704324
do_nothing,-6.70188829074,-3.27182453996,-6.38839369947,-2.11310233193,-1.47656038608,-0.521310920784,-1.57783932044,-3.11023960757,-1.72889223574,-3.74496512611,-1.55491780939,-2.22109189443,-1.57431004578,-60.7583117628
do_nothing,-8.10466037459,-4.57392544494,-7.58140248296,-2.53047523719,-1.76945827589,-0.990620026222,-1.1925715173,-2.57779510772,-2.20061230131,-2.7787794169,-1.79102209001,-1.64121615059,-2.15200407282,-49.0427830295
do_nothing,-8.8208462848,-5.39211456302,-8.09161402684,-2.82869499681,-1.98329173664,-1.654623822,-0.957203825829,-1.95026830404,-2.57312244789,-1.55919713873,-1.87709482949,-0.942500780331,-2.55688188078,-33.9745413732
do_nothing,-8.82190442095,-5.67507835698,-7.89688020868,-3.00757471137,-2.12187933959,-2.42533747077,-0.866925443481,-1.30189681683,-2.83974105127,-0.22843959705,-1.82779019727,-0.216470479957,-2.76769021794,-16.5161325979
do_nothing,-8.14393951496,-5.42718387801,-7.0443817457,-3.07266985866,-2.19180183855,-3.18277455068,-0.883814419703,-0.69742593927,-2.99867606659,1.06312746487,-1.66955720089,0.449579847424,-2.77892681017,2.28026827199
do_nothing,-6.87930174454,-4.70385516049,-5.64216722066,-3.03367294207,-2.20070854932,-3.7934588328,-0.946679172063,-0.185499248273,-3.05185839691,2.17575534782,-1.43599590513,0.984122778087,-2.59898716449,21.3486613386
do_nothing,-5.16347159118,-3.60204071252,-3.84474167938,-2.90265090193,-2.15578698046,-4.13175440588,-0.98449581419,0.205163910452,-3.0037077224,2.99707952949,-1.16281181359,1.33998682889,-2.24762957386,39.66502072
do_nothing,-3.15912059006,-2.24731665803,-1.83470274288,-2.69236016585,-2.06260664566,-4.10076790089,-0.931126551546,0.466526132651,-2.86005051108,3.45471180648,-0.883112819358,1.49885021438,-1.75330188593,56.2818310394
do_nothing,-1.03933872498,-0.779391446007,0.197263338562,-2.41485511045,-1.92448637619,-3.6495834112,-0.738842759939,0.609091002408,-2.62736566336,3.52310836225,-0.623684332101,1.47114738923,-1.15074658332,70.3452355884
do_nothing,1.02813728343,0.662247981431,2.0717009468,-2.0805585745,-1.74245491073,-2.78408626807,-0.388402931131,0.657424990278,-2.31246231853,3.22400048397,-0.402679591119,1.29161144836,-0.479106087296,81.1024339673
do_nothing,2.89422542207,1.95105203818,3.63696465535,-1.69789378971,-1.51578798641,-1.56954835476,0.105986952901,0.644196104612,-1.92260840336,2.62059210905,-0.228908458406,1.01134427768,0.219468310782,87.9086387403
do_nothing,4.43836045713,2.98339241992,4.78150039348,-1.2734946469,-1.24302304852,-0.124353672733,0.697665576901,0.603735348085,-1.46604135583,1.80659464279,-0.102641274357,0.687826573248,0.900896083753,90.2421648263
do_nothing,5.57449842844,3.68520650437,5.44091129882,-0.812926487166,-0.923285540263,1.3944378834,1.31432863315,0.566123587943,-0.952718001585,0.891860798934,-0.0176075123597,0.374572525947,1.52025906318,87.733233062
do_nothing,6.25336366904,4.01518462265,5.59958433062,-0.321773985873,-0.557716780767,2.81175354831,1.86958199578,0.552655459271,-0.395110627466,-0.0132011711665,0.0363011314254,0.11215500714,2.0332664096,80.2074144052
do_nothing,6.46145466871,3.96480414494,5.28730426062,0.193103483543,-0.15077773729,3.95849336169,2.27737692804,0.57326285554,0.19116114758,-0.812159439969,0.0701917363523,-0.0779259811104,2.39838839797,67.7392581364
do_nothing,6.21759275874,3.55581388892,4.5718095057,0.722377498853,0.288783107761,4.69538131234,2.46697860905,0.626139218047,0.787055162002,-1.4340060013,0.0937402978865,-0.195546302311,2.57979386516,50.706648093
do_nothing,5.56789842991,2.83592203053,3.54859271004,1.25334304457,0.747468464678,4.93317611629,2.39599695481,0.699446969198,1.37032989275,-1.8400239667,0.113598130764,-0.260092646164,2.55099933653,29.8329067782
do_nothing,4.58002451019,1.87344068639,2.32939106164,1.76948921924,1.20718544347,4.64620604868,2.05927602889,0.774669256595,1.91633194079,-2.02532211256,0.132871941897,-0.304793024497,2.29888766506,6.20248938041
do_nothing,3.3372984426,0.751516764847,1.03075135028,2.25067784617,1.6460448706,3.87711911267,1.49205757957,0.830931038653,2.39932442375,-2.01511989869,0.151687902505,-0.36825580599,1.8275307574,-18.76223777
do_nothing,1.93317941719,-0.43762284474,-0.236174759562,2.6739783424,2.03975784715,2.73199251642,0.7667132523,0.84949604504,2.79424381166,-1.85666776491,0.168626083922,-0.484722328265,1.16110367975,-43.3711663173
do_nothing,0.466178894623,-1.59820747392,-1.37379520721,3.01511704226,2.36350562529,1.3663432436,-0.0166542051023,0.817658660374,3.07869769333,-1.60833403214,0.18263065824,-0.674792068182,0.345145203619,-65.784827642
do_nothing,-0.964819853861,-2.63622707437,-2.30378799109,3.25041206935,2.59409790438,-0.0360799979897,-0.744461900881,0.731386035257,3.23496665042,-1.32778490402,0.194896011188,-0.93835028653,-0.554475698833,-84.1741747884
do_nothing,-2.26503434336,-3.46460594899,-2.97032519561,3.35899239633,2.71219453831,-1.28876217305,-1.3066715633,0.596299571167,3.25175772643,-1.06127043909,0.210219406594,-1.25111431798,-1.45528747515,-96.9068592285
do_nothing,-3.3482576219,-4.00835953774,-3.34108853938,3.32505163546,2.7043506509,-2.22852246178,-1.61401567286,0.426875924308,3.12547775825,-0.835796840681,0.237400937206,-1.56565884403,-2.26468588086,-102.738394373
do_nothing,-4.14145754849,-4.20975737701,-3.40655526741,3.13986988189,2.56465665404,-2.73848938715,-1.61274545616,0.244047794311,2.86084947049,-0.655452662102,0.288447935244,-1.81706376871,-2.88877677114,-100.982570012
do_nothing,-4.58945258941,-4.03334384075,-3.17810857457,2.80335305616,2.2957811526,-2.76460077303,-1.29452494876,0.0716460407487,2.4707740272,-0.502445090892,0.376575237338,-1.93255893045,-3.24280058767,-91.6350713893
do_nothing,-4.65940420238,-3.4704577334,-2.68548390719,2.32488676366,1.90928211663,-2.32318473151,-0.699771433746,-0.0676933283029,1.97543908222,-0.342604427276,0.51324517877,-1.84383715949,-3.26198899815,-75.4278857115
do_nothing,-4.34466341596,-2.54269591469,-1.97392911273,1.72337473258,1.42512387911,-1.49845140634,0.0863045701314,-0.156457809608,1.40076748999,-0.134355820843,0.704717665775,-1.50018367245,-2.91147331898,-53.7995478357
do_nothing,-3.66736745608,-1.30364021794,-1.10127431411,1.02642118682,0.870417003834,-0.430183244329,0.944616176203,-0.185362621586,0.776384849412,0.160442657257,0.948739297312,-0.880313976825,-2.19381077263,-28.7767571537
do_nothing,-2.67914319258,0.16184282542,-0.13492424412,0.268710855234,0.277476821413,0.706658018828,1.73866473175,-0.155115931791,0.133342041657,0.565741290115,1.2320588477,-0.000874745300647,-1.15284497086,-2.77502467759
do_nothing,-1.45936241557,1.74128602152,0.851353886471,-0.51027195958,-0.318633381812,1.72749693709,2.33426397045,-0.0765563277585,-0.498146276017,1.08259716386,1.52939717359,1.08005383032,0.127030904083,21.6619349765
do_nothing,-0.110611605833,3.30156613577,1.78103685272,-1.26897332465,-0.882853843483,2.46519447614,2.6196793268,0.0308582111386,-1.09069786463,1.68421763224,1.80432408906,2.26545484371,1.52661865155,42.1541918768
do_nothing,1.24863595698,4.69898607859,2.5790062989,-1.96669156694,-1.38292001683,2.79465059438,2.52319503261,0.14196421464,-1.62129025944,2.31586488009,2.01222355614,3.42802188539,2.90244810246,56.772484529
do_nothing,2.49376850901,5.79190301456,3.17630569889,-2.56641898039,-1.79193063856,2.65135706186,2.02542190774,0.229741837022,-2.07218858821,2.89996877263,2.10519916474,4.4241896483,4.10122219927,64.2816762182
do_nothing,3.50543214736,6.45484350048,3.51535130782,-3.03734697698,-2.09044462232,2.04115873836,1.16436667167,0.269488531454,-2.43123182612,3.34594576414,2.03843358984,5.11192800645,4.97670377912,64.3059746763
do_nothing,4.18146649786,6.59265932809,3.55524434817,-3.35682173145,-2.26790011635,1.03975075833,0.0323020361582,0.242664001902,-2.69152660621,3.5634230048,1.77722234084,5.3700214383,5.40713143953,57.3897877703
do_nothing,4.44805388611,6.15304434213,3.27664054876,-3.51160196488,-2.32321123701,-0.218065944656,-1.23533926219,0.139815705436,-2.85067774369,3.47694514345,1.30370381513,5.11619741255,5.31103362901,44.9409808999
do_nothing,4.2687043325,5.13571034112,2.68550763101,-3.49834746381,-2.26447609159,-1.5578454658,-2.47764615164,-0.0378502865142,-2.9097418389,3.03989853135,0.622242909581,4.32147404368,4.65936137416,29.0587794753
do_nothing,3.64983561637,3.59673867771,1.81507840999,-3.32334637379,-2.10781672952,-2.79085897157,-3.53009003056,-0.278466701848,-2.87211656899,2.24538516706,-0.237485561039,3.01848297486,3.4821912398,12.2645365582
do_nothing,2.64202941543,1.64707795597,0.725407495218,-3.00156169789,-1.87545948193,-3.74165754511,-4.24750313699,-0.561033946903,-2.74257023428,1.13212796958,-1.22042675614,1.30224756834,1.86883324163,-2.83219702325
do_nothing,1.33651884488,-0.555194914532,-0.49983725689,-2.55513479842,-1.59324417079,-4.27378831904,-4.52488334662,-0.858205464973,-2.52657573689,-0.215852126508,-2.24943515208,-0.677131626713,-0.0390508922818,-13.8895127601
do_nothing,-0.142967516874,-2.81846837024,-1.75939404158,-2.01152061248,-1.28781457335,-4.30986298817,-4.31298163732,-1.13986711268,-2.23004731511,-1.67616810675,-3.23182199965,-2.72934174845,-2.06084902657,-19.163267969
do_nothing,-1.65228931751,-4.93587936283,-2.94290155347,-1.4014434101,-0.983783072734,-3.84298670746,-3.62632489736,-1.37694081105,-1.85949778,-3.10101574495,-4.06859214244,-4.64467178077,-3.99560171736,-17.7654588194
do_nothing,-3.04165989267,-6.7064288879,-3.94115029656,-0.756854086572,-0.701174223272,-2.93781209837,-2.54237797183,-1.54483147996,-1.42255164173,-4.3346230711,-4.66538105878,-6.21829828351,-5.64377248996,-9.81287366475
do_nothing,-4.17145473051,-7.95657670542,-4.65704957542,-0.109043830075,-0.453432160944,-1.72100613448,-1.19180706083,-1.6260207814,-0.928678531332,-5.23294824877,-4.94379342113,-7.27499920107,-6.82966574189,3.55828675495
do_nothing,-4.92722917253,-8.5597456239,-5.01606260562,0.512969769771,-0.246225600663,-0.362484718213,0.258908523347,-1.611475298,-0.389963078556,-5.68294165034,-4.85169675611,-7.69108587502,-7.42179352722,20.3185953353
do_nothing,-5.23214928099,-8.45127767089,-4.97481484103,1.08371277448,-0.0772050965706,0.949850046507,1.63014456325,-1.50075116128,0.178290268909,-5.61863332825,-4.3710681781,-7.41061106668,-7.34865449637,37.8000547994
do_nothing,-5.05531349441,-7.63682978305,-4.52671294066,1.58215358234,0.0632329470144,2.03814699129,2.75391019326,-1.30090435485,0.757303001645,-5.03164980661,-3.5222327643,-6.45358718771,-6.60788234982,53.0488241604
do_nothing,-4.41492266579,-6.19293319978,-3.70371794877,1.9922401387,0.1902327753,2.76124856431,3.49721543311,-1.02451660511,1.32505681817,-3.9744661767,-2.36374517765,-4.91495093421,-5.26749330378,63.231146888
do_nothing,-3.37588294702,-4.25938297092,-2.57386336807,2.30311267762,0.321985287955,3.03593738855,3.78066118576,-0.687286317678,1.85708217061,-2.55566927392,-0.987702253824,-2.95420775822,-3.45891930768,66.0388609579
do_nothing,-2.04211839905,-2.02415304084,-1.23464061573,2.50904417135,0.476721784557,2.84954707694,3.58952842536,-0.305688378079,2.32778089476,-0.927612237053,0.489135480665,-0.776921840586,-1.36253566601,60.0392198202
do_nothing,-0.544535931143,0.297488417656,0.197081290814,2.60916448144,0.669538391566,2.26194851328,2.97568979528,0.104833526644,2.71217602289,0.732075913012,1.93747039791,1.38968377496,0.81265405839,44.9196309406
do_nothing,0.973866074777,2.48719512762,1.59745587512,2.60701915246,0.909434096803,1.39648332639,2.04997002013,0.530806007371,2.987907676,2.24275650971,3.22943871403,3.32393927233,2.85275311429,21.5907154817
do_nothing,2.3738978253,4.34812944098,2.84889130315,2.51000358541,1.1969435974,0.421059936846,0.965956034176,0.960652961782,3.1372437423,3.44386100091,4.25273273231,4.8362636451,4.56324206854,-7.87077756873
do_nothing,3.53512528479,5.72684531095,3.85247673022,2.32870211624,1.52270005179,-0.477886940706,-0.102494490691,1.38369003916,3.14885587943,4.21563382899,4.92310920131,5.7915878239,5.79080272305,-40.4365698306
do_nothing,4.36804805727,6.52968667485,4.53803636915,2.07615302406,1.86717459786,-1.12476588524,-0.986858585743,1.78847935203,3.0191285325,4.49464132375,5.19368063377,6.12474504687,6.43999923988,-72.4750870169
do_nothing,4.82207692141,6.73159334906,4.87053467303,1.76705727702,2.20171654838,-1.38316010628,-1.54898927566,2.16100053476,2.75281922674,4.28181803204,5.05976759016,5.84682183682,6.48275770725,-100.190962844
do_nothing,4.88845303252,6.37617753356,4.85203029442,1.41695184251,2.49087252582,-1.17882960004,-1.70194903144,2.48317526034,2.3629655247,3.64181950439,4.55864437269,5.04165427687,5.95949538508,-120.100295604
do_nothing,4.59793289827,5.56707787575,4.5189726699,1.04137681607,2.69581002099,-0.513803453455,-1.42355259068,2.73226180505,1.87002695101,2.69364232047,3.76416720841,3.85296349553,4.97181692804,-129.480207758
do_nothing,4.01376027827,4.45176198834,3.9352710312,0.655077053013,2.77852845906,0.530769404616,-0.760549291796,2.88151198635,1.30034576642,1.59369289875,2.77694577046,2.46387398662,3.66777814427,-126.733473784
do_nothing,3.22106194994,3.19997276833,3.1821510341,0.27128992949,2.70642628874,1.80372996681,0.177300362455,2.9022706304,0.684095195341,0.513564075165,1.7113145424,1.07157800564,2.22167552088,-111.619164722
do_nothing,2.31425408074,1.97975469131,2.34626361612,-0.0988225303934,2.45672116243,3.10395200934,1.23254988169,2.76742963455,0.0529456477688,-0.384442440211,0.680797262201,-0.139441314246,0.811024298495,-85.3171379855
do_nothing,1.38426848775,0.934345458801,1.50775638719,-0.446540042083,2.02020305228,4.20866306128,2.22272251179,2.45586815924,-0.562289971423,-0.970644099525,-0.216027153833,-1.02202635469,-0.406255612551,-50.3155762757
do_nothing,0.507374279863,0.163120153432,0.730020170205,-0.765702873949,1.40384245043,4.90611804866,2.96713866019,1.95726578607,-1.13377561777,-1.16685906526,-0.907388537874,-1.48549757134,-1.31146729755,-10.1338123604
do_nothing,-0.262912481783,-0.290765135395,0.0525772443414,-1.05255835582,0.631876110853,5.0279763961,3.31410739495,1.2765119037,-1.63831899654,-0.95811578722,-1.35634400169,-1.50678533408,-1.83903385518,31.0857204486
do_nothing,-0.899827876798,-0.444298114989,-0.511885350159,-1.30534041784,-0.254857451354,4.47666900888,3.16456261109,0.436886829377,-2.05843617873,-0.395428381607,-1.56388672682,-1.13207754025,-1.98289220635,69.0653137769
do_nothing,-1.40288900127,-0.369539969453,-0.975950655119,-1.52362271007,-1.20137624013,3.24365556803,2.48867194586,-0.518723894975,-2.38274959288,0.41089880171,-1.56674224461,-0.468810926146,-1.79461831532,99.8979125973
do_nothing,-1.79324217827,-0.180259850726,-1.37167029755,-1.70752117369,-2.14265151553,1.4156863974,1.33289580185,-1.52910375163,-2.60574607054,1.30665420313,-1.43017306127,0.330852645457,-1.37362729482,120.507022827
do_nothing,-2.10573635485,-0.0121576197565,-1.74147102327,-1.85685157808,-3.00899681966,-0.832168873734,-0.183704796318,-2.51866611922,-2.72700504607,2.11577598741,-1.23679966998,1.09276749182,-0.850854384751,129.002487669
