label,COUNTER,INTERPOLATED,AF3,F7,F3,FC5,T7,P7,O1,O2,P8,T8,FC6,F4,F8,AF4,RAW_CQ,GYROX,GYROY,MARKER,SYNC,TIME_STAMP_s,TIME_STAMP_ms,CQ_AF3,CQ_F7,CQ_F3,CQ_FC5,CQ_T7,CQ_P7,CQ_O1,CQ_O2,CQ_P8,CQ_T8,CQ_FC6,CQ_F4,CQ_F8,CQ_AF4,CQ_CMS,CQ_DRL
off_to_on,11.5544215584,13.6917117812,12.0941159851,3.96614184929,6.73525910525,8.84323471459,18.3556190931,12.4472364251,4.49344727593,10.1722027525,5.62977054485,8.37774854887,12.7344180177,-26.8924634702
off_to_on,14.207537052,16.4468237008,14.5989814043,5.64118468425,8.59217214415,10.0361754299,20.2108562798,14.4979892205,6.31174823889,13.4519324732,8.1270682356,12.1971100777,15.5124556965,-59.2155420597
off_to_on,16.2169749576,18.5299259952,16.4612520684,7.1244432784,10.1658489602,10.9022579465,20.8107539712,15.772261821,7.90366362336,16.1772517087,10.2922196305,15.5793846649,17.5026719713,-89.8136674881
off_to_on,17.4043169908,19.7818017592,17.5082278779,8.31120365331,11.3331108255,11.3691774816,20.1511539569,16.1886412912,9.15638174974,18.1157438074,11.9588981358,18.2261833968,18.5389649278,-115.063858657
off_to_on,17.6433345125,20.081324973,17.6164582705,9.11244039559,11.9856461559,11.3742848917,18.3224771448,15.724593187,9.97578357604,19.0785605807,12.9928399962,19.879046308,18.5226863089,-131.755759784
off_to_on,16.8780120049,19.3626000913,16.7304184971,9.46522979371,12.0447131877,10.8776754886,15.5012951284,14.4205088993,10.297104775,18.9450328339,13.3062293365,20.3520759305,17.4362373836,-137.485170424
off_to_on,15.1335396598,17.628050928,14.8744515581,9.34029439249,11.4733214741,9.87333807598,11.9337987013,12.3778800711,10.0924719868,17.6811066387,12.8672942881,19.5575123713,15.3484817755,-130.958765854
off_to_on,12.5184053123,14.9552047121,12.1559393434,8.74559905753,10.2839983006,8.39623293643,7.91271215686,9.75148449331,9.37426772958,15.3487920822,11.7039195091,17.5205889361,12.4109210691,-112.172371919
off_to_on,9.21684733668,11.4956243366,8.75879146593,7.7254920376,8.54083896085,6.52380536441,3.74997598011,6.73616831503,8.19386472426,12.1048916962,9.90084391681,14.381350734,8.84471366054,-82.440511167
off_to_on,5.47220776206,7.4654272202,4.92763096311,6.35553112079,6.35533328031,4.37133000708,-0.251954116632,3.54947188783,6.63592146525,8.18863838691,7.59082929887,10.3828101482,4.91978233504,-44.2729803245
off_to_on,1.56297216177,3.12796135172,0.944333240117,4.73375600245,3.87633796424,2.08147743569,-3.82714324598,0.411883135654,4.80904929706,3.89933497612,4.94094360701,5.84662280014,0.928295693047,-1.11269614631
off_to_on,-2.22567749841,-1.2296723145,-2.90034267564,2.9696692797,1.27539606834,-0.190561369188,-6.76866062522,-2.47316183233,2.83415520006,-0.433551882433,2.13569923266,1.13914630152,-2.84442038704,43.0343281974
off_to_on,-5.6312915008,-5.32362292386,-6.33656025206,1.17249496496,-1.27073121166,-2.29431509335,-8.94413451121,-4.9373270275,0.832061561122,-4.48432354407,-0.640858005437,-3.36794235967,-6.14809320304,84.0332682481
off_to_on,-8.44084324358,-8.90057755677,-9.14290891354,-0.559649601551,-3.59805648757,-4.10113799164,-10.3028106087,-6.86145678589,-1.08793768907,-7.96486863927,-3.22194386598,-7.33753205502,-8.79143692289,118.068080138
off_to_on,-10.5112569465,-11.761912077,-11.1681034036,-2.14821269219,-5.57154234372,-5.51865002623,-10.8735512515,-8.18411245981,-2.83711173128,-10.654157171,-5.47176995996,-10.5024249165,-10.6589051442,142.050327105
off_to_on,-11.7811192131,-13.7815790083,-12.3441002858,-3.53923917521,-7.09738011354,-6.50034209153,-10.7542907689,-8.90363617377,-4.35284533886,-12.4196882763,-7.29474688095,-12.6916843081,-11.7182407224,153.942330692
off_to_on,-12.2720748819,-14.915355818,-12.688966768,-4.70446515109,-8.12984243485,-7.04888028668,-10.0944757241,-9.07358382403,-5.60018617674,-13.2281706973,-8.63934247237,-13.8447061189,-12.0179623042,152.958455905
off_to_on,-12.0797883867,-15.2001888865,-12.299192984,-5.6385853805,-8.67194681189,-7.2125794498,-9.07283620623,-8.79216959934,-6.56947863873,-13.1440954793,-9.49652496794,-14.0113663506,-11.6752162889,139.623225168
off_to_on,-11.3557709122,-14.7436950584,-11.3325514467,-6.35339129707,-8.7700345662,-7.07554193754,-7.87334970451,-8.18709017968,-7.27076122044,-12.3164379811,-9.89344506005,-13.3384519197,-10.8556703802,115.682133843
off_to_on,-10.2826326185,-13.7052393862,-9.98388087571,-6.8699464172,-8.50321173333,-6.74291544211,-6.66240544134,-7.39765393137,-7.72607153545,-10.9552880452,-9.88361527655,-12.0444053563,-9.74816318349,83.8783937367
off_to_on,-9.04623846228,-12.2711991402,-8.45712744983,-7.21024374683,-7.96929435357,-6.32346642561,-5.56993670593,-6.55645549376,-7.96108229375,-9.30153989084,-9.53524791458,-10.38595747,-8.53751171899,47.6242668312
off_to_on,-7.80869065527,-10.6278728647,-6.93747872824,-7.38983483088,-7.26935144829,-5.91207942013,-4.67669607219,-5.77286712146,-7.99754261361,-7.59369308853,-8.91956345151,-8.62127343503,-7.37911891462,10.6073543766
off_to_on,-6.68596019188,-8.93586632286,-5.56740025251,-7.41272721076,-6.49308280561,-5.57481323584,-4.00898536971,-5.12036034328,-7.8478170592,-6.03619424559,-8.10076652341,-6.97465372316,-6.37877883797,-23.6211444747
off_to_on,-5.73334959149,-7.30961728202,-4.42983160606,-7.26944801367,-5.70708903687,-5.33876921707,-3.54113731451,-4.62915854713,-7.51243079135,-4.77353074593,-7.12903152153,-5.60755660562,-5.58037638161,-52.0282730967
off_to_on,-4.94087088512,-5.80501840085,-3.54079093251,-6.93862985244,-4.94761907861,-5.18831058327,-3.20501722608,-4.28502055813,-6.98100506693,-3.87349974496,-6.03730403545,-4.59978404108,-4.96311012336,-72.4081090788
off_to_on,-4.23921488875,-4.41695029345,-2.85231235634,-6.39187677057,-4.21868848628,-5.06822357072,-2.90491038643,-4.03415957462,-6.23638609427,-3.32182281098,-4.84209196081,-3.94322805459,-4.44857252112,-83.5841261321
off_to_on,-3.51546418167,-3.08710083661,-2.26518262818,-5.60110689699,-3.49565450205,-4.89337339495,-2.53550366966,-3.79351572694,-5.26122334615,-3.02872857337,-3.54778724367,-3.54881201401,-3.9166728997,-85.4851966418
off_to_on,-2.6362766999,-1.72092394303,-1.64955486287,-4.5471331489,-2.73353020042,-4.56343683431,-2.0003437985,-3.4649268554,-4.04582650137,-2.84649294911,-2.15351972272,-3.2654254033,-3.22816723474,-79.0907356968
off_to_on,-1.47514280366,-0.211201241721,-0.870393250317,-3.22800258484,-1.8786367394,-3.98053365928,-1.22819632831,-2.95126777621,-2.59589002276,-2.595431435,-0.661176023858,-2.90799538617,-2.25063035006,-66.256001575
off_to_on,0.060339900828,1.53538055218,0.185997988913,-1.66560759813,-0.881726995979,-3.06714376303,-0.185124325677,-2.17241256925,-0.938658739174,-2.09468431156,0.916930578433,-2.29059064943,-0.884198447396,-49.4423154162
off_to_on,2.00532188849,3.57277358314,1.58828488315,0.0906892682979,0.289470754945,-1.7816488401,1.11921079849,-1.07894104308,0.873680289605,-1.19348030964,2.55216262015,-1.25978169708,0.916605258497,-31.3873607618
off_to_on,4.32233822227,5.89532727752,3.34280200909,1.9642442923,1.64022260982,-0.12918138395,2.6316560109,0.338155039734,2.76418694372,0.201504170573,4.19654731708,0.276525163546,3.12816562224,-14.7566376144
off_to_on,6.89635126615,8.42620828036,5.38531098978,3.85539475449,3.14280870726,1.83385456777,4.2617870055,2.04295848256,4.63520482302,2.10654677499,5.78328996981,2.32891016443,5.65247429895,-1.81801297967
off_to_on,9.54140470783,11.0167591447,7.58323291148,5.64943497604,4.73551663011,4.00231134429,5.89310261863,3.95580759727,6.37592078615,4.45185023601,7.23088279504,4.81783219038,8.32227689236,5.82281153975
off_to_on,12.0184726716,13.4575358511,9.74830208848,7.22737173425,6.32679791309,6.23158392516,7.39740559083,5.95993893245,7.87257080779,7.08446538692,8.45030920178,7.57789638858,10.9163212537,7.39655334837
off_to_on,14.062488515,15.500072681,11.6581182424,8.47808124284,7.80403019959,8.35240861146,8.65021909817,7.91268006087,9.01998848333,9.78294005823,9.35435546329,10.3745288901,13.1829984873,3.03661161648
off_to_on,15.4151844814,16.8868169385,13.0838047639,9.31024667543,9.04567706399,10.189167508,9.54505459113,9.65974502699,9.73295532339,12.2818942228,9.86770881766,12.9308947469,14.8695191654,-6.26701985445
off_to_on,15.8594581593,17.3853882108,13.8200898788,9.66245025971,9.93517517324,11.5792354128,10.0046352933,11.050858431,9.95580170862,14.3033950725,9.93639093332,14.9615092692,15.7529838121,-18.8171311733
off_to_on,15.2506387104,16.8225390842,13.7137404936,9.51002938847,10.3746662101,12.3908138259,9.98773673427,11.9548510674,9.66892653623,15.5911020781,9.53516471032,16.2081018295,15.6693940231,-32.4410144629
off_to_on,13.5403114136,15.1130490699,12.6864505465,8.86774775305,10.2967523431,12.5369749973,9.49103718198,12.272530045,8.89132003588,15.9427885521,8.67184363071,16.4730093365,14.5368514188,-44.7745513035
off_to_on,10.7892432606,12.2793055599,10.7489944572,7.78791483414,9.67277165124,11.9842364891,8.54615865029,11.9459951341,7.67872610739,15.2370654133,7.38787931662,15.6457330083,12.3698808302,-53.5635164717
off_to_on,7.16732227824,8.4584552726,8.00460478474,6.35422359,8.51660925955,10.7548057446,7.21279917086,10.9635888085,6.11768571632,13.4508981733,5.75513514043,13.7192278676,9.28290214804,-56.9460682198
off_to_on,2.94009811572,3.89560010294,4.64096353506,4.67217217229,6.883698454,8.92254546031,5.56939835214,9.36025051896,4.31627146676,10.6657100285,3.86929061116,10.7938724678,5.48222041266,-53.6837680463
off_to_on,-1.5567330253,-1.07665149131,0.911711944182,2.85740250797,4.86552632321,6.60357417872,3.70306033656,7.21361123241,2.39277137498,7.06133593125,1.84078264291,7.06869201809,1.24733118677,-43.3155383786
off_to_on,-5.95195683065,-6.07013415644,-2.89022412009,1.02355772971,2.58054329508,3.94310354582,1.70044312858,4.63663463575,0.463841501689,2.89863507926,-0.215491547428,2.82105707645,-3.0963364736,-26.2187542894
off_to_on,-9.87841469823,-10.6808595781,-6.46411710985,-0.728707231504,0.162802934086,1.10052604371,-0.358978854923,1.76792766971,-1.36631481874,-1.50702243505,-2.19035361894,-1.62246974835,-7.21006379556,-3.5729228171
off_to_on,-13.012670173,-14.5317237266,-9.53373386097,-2.32013526684,-2.25012801973,-1.76514776088,-2.4064047294,-1.23902713306,-3.0143723924,-5.81808719,-3.98911978637,-5.92040443906,-10.7760485202,22.7672434471
off_to_on,-15.1098658351,-17.3129166612,-11.8763718949,-3.69768510521,-4.5284703024,-4.50764491787,-4.38374466499,-4.22652367273,-4.42293088975,-9.70903235043,-5.53794463052,-9.75145200163,-13.5291840974,50.4724309224
off_to_on,-16.0294630081,-18.8150065138,-13.3450336028,-4.83530390728,-6.55946448663,-7.00223724627,-6.24069052027,-7.0421946896,-5.56172152472,-12.8983606005,-6.7871046103,-12.8462121802,-15.2827557035,76.9883175478
off_to_on,-15.7487164008,-18.9505842327,-13.8810854197,-5.73081664134,-8.25366703325,-9.1503543091,-7.92989747887,-9.54684078632,-6.425090931,-15.1747551669,-7.71107098518,-15.0118213323,-15.9451792956,99.804858733
off_to_on,-14.3623056822,-17.7618201758,-13.5160427269,-6.39967501429,-9.54795119112,-10.8801110387,-9.40174545799,-11.6202576221,-7.02642693938,-16.414569621,-8.30570311248,-16.1469109267,-15.5260346561,116.714920074
off_to_on,-12.0683159183,-15.4130983601,-12.3625779591,-6.86676625388,-10.4053763817,-12.1435441013,-10.6002677673,-13.1651448868,-7.39062506101,-16.5890293511,-8.5833035346,-16.2456002687,-14.1309618295,126.034369653
off_to_on,-9.14249243988,-12.1698115289,-10.5962675738,-7.15774803118,-10.81254206,-12.9118537043,-11.4616549451,-14.1094493894,-7.54595094441,-15.7608512784,-8.5665544895,-15.3906843547,-11.9463320281,126.761264217
off_to_on,-5.90416291124,-8.36615921446,-8.4307791748,-7.29141120737,-10.7753554872,-13.1701868017,-11.9162873311,-14.4076381493,-7.516696202,-14.0712961402,-8.28246178884,-13.7375288591,-9.21579945288,118.659560576
off_to_on,-2.67822745244,-4.36615399772,-6.08999390129,-7.27437305593,-10.3142737669,-12.9134385291,-11.8945908723,-14.0413987559,-7.31784906297,-11.7197790994,-7.7573542638,-11.491265792,-6.21174298844,102.261842437
off_to_on,0.241962576138,-0.522827091234,-3.78085845185,-7.09900202658,-9.46001673205,-12.1442074223,-11.3362533564,-13.0201337274,-6.95263688799,-8.93894312791,-7.01374201887,-8.88056285233,-3.20511133867,78.7947634215
off_to_on,2.62623372334,2.85926631442,-1.67053337077,-6.74493362936,-8.25050931587,-10.8734811193,-10.201609163,-11.3813884234,-6.41330286104,-5.96846039959,-6.06946735044,-6.13144604702,-0.437240811452,50.0391988126
off_to_on,4.32994052297,5.55371339636,0.129309043321,-6.18393946858,-6.72944888923,-9.12395499738,-8.48342629605,-9.19108206806,-5.68493189978,-3.03074539953,-4.93915011647,-3.44438680171,1.90317037807,18.1435653825
off_to_on,5.3045469549,7.43071631131,1.56927393692,-5.38735012048,-4.94647362509,-6.93521937373,-6.21701622455,-6.54316125691,-4.7516263428,-0.311276584754,-3.63750540479,-0.977185724988,3.6955096205,-14.5872328483
off_to_on,5.59554689468,8.46258914909,2.65966411386,-4.33479412766,-2.95850934568,-4.36951448003,-3.48660325555,-3.55812515067,-3.60393015839,2.05457857586,-2.18376427764,1.1647864006,4.89372660378,-45.9035635352
off_to_on,5.32850888802,8.716274647,3.45941177997,-3.02276787313,-0.831566901388,-1.51644889888,-0.426253975079,-0.37982805779,-2.24617352867,3.98732921031,-0.606214084378,2.93054112351,5.52360235975,-73.8014092053
off_to_on,4.6855625799,8.33459783104,4.05857967085,-1.47153350523,1.35789444569,1.50492904787,2.78565804999,2.82992748963,-0.702392889423,5.46184067314,1.05417222769,4.3182561322,5.67170573068,-96.6731347804
off_to_on,3.87582785681,7.50940323066,4.5573442967,0.270941449546,3.52290022511,4.54801150774,5.93857955846,5.89923931784,0.980322278178,6.49957852692,2.7419205078,5.36444015916,5.46789891,-113.406279286
off_to_on,3.10397182485,6.45066900574,5.0447915703,2.12886997753,5.56785390564,7.44518773446,8.80763107479,8.65625792886,2.73182518873,7.15637244856,4.38767350875,6.12964891165,5.06394096113,-123.424743235
off_to_on,2.5411827194,5.35603712178,5.58078420046,4.00266438775,7.39270880643,10.019035137,11.1753808786,10.9410755792,4.46251449347,7.50785902833,5.91146983929,6.68318283865,4.61107307426,-126.6736676
off_to_on,2.30237399845,4.38491339655,6.18362005079,5.77677857554,8.89930538624,12.0972706496,12.8549947528,12.61836934,6.07025521687,7.6348322201,7.22847000097,7.08908826024,4.23942736265,-123.555553451
off_to_on,2.43245559141,3.64043505858,6.82527677845,7.33048263049,9.99931458636,13.5298292105,13.7118029429,13.5894893876,7.44981169661,7.61048464547,8.25649676768,7.39534804386,4.04170731368,-114.830060297
off_to_on,2.90317852487,3.16131656918,7.43486947389,8.55021959375,10.6228463883,14.2058823494,13.6803179539,13.8025158022,8.50358372182,7.49102452099,8.92442690338,7.62747608397,4.06291147072,-101.492959179
off_to_on,3.62056497184,2.92406504321,7.9097066031,9.34192686722,10.7265351785,14.0683662763,12.7741587288,13.2588448713,9.15221071841,7.31049631273,9.18028295677,7.78694017907,4.29701394854,-84.6506684908
off_to_on,4.44148694635,2.85453092015,8.13219516361,9.6416700447,10.2998491581,13.1237148095,11.0871490538,12.0151272432,9.34359356497,7.07992896933,8.99785911382,7.85405908628,4.69059495739,-65.4056962397
off_to_on,5.19675064349,2.84644847643,7.98998069658,9.42314107074,9.36851041202,11.444990736,8.7849619467,10.1798484453,9.05908237374,6.79029269582,8.38087862583,7.79436970623,5.1525516417,-44.7654267533
off_to_on,5.71723849909,2.7837078202,7.39623310639,8.70098655511,7.99424313311,9.16742331571,6.08793150326,7.90446612607,8.31596204477,6.41825452463,7.36399947822,7.56702960491,5.56831953704,-23.5824947667
off_to_on,5.85935646678,2.5627053261,6.30696914827,7.52949572777,6.27054607842,6.4763807585,3.24687627599,5.36971820202,7.16587859985,5.93344436346,6.01041300038,7.13365805876,5.81657553219,-2.53008613117
off_to_on,5.52625690788,2.11128374414,4.73273513997,5.99680888678,4.31474246637,3.58888841943,0.514798060837,2.76839436455,5.68941222314,5.30589858647,4.40625340512,6.46612919474,5.78621610692,17.8894584701
off_to_on,4.68201109561,1.40145357029,2.74279236059,4.21541451964,2.25711207116,0.730784093234,-1.88201588891,0.286418691062,3.98753410018,4.51252043094,2.65248395368,5.55217328187,5.39151241633,37.3087648278
off_to_on,3.3569774138,0.454165533028,0.461031673746,2.31019872065,0.228370017354,-1.88767232092,-3.76975785792,-1.9155665687,2.17110521438,3.54173467324,0.855280337409,4.39814137949,4.58370237675,55.4416318858
off_to_on,1.64389156375,-0.664293949781,-1.94596445555,0.40562312415,-1.6529500754,-4.09456730909,-5.0463085218,-3.71786084659,0.349824792392,2.39594429592,-0.883859440354,3.02884789428,3.35782550428,72.0225898566
off_to_on,-0.314491209346,-1.8533897637,-4.28716647154,-1.38630635169,-3.29157581536,-5.77440719204,-5.69125342178,-5.05259307507,-1.37792128997,1.09183560334,-2.47701833906,1.48492453821,1.754256045,86.7513925592
off_to_on,-2.34422723245,-2.99487040581,-6.36919891414,-2.97576821857,-4.62356819715,-6.87896656624,-5.76524380141,-5.90835046125,-2.93303026892,-0.34105299589,-3.85666765749,-0.181490126074,-0.14494557106,99.2527927208
off_to_on,-4.26268349272,-3.97191485953,-8.01929565592,-4.30140236882,-5.62029931039,-7.42931130979,-5.39864494736,-6.32782078255,-4.26054054257,-1.86284496144,-4.97958039474,-1.91169981714,-2.22414754474,109.059387266
off_to_on,-5.90148862749,-4.68773061706,-9.10598048209,-5.33250494301,-6.28780306213,-7.50858919135,-4.77086565454,-6.39861671569,-5.33092888544,-3.4261936795,-5.82747643108,-3.64502492067,-4.3455537004,115.621801864
off_to_on,-7.12677297446,-5.0806072734,-9.55465931356,-6.06710814655,-6.66161390048,-7.24647290156,-4.08305672701,-6.23836429653,-6.13793359648,-4.97886499272,-6.40449885035,-5.32220048868,-6.36245040661,118.346478872
off_to_on,-7.85402925501,-5.13306110764,-9.35601828528,-6.52649929209,-6.79785554013,-6.79734505966,-3.52782143759,-5.97594208661,-6.69350018443,-6.46561784989,-6.73207304522,-6.887157673,-8.13276002726,116.657346334
off_to_on,-8.0557768415,-4.87369305969,-8.56611954112,-6.74722453104,-6.761892253,-6.31525430879,-3.26005686438,-5.73133618451,-7.02085353104,-7.82926987655,-6.8420641683,-8.28718396303,-9.53147297918,110.074160943
off_to_on,-7.76128891429,-4.37156611364,-7.29823113501,-6.77194724539,-6.61622559189,-5.92920168285,-3.37296613588,-5.59683917465,-7.14694515534,-9.01114954,-6.76937038416,-9.47187962296,-10.4607894263,98.2977410457
off_to_on,-7.04878351611,-3.72410180901,-5.7075569769,-6.64064393984,-6.4094505951,-5.72234864712,-3.88264766978,-5.62221973627,-7.09557134915,-9.95139387853,-6.54513723937,-10.391652214,-10.857165045,81.2909240233
off_to_on,-6.03152275165,-3.0405146021,-3.97098956589,-6.38350879707,-6.16795291418,-5.71825454635,-4.72355532062,-5.80602460472,-6.88230305671,-10.5896928355,-6.19164666177,-10.9966524739,-10.6948665993,59.3440378015
off_to_on,-4.84006457306,-2.42349205524,-2.26466080791,-6.01662254425,-5.89164575865,-5.87630820372,-5.75567731159,-6.09439751535,-6.51203775721,-10.8670727083,-5.71964407959,-11.2370175645,-9.98604670472,33.1149571315
off_to_on,-3.60336334825,-1.95208622107,-0.742327424768,-5.54097277437,-5.55446403497,-6.09724066782,-6.78269466691,-6.38780759692,-5.97953022111,-10.7291456777,-5.12846408805,-11.065052716,-8.7776959774,3.63626500497
off_to_on,-2.43146635266,-1.66857267603,0.482533775666,-4.94486441408,-5.10963376777,-6.23816946004,-7.57886661023,-6.55500236567,-5.27275417065,-10.1309540257,-4.40886094629,-10.4395871821,-7.14609132659,-27.7146200395
off_to_on,-1.40220992781,-1.57139597644,1.34860075533,-4.20921469559,-4.49901777421,-6.13523176274,-7.92115880288,-6.45248365973,-4.37846930726,-9.04315755325,-3.54801427302,-9.33225341781,-5.1895144385,-59.2826235609
off_to_on,-0.553643884301,-1.61535666612,1.85109746222,-3.31476914474,-3.66520792511,-5.63071537138,-7.622352022,-5.94698993259,-3.28899195668,-7.45892039554,-2.53582879995,-7.73494705433,-3.02006386071,-89.2357920762
off_to_on,0.116986225975,-1.71905690927,2.03829976197,-2.24997209444,-2.56458363923,-4.60086137256,-6.56065541483,-4.93797254736,-2.00895090178,-5.40052499607,-1.37143300696,-5.66732171234,-0.755340727014,-115.692270338
off_to_on,0.647855575629,-1.77848595222,2.00084346097,-1.01812131184,-1.17935436694,-2.98030480219,-4.7017352446,-3.37695328468,-0.560786293609,-2.92454591407,-0.0687369412606,-3.18293791894,1.48932508561,-136.863063663
off_to_on,1.10186081174,-1.68466736047,1.85549615532,0.357454767516,0.473315373202,-0.779479095572,-2.1100109738,-1.28096883734,1.01207737432,-0.124404730855,1.33995919347,-0.372674921772,3.60759729178,-151.198120134
off_to_on,1.55243064865,-1.34265305148,1.72578143102,1.83115546209,2.33664272085,1.90780308153,1.05255621213,1.26198768665,2.64510976069,2.87067878253,2.80302725854,2.63575211695,5.50746414584,-157.522388791
off_to_on,2.06812275207,-0.688929700448,1.72222716469,3.33631021142,4.3149820314,4.90808163685,4.5403330283,4.09661504321,4.25586871717,5.90093706607,4.25156701143,5.68286970582,7.11500233015,-155.148892351
off_to_on,2.69838977556,0.295468197512,1.92500295445,4.78980573386,6.2802186929,7.98324813946,8.04903327161,7.01295576443,5.75026491268,8.7855700822,5.60432786334,8.58719649677,8.37653996059,-143.957470123
off_to_on,3.46265535926,1.57820524017,2.37132380247,6.09959420661,8.08323473421,10.8552078795,11.248905609,9.76677740536,7.0311730554,11.3359801007,6.77493442794,11.1590472901,9.25929697586,-124.430561858
off_to_on,4.34429667829,3.07636890166,3.04928962974,7.17409604873,9.56915569111,13.2372344905,13.8220204556,12.1053645189,8.00828973446,13.3715876028,7.68050029557,13.2171046312,9.75066324362,-97.640983715
off_to_on,5.29037199362,4.66467255881,3.89890769244,7.93221628893,10.5945283476,14.8680662457,15.4990271221,13.7956441117,8.60792230346,14.7366063136,8.25049456532,14.6059432363,9.85633153005,-65.1907857096
off_to_on,6.21707572132,6.1900301866,4.82003972652,8.31259018863,11.0442634055,15.5443388372,16.0907966077,14.651199368,8.78137109284,15.3158629862,8.43467153243,15.2123919635,9.59754105158,-29.1046193277
off_to_on,7.02007606645,7.49045670257,5.68606842538,8.28077587011,10.8461521597,15.1470894856,15.5110062396,14.554802635,8.51074241535,15.0477035875,8.20899284933,14.9786051811,9.00771408431,8.31479346639
off_to_on,7.58820910963,8.41562020986,6.36131809061,7.83340231876,9.98103777072,13.6587873051,13.7868730509,13.4736133063,7.81137646453,13.9322543313,7.57874490708,13.9100079772,8.12878668299,44.6578821779
off_to_on,7.81856104806,8.84614612591,6.71979230812,6.99871532269,8.48725431798,11.1685499096,11.0567489044,11.4650747693,6.73054074801,12.0337863511,6.5784407447,12.0768498397,7.00754465708,77.5921955242
off_to_on,7.63082202375,8.70897751703,6.66266519985,5.83347565883,6.45866879653,7.86473348824,7.55495108583,8.67269206394,5.34255677667,9.47661094245,5.26853769229,9.60887841081,5.69227346903,105.043580488
off_to_on,6.97895121425,7.98669476191,6.13219064381,4.41667619584,4.03647468455,4.01572529333,3.58579778628,5.31212849797,3.7410186891,6.43472104057,3.72943380132,6.68352447224,4.23000911515,125.358779762
off_to_on,5.85861991723,6.71959586623,5.12023492234,2.84098140435,1.39568039816,-0.0586999898634,-0.509860073137,1.64926062101,2.02915495891,3.11618726687,2.05356480203,3.50884853871,2.66462957136,137.434804779
off_to_on,4.3095257579,5.00039752388,3.67040924729,1.20309012367,-1.27209531895,-4.02188336912,-4.3914404066,-2.02718031214,0.309621098767,-0.255997364704,0.336657454813,0.303214691019,1.03594866862,140.802960435
off_to_on,2.41239944231,2.96247543915,1.8736666008,-0.405661863055,-3.77745540979,-7.55633351503,-7.75426716979,-5.43510416987,-1.32494119751,-3.46444995323,-1.33072739522,-2.7258774142,-0.620133314175,135.659124034
off_to_on,0.281247452862,0.763462184729,-0.141893624067,-1.90722318917,-5.95143863602,-10.3968605832,-10.3598022379,-8.3271936541,-2.79938971077,-6.31693093703,-2.87031626388,-5.4012282686,-2.27049883928,122.836536181
off_to_on,-1.94801303593,-1.43336970451,-2.22552058555,-3.24229688473,-7.66098561369,-12.3567625741,-12.0570264983,-10.5143936056,-4.06074011553,-8.66261087585,-4.22109913881,-7.59127399539,-3.88291937896,103.722564831
off_to_on,-4.1309494349,-3.4772780325,-4.22059400842,-4.37278284048,-8.81991643789,-13.3440009685,-12.792742446,-11.8821166359,-5.07956248759,-10.403215023,-5.34169637081,-9.21948620731,-5.42374828903,80.1261978155
off_to_on,-6.12828279191,-5.24528221086,-5.98145410248,-5.28109130147,-9.39428718728,-13.3656590644,-12.6100401452,-12.3974856588,-5.84817216994,-11.4978507961,-6.21005409614,-10.2667897578,-6.85565202435,54.1079053568
off_to_on,-7.81815096146,-6.65249972229,-7.38812817564,-5.96670277467,-9.40173206488,-12.5205338803,-11.6356896345,-12.1070894458,-6.37614138376,-11.9611449951,-6.82080154901,-10.7668891441,-8.13588283397,27.787495926
off_to_on,-9.10559357785,-7.65644600698,-8.35718171954,-6.4407560164,-8.90516711891,-10.9812557457,-10.058593503,-11.1259217139,-6.68403678169,-11.8551879174,-7.18093353559,-10.7953493502,-9.21558042185,3.14822109214
off_to_on,-9.92836662675,-8.25511624141,-8.84752828567,-6.71972044244,-8.00192647686,-8.96864914129,-8.10247666551,-9.61925006497,-6.79651973111,-11.2765803006,-7.3046969596,-10.4541153285,-10.0404992873,-18.1436768986
off_to_on,-10.2587667296,-8.47962287657,-8.86077326805,-6.81931216782,-6.80993160787,-6.72196889227,-5.99657841306,-7.77997984871,-6.73599748666,-10.3404955746,-7.20863132002,-9.85375726875,-10.5533952707,-34.8857364089
off_to_on,-10.1017195574,-8.38296587232,-8.43643279074,-6.74973048922,-5.45279221101,-4.4690508646,-3.9481816951,-5.80453850573,-6.51787930258,-9.1640188678,-6.90763191582,-9.09601033407,-10.6980837283,-46.4369958999
off_to_on,-9.48987722357,-8.02704213307,-7.64305152391,-6.51303910127,-4.04577152784,-2.40026311872,-2.12037530841,-3.87035738565,-6.14819500568,-7.85105785667,-6.41268698384,-8.25909715848,-10.4249281645,-52.7558908802
off_to_on,-8.47680744084,-7.47018022393,-6.56674932819,-6.10313485799,-2.68432416642,-0.649467809023,-0.617573877732,-2.11767587433,-5.62392226459,-6.48083576873,-5.73062283379,-7.38789013179,-9.6972655774,-54.3735110074
off_to_on,-7.12950099816,-6.75729545298,-5.29899142769,-5.50829717539,-1.4364714866,0.715886297876,0.519848031142,-0.637696672252,-4.93590758881,-5.10141560458,-4.86582579748,-6.49024945202,-8.49806040966,-52.3041532667
off_to_on,-5.52136429117,-5.91423664236,-3.92537228404,-4.71586409548,-0.339687707659,1.69476292619,1.31174781846,0.531814140883,-4.07382699666,-3.72894797356,-3.82355484659,-5.53996462184,-6.83593827739,-47.9019771788
off_to_on,-3.72662313281,-4.94712892494,-2.51694093029,-3.71820673172,0.59768313262,2.34325088924,1.82641597631,1.40342900469,-3.03228349037,-2.35249128533,-2.61417018529,-4.48576072278,-4.74971161934,-42.6788080563
off_to_on,-1.81669323792,-3.84663338535,-1.12512326664,-2.51893097586,1.39108041375,2.7578720583,2.16299164036,2.03041078953,-1.81693393508,-0.943442664852,-1.25742627212,-3.26494380322,-2.310587834,-38.1030134486
off_to_on,0.141359567375,-2.59618791965,0.219308683252,-1.13816228401,2.07155576112,3.05431482444,2.43096771881,2.49229067071,-0.449509252268,0.532044322644,0.214059857065,-1.81957791917,0.378553536803,-35.4022662877
off_to_on,2.08456454135,-1.18260214138,1.50341605242,0.384121745664,2.67620523281,3.34493642575,2.72990114774,2.87799635237,1.02925649457,2.09970026753,1.75294662404,-0.112706122524,3.18713120823,-35.393458718
off_to_on,3.95262555086,0.393037048161,2.72620594556,1.98747119496,3.23873622477,3.71839772794,3.13223973654,3.26906009004,2.55946368304,3.76500616879,3.29745816584,1.85789779963,5.96403144493,-38.3608456611
off_to_on,5.68615958703,2.10626759346,3.89091149071,3.59341615779,3.78158107997,4.22433501924,3.67157605902,3.72528352458,4.06490808651,5.50426099212,4.7740450525,4.0506280873,8.54753788777,-43.9987718311
off_to_on,7.22544768643,3.90380301611,4.99691901004,5.11088701725,4.3106548255,4.86511686724,4.33774215419,4.2747624966,5.45875700206,7.26035057138,6.10226477446,6.37713604824,10.7772198839,-51.4284687423
off_to_on,8.51041328949,5.70298760395,6.03283544138,6.44403919894,4.81339925841,5.59561626649,5.07910523596,4.90945940221,6.65139234982,8.94402850084,7.20137781799,8.70628943847,12.5066892345,-59.2900763731
off_to_on,9.48226556292,7.39661307464,6.97197386558,7.50153549881,5.26023216114,6.33071870601,5.8113696585,5.58666382881,7.5594245564,10.4407163842,7.99787133319,10.8747256294,13.6159646501,-65.9021421683
off_to_on,10.0868796302,8.8626687663,7.77112880049,8.20608962318,5.60900781548,6.95916290091,6.43128362043,6.23582896563,8.11467819704,11.62202868,8.43295175091,12.7028023821,14.0221577703,-69.4723974787
off_to_on,10.279597351,9.97776779071,8.37298026937,8.50299760205,5.81166716185,7.36143232602,6.83301317551,6.76953244184,8.27192381288,12.3605400117,8.46901641951,14.0139947557,13.687323608,-68.3366377836
off_to_on,10.0307900374,10.6323502918,8.71188781994,8.36649200133,5.82197118333,7.42890134954,6.92466030916,7.09678556945,8.01428452655,12.5458361551,8.09422746243,14.6552986225,12.622590583,-61.1979529864
off_to_on,9.33128918264,10.7454155701,8.7222985708,7.80303249159,5.60310404263,7.08135194907,6.64249225117,7.13666960448,7.35555831342,12.0996888516,7.32455191123,14.5160447472,10.8880702953,-47.3370488229
off_to_on,8.19670597374,10.2765352803,8.3485750328,6.85105510406,5.13401010062,6.28031377811,5.96088697689,6.83033397411,6.33912061137,10.988294136,6.20296501299,13.5427197095,8.58849860832,-26.7663191898
off_to_on,6.66974333117,9.23325329694,7.55480801592,5.57718189924,4.41357052157,5.03637777591,4.89670732219,6.1497273616,5.033544346,9.22989623536,4.79588924314,11.7478997941,5.86502160379,-0.305625938476
off_to_on,4.81984595965,7.67263190205,6.3331495841,4.06937290222,3.46208666307,3.40957677579,3.50767973466,5.10198634143,3.52552537113,6.89672700795,3.18730484963,9.21215683093,2.88395468919,30.434041858
off_to_on,2.73989858027,5.69655907048,4.70938209942,2.42791319714,2.31995894994,1.50296841059,1.88524164126,3.72908693035,1.91106430683,4.11093643426,1.47126602897,6.07868450508,-0.176341355543,63.1625627542
off_to_on,0.540113717057,3.44135632719,2.74480298739,0.755410626843,1.04386532004,-0.54946098223,0.143103493013,2.10306614764,0.28607789176,1.03496744809,-0.25625225688,2.54129741992,-3.13914614751,95.1106302274
off_to_on,-1.66031997584,1.06307793944,0.533996707793,-0.852906593477,-0.298909531552,-2.59867104486,-1.59666211179,0.317738927184,-1.26233721575,-2.1424691462,-1.90519405606,-1.17274784137,-5.84228702144,123.299086456
off_to_on,-3.74289877076,-1.27946212453,-1.80138565156,-2.31737303815,-1.63711292952,-4.49784887998,-3.21791544928,-1.52171731014,-2.66289317939,-5.22313110638,-3.39804700501,-4.82307291414,-8.14906627425,144.849915684
off_to_on,-5.59961445604,-3.44155985829,-4.12219026055,-3.57957261223,-2.90216592618,-6.11862332953,-4.62308266307,-3.30972103922,-3.86454168882,-8.01670882957,-4.67455449745,-8.1772948786,-9.95628133189,157.304901436
off_to_on,-7.14169336809,-5.30703293273,-6.28358370383,-4.60492780425,-4.03391019414,-7.36400677429,-5.74242327289,-4.95023304502,-4.83793246391,-10.3570086571,-5.69411318715,-11.0305983968,-11.1987821598,158.915465612
off_to_on,-8.3061633535,-6.79819928211,-8.14776681708,-5.38204596262,-4.98476268746,-8.17644488788,-6.53880924298,-6.36440464295,-5.57393292694,-12.115086531,-6.4357929277,-13.2217183883,-11.8504271023,148.868971076
off_to_on,-9.05943554432,-7.88012772525,-9.59611225941,-5.91914264705,-5.72187596937,-8.54015758666,-7.0076157689,-7.49509207612,-6.07967313085,-13.2080238876,-6.89624849155,-14.6438283887,-11.9217051184,127.422749026
off_to_on,-9.39750083762,-8.55874291796,-10.539354792,-6.23827027802,-6.2272413217,-8.47784486613,-7.17207676311,-8.30795566246,-6.37292931558,-13.6026471259,-7.08606837323,-15.249526543,-11.45463691,95.926755344
off_to_on,-9.34281834444,-8.87330586266,-10.9247345022,-6.36837187177,-6.49599913636,-8.0426707127,-7.07512712407,-8.78942859133,-6.47587573214,-13.3141595312,-7.0252863108,-15.0498635348,-10.5158082944,56.7280406859
off_to_on,-8.93844284525,-8.88464691557,-10.7393973892,-6.33831350723,-6.53348511871,-7.30710039629,-6.76924207199,-8.9423284934,-6.40928681459,-12.4002852167,-6.73884210328,-14.1080608492,-9.18850123288,12.9637478738
off_to_on,-8.24032881174,-8.66116809334,-10.0098356357,-6.171008072,-6.35170210779,-6.35055582828,-6.30602401591,-8.78021993974,-6.18815485359,-10.9520330374,-6.25271501944,-12.5291327245,-7.56486544655,-31.7374674876
off_to_on,-7.30899955971,-8.26495577732,-8.79763455863,-5.87953566893,-5.96594433218,-5.2479197691,-5.72725152876,-8.32176917025,-5.8194224071,-9.08251070363,-5.59128000077,-10.4469852693,-5.73893022216,-73.6144695139
off_to_on,-6.20184207542,-7.74030240043,-7.19221960639,-5.46582626207,-5.39221285335,-4.0606633231,-5.05880700803,-7.58624824735,-5.30215676321,-6.91532164871,-4.77618500007,-8.01068909297,-3.80102220353,-109.154152117
off_to_on,-4.96716851068,-7.10653170754,-5.30161073038,-4.92205042472,-4.64586713219,-2.83184315146,-4.3083921207,-6.59106413229,-4.63007472606,-4.57395948322,-3.82675967336,-5.37151100251,-1.83387245358,-135.451025276
off_to_on,-3.64089092885,-6.3563180288,-3.24235696826,-4.23442838772,-3.74169389067,-1.58550684052,-3.46730553457,-5.35175980153,-3.79592550715,-2.17330925229,-2.76168838724,-2.67198269327,0.0895887631501,-150.505011923
off_to_on,-2.24623013184,-5.45979379656,-1.12982737945,-3.38878153913,-2.69528683167,-0.330274324891,-2.51589475566,-3.88443310411,-2.79691996464,0.186070634754,-1.60145841264,-0.0378423901334,1.90699454256,-153.423025493
off_to_on,-0.796386292381,-4.37378970304,0.93011500436,-2.37687149642,-1.52536809814,0.933845396625,-1.43170368531,-2.21002907789,-1.64020543909,2.42070274425,-0.370961823858,2.42681385345,3.5662742806,-144.500564767
off_to_on,0.70038645899,-3.05469601752,2.84730170777,-1.20244065015,-0.256488189567,2.20687786741,-0.198906960009,-0.359564763878,-0.347356259016,4.46426609502,0.898393406053,4.64131204073,5.02484264088,-125.173252039
off_to_on,2.23426287176,-1.47280572097,4.55090468404,0.114097023621,1.07855302282,3.48030149855,1.18258746208,1.6208913994,1.04301479599,6.26565239858,2.16761957484,6.54763936795,6.24870465491,-97.8433432346
off_to_on,3.7871068418,0.374299865435,5.99050743695,1.53317168853,2.43720076484,4.73019738853,2.68994754862,3.66670011245,2.47513991589,7.78589255003,3.39050610672,8.10791923169,7.21182727517,-65.6009366508
off_to_on,5.3268012105,2.45168424323,7.13491245582,2.99631308894,3.76706031504,5.91356055426,4.27344195983,5.6936337832,3.87871065598,8.9949018418,4.51552360048,9.30098670318,7.89596136464,-31.8720989888
off_to_on,6.80381083684,4.68222045085,7.96926340889,4.42927514945,5.00751692439,6.96865916689,5.85651446747,7.60004640815,5.17403698799,9.86888318636,5.48913180367,10.1188625676,8.29091147521,-0.0348555049173
off_to_on,8.15082990678,6.94814544777,8.49122006353,5.74773577405,6.09307156825,7.81963804888,7.3401513422,9.27242872971,6.27916434596,10.3889799856,6.26009988965,10.5637341111,8.39508214753,26.9521573677
off_to_on,9.28591113066,9.09921319939,8.70696111339,6.86489745706,6.95812064893,8.38483698664,8.61116064304,10.5940036417,7.11804509442,10.5414349912,6.78426092169,10.6457865255,8.21601243558,46.865123328
off_to_on,10.1189459902,10.9666541374,8.62770920729,7.70003237046,7.54266080156,8.58764948538,9.55341465559,11.4555023097,7.62867601769,10.3191514317,7.02902797125,10.3819474736,7.77056788821,58.4381008835
off_to_on,10.5608388246,12.3812462279,8.26729461962,8.18687236734,7.79822759978,8.36828590472,10.060675381,11.7668560014,7.7700892626,9.72423206565,6.97701225323,9.79536423494,7.08449963354,61.4684762466
off_to_on,10.5342711464,13.1931366016,7.64103308518,8.28075907369,7.69330593284,7.69459945568,10.049385849,11.4683067693,7.52722487687,8.77084562717,6.62820179488,8.91527136991,6.19119572357,56.7938980954
off_to_on,9.98465311311,13.2907250193,6.7659302407,7.96363762378,7.21749079574,6.57021678316,9.4697956435,10.539420686,6.91299794801,7.48767531031,6.00036365027,7.77685147729,5.12961793705,46.1453962504
off_to_on,8.88975270093,12.6159833515,5.66198128124,7.24627280732,6.3838234393,5.03857412244,8.31399356482,9.00468736528,5.9672599143,5.91925374564,5.12759084214,6.4207444208,3.94160440637,31.8963771389
off_to_on,7.26659838796,11.1740322587,4.35414559158,6.16744346578,5.22895648842,3.18203986713,6.61980946627,6.93478335084,4.75278421133,4.12567134909,4.05718591629,4.89200153365,2.66888640386,16.7396872942
off_to_on,5.17455617566,9.03556330765,2.87446735749,4.79027377691,3.81107784605,1.11601560419,4.47006231412,4.44311006754,3.34881691444,2.18042524117,2.84531321096,3.23847368154,1.35028006303,3.33338812245
off_to_on,2.71394598331,6.33166974297,1.26379590546,3.19622988517,2.20580561278,-1.02135865103,1.98719888763,1.67781423178,1.84306258975,0.166503013832,1.55202364618,1.5088188778,0.0195431269592,-6.04075235725
off_to_on,0.0201223900523,3.24168885057,-0.427369353256,1.47759464834,0.500513663089,-3.08262480376,-0.676089991029,-1.189924638,0.323175790733,-1.82888916143,0.236332050332,-0.249530782182,-1.29568041042,-9.76416966271
off_to_on,-2.74647673871,-0.0243894637413,-2.13924118881,-0.270606538777,-1.21227476004,-4.92582432176,-3.34924100238,-3.98008000969,-1.13112913968,-3.72029729799,-1.04800387948,-1.99203004401,-2.57356477384,-7.07924575727
off_to_on,-5.41329267889,-3.24666883429,-3.80445632025,-1.95823905301,-2.84170302799,-6.42878122673,-5.85784264615,-6.5188707445,-2.45435779879,-5.42989703719,-2.25548640027,-3.67792612952,-3.79642401352,1.82514271782
off_to_on,-7.8102125524,-6.21657591195,-5.35107436572,-3.5063856268,-4.30490001679,-7.50099797322,-8.03785390845,-8.65309551012,-3.59917623445,-6.89248647436,-3.35035802348,-5.27015887987,-4.9478846549,15.8490181827
off_to_on,-9.78413146012,-8.75589599748,-6.70661316522,-4.85174149824,-5.53220421372,-8.09165983265,-9.74861565897,-10.2621664517,-4.53764860873,-8.05894101353,-4.30651238928,-6.7342199943,-6.00939838816,33.131197129
off_to_on,-11.2119084392,-10.7313149412,-7.80272381064,-5.94877132137,-6.47087618322,-8.19280502629,-10.8834687829,-11.2666199218,-5.25981900454,-8.8977287726,-5.10604941127,-8.03619257773,-6.95678045807,51.2930816774
off_to_on,-12.0103273659,-12.0628666393,-8.58002362403,-6.76966484844,-7.08710390094,-7.83740638361,-11.3771263459,-11.6323520711,-5.77007784921,-9.39440775419,-5.73690966213,-9.14043893338,-7.75755611008,67.7443853999
off_to_on,-12.1420597369,-12.7255977086,-8.99258859472,-7.30244488706,-7.36633150847,-7.09282115483,-11.2093446806,-11.3703769651,-6.08207030241,-9.5493635999,-6.19016860675,-10.0075872337,-8.36986626485,80.011683259
off_to_on,-11.6171293105,-12.7447462396,-9.01165517208,-7.54782276467,-7.31213832491,-6.05069247686,-10.4048434177,-10.5324553981,-6.21309690214,-9.37433997667,-6.45761703115,-10.5935400398,-8.74351596004,86.0485825105
off_to_on,-10.4899279592,-12.1856404356,-8.62818215676,-7.51552903094,-6.94403398359,-4.81483713004,-9.02978570929,-9.20341681626,-6.17899776828,-8.88850993213,-6.53019162849,-10.8501603436,-8.82345865093,84.4894560832
off_to_on,-8.85235228953,-11.1402193524,-7.85405751718,-7.2208539354,-6.29460098898,-3.48886624858,-7.18540817973,-7.49133155946,-5.99039616968,-8.11489913593,-6.39765842072,-10.7280783642,-8.55563145259,74.8165666151
off_to_on,-6.82405247498,-9.71245998622,-6.72188019101,-6.68201706616,-5.40640480999,-2.16523281167,-4.99956349585,-5.51684561143,-5.65092474779,-7.07788642187,-6.04971690189,-10.1817258369,-7.89464359048,57.4219371607
off_to_on,-4.54105533801,-8.00501042369,-5.28338224249,-5.91877137183,-4.32901408924,-0.917097266341,-2.61700335146,-3.40295310406,-5.15770858094,-5.8022844496,-5.47842215241,-9.17629003362,-6.81243577094,33.5589402355
off_to_on,-2.14411340052,-6.10898295961,-3.60666547886,-4.95237183868,-3.11635080997,0.206096315661,-0.189199384672,-1.26627011365,-4.50398867568,-4.31417876212,-4.68155978098,-7.69585212291,-5.30673600507,5.19248498618
off_to_on,0.231962205627,-4.09821569139,-1.77249889567,-3.8067505916,-1.82445022915,1.17905429948,2.13560024001,0.789470264151,-3.68339869352,-2.64333108331,-3.66639798983,-5.7516076724,-3.40799276974,-25.2309144716
off_to_on,2.46698046466,-2.02847432945,0.130043033281,-2.51048679719,-0.509582493962,1.99742773625,4.22151816545,2.67739571317,-2.69511487188,-0.826596818946,-2.45311850109,-3.38883223411,-1.18350622258,-55.0625707782
off_to_on,4.46142319307,0.0588244840705,2.00832113449,-1.09898383251,0.773402313498,2.67186353686,5.95298192478,4.32905479069,-1.54893020863,1.08846826094,-1.07721644353,-0.691208044973,1.26228572804,-81.7447941545
off_to_on,6.13965379799,2.129585698,3.77099440033,0.383802850442,1.97267931559,3.22059011599,7.24115163956,5.6940186956,-0.269285972212,3.04077780871,0.40973558226,2.2187007061,3.79199433712,-103.081641859
off_to_on,7.45047113036,4.14849806762,5.33278126553,1.88469402723,3.04115275447,3.66197422602,8.02863861104,6.73821584129,1.10256980543,4.95459984351,1.94135462221,5.18364918538,6.24401824483,-117.455340532
off_to_on,8.36553147365,6.07103974245,6.61892670054,3.34211706745,3.9383288179,4.00840375051,8.29236712811,7.44177275129,2.50885604248,6.74089434788,3.43985644424,8.02084879577,8.44529606117,-123.964684426
off_to_on,8.87637668296,7.8379804556,7.56920239388,4.68863762704,4.6323137532,4.26254743308,8.04446159458,7.79706297362,3.87815876135,8.30148780045,4.82139917311,10.5356226934,10.2269384045,-122.472670946
off_to_on,8.9908774377,9.3738873768,8.14127244573,5.85509924886,5.10177057788,4.4165714238,7.33106425194,7.80746140078,5.13074842668,9.53601245434,6.00285017195,12.5384693986,11.4411102585,-113.562807626
off_to_on,8.729826732,10.5904206772,8.31325025761,6.77598613316,5.3375643153,4.4543348989,6.22902746953,7.48700880023,6.18572457136,10.3510470521,6.90922204847,13.8638153727,11.9772214467,-98.4152596961
off_to_on,8.12422298369,11.3943254508,8.08526226273,7.39538208823,5.34376851944,4.3560367442,4.84049849768,6.86086947171,6.96909821698,10.6704482669,7.48088063363,14.3883119974,11.7754078063,-78.6237612118
off_to_on,7.21350668623,11.6991328815,7.47983324624,7.67274599284,5.13771376812,4.10433429476,3.28553547319,5.96617732073,7.42175021152,10.4455345206,7.67960900048,14.0463684393,10.8354749073,-55.980756024
off_to_on,6.04471351497,11.4388244983,6.54092967809,7.58768788042,4.74883902347,3.69067857689,1.69306103876,4.85266952321,7.50618559936,9.66363747938,7.49272339218,12.840754771,9.21992107261,-32.2608102548
off_to_on,4.67223718232,10.5812194276,5.33155277661,7.14301895709,4.21625284595,3.120554811,0.190660104885,3.58244337642,7.21114453916,8.35360807642,6.93466626991,10.84656298,7.05031205412,-9.03074984575
off_to_on,3.15770733325,9.13870643361,3.9298674646,6.36555299516,3.58510364668,2.41649225329,-1.10606580371,2.22825838413,6.55340938346,6.58715808971,6.04581784827,8.20753574184,4.49706951722,12.4903978337
off_to_on,1.56941649645,7.17419596153,2.42398463225,5.30442711168,2.90206612933,1.61808594031,-2.1036993743,0.870032632393,5.57652483,4.47540568836,4.88862641268,5.1246812069,1.76356055329,31.5068587086
off_to_on,-0.0192103194039,4.80078632234,0.905670998826,4.0270447027,2.21043862385,0.778793025396,-2.73976848296,-0.410485380546,4.34656835692,2.16061323887,3.54150846387,1.83807205911,-0.933872750336,47.6520967568
off_to_on,-1.5324286792,2.1745373433,-0.53657599739,2.61307264188,1.54547714747,-0.04015738279,-2.98906931264,-1.53650717647,2.9455098539,-0.196226165864,2.09126195355,-1.39635252493,-3.38772968046,60.9306124641
off_to_on,-2.8963244234,-0.519208175153,-1.82450665006,1.14719930816,0.930637254837,-0.777865649531,-2.86667783629,-2.44373236812,1.46302367615,-2.43067655208,0.624927273419,-4.33243257485,-5.42048515646,71.6097851444
off_to_on,-4.04404091673,-3.08448016895,-2.89647116132,-0.288462168505,0.375336659808,-1.38259378974,-2.42703351509,-3.08761457533,-0.0121839043532,-4.39126559606,-0.777906680404,-6.75889993742,-6.90251298222,80.0825252153
off_to_on,-4.92152734567,-5.33598040582,-3.71243891802,-1.62138750406,-0.125311227817,-1.81984514204,-1.7588555185,-3.4492348173,-1.40042225539,-5.95499470698,-2.05142945618,-8.52091862923,-7.76459367358,86.7247946547
off_to_on,-5.4930269742,-7.12015010402,-4.25703970589,-2.79421373091,-0.58859440329,-2.07824828542,-0.976111497262,-3.53870233739,-2.63744160497,-7.0399466456,-3.14784986758,-9.53535305757,-8.00342109664,91.7717476024
off_to_on,-5.74541950791,-8.33300510927,-4.5401378322,-3.76821540538,-1.04024023747,-2.17208642851,-0.20574862969,-3.39524215353,-3.67849186969,-7.61327464268,-4.03913242249,-9.79777206995,-7.67936335362,95.2324978931
off_to_on,-5.69057547988,-8.93206314766,-4.5946932026,-4.52432603747,-1.50882645118,-2.13980481808,0.426648238632,-3.08353410825,-4.49962672828,-7.69339992045,-4.71616654357,-9.38019198154,-6.9066934101,96.8569727029
off_to_on,-5.36507770402,-8.94043325256,-4.47197116779,-5.06169343694,-2.01928296442,-2.03845487374,0.811752937898,-2.68638806203,-5.09626912911,-7.3459748194,-5.1856643492,-8.41972056239,-5.8374611745,96.1599726809
off_to_on,-4.82699451894,-8.44220635972,-4.23450034631,-5.39410454668,-2.58640456288,-1.93469901438,0.870237487534,-2.29440027651,-5.47944746132,-6.67399120923,-5.46539269999,-7.09943599612,-4.64100543829,92.4986630309
off_to_on,-4.14980752919,-7.56952898952,-3.94750066493,-5.54491085033,-3.20937476487,-1.89359946262,0.563653172361,-1.99375159173,-5.67043503134,-5.80321643137,-5.57856198302,-5.62386292486,-3.48168944985,85.191545353
off_to_on,-3.41404126386,-6.48297814859,-3.6697653942,-5.54128608066,-3.868238208,-1.9668495432,-0.0990193257766,-1.85369465333,-5.69473208589,-4.86480822765,-5.54828696998,-4.19214963888,-2.49770536606,73.660649403
off_to_on,-2.69754376023,-5.34789922748,-3.44513747706,-5.40872423952,-4.5230509192,-2.18230132249,-1.06018750981,-1.91546565015,-5.57639015694,-3.97739733181,-5.39299159213,-2.9723990019,-1.78368888421,57.575088646
off_to_on,-2.06565813433,-4.31005655074,-3.2957389505,-5.16662684762,-5.11610552579,-2.53655773653,-2.21826943251,-2.1843022852,-5.33358590947,-3.2310623913,-5.12345722724,-2.08050427757,-1.37942202184,36.9736931222
off_to_on,-1.56265152887,-3.47416291966,-3.2179761927,-4.82564297493,-5.57721241604,-2.99203147962,-3.43786278884,-2.62594460959,-4.97612198126,-2.6754275263,-4.74193957422,-1.56629284104,-1.26613306663,12.3471643028
off_to_on,-1.20569761751,-2.88855093088,-3.18205698329,-4.38714184532,-5.83157371465,-3.4792707773,-4.56449840542,-3.1684667595,-4.50520206114,-2.31360444712,-4.24344379875,-1.40884973578,-1.37092349838,-15.33435328
off_to_on,-0.982438732557,-2.5384516276,-3.13534358359,-3.84485818386,-5.80937784033,-3.90459526072,-5.44239523417,-3.70959837287,-3.91544808158,-2.10293941726,-3.61890154267,-1.52169636654,-1.5787871802,-44.6550268173
off_to_on,-0.852710738925,-2.34915559754,-3.00937482586,-3.18840580949,-5.45592995425,-4.16228137325,-5.93318383671,-4.12893466363,-3.19875734931,-1.96260838052,-2.85968813353,-1.76719284539,-1.75067587264,-73.8469339193
off_to_on,-0.754452904313,-2.19890962029,-2.72988025034,-2.40805684091,-4.7409686311,-4.14980486776,-5.93335380509,-4.30370920962,-2.34929332241,-1.78715359129,-1.96269921809,-1.97828901479,-1.74524107857,-100.934069924
off_to_on,-0.61322204529,-1.93994921016,-2.22864903966,-1.49997692301,-3.6658336723,-3.78410025458,-5.38824675544,-4.12621938198,-1.36871181972,-1.46420237412,-0.935105526741,-1.98473687658,-1.44135685611,-123.910713494
off_to_on,-0.354171565597,-1.42479559019,-1.45577287099,-0.471022181682,-2.26735190281,-3.01652241014,-4.30076389146,-3.52064199152,-0.270673700671,-0.893973483912,0.202062567023,-1.64023557057,-0.758375446707,-140.933671798
off_to_on,0.0850737396292,-0.534046716153,-0.39061090038,0.657745897408,-0.617678302724,-1.84424565473,-2.7335514169,-2.45691836552,0.916207093555,-0.00785230678464,1.4121874009,-0.846800885547,0.328686641474,-150.506208847
off_to_on,0.74244685162,0.798490331884,0.950136620362,1.84949293029,1.18017472877,-0.316216374788,-0.804199599347,-0.959646974581,2.14759992204,1.21664426054,2.64361340481,0.427034653202,1.78121609181,-151.6325934
off_to_on,1.62215808274,2.56727064404,2.50860171618,3.05237621903,3.00083006106,1.46755526896,1.32615289328,0.889522668008,3.3651685284,2.74678474901,3.83256110274,2.13681289142,3.49759213808,-143.925938895
off_to_on,2.68962249719,4.68624356661,4.18706611172,4.20268501293,4.70822631155,3.36370586348,3.46958776312,2.95671199967,4.50066945025,4.49296367033,4.90814350127,4.16302086547,5.32246856611,-127.657763535
off_to_on,3.87161276199,6.9917278171,5.85470808054,5.23004818389,6.16919618368,5.19961290576,5.43163203157,5.06764428507,5.48198173175,6.31504678143,5.79890653318,6.32238212829,7.06378014219,-103.7446498
off_to_on,5.06198308235,9.25721609164,7.35937080782,6.06409034524,7.26735136466,6.79234015818,7.03255547394,7.02533921109,6.24030793817,8.03623490915,6.44007887931,8.38832409469,8.51547278134,-73.6745898223
off_to_on,6.1325522942,11.2186957401,8.543256646,6.64169345203,7.9155823642,7.97016407244,8.12718437891,8.63170140482,6.71759294273,9.4629279289,6.78059423472,10.1181377828,9.48316653707,-39.3821456637
off_to_on,6.9479933911,12.6075060586,9.26086141331,6.91391646741,8.06560258976,8.59395857242,8.62082545309,9.71043830312,6.87315295896,10.4082129204,6.7889586564,11.2834192423,9.80951833807,-3.08665540547
off_to_on,7.38295741123,13.1865464839,9.39705452394,6.85165601554,7.71329826808,8.57561983009,8.47935211767,10.1284665143,6.6886009247,10.7160365278,6.45717571321,11.6998926682,9.39601915395,32.8891577912
off_to_on,7.33925381194,12.7849850005,8.88304925743,6.44929158492,6.89915028635,7.89099783039,7.73221729276,9.81305586396,6.17038161737,10.2829328292,5.80219270835,11.2527322456,8.21834736719,66.3019020583
off_to_on,6.7607832851,11.3266028891,7.70812866266,5.72582633266,5.70360674847,6.58543913669,6.46803274286,8.76241605075,5.34955693864,9.07439751324,4.86465652198,9.91402502519,6.33316192104,95.1545108784
off_to_on,5.6441021776,8.84757278962,5.92539662222,4.72336997523,4.23792585812,4.7709576852,4.82328310385,7.04820189859,4.2788601163,7.13360595038,3.70512147886,7.74998530357,3.87526197513,117.833480602
off_to_on,4.04297822716,5.50073075875,3.65047317305,3.50316510507,2.63159202219,2.61512059193,2.9656027479,4.80940522788,3.02741127743,4.58109412525,2.39818424435,4.91681802976,1.04523403738,133.206568455
off_to_on,2.06602152736,1.54511285973,1.0528766135,2.13968156415,1.01785450509,0.322822860164,1.07372354058,2.23818787697,1.67380117927,1.60514194002,1.02528575477,1.64556825583,-1.9110978531,140.675998184
off_to_on,-0.132646785296,-2.67853949858,-1.65926592369,0.713549289278,-0.480814345257,-1.88691739136,-0.683387823192,-0.440750680825,0.298459335353,-1.55622517907,-0.332918658505,-1.78230129642,-4.72906019539,140.186968418
off_to_on,-2.36880639245,-6.78370222163,-4.25967569391,-0.695765897276,-1.76553101764,-3.80631398532,-2.16559695331,-2.99482502409,-1.02370216743,-4.63962056983,-1.60368359661,-5.06567450033,-7.15423955304,132.195357385
off_to_on,-4.44791182383,-10.3812111762,-6.5273318004,-2.01663432471,-2.7704979688,-5.26314942542,-3.27651522656,-5.20923864021,-2.22944644361,-7.38422891493,-2.72794694168,-7.91714130179,-8.97082172941,117.601567544
off_to_on,-6.18687232105,-13.1243313706,-8.27015427788,-3.19049618843,-3.46803673191,-6.14099482469,-3.972451958,-6.91051634657,-3.27144844851,-9.55995763876,-3.66411185825,-10.0948664179,-10.0257268098,97.6592636822
off_to_on,-7.43513475012,-14.7500520186,-9.34613816291,-4.17510158405,-3.868596694,-6.39269139418,-4.26437873074,-7.98496812283,-4.12018749931,-10.9924029775,-4.38948458151,-11.4290625789,-10.2455927072,73.8683488529
off_to_on,-8.09236795029,-15.1112477788,-9.67932251618,-4.94550440843,-4.015843,-6.04529846444,-4.21278857104,-8.3897808105,-4.76342604438,-11.5815827357,-4.89934327082,-11.8398413813,-9.64451590077,47.8610950381
off_to_on,-8.1204064063,-14.1954053873,-9.26852283646,-5.49288703024,-3.97757662716,-5.1957852343,-3.91625113414,-8.15536273747,-5.20355843492,-11.312132615,-5.20393524683,-11.3443005119,-8.32157824047,21.2892211067
off_to_on,-7.54779152241,-12.1272641336,-8.18758055124,-5.82159955535,-3.83378759705,-3.99792362817,-3.49527312747,-7.37868208847,-5.45341402228,-10.2537040268,-5.32397089661,-10.0520589545,-6.44843409268,-4.28174267688
off_to_on,-6.4661682777,-9.1547488621,-6.57689369772,-5.94503716803,-3.66351461063,-2.64197469352,-3.0736663041,-6.20849775152,-5.5313024585,-8.55150734031,-5.28536559374,-8.14989740118,-4.24844788744,-27.4659095001
off_to_on,-5.01883746179,-5.61972169462,-4.62706560951,-5.88111722549,-3.53233089608,-1.32970254792,-2.75992782996,-4.82442938168,-5.45616665289,-6.40816277955,-5.11405251021,-5.87751437901,-1.9699070779,-47.1346101751
off_to_on,-3.38279329015,-1.91706023129,-2.55650830121,-5.64813591837,-3.48217718231,-0.247874030372,-2.63111261052,-3.41261274136,-5.24365091245,-4.05909696488,-4.83164184688,-3.49749787267,0.143439022733,-62.4752215623
off_to_on,-1.7464555578,1.5528791902,-0.585634244095,-5.26168197232,-3.52493223774,0.456374275718,-2.72133036961,-2.14113009851,-4.9037095376,-1.74451972454,-4.4525454001,-1.26330123739,1.88093811378,-73.028897093
off_to_on,-0.285913992634,4.43244505913,1.08924354519,-4.73307970204,-3.64059455601,0.695128553697,-3.01637992237,-1.13843305749,-4.44010451194,0.318567788628,-3.9829443611,0.610782661644,3.08922886924,-78.7051991085
off_to_on,0.857247090329,6.44941221404,2.31907875095,-4.06955863599,-3.78031592915,0.451692918491,-3.45522228496,-0.477580844654,-3.85181393813,1.96089902814,-3.42168900977,1.97395476126,3.68914650635,-79.7720605093
off_to_on,1.5936247107,7.44878711548,3.01940321069,-3.27604500341,-3.87386470789,-0.216622937178,-3.93809984161,-0.168350716656,-3.13604680842,3.07901406346,-2.76292367536,2.75461692523,3.6833139487,-76.8202546099
off_to_on,1.89679199893,7.40961407015,3.17953857525,-2.35818838086,-3.84049307711,-1.18537635581,-4.34024695161,-0.158238115886,-2.29228522925,3.64470960945,-1.99997100151,2.96563927627,3.15353731006,-70.702816012
off_to_on,1.80569299643,6.4446135365,2.86244407997,-1.32601814869,-3.6017196791,-2.2787559871,-4.52941837765,-0.342188136559,-1.32659471366,3.704788068,-1.12982210918,2.69870764999,2.24837528613,-62.4517016011
off_to_on,1.41819955402,4.78269286339,2.19509916898,-0.197502698341,-3.09427785458,-3.29233872749,-4.38497579912,-0.579740945193,-0.2553842858,3.3712471108,-0.157488654316,2.10864741111,1.16245540102,-53.1763219659
off_to_on,0.876552803026,2.73658654074,1.35052119418,0.998721641311,-2.28145432266,-4.02004389356,-3.81607797229,-0.717284315419,0.892130219937,2.80324977984,0.900510209466,1.38986561698,0.11011880885,-43.9511571633
off_to_on,0.346499882392,0.659816922839,0.523605788005,2.22207395798,-1.16125486057,-4.2819396323,-2.77663692188,-0.612416709232,2.07331530472,2.18324143736,2.01413286684,0.748014611726,-0.703333070765,-35.7021058991
off_to_on,-0.00719229188744,-1.10143703282,-0.0961908604755,3.42061472663,0.22974795121,-3.94942257295,-1.27511086641,-0.15712552592,3.23363610611,1.69030659537,3.13967478199,0.370540922298,-1.10922559183,-29.1030327166
off_to_on,-0.0456292472238,-2.25530095513,-0.35184471081,4.53362395957,1.81746249057,-2.96458937941,0.622152196919,0.703382735123,4.31024673101,1.47419638519,4.22164626969,0.399880328693,-0.998510222093,-24.494703555
off_to_on,0.322252502068,-2.60387217184,-0.141919552304,5.49599314297,3.4961599002,-1.3513101055,2.7945131011,1.95881691506,5.23727685865,1.63336597099,5.19653562793,0.912688750057,-0.33731325803,-21.83755832
off_to_on,1.12368691762,-2.07040346926,0.563207354147,6.24396351737,5.13850347443,0.783488762335,5.07723349021,3.53062583454,5.95216492422,2.19985397785,5.99806828137,1.90771294392,0.826924423392,-20.7073600355
off_to_on,2.31435018735,-0.710425351718,1.71432006792,6.72151652792,6.60851066549,3.25864315367,7.27712694492,5.27811879071,6.40221041072,3.13297781475,6.5633701949,3.30380896115,2.36953472524,-20.3387257195
off_to_on,3.78018087765,1.2946927005,3.18668015105,6.88659218452,7.7758688761,5.83676616375,9.19190037672,7.01328336113,6.55046126001,4.32271726808,6.83932102597,4.94834987905,4.10251730245,-19.7161973415
off_to_on,5.34880748849,3.66096531046,4.79352687591,6.71629783777,8.52987176351,8.24944658348,10.6310055951,8.52256880259,6.3801259369,5.60245061106,6.78835317164,6.63498540361,5.7966363703,-17.7064221493
off_to_on,6.80939168865,6.03884390149,6.30829897696,6.21037663719,8.79131366412,10.2267573962,11.4356756892,9.59298691086,5.89689243922,6.76954131347,6.39301787427,8.12858024972,7.20912024522,-13.2189489601
off_to_on,7.93857466062,8.05934684147,7.4929694426,5.39241734833,8.52096142986,11.5276845877,11.4959498644,10.0392997546,5.12881988655,7.61129140788,5.65878718071,9.1943004289,8.11368157944,-5.37798047496
off_to_on,8.52936965013,9.38333047247,8.1290464074,4.3085755763,7.72367317393,11.9679746181,10.7628681937,9.72888904198,4.12380015005,7.93309817509,4.61476875962,9.6273344363,8.32928333284,6.31600168178
off_to_on,8.41938856512,9.74754537187,8.04737418443,3.02390009871,6.44778857495,11.4421991196,9.25458997469,8.60115627841,2.94491818918,7.58535483778,3.31225052348,9.279679918,7.74420539857,21.8568111844
off_to_on,7.51478791425,9.00152092093,7.15292917688,1.61667123833,4.77999978752,9.93750661163,7.0558808791,6.67895276148,1.6643216224,6.48575724862,1.82123229667,8.08079359176,6.33250209666,40.6555417161
off_to_on,5.80677557044,7.13048427364,5.44134617154,0.171416882338,2.83644846686,7.53748865596,4.31113938189,4.07050030557,0.356401580039,4.6342006605,0.225312896624,6.04964059303,4.16081663143,61.5314150541
off_to_on,3.37838214328,4.26129510043,3.00487085721,-1.228560289,0.751214787656,4.41571509271,1.21180738527,0.961415150415,-0.908839117239,2.11830951402,-1.38454087685,3.29669428495,1.38463099281,82.7786500868
off_to_on,0.400364271094,0.650534876515,0.0266999244093,-2.50825662964,-1.33638150335,0.819655664438,-2.02044001729,-2.40235609959,-2.07140734218,-0.891264529441,-2.91672705708,0.0156045010377,-1.76575196994,102.308431818
off_to_on,-2.88357195508,-3.34384891654,-3.23591363806,-3.6068210292,-3.29418590142,-2.95323159241,-5.15295924326,-5.73878722616,-3.08527771399,-4.15544505446,-4.28561083788,-3.53456719754,-5.00801508026,117.855269679
off_to_on,-6.18072546093,-7.30386686322,-6.47802072325,-4.48154316985,-5.0079667469,-6.58462123094,-7.96192773238,-8.75845386094,-3.92029487914,-7.38974329059,-5.4174175518,-7.05458805811,-8.03693204365,127.227795998
off_to_on,-9.17988816295,-10.8006752353,-9.37983942102,-5.10959227925,-6.38946587874,-9.76649359679,-10.2507768673,-11.1943748192,-4.56193802857,-10.2932018804,-6.25494762825,-10.2349940362,-10.5565573019,128.576656788
off_to_on,-11.5848939811,-13.4455467835,-11.6423157426,-5.48742943171,-7.38109244966,-12.2310335253,-11.8656254896,-12.8296255613,-5.00917888859,-12.5800879973,-6.76079331439,-12.7874590445,-12.3119297111,120.647722677
off_to_on,-13.1473463378,-14.9363394544,-13.0211907184,-5.62812673878,-7.95707500452,-13.776130168,-12.7064590935,-13.5196248571,-5.27093341719,-14.0108140329,-6.9189024647,-14.4742022198,-13.1167676335,102.988208571
off_to_on,-13.6947007995,-15.093762811,-13.3555075321,-5.55709655531,-8.12134122661,-14.2838947486,-12.7332829278,-13.2066477548,-5.3617924912,-14.4186246161,-6.73449659102,-15.1322961583,-12.8740780388,76.0767887331
off_to_on,-13.1504007477,-13.8830353091,-12.5871155792,-5.3069260224,-7.90277748268,-13.7304219794,-11.9669962961,-11.9250469511,-5.29779151446,-13.7290402297,-6.23249118042,-14.6903304855,-11.5873904192,41.356245075
off_to_on,-11.5436826069,-11.418356902,-10.7687763101,-4.91210140558,-7.34878381984,-12.1859989596,-10.4852333549,-9.79675252379,-5.09293376004,-11.9698367445,-5.45467384591,-13.1757395013,-9.36136630606,1.157862584
off_to_on,-9.0078698574,-7.94975443109,-8.05982134506,-4.40438237187,-6.51815614278,-9.80599875805,-8.41384453567,-7.01773235782,-4.75702638991,-9.270376132,-4.45596418813,-10.7121198641,-6.39170836301,-41.480515916
off_to_on,-5.76731431187,-3.83402085403,-4.70979208507,-3.80945452813,-5.47429016352,-6.81366903941,-5.9150176716,-3.83709900772,-4.29514730067,-5.85026930816,-3.30010838878,-7.50693032746,-2.94546743001,-83.0876823768
off_to_on,-2.11445612107,0.506607259938,-1.03192041228,-3.14527038219,-4.27952783357,-3.47683497961,-3.17323996081,-0.531327170984,-3.70877377971,-1.99851740886,-2.05515659617,-3.83096544649,0.66610894948,-120.096430258
off_to_on,1.62039700251,4.63294260722,2.6304835159,-2.4222175056,-2.99119157862,-0.0810989232983,-0.380377658596,2.62348546332,-2.99831572123,1.95468572834,-0.789040416225,0.00817476024999,4.11924152311,-149.20885069
off_to_on,5.1031588539,8.1386209153,5.94083566417,-1.64496819688,-1.65952273295,3.09761400393,2.27889006852,5.37826676755,-2.1665519203,5.67051233211,0.434479167469,3.69581896189,7.11038110615,-167.748261158
off_to_on,8.03010700372,10.6952046882,8.60501235658,-0.815608645917,-0.327411174085,5.81836080819,4.64018330811,7.53372043592,-1.22230570447,8.8349752544,1.55927751052,6.94008857774,9.38655692501,-173.956361842
off_to_on,10.1583109936,12.08733534,10.4019058812,0.0625460140628,0.968476653209,7.89587194627,6.57018678442,8.95692098704,-0.183640989988,11.1897804263,2.53958484846,9.49886819927,10.7700924287,-167.199260386
off_to_on,11.3290631536,12.2339550726,11.2053407745,0.981144713935,2.19575462024,9.21474842511,7.97442580259,9.59028013843,0.920079737086,12.557309819,3.34184899791,11.2012188114,11.1751092103,-148.05574792
off_to_on,11.481882261,11.1933823914,10.9949491278,1.92369145404,3.32421922483,9.73603822626,8.80167809847,9.4523249818,2.04776733388,12.8571269664,3.94568200732,11.9611946132,10.6141543507,-118.274561399
off_to_on,10.6577739482,9.1520198977,9.85494051719,2.86371798523,4.32421659964,9.49590250291,9.04491186742,8.63065914355,3.14805230459,12.1123143041,4.34387684715,11.7828425815,9.19437322269,-80.6027391564
off_to_on,8.99166794965,6.39844902665,7.96115126638,3.76462999993,5.16594727128,8.5969094522,8.73888657142,7.2683163908,4.16255997635,10.445046097,4.54152697136,10.7560886444,7.10378812954,-38.5026691223
off_to_on,6.69516268685,3.28638117337,5.5581400468,4.58136984126,5.81995992434,7.19322546239,7.95477048892,5.54536949943,5.03068075885,8.06195391825,4.55433096797,9.04414979187,4.58930833485,4.21092132868
off_to_on,4.03175183009,0.191184160791,2.92924386297,5.26376916696,6.25882817056,5.47153747004,6.79231104722,3.65806054736,5.69525931845,5.23092933691,4.4062170348,6.86396342831,1.92897361795,43.7727485761
off_to_on,1.28746948347,-2.53465388312,0.363283008527,5.76121327139,6.45975586684,3.62988723455,5.37023683441,1.79784076597,6.10846714201,2.25191419523,4.12647555308,4.46180996606,-0.598472343157,76.8611586463
off_to_on,-1.25970759979,-4.60178681898,-1.8780835707,6.02804028889,6.40765821154,1.85670263689,3.81567070057,0.132552806467,6.23707116239,-0.575143941783,3.7466376294,2.0867563633,-2.74333286755,100.938932764
off_to_on,-3.36835319973,-5.81533507298,-3.58853044301,6.02898058667,6.09814973247,0.312174782992,2.25338808934,-1.20840736386,6.06637511092,-2.98171137321,3.29737584829,-0.0352747395191,-4.31080666402,114.501186888
off_to_on,-4.85700068044,-6.09382708096,-4.63758374784,5.74391983388,5.53985435644,-0.886221008876,0.79575961945,-2.14368478167,5.60228083526,-4.75809534755,2.80572220809,-1.72411774502,-5.18017850262,117.202030748
off_to_on,-5.62017447612,-5.47391148209,-4.98131689925,5.17134533945,4.75553847132,-1.67278046765,-0.465832173547,-2.64372283438,4.87116876139,-5.77396716517,2.29288945017,-2.86235314183,-5.31536637697,109.846394231
off_to_on,-5.63566100374,-4.10076721197,-4.66230901011,4.32999748422,3.78174030484,-2.03654633329,-1.46741797272,-2.72877414772,3.91759265443,-5.98983998619,1.77294032288,-3.40498807739,-4.76581985745,94.2498684537
off_to_on,-4.96265546071,-2.20586415843,-3.79928382555,3.25847299229,2.66679936994,-2.01821107357,-2.1761872585,-2.4618720065,2.80008008301,-5.45836075388,1.25247345675,-3.38093408576,-3.65784642179,72.9854606005
off_to_on,-3.73142761057,-0.075196050024,-2.56809176124,2.01278288139,1.46744050642,-1.70158227742,-2.59124680897,-1.93795317557,1.5855829446,-4.31539823408,0.731388431872,-2.88626663796,-2.1775060858,49.0497826623
off_to_on,-2.12603002426,1.98785075,-1.1767017205,0.662120228472,0.244297605635,-1.20078256102,-2.74133838937,-1.2706302833,0.343295239981,-2.76203131175,0.204665820136,-2.07012859477,-0.54714194309,25.4906537871
off_to_on,-0.362234361204,3.70032644278,0.162486566957,-0.716692104951,-0.943064644628,-0.644748018496,-2.67973731104,-0.578223650892,-0.861376599169,-1.03954046985,-0.335035110106,-1.11492462636,1.00169711716,5.0422037108
off_to_on,1.33673568269,4.83365883641,1.25948615284,-2.04545333981,-2.04098453014,-0.160804656534,-2.4768263462,0.0294153033225,-1.97195087573,0.599729382678,-0.894280093999,-0.213063851473,2.25581098494,-10.1881709197
off_to_on,2.7640266397,5.23975265521,1.96943255953,-3.25084796236,-3.00575740862,0.140873175895,-2.21108154788,0.461996061722,-2.94452587267,1.92232020255,-1.47567601233,0.457122167601,3.04523056072,-18.9439538538
off_to_on,3.75009642215,4.86638261913,2.20850811449,-4.27005261033,-3.80638426857,0.180279229786,-1.95938899803,0.656859296393,-3.74959558811,2.74103501892,-2.07505630522,0.753570936382,3.26261513278,-20.9296023859
off_to_on,4.17879627536,3.76041305272,1.96138064601,-5.05512209355,-4.42567954393,-0.0832535166796,-1.7877087508,0.583507258281,-4.37194567229,2.93664708849,-2.67948059358,0.588281486021,2.87500683609,-16.7963069042
off_to_on,3.99725056199,2.05890166458,1.2795905957,-5.57575849312,-4.85964564478,-0.646600558821,-1.74309587637,0.244502628584,-4.8088298814,2.47150706922,-3.26641959455,-0.0613180021238,1.92668110594,-8.00904807715
off_to_on,3.21891939903,-0.030391937757,0.271488508871,-5.82027633754,-5.11527894296,-1.46346452521,-1.84797095553,-0.326971466843,-5.06686913558,1.39353860352,-3.80436499034,-1.1487427057,0.532869034522,3.38454697488
off_to_on,1.91996282012,-2.2563466709,-0.914623711843,-5.79479729503,-5.20720421066,-2.4498754633,-2.097309171,-1.07229411971,-5.15828250104,-0.169787208723,-4.25492812,-2.56301534675,-1.13481430833,15.0511276347
off_to_on,0.229684666473,-4.35607447465,-2.11169062855,-5.52091046084,-5.153705973,-3.49387670728,-2.45910762053,-1.91453713525,-5.09712816514,-2.02675942705,-4.57629207242,-4.14094967631,-2.86944404933,24.6944220198
off_to_on,-1.68364377808,-6.08679193542,-3.15652268666,-5.03219394856,-4.97280945286,-4.46827815151,-2.87812645176,-2.76666250305,-4.89619407663,-3.94421225372,-4.72768500626,-5.68579898385,-4.45382471339,30.3618666698
off_to_on,-3.62993782112,-7.25410588725,-3.91085178799,-4.37009212804,-4.67904764543,-5.24506139696,-3.28252192554,-3.53992554566,-4.56504017067,-5.67512306896,-4.67437606833,-6.99017561204,-5.68650964931,30.6963505355
off_to_on,-5.4156420569,-7.73342786585,-4.27815873027,-3.57967179465,-4.28143674946,-5.70987563176,-3.59264395041,-4.15172843687,-4.10947989253,-6.98780656137,-4.39258462612,-7.86063652202,-6.40571996183,25.1026246238
off_to_on,-6.86151555969,-7.48218781344,-4.21426478585,-2.70574104918,-3.78298681595,-5.77508068014,-3.73100089384,-4.53233419261,-3.53253246471,-7.69330852951,-3.87365799806,-8.14111059177,-6.50834978171,13.8099129244
off_to_on,-7.81831857269,-6.5417211843,-3.73057568808,-1.78971711369,-3.18182746692,-5.38996947002,-3.63223691854,-4.63004596242,-2.83661954384,-7.66781984595,-3.12692235891,-7.73244629144,-5.96184503008,-2.17370930239
off_to_on,-8.1791859777,-5.02900089049,-2.889877038,-0.867491230721,-2.47376713544,-4.54711563928,-3.25194517636,-4.4146518652,-2.02656102158,-6.8675210501,-2.18074445054,-6.60577767968,-4.80760556388,-21.205433906
off_to_on,-7.88787172482,-3.11961578636,-1.79556925776,0.0316180712113,-1.65586794661,-3.28420907657,-2.57326068389,-3.87910834389,-1.11277889334,-5.33416317799,-1.08154464825,-4.80809904193,-3.15558348234,-41.2281676255
off_to_on,-6.94247096986,-1.02441369453,-0.576067816029,0.884885084464,-0.730442866451,-1.68121884902,-1.61042802782,-3.03956944284,-0.114068040707,-3.19078566715,0.109249321219,-2.4593273259,-1.17081108406,-60.0360455495
off_to_on,-5.39462953714,1.03708677414,0.633325907342,1.67536102758,0.291206164869,0.146790361229,-0.408892181905,-1.93395869543,0.940653734743,-0.628137302483,1.3200560073,0.258885009788,0.946437530961,-75.5490900246
off_to_on,-3.34459998903,2.86312755202,1.70852556464,2.39050224585,1.38597694578,2.06041562251,0.958127440527,-0.619325937593,2.0120552009,2.11653867886,2.47530792702,3.12136150602,2.98438519917,-86.0613542515
off_to_on,-0.932778639875,4.29273765099,2.55227453035,3.02056414546,2.51763676432,3.90911337058,2.39620071401,0.831758519356,3.0517780469,4.78580161057,3.50225417499,5.88258600784,4.74446519564,-90.4318638143
off_to_on,1.67145084665,5.22264059196,3.10524421057,3.55707502774,3.63732944732,5.54546502732,3.79863687732,2.3355330207,4.00545742411,7.13025764578,4.3376160093,8.30221931656,6.06398460853,-88.1965245992
off_to_on,4.28263265259,5.61617861502,3.35127569404,3.99165337557,4.68602193604,6.83904540794,5.05679138654,3.80188039856,4.81707529031,8.93541782845,4.93331082717,10.1700303543,6.83398752174,-79.5905683726
off_to_on,6.71294240477,5.50344340295,3.31627623807,4.31534977136,5.59871877729,7.68848972599,6.07055183746,5.13947410252,5.43412744019,10.0440450963,5.26056112387,11.3273951012,7.01018451846,-65.4834210221
off_to_on,8.78573301331,4.97292621596,3.06117639649,4.51859525074,6.31001831078,8.03056207604,6.75782557277,6.2610473656,5.81294181502,10.3714545612,5.31189926706,11.6829305818,6.61569795389,-47.2393973646
off_to_on,10.3480468174,4.15605373403,2.67016807484,4.59173720044,6.76038504903,7.8453580895,7.06199888944,7.08859254581,5.92343900146,9.91212719831,5.10084206062,11.2205397547,5.73541211685,-26.5268128625
off_to_on,11.2813222937,3.20683242606,2.23606953206,4.52605611923,6.90239673945,7.15719081806,6.956610731,7.55827903305,5.75268330732,8.73708623726,4.65930659034,9.99906041091,4.50278321311,-5.10379430783
off_to_on,11.5096531313,2.27938365315,1.84501924708,4.31509251308,6.70620775575,6.03116655836,6.44684419554,7.62485236363,5.30672628559,6.9826299721,4.03313045956,8.14372390468,3.08092069487,15.3893693309
off_to_on,11.0051075142,1.5063518903,1.56274371421,3.95607908447,6.16355449452,4.56590688064,5.5678374056,7.26525376804,4.61047149019,4.8320688846,3.27630479572,5.83061128349,1.64047585183,33.6041101679
off_to_on,9.78978386884,0.980992089273,1.42437492433,3.45127034532,5.28980086561,2.88326634061,4.38019709854,6.48118887486,3.70555605926,2.4929447427,2.4446925185,3.26612151894,0.337271116613,48.6027233736
off_to_on,7.93446504934,0.745217878739,1.42925420219,2.80898632975,4.12375813438,1.1161904669,2.96341277335,5.30038647104,2.64651205302,0.172709456539,1.59006322448,0.664034349986,-0.707379480293,59.9106514232
off_to_on,5.5539337111,0.785090216251,1.54142873108,2.04423215862,2.72528030118,-0.603975118805,1.40807591612,3.77633012166,1.49569905167,-1.94405037137,0.75522002548,-1.77701317988,-1.42107696588,67.4999096556
off_to_on,2.79922216269,1.03424903191,1.69572866215,1.178811754,1.1708974237,-2.15939251877,-0.192116563275,1.98631997422,0.317656086651,-3.71405195912,-0.0291707094666,-3.8929413639,-1.7875988919,71.7115476375
off_to_on,-0.152719347484,1.38476089339,1.8085196267,0.24091265598,-0.452029838867,-3.45564867073,-1.74765782176,0.0278271714452,-0.826416742893,-5.0472818775,-0.745686445821,-5.56830532336,-1.84610350522,73.1333277895
off_to_on,-3.11125534362,1.70390123837,1.79156600303,-0.735808461778,-2.05199858398,-4.42872778052,-3.17909268513,-1.98676802447,-1.88337665941,-5.9112779922,-1.38913435638,-6.74355388341,-1.68245136668,72.4543736813
off_to_on,-5.88535344411,1.85462735516,1.56700298355,-1.7135690541,-3.54019216993,-5.04843787813,-4.42098587874,-3.93682229113,-2.81152134131,-6.32758648827,-1.96366893133,-7.41491535587,-1.41389018242,70.3207155775
off_to_on,-8.29696904992,1.71702088541,1.08125754473,-2.65213570502,-4.83676976488,-5.31810107665,-5.42385524521,-5.70108826812,-3.58231016428,-6.36132007367,-2.47856941568,-7.62733881364,-1.1692612959,67.2142692078
off_to_on,-10.1935220189,1.2078438665,0.315898477175,-3.51072141807,-5.87604400762,-5.2707386635,-6.15424050808,-7.16589354916,-4.18034691104,-6.10566364177,-2.94340421231,-7.46182691248,-1.06751694006,63.3731691107
off_to_on,-11.4584976178,0.295576098604,-0.706188164232,-4.24999470542,-6.61014334068,-4.96236652357,-6.5933368563,-8.23325704668,-4.60180068193,-5.66382135318,-3.36340248317,-7.0192066397,-1.19759777347,58.7643311291
off_to_on,-12.0193280508,-0.991143738864,-1.92026826837,-4.83409612331,-7.01096130876,-4.46332039655,-6.73478960916,-8.82831508019,-4.85166045796,-5.13118641971,-3.73582530025,-6.40280267278,-1.60257007886,53.1107485813
off_to_on,-11.8519180593,-2.56293301951,-3.22507995477,-5.23256674095,-7.0704064221,-3.8487206159,-6.58229860732,-8.9054374677,-4.94037054909,-4.58040373405,-4.04798209553,-5.70254923263,-2.27037504609,45.9675899264
off_to_on,-10.9814538657,-4.27721469788,-4.49342122339,-5.42210092178,-6.79915351638,-3.18924228309,-6.14761467039,-8.45247819219,-4.88045728554,-4.05150316136,-4.27729234502,-4.98279292436,-3.1326658365,36.8338814777
off_to_on,-9.47945478915,-5.95315492062,-5.58671047724,-5.38804075549,-6.22423680545,-2.54327506759,-5.44934063515,-7.49272370191,-4.6837238263,-3.54847848293,-4.39348163996,-4.27544250341,-4.07211403174,25.2814352209
off_to_on,-7.45735952607,-7.39229871428,-6.37168791646,-5.12553160308,-5.38590073392,-1.95134892142,-4.51270806456,-6.08426690942,-4.35946675456,-3.04268835265,-4.36266983432,-3.57929672382,-4.93739921527,11.0803800767
off_to_on,-5.05724897249,-8.4024678933,-6.73713118509,-4.64025958606,-4.33413267444,-1.43339457393,-3.370231258,-4.3167339249,-3.91397575229,-2.48240424684,-4.15280491753,-2.86544536466,-5.56401004136,-5.69859270098
off_to_on,-2.4405599704,-8.82202995412,-6.60844342899,-3.94869596682,-3.12524767893,-0.989038839971,-2.06289093672,-2.30550714505,-3.35134704664,-1.80687784466,-3.73966469157,-2.08772408054,-5.79813037904,-24.6215658314
off_to_on,0.224189658601,-8.54154014042,-5.95823519938,-3.0777842264,-1.81879535589,-0.600749597091,-0.641316119804,-0.18380382991,-2.67540904484,-0.962585417821,-3.11252467429,-1.19644126581,-5.52038008767,-44.878785033
off_to_on,2.77358447515,-7.520017677,-4.81152590608,-2.06402665445,-0.474934307219,-0.239290423531,0.833650921062,1.90683563376,-1.89236113054,0.0810640396144,-2.27859547337,-0.153094244345,-4.66610209633,-65.325418337
off_to_on,5.06037580739,-5.793713953,-3.24486733272,-0.951960208045,0.847705302944,0.129336966477,2.29158641181,3.82693927097,-1.01359486637,1.31923873478,-1.26546866024,1.05637397887,-3.23925545417,-84.5715749469
off_to_on,6.96255855556,-3.47609668942,-1.37945130543,0.207944323925,2.09375291448,0.536459546097,3.65473972056,5.44956237708,-0.0581214031431,2.70465868979,-0.121060658043,2.41203121956,-1.31774821934,-101.110816737
off_to_on,8.38983602027,-0.748808152247,0.630992864343,1.36187348144,3.21256707388,1.00385404793,4.84208562848,6.6699649926,0.945923112083,4.14749949925,1.08912365359,3.85584863015,0.950870449429,-113.471401877
off_to_on,9.2871468682,2.15556569448,2.61607277064,2.45561162733,4.15960171987,1.53838286956,5.77503698008,7.41369489388,1.96108819801,5.5226680008,2.28721730679,5.29395789747,3.36318133558,-120.371782695
off_to_on,9.63524342566,4.97708419798,4.40649703272,3.43764036883,4.8977929121,2.12889969876,6.38435678456,7.64237043422,2.94193011546,6.68377540682,3.39016357361,6.60525605418,5.68168493662,-120.861701515
off_to_on,9.44860298142,7.45577987511,5.85164447134,4.26217037437,5.39901567989,2.74587860318,6.61752639053,7.35663050447,3.83780303363,7.48208124004,4.31800160322,7.6553778604,7.6620590884,-114.432481821
off_to_on,8.77118856272,9.35962021043,6.83491205028,4.89186348869,5.64556431399,3.34386129935,6.44563403928,6.59594489098,4.59684636075,7.7878488395,5.00225101635,8.31421414767,9.08253795788,-101.08435695
off_to_on,7.67072654253,10.5098774465,7.28512049956,5.30001314185,5.63151189121,3.86644512989,5.86878305965,5.43523965111,5.17069765938,7.51106682457,5.39333389441,8.47455768701,9.77169320711,-81.3442236285
off_to_on,6.23222182162,10.8009423631,7.18276341291,5.4719885989,5.36372792393,4.25319543406,4.9191004752,3.97856701542,5.5193311419,6.61843071627,5.4660690378,8.06919638687,9.63100615764,-56.233227967
off_to_on,4.55138791833,10.212235414,6.56052482384,5.40581146897,4.8622953323,4.44760310785,3.66065270559,2.35031364879,5.61537964654,5.14386603061,5.2225027015,7.08389108093,8.64920358644,-27.1892561672
off_to_on,2.72854375592,8.81077072707,5.49817812621,5.1118149845,4.16008142562,4.40505471424,2.18592138029,0.684670458393,5.44735012637,3.19066659533,4.69167286756,5.56416289209,6.9063212355,4.04600273899
off_to_on,0.863347395941,6.74400974881,4.11262900968,4.61142843911,3.3012853524,4.09975875529,0.608916069748,-0.885740933064,5.02128172559,0.924419119945,3.92629638659,3.61461166957,4.56673500832,35.5627307956
off_to_on,-0.949467209334,4.22377359891,2.54439840171,3.9352192921,2.3388999288,3.52968203537,-0.944554269639,-2.24109372323,4.36060109617,-1.44285889031,2.99676722035,1.39048618012,1.86179743964,65.4274787084
off_to_on,-2.62337592713,1.50303122573,0.942197846598,3.1204017958,1.3311733189,2.71878227018,-2.34852485849,-3.28443380323,3.50417140818,-3.67569799835,1.98320532795,-0.917707826328,-0.935944810943,91.8231047694
off_to_on,-4.08254553562,-1.15178183878,-0.552606107203,2.20807291331,0.337313457912,1.71614984842,-3.48920182855,-3.94969422518,2.5027738914,-5.54254754308,0.966551344613,-3.10479184494,-3.54387378729,113.172757742
off_to_on,-5.2637637325,-3.489733373,-1.81991717237,1.24045614005,-0.587180164537,0.592053505892,-4.27658029632,-4.20690249908,1.41446813583,-6.8440984153,0.0198268023406,-4.9741582572,-5.70196415552,128.239470471
off_to_on,-6.11807515133,-5.30232235584,-2.77177677075,0.258418336749,-1.39507149223,-0.568725164433,-4.65397544824,-4.06408398457,0.299419617249,-7.43885224818,-0.799344304286,-6.36070842724,-7.20294921635,136.196315891
off_to_on,-6.61231083389,-6.44527943275,-3.35915431736,-0.700524450832,-2.05130297446,-1.67553348582,-4.60428015165,-3.56566572248,-0.785160241622,-7.26246344091,-1.45402658075,-7.15048507035,-7.916227398,136.66534159
off_to_on,-6.73057310848,-6.85276617864,-3.57416238674,-1.60357231036,-2.5357753627,-2.6414654416,-4.15211336033,-2.7875128057,-1.78935205922,-6.33809168502,-1.93044385531,-7.29437203463,-7.80251090763,129.72620873
off_to_on,-6.47558441248,-6.54240417814,-3.44774472473,-2.42333037366,-2.84460155763,-3.39280878926,-3.36149178462,-1.82905251201,-2.6736571961,-4.77610787157,-2.23737293936,-6.81397173426,-6.9173721277,115.89735237
off_to_on,-5.8696611308,-5.61065390299,-3.04338832723,-3.13786902923,-2.98961190557,-3.87716830955,-2.32918479012,-0.803227679202,-3.41061873293,-2.76285429995,-2.40261352733,-5.79877567316,-5.40324061159,96.0934890415
off_to_on,-4.95496598123,-4.21920498757,-2.44781431537,-3.73028741909,-2.99609965893,-4.06924860217,-1.17443215594,0.174759638026,-3.98486287086,-0.539592431334,-2.46707412124,-4.39488296805,-3.47086403873,71.5635486579
off_to_on,-3.79265299463,-2.57409588053,-1.75986570899,-4.18797308763,-2.89902215913,-3.9735457535,-0.0261491102602,0.998824503192,-4.39171872421,1.6259140276,-2.47732607919,-2.78664169449,-1.37258085366,43.8128697328
off_to_on,-2.46056478962,-0.900124624229,-1.07891367966,-4.50177917312,-2.73808422083,-3.62356210717,0.990944951289,1.58238353873,-4.63477305787,3.47171557038,-2.47767363331,-1.17353554241,0.629213109141,14.5131094393
off_to_on,-1.04927510549,0.586357430685,-0.494049193568,-4.66533259334,-2.55229452233,-3.07757911425,1.76969940071,1.86672501488,-4.72285454739,4.77384955432,-2.50284121751,0.254716756363,2.29442180995,-14.5968885418
off_to_on,0.343522955636,1.70302322617,-0.0751352935186,-4.67464375916,-2.37467819169,-2.41144885247,2.23188618896,1.82653660019,-4.66699985488,5.37427141862,-2.57228436093,1.34162944879,3.43436071972,-41.8158171771
off_to_on,1.62002875889,2.32251135084,0.133497338425,-4.5281173883,-2.22783308824,-1.70924259623,2.33625322152,1.47204437378,-4.47792393679,5.20093124902,-2.6869006104,1.98294260574,3.93399049756,-65.5860558221
off_to_on,2.69023048644,2.38632166498,0.116277681609,-4.22697636565,-2.12092924696,-1.0528768596,2.08239043133,0.847557624361,-4.16440571142,4.27734821498,-2.82858447012,2.1386820582,3.76454274752,-84.5959534854
off_to_on,3.47994529666,1.91013737228,-0.113531066882,-3.77602043312,-2.04857916926,-0.511986480278,1.51002066745,0.0265793121247,-3.73282610042,2.72035942525,-2.96268083864,1.83674373164,2.98505769616,-97.8716661611
off_to_on,3.93811549786,0.980100253646,-0.516659847701,-3.1845634869,-1.9917717107,-0.135309045622,0.693867600128,-0.896006547966,-3.18788656685,0.726229689688,-3.042997805,1.16758191121,1.73278608934,-104.850904471
off_to_on,4.04243703129,-0.259337871549,-1.03305526761,-2.46734038555,-1.92079425764,0.0553175812996,-0.265233901789,-1.81385958727,-2.53432575662,-1.45319421567,-3.01869484021,0.270758842119,0.203834970771,-105.430532123
off_to_on,3.80249019155,-1.62436116084,-1.58881017268,-1.64515560676,-1.79980214215,0.0675461161549,-1.25189643795,-2.62019347627,-1.77927285956,-3.54131528174,-2.8421120748,-0.684812715008,-1.37332709889,-99.9805702986
off_to_on,3.25976538608,-2.91511867597,-2.10403651749,-0.745065713866,-1.59246683141,-0.0626899276416,-2.1490371249,-3.21873842367,-0.934756911506,-5.27073091902,-2.47648283962,-1.52427691671,-2.76800556733,-89.3190539224
off_to_on,2.48430864637,-3.94054192971,-2.50091659658,0.200056715437,-1.26797690893,-0.276108339163,-2.8505524762,-3.53353534048,-0.0198501808705,-6.41601673979,-1.90248978129,-2.0907694875,-3.77713650319,-74.6453898511
off_to_on,1.5681142231,-4.54163939665,-2.71124093791,1.15264616961,-0.806600887232,-0.498185913257,-3.27240156679,-3.51657349325,0.938032428882,-6.82123132808,-1.12278019088,-2.26671234441,-4.25103979956,-57.4341716529
off_to_on,0.615813147077,-4.61050907592,-2.6828611168,2.07222320748,-0.204058902329,-0.649483800777,-3.36092504165,-3.15252023208,1.90303395167,-6.41871491498,-0.163825913856,-1.98968140453,-4.11183664583,-39.2963511217
do_nothing,-0.2664111642,-4.1028943221,-2.38463042795,2.91769829034,0.525912018595,-0.656930949949,-3.09759520939,-2.46010614293,2.8321301764,-5.23688873493,0.925140352713,-1.26081170305,-3.36230440773,-21.8195939896
do_nothing,-0.982462812318,-3.04294406989,-1.80955437629,3.64998448151,1.35119402217,-0.464654177655,-2.49983978467,-1.49008637535,3.67773945044,-3.39618679418,2.07600461537,-0.144720462906,-2.0842230245,-6.4037877076
do_nothing,-1.4571671271,-1.51981655152,-0.976011470634,4.23464685418,2.22324575431,-0.0429635365071,-1.61804973495,-0.32005881162,4.39141561718,-1.0937776956,3.20800385285,1.23892966124,-0.426650548119,5.88973784102
do_nothing,-1.64496302275,0.323239663117,0.0729750508019,4.64429819397,3.08120706032,0.605704775093,-0.529311041941,0.953257969669,4.92819323722,1.42084164723,4.23555919945,2.73099481176,1.41413310426,14.4562931194
do_nothing,-1.53532235484,2.30580654467,1.27233322123,4.86047378807,3.85770298219,1.44473882492,0.671260303851,2.22343470636,5.2510364363,3.8761637745,5.07677235202,4.153381312,3.22022708949,19.2163450178
do_nothing,-1.1541266967,4.23102733165,2.53923924952,4.87477987206,4.48568036354,2.4055850286,1.88048814636,3.38442735465,5.33480446583,6.01098511182,5.66158572441,5.33176211413,4.77980871243,20.6222653741
do_nothing,-0.560711166346,5.90757686851,3.7788713749,4.68920173604,4.90547592561,3.39413676315,2.99725174063,4.34032068437,5.16919470622,7.60462772484,5.93867336138,6.11746096539,5.91329426347,19.597968924
do_nothing,0.159178182555,7.17025416791,4.89130138268,4.31556494593,5.07128175561,4.30063303376,3.93166470799,5.01375967666,4.76025080432,8.50134360061,5.88031133196,6.40566408075,6.49462176601,17.4144062749
do_nothing,0.903742180752,7.89685796055,5.77912749286,3.77425036847,4.95624659111,5.01197534166,4.61243543209,5.35228869206,4.13021141763,8.62602266595,5.48474531285,6.14767700824,6.46504944558,15.5126054896
do_nothing,1.56758854832,8.01956199531,6.3553752823,3.0923543832,4.55561898242,5.42504804045,4.99181586854,5.33207526207,3.31569606343,7.98953116547,4.77589082926,5.35579902035,5.83792701971,15.2939074943
do_nothing,2.05478392862,7.52975888745,6.55112359515,2.30154601633,3.88757879004,5.45947116372,5.04787877068,4.95879638929,2.36444636362,6.68340281977,3.80052468415,4.10041479115,4.69413939116,17.9030207633
do_nothing,2.29087921915,6.4761849855,6.32226248996,1.43589368014,2.99168465218,5.06824697945,4.78419360799,4.2657735327,1.33103106978,4.86499919794,2.62341219411,2.49995737385,3.16917183641,24.032513476
do_nothing,2.23238885024,4.9569615717,5.65477559791,0.529912928923,1.92515026898,4.2449812968,4.22725627887,3.30972187032,0.272054065628,2.73545945134,1.32102859591,0.705330549748,1.43383230834,33.7766941401
do_nothing,1.87250362646,3.10688443326,4.56797512486,-0.382972897867,0.757414940457,3.0267434424,3.42223427743,2.16469914878,-0.758542507033,0.513614126216,-0.0253494895478,-1.11893479702,-0.328554483227,46.5583010511
do_nothing,1.24227965783,1.08178020492,3.11521571373,-1.27145491522,-0.436337865099,1.49212992075,2.4276982611,0.914977653907,-1.71351962031,-1.59056436835,-1.33639496881,-2.81416625755,-1.94529443778,61.1433569739
do_nothing,0.407114251711,-0.958028657098,1.3817780052,-2.10684050386,-1.58195850877,-0.245343966123,1.31001946897,-0.352390784339,-2.55527751603,-3.39950303426,-2.54062484407,-4.24508126657,-3.27470225016,75.7488019639
do_nothing,-0.541080333302,-2.86316268565,-0.520161086384,-2.8631284539,-2.61264591369,-2.04785061469,0.138031447807,-1.55459044117,-3.2574089736,-4.78566135772,-3.57891031225,-5.31315854032,-4.22110255747,88.2353850789
do_nothing,-1.49504171759,-4.50784890575,-2.4592823894,-3.51682775555,-3.47412936488,-3.76670780365,-1.02159272334,-2.61903209485,-3.80479895681,-5.68130529978,-4.40729766563,-5.96433059812,-4.74269495139,96.3663467734
do_nothing,-2.34526558277,-5.79863545389,-4.29512178642,-4.04673292644,-4.12821745122,-5.25720213977,-2.1079793663,-3.48788742101,-4.19241036129,-6.07965361935,-4.99807697196,-6.19035390587,-4.85159109074,98.1023054083
do_nothing,-2.99340924935,-6.67860467604,-5.88955107564,-4.43386939537,-4.55443850594,-6.39313019465,-3.06862654588,-4.12093916057,-4.42307805811,-6.02786972498,-5.33926069313,-6.02414505146,-4.60646239771,91.8959681977
do_nothing,-3.3643032154,-7.12717482431,-7.1187538975,-4.66178013354,-4.74974433149,-7.07944205488,-3.86098576006,-4.49672021043,-4.5047610593,-5.61349538753,-5.43281288628,-5.53022191767,-4.09926846231,76.9479420507
do_nothing,-3.41506276713,-7.15615320054,-7.88456463344,-4.7172457292,-4.72648628018,-7.26159559661,-4.45323870024,-4.61208942,-4.44775721789,-4.94677014496,-5.29208003242,-4.79203541573,-3.43832481793,53.3875969177
do_nothing,-3.14016670945,-6.80312928802,-8.12400780782,-4.59142722238,-4.50906929333,-6.93061593922,-4.82450433266,-4.48052062611,-4.26235954527,-4.14173839073,-4.93890688787,-3.89833018307,-2.7304069764,22.3505492706
do_nothing,-2.57189073964,-6.12352348522,-7.8159745861,-4.28131162077,-4.12982141409,-6.12335507615,-4.96470121312,-4.12945393827,-3.95733338421,-3.29906019852,-4.40087734684,-2.93068756549,-2.06462034556,-14.0638769032
do_nothing,-1.77607974953,-5.18261591646,-6.98420222255,-3.79124335746,-3.62466947122,-4.9179997746,-4.87423095547,-3.59707375046,-3.53943605069,-2.49302303167,-3.70901467725,-1.95408858335,-1.50039695287,-52.9572584523
do_nothing,-0.843837248803,-4.04868455281,-5.69606549082,-3.13425905296,-3.0291832782,-3.42541389896,-4.56356049982,-2.92884461123,-3.01401057321,-1.76447396225,-2.89612977932,-1.01174557103,-1.06127173721,-90.9052087337
do_nothing,0.119777041171,-2.78802702113,-4.05711366651,-2.33292160415,-2.37544923484,-1.77735966024,-4.05268685498,-2.17406900969,-2.38649297441,-1.12038160702,-1.99584721634,-0.124686501662,-0.73515384733,-124.31094351
do_nothing,1.00858516414,-1.46219311164,-2.20174680317,-1.41937995673,-1.69007769376,-0.112967304663,-3.37039160255,-1.38264916346,-1.66450840485,-0.539651566533,-1.04219396162,0.70424122971,-0.480784093529,-149.79963073
do_nothing,1.7280366934,-0.127293839758,-0.280867189837,-0.43446190585,-0.993461592177,1.43502151592,-2.55315231758,-0.602157009234,-0.860121068773,0.0161749362068,-0.0695284902607,1.48302100728,-0.239111634285,-164.606980007
do_nothing,2.2062761182,1.1651441918,1.55228894802,0.57427046156,-0.300214337119,2.75273905478,-1.64358483785,0.124741564525,0.00823645393741,0.589462251015,0.887465962108,2.22139153606,0.052426990577,-166.914364296
do_nothing,2.40219105151,2.36657866798,3.15668724362,1.55542614153,0.379450592586,3.75510965168,-0.688344737981,0.762491118583,0.914590959386,1.21278414815,1.79399404571,2.92193442751,0.445175262822,-156.087691862
do_nothing,2.30951309104,3.43000289441,4.41685724175,2.45742484163,1.03775550784,4.39225050933,0.264490876317,1.28446044247,1.82534044611,1.89750314016,2.61577475745,3.57316204062,0.966570874582,-132.78781525
do_nothing,1.95656498987,4.30946039634,5.25362678084,3.23251452423,1.66722649993,4.65184665448,1.16842672749,1.67431933621,2.70041275142,2.62672432466,3.32018455712,4.14608047439,1.61167263375,-98.9352658846
do_nothing,1.40180752237,4.96108451965,5.63103504106,3.84072252448,2.25880455924,4.55747224646,1.98169217176,1.92689247367,3.49563984302,3.35397281136,3.87789204631,4.59508743945,2.34039717136,-57.5297066692
do_nothing,0.725862607509,5.34585621102,5.55863860213,4.25326595582,2.80054456582,4.16328958585,2.67019272,2.04836892242,4.16612283682,4.0079763088,4.26483182452,4.86329484416,3.08106035775,-12.342477677
do_nothing,0.0211084971905,5.43385246981,5.08893591161,4.45498347686,3.27713306702,3.54594027284,3.20990123882,2.05573134887,4.67019891176,4.50290126903,4.46426156501,4.89156465813,3.7398185723,32.4833522078
do_nothing,-0.619793146202,5.20936096917,4.31019059,4.44545176169,3.67031354611,2.79470749795,3.58834147024,1.97528905837,4.97351252051,4.75245409002,4.46858540711,4.62984363281,4.21465812246,72.8790379391
do_nothing,-1.1149983845,4.67593603283,3.33546665496,4.23860490523,3.96015959624,2.00114914903,3.80490133539,1.84026106776,5.05265657401,4.68556590841,4.28062015249,4.04889376775,4.41183034099,105.289628883
do_nothing,-1.4028772922,3.86032577068,2.28913374043,3.8608636317,4.12700408595,1.24937267472,3.86985343788,1.68745799305,4.89789065684,4.26104143791,3.91403115495,3.15032525151,4.2621900167,127.054452597
do_nothing,-1.4486438854,2.81424348489,1.29240183928,3.34797772715,4.15373461981,0.607958193065,3.80213678259,1.5532439101,4.51455709762,3.47862643885,3.39276545255,1.97298599677,3.73483532423,136.683111931
do_nothing,-1.24755110341,1.61319173259,0.449563878577,2.74096144743,4.02811495404,0.124266350048,3.62614064249,1.46910240741,3.92298529886,2.38442943468,2.74944552736,0.594233902307,2.84578207131,133.994198252
do_nothing,-0.824439005362,0.351946149883,-0.163456532882,2.08163143626,3.74479357634,-0.178466475489,3.36789856961,1.45725998322,3.15687522362,1.06945361545,2.02283708188,-0.874649199838,1.66008954697,120.100828774
do_nothing,-0.229881739849,-0.863188343855,-0.506928049523,1.40831940465,3.30671155038,-0.301194117937,3.0512186049,1.52690816148,2.26035289919,-0.338965757162,1.25464477642,-2.29875518651,0.286793196061,97.2460639905
do_nothing,0.466422889565,-1.92470065412,-0.58061501079,0.752316020686,2.72571201566,-0.266559279329,2.69432158058,1.67158950608,1.2840646911,-1.69192000319,0.485998468439,-3.53450206762,-1.13294391956,68.5098121467
do_nothing,1.18408655573,-2.73564688285,-0.422213925766,0.13550776648,2.02226821379,-0.114353810055,2.30751992737,1.86825587156,0.280797731104,-2.83798381361,-0.245948734105,-4.44739175586,-2.44302711454,37.424585374
do_nothing,1.84119867277,-3.22139964731,-0.101161478742,-0.430493928655,1.2243676258,0.104364333567,1.89234434945,2.07836475253,-0.698835845793,-3.6439309352,-0.910890757371,-4.93017446416,-3.4927034989,7.54840408564
do_nothing,2.36313721386,-3.3397524353,0.291390150549,-0.943640797985,0.365698856938,0.333738344749,1.44232850729,2.25115996682,-1.61013977322,-4.0141047225,-1.48735032504,-4.91880779737,-4.15711763297,-17.9521442716
do_nothing,2.69006124949,-3.08784559419,0.655174481435,-1.40928902743,-0.516629871462,0.519438844534,0.945418136456,2.32900826596,-2.41708695482,-3.90551532938,-1.96353175699,-4.40376630429,-4.35522232569,-36.6577733352
do_nothing,2.78236391666,-2.50470333624,0.894425469752,-1.83694146475,-1.38456668676,0.614238804488,0.387715431903,2.25436756662,-3.09382708166,-3.33625116767,-2.33695788595,-3.43479504382,-4.0624052529,-47.1489347443
do_nothing,2.62367042144,-1.66869464819,0.93082725344,-2.23640466488,-2.20150879467,0.582396077268,-0.241959382711,1.97768657578,-3.62487731788,-2.38568219913,-2.61297269473,-2.11804241223,-3.31586582031,-49.1263247259
do_nothing,2.22129091376,-0.689888829455,0.714209998685,-2.61397000132,-2.93436959227,0.402595560684,-0.947372840983,1.46532266293,-4.00411558146,-1.18607405906,-2.80235017029,-0.605540079325,-2.2117468383,-43.388253011
do_nothing,1.60433736462,0.302020872398,0.229686245014,-2.96923688014,-3.55514416731,0.0693896662481,-1.72080576416,0.706453210213,-4.23286204227,0.0935370236047,-2.91837569812,0.921922806086,-0.894158892798,-31.6720900814
do_nothing,0.81994986521,1.17290435185,-0.499636368466,-3.29311488171,-4.04188246561,-0.406768873387,-2.54032346567,-0.282027408712,-4.31745141212,1.26921612951,-2.97384032233,2.2765128633,0.462626478964,-16.3841385107
do_nothing,-0.0717729881704,1.80067463742,-1.41468543866,-3.56737985446,-4.37906931217,-1.00069995215,-3.36896172915,-1.45347656915,-4.26674973389,2.16687047841,-2.97839910598,3.28691517027,1.67655658663,-0.255888169213
do_nothing,-1.00349135942,2.0909752182,-2.4269362941,-3.76593791116,-4.5574909701,-1.67461836704,-4.15615994593,-2.73290138118,-4.0900482551,2.64648655413,-2.93669055831,3.82064943169,2.58180705975,14.0270094832
do_nothing,-1.90637621474,1.98999797359,-3.42860129115,-3.85770131579,-4.57372737861,-2.38094350209,-4.84146668303,-4.02195827005,-3.79567827697,2.62246639181,-2.84750207967,3.80210839721,3.0511903247,24.1745736268
do_nothing,-2.71538833794,1.49265002466,-4.30524861634,-3.81073666506,-4.42944007234,-3.0655654122,-5.3602140132,-5.20727712282,-3.39054958744,2.07712438489,-2.70411247857,3.22377645113,3.01388858697,28.576903893
do_nothing,-3.37372374311,0.644838162197,-4.94931732309,-3.59714371302,-4.13062551826,-3.67138592237,-5.65055212869,-6.17138246601,-2.88064412118,1.06529082809,-2.49576883225,2.14894104952,2.46602061877,26.4888607698
do_nothing,-3.83622400377,-0.46062304397,-5.27289899639,-3.19799263189,-3.68697481693,-4.14200281243,-5.6610006495,-6.80509409788,-2.27232310099,-0.290839036124,-2.21008620541,0.70531812039,1.47248716046,18.0948536579
do_nothing,-4.07169339179,-1.69414541004,-5.21825965721,-2.60760881659,-3.11143041867,-4.42543828364,-5.35754500557,-7.0200175854,-1.57415751133,-1.81613581077,-1.83601922803,-0.929775210913,0.159701263622,4.44994963699
do_nothing,-4.06417205364,-2.90440307246,-4.76486343476,-1.83655518845,-2.41996875249,-4.47781945677,-4.72930866983,-6.75962607185,-0.798891691793,-3.3044796085,-1.36696427981,-2.55091818361,-1.29996077276,-12.6901213019
do_nothing,-3.81327562371,-3.93645642881,-3.93209463811,-0.91281596738,-1.63157573376,-4.26689625482,-3.79197019521,-6.00751420463,0.0348861389868,-4.54538379859,-0.803522986109,-3.95004672738,-2.71002390088,-31.1233288513
do_nothing,-3.33372761255,-4.65070588027,-2.77740191532,0.119086664255,-0.768330612924,-3.7752365621,-2.5883538746,-4.79167345257,0.901758749597,-5.35177944357,-0.155495955451,-4.94259921269,-3.87525888874,-48.5032161057
do_nothing,-2.65419232116,-4.94026718468,-1.39014131995,1.20104115424,0.144519210387,-3.00288294388,-1.18597224365,-3.18407039654,1.76947382459,-5.58523411159,0.557225185058,-5.39093905596,-4.62717839292,-62.6465853818
do_nothing,-1.81548032845,-4.74453055109,0.118093885118,2.26608219564,1.07861930411,-1.9692068171,0.328308551312,-1.29535664679,2.60006227691,-5.1751850293,1.30505332363,-5.22197581588,-4.84631066383,-71.8062209446
do_nothing,-0.868165633104,-4.05713798677,1.62546199205,3.24439116856,2.0028178461,-0.713673075034,1.85592715046,0.734866421178,3.35205096183,-4.12954736192,2.05040228723,-4.43665672801,-4.47828779594,-74.874250051
do_nothing,0.130359001105,-2.92732738842,3.01273101038,4.06986195836,2.88380175141,0.704753773198,3.29573787227,2.75123984766,3.98356448235,-2.53520802256,2.75052248911,-3.11007085495,-3.54159785297,-71.4925225541
do_nothing,1.11934256547,-1.45445270551,4.17548365826,4.68644742576,3.68708893466,2.20976268423,4.55349568545,4.59784859923,4.45596241021,-0.548275658343,3.36116085159,-1.38215283065,-2.12595451006,-62.0599470615
do_nothing,2.03855246229,0.223618956611,5.03426016629,5.05352109408,4.37835289509,3.71149019863,5.55057216717,6.13369622435,4.73755977892,1.62466002916,3.84061931343,0.559777780227,-0.381484186578,-47.6411026572
do_nothing,2.83238672355,1.94673166814,5.54151306975,5.14961047832,4.92500602031,5.11187675554,6.23084927722,7.24664277997,4.80694553954,3.75179368292,4.15373267639,2.50432372367,1.49985032259,-29.7936421736
do_nothing,3.45394945199,3.55118466205,5.68466300872,4.97406652265,5.29792947784,6.31132178595,6.56497262915,7.86415383206,4.65545135773,5.60455383867,4.27529667552,4.24208027503,3.30814437558,-10.3422379011
do_nothing,3.86873631903,4.8885773024,5.48503741946,4.54649931392,5.47321543633,7.21618999889,6.5514951106,7.95958285557,4.28842654964,6.98548065189,4.19254855156,5.59103978084,4.84162390169,8.86721392325
do_nothing,4.05753034463,5.84234641205,4.99298250577,3.90409694231,5.43378357272,7.74656481311,6.21485760394,7.55325621163,3.72512911065,7.75187620397,3.90642424353,6.418024012,5.93148490134,26.1983853723
do_nothing,4.01811557828,6.33992270871,4.27989976057,3.09721249449,5.17074700546,7.84354214321,5.60057812977,6.70827980995,2.99722510968,7.83217203248,3.43147108617,6.65340847026,6.46227770042,40.4094246546
do_nothing,3.76548945225,6.3590468533,3.4283152709,2.18381679496,4.68442876232,7.47532918898,4.76839365009,5.5216544891,2.14607247427,7.23297267609,2.79446098101,6.29734093556,6.38523288202,50.7691220545
do_nothing,3.33039390018,5.9275919582,2.52130061659,1.22354272388,3.98496264706,6.64146983502,3.78436613483,4.11188355712,1.21912353457,6.0360183755,2.0319038444,5.41683026817,5.72288891366,57.0923691112
do_nothing,2.75617849251,5.11712566465,1.63260478194,0.272073885946,3.09244541301,5.37466064689,2.7130868198,2.6046992462,0.265890701939,4.38568374529,1.18678437727,4.13432663133,4.56455511623,59.6950560012
do_nothing,2.09423164995,4.03128738463,0.818725071822,-0.623446295017,2.03663485105,3.73983710243,1.61107080132,1.11876295157,-0.666034256012,2.46889994241,0.304921518741,2.60955763947,3.05336671569,59.280113202
do_nothing,1.3984355778,2.79073776948,0.113860953447,-1.42747693879,0.856207138177,1.83047563503,0.522232764388,-0.246826452786,-1.53444067505,0.490379233993,-0.568628986771,1.01726854078,1.36679481397,56.7757901351
do_nothing,0.719280352332,1.51686372824,-0.471703821149,-2.11733931805,-0.402404301318,-0.237657642872,-0.523998323381,-1.42165080995,-2.30506169639,-1.35340259948,-1.39274304265,-0.475982037499,-0.306685711262,53.1532169056
do_nothing,0.0983784263033,0.316535600392,-0.949706595416,-2.68266483734,-1.68656509208,-2.3348107332,-1.51178456843,-2.36863425782,-2.95300209209,-2.89792455635,-2.13266465293,-1.73276221107,-1.79160415226,49.2520913302
do_nothing,-0.435872869922,-0.729999769966,-1.34887909111,-3.12328058413,-2.93937036941,-4.32688034442,-2.43550338074,-3.08379556713,-3.46296400516,-4.028907849,-2.76152472525,-2.66062648882,-2.94698348558,45.6408684297
do_nothing,-0.870838258972,-1.57651201978,-1.70757822052,-3.44599527872,-4.10192837551,-6.08551152698,-3.29458670353,-3.59133053572,-3.8283770434,-4.69288179886,-3.26089048239,-3.22085968232,-3.68252217567,42.5316144249
do_nothing,-1.20996935689,-2.21261188199,-2.06516653343,-3.66088731486,-5.11596794617,-7.49774752149,-4.08756569825,-3.93492047232,-4.04969054303,-4.89888372338,-3.62042469111,-3.42912488466,-3.96745551146,39.7607539076
do_nothing,-1.47077004506,-2.65998866431,-2.45339255992,-3.7777416748,-5.92671994082,-8.47436662179,-4.80645618728,-4.16669150159,-4.13219264191,-4.71143217739,-3.83684373972,-3.34821180521,-3.83111998228,36.8366743557
do_nothing,-1.68060386186,-2.96386801228,-2.88901588312,-3.8032288155,-6.48598794709,-8.95618781935,-5.43259015039,-4.33557418321,-4.08376785493,-4.23614890216,-3.91243799577,-3.07421111593,-3.35539417,33.0450871618
do_nothing,-1.8708797016,-3.18119433652,-3.36875406906,-3.73927581991,-6.75527694575,-8.91784592932,-5.93479369426,-4.47688588428,-3.91298620852,-3.60041660706,-3.85344832378,-2.71836235809,-2.66029363313,27.5946275889
do_nothing,-2.07043069978,-3.36750929331,-3.86732017721,-3.58287100055,-6.7087959651,-8.36880132302,-6.27045813307,-4.60476688336,-3.62783686755,-2.93210525538,-3.66857736898,-2.38740789594,-1.88490423111,19.7795682569
do_nothing,-2.29907618067,-3.56466759764,-4.33890959216,-3.32730024851,-6.33610123405,-7.35162587103,-6.38959693191,-4.70867035797,-3.23529115177,-2.33959138686,-3.36785817582,-2.16545301909,-1.16642666583,9.13443707269
do_nothing,-2.5623932197,-3.79138031102,-4.72203512734,-2.96457406935,-5.64411105816,-5.93786165323,-6.24149235733,-4.75449589543,-2.74172469409,-1.89601241107,-2.96201659676,-2.10006247464,-0.620299004533,-4.4430468704
do_nothing,-2.84860705767,-4.03812643868,-4.94715781062,-2.48860499658,-4.65821379598,-4.22195340748,-5.78308404166,-4.69025228888,-2.15407102344,-1.62998907913,-2.46236237029,-2.19465908555,-0.324143701991,-20.6193348617
do_nothing,-3.12824546436,-4.26729256616,-4.94617466956,-1.89856624063,-3.42221509953,-2.313889039,-4.98790645165,-4.45543912806,-1.48144400547,-1.52402430026,-1.88114294445,-2.40832960084,-0.307689064154,-38.6138297495
do_nothing,-3.35682159098,-4.41858772192,-4.66255353678,-1.20182356647,-1.99693515742,-0.331235255947,-3.85419931449,-3.99274947158,-0.73687561915,-1.52059992377,-1.23220949937,-2.66302727724,-0.549931801425,-57.2513504073
do_nothing,-3.48036327539,-4.41895654586,-4.06078381598,-0.415889358396,-0.457370565587,1.60877026716,-2.41082846687,-3.26030493492,0.0612171486338,-1.53482194488,-0.531788519171,-2.8570521569,-0.983765386914,-75.0716271428
do_nothing,-3.44315798919,-4.19550021688,-3.13385839956,0.431008063118,1.11152828696,3.39650001587,-0.719871065887,-2.242500154,0.888191665996,-1.47148178936,0.200867745943,-2.88274901636,-1.50724647977,-90.4814646209
do_nothing,-3.19669980853,-3.68941793694,-1.90771210696,1.30093748796,2.62025802698,4.9361568405,1.12488379856,-0.957680043019,1.71323084567,-1.24375069545,0.943160630619,-2.64572521052,-1.99975585252,-101.929739075
do_nothing,-2.7085702053,-2.86877746965,-0.441892464983,2.14881517317,3.98097879039,6.15065483451,3.00373955402,0.538715320029,2.5004166623,-0.790499507911,1.66931088399,-2.08264777439,-2.34065669156,-108.082837634
do_nothing,-1.96990451136,-1.73804444567,1.17381183939,2.92620843939,5.11404808271,6.98503342217,4.78083202666,2.15628136111,3.21079687023,-0.0894677091727,2.3510903792,-1.17486586043,-2.42774862062,-107.978721735
do_nothing,-1.00021317423,-0.342732735978,2.82656487766,3.58590962603,5.95427953995,7.40840285513,6.31686445867,3.77705156095,3.80525613287,0.835844082979,2.95910894003,0.0443061545489,-2.19289671253,-101.141267664
do_nothing,0.151364653585,1.23177754196,4.3908003402,4.08666950657,6.45629969572,7.41450674264,7.48342725129,5.26740171896,4.24786767654,1.91671373641,3.46455631685,1.48990244691,-1.61266272748,-87.6422681813
do_nothing,1.40883336218,2.86736880788,5.74055693595,4.39744200951,6.59841298474,7.02103262952,8.1771922005,6.49300953748,4.5093119698,3.04718104798,3.84122438573,3.03337906884,-0.71251112692,-68.1055461202
do_nothing,2.67603770241,4.42550265988,6.76244867622,4.50055189291,6.3844970919,6.26781034913,8.33218972056,7.33493611176,4.56991887273,4.098340526,4.06758472229,4.51748358712,0.43590539291,-43.6549751256
do_nothing,3.84660655283,5.76318440282,7.36776959184,4.39334548724,5.84363062085,5.21402273543,7.92853425246,7.70467163792,4.42192429306,4.93683192184,4.12867861139,5.77596201398,1.72389199577,-15.8147947674
do_nothing,4.81595753492,6.75046145235,7.50229565613,4.08809987535,5.02738618713,3.93453147414,6.99634485456,7.556063355,4.07062698628,5.44475501642,4.01759225723,6.65542077154,3.01990459678,13.6244017995
do_nothing,5.49381465616,7.28706063259,7.15258584125,3.61021579192,4.00497923651,2.51541006839,5.61417066295,6.89241443854,3.53427209275,5.53798782203,3.7363364797,7.03631440441,4.18672206783,42.7577925215
do_nothing,5.81553700827,7.31582632637,6.34797368793,2.99496652478,2.85671528816,1.0487901947,3.90190431057,5.7676611602,2.84265473374,5.1800925459,3.2960202382,6.85010915876,5.0991537939,69.719858635
do_nothing,5.75064272093,6.8310131117,5.15793604464,2.28328182336,1.66639323782,-0.372825709962,2.00886342688,4.28131902781,2.03460509847,4.38962237936,2.71629055237,6.09016821146,5.65981608366,92.824306392
do_nothing,5.30723738552,5.88016178711,3.68506846557,1.51718076374,0.513469747002,-1.6625558512,0.0983486179969,2.56772911336,1.1546614276,3.23960268818,2.02409598441,4.81474731454,5.81083895271,110.678742722
do_nothing,4.53158299456,4.55915436759,2.05442191682,0.735509862361,-0.534153571425,-2.74510869754,-1.66953930815,0.78091608225,0.249338172836,1.84911146096,1.25190532552,3.14156212187,5.53999002097,122.266854932
do_nothing,3.50270351828,3.00098133203,0.400398562666,-0.0294144415805,-1.42590508257,-3.56230923109,-3.15478582706,-0.923020688896,-0.636560892813,0.36805629007,0.435567968615,1.23454062025,4.88052977075,126.99545784
do_nothing,2.32262532817,1.35963145251,-1.14729011615,-0.753808338978,-2.13221465774,-4.0776885467,-4.25201950575,-2.40370949666,-1.46315622059,-1.04273463166,-0.387968635012,-0.715554817191,3.90501984929,124.707886834
do_nothing,1.10349353987,-0.208793372831,-2.47697161365,-1.42283538608,-2.64565477889,-4.27962015781,-4.90097127595,-3.55218651906,-2.19788550474,-2.23327360858,-1.18286835885,-2.51411012575,2.71416161468,115.668273498
do_nothing,-0.0467076125157,-1.56522799378,-3.50610413148,-2.02945464563,-2.9794250379,-4.18253091619,-5.09156471772,-4.30241429069,-2.8168571249,-3.08488766287,-1.9163523359,-3.98622651972,1.42242340311,100.52293214
do_nothing,-1.0378484651,-2.60448465698,-4.18880840594,-2.57197509966,-3.16338086724,-3.82583730538,-4.86303096761,-4.63715715529,-3.30510026726,-3.52642069881,-2.56023804638,-4.9977702143,0.142626722579,80.2453847501
do_nothing,-1.80880524673,-3.26750310651,-4.51895856098,-3.05079956349,-3.23811917859,-3.27045691774,-4.2971902201,-4.58749647977,-3.65580689705,-3.54377150912,-3.09198819249,-5.47114570357,-1.02825118994,56.0706986277
do_nothing,-2.33442397003,-3.54733976937,-4.52848651096,-3.4649773739,-3.24788906171,-2.59300415888,-3.50677613682,-4.22613242494,-3.86879950823,-3.18132380585,-3.49524994024,-5.39374981449,-2.02004541928,29.4232470407
do_nothing,-2.62721384219,-3.4880722263,-4.28113898432,-3.80922467408,-3.23325936867,-1.8780696254,-2.62030359679,-3.65546250382,-3.94855676336,-2.53499145119,-3.75992389986,-4.81805339761,-2.79566394157,1.84027308138
do_nothing,-2.73342641794,-3.17676122975,-3.86248805666,-4.07200636742,-3.22452222037,-1.20926542062,-1.7654118999,-2.99213193565,-3.90217278755,-1.73781862364,-3.88184827759,-3.8533824605,-3.35190522879,-25.1077270734
do_nothing,-2.72399114985,-2.72956476939,-3.36746494224,-4.23511270045,-3.23673212138,-0.659950685128,-1.05279770081,-2.35021811829,-3.73760951207,-0.940163578727,-3.86221188782,-2.65057539285,-3.71493553142,-49.8993729796
do_nothing,-2.68155085036,-2.27390522708,-2.88700274958,-4.27492868456,-3.26708083687,-0.28469167918,-0.56276044224,-1.82537603319,-3.46252883343,-0.28729652261,-3.70681817191,-1.38162662663,-3.93133728697,-71.1467007189
do_nothing,-2.68545717583,-1.92913952832,-2.49549504023,-4.16532050003,-3.29501108893,-0.112526653486,-0.336029986516,-1.48211059068,-3.08387480051,0.102361432919,-3.42531217554,-0.217063941613,-4.05630033118,-87.6792537258
do_nothing,-2.79695087133,-1.78839697135,-2.24068511326,-3.88179060446,-3.28511384049,-0.142980278022,-0.369978355455,-1.34587954218,-2.60823453125,0.155200096297,-3.03045745868,0.695936420846,-4.14094289441,-98.6238662274
do_nothing,-3.04680214199,-1.90409991486,-2.13730423656,-3.40632407896,-3.19248013944,-0.3455075856,-0.620610300047,-1.40103322277,-2.04286272284,-0.146048747672,-2.53751592176,1.25184508831,-4.22086018068,-103.473943782
do_nothing,-3.42740497272,-2.27918895197,-2.16530983191,-2.73219881061,-2.96983832744,-0.662666053489,-1.00997451898,-1.59476499515,-1.39713126766,-0.758932307494,-1.9637471448,1.39916780995,-4.30779029299,-102.140396785
do_nothing,-3.89073524783,-2.86530430891,-2.27299334944,-1.86798643615,-2.57554694639,-1.01685868901,-1.43793817821,-1.84639779621,-0.684082110101,-1.58660706157,-1.32801139115,1.14544525686,-4.38579305175,-94.9757591671
do_nothing,-4.35277092882,-3.56823465397,-2.38460415538,-0.840039658271,-1.98136960265,-1.32001755778,-1.79671379204,-2.06058846671,0.0782687283253,-2.49118524996,-0.650436985742,0.554400815728,-4.41263150545,-82.763863636
do_nothing,-4.70404364141,-4.2599620838,-2.4115487081,0.30706196956,-1.17895251751,-1.48517029697,-1.98619142053,-2.14249784651,0.866200160962,-3.31324807647,0.0478986030474,-0.2641708189,-4.32623418204,-66.6699441869
do_nothing,-4.82507559821,-4.79574171769,-2.26574880693,1.512373957,-0.184062718381,-1.43851456752,-1.92805291941,-2.01272548102,1.65037045375,-3.89478095553,0.745323265997,-1.17023214096,-4.05531922656,-48.1500884509
do_nothing,-4.60468668716,-5.03397656832,-1.87344095843,2.70271116335,0.962089902835,-1.130469175,-1.57683598464,-1.61987628677,2.39683607387,-4.1022821579,1.41999707167,-2.01279165351,-3.53259797729,-28.8241407378
do_nothing,-3.95864945096,-4.85627362917,-1.1876118964,3.7986713705,2.19476222711,-0.544208723983,-0.926545485165,-0.948999601193,3.06897803227,-3.8467570484,2.05042784664,-2.65000831665,-2.70854402238,-10.3217606038
do_nothing,-2.84600580745,-4.18504358317,-0.197407144758,4.7219163152,3.43072322597,0.299570969391,-0.0120178749284,-0.0247615341673,3.6301626207,-3.09774232829,2.6160685164,-2.96745001771,-1.56357905861,5.8835074143
do_nothing,-1.28057286356,-2.99633383178,1.06679475435,5.40286919487,4.57593018829,1.3424869274,1.09505219057,1.09101329341,4.04683960132,-1.88934671533,3.09796741748,-2.89218991115,-0.116710205179,18.6335208259
do_nothing,0.664263026031,-1.3262143903,2.53342273311,5.78789800879,5.53497897419,2.4931747667,2.29481085189,2.30697930847,4.29169857479,-0.317425416514,3.47942685231,-2.40107307393,1.57087041408,27.2179578504
do_nothing,2.85850557772,0.730120280398,4.0950157002,5.84508879927,6.22122318926,3.6365134238,3.47144876852,3.51389978607,4.34647638207,1.47173718582,3.74661791497,-1.52233747842,3.39801199862,31.4607813806
do_nothing,5.12626991632,3.0264298046,5.61827470396,5.56786938737,6.56634705506,4.64640568818,4.50725438427,4.59853244652,4.20403973448,3.29966006665,3.88910211446,-0.330701891526,5.23162044107,31.7457034646
do_nothing,7.26320894253,5.379673013,6.95775005444,4.97600282205,6.52822115412,5.40063935542,5.29665698642,5.45774979345,3.86945366246,4.97826262893,3.90022169274,1.06309404302,6.91959574136,28.9722790191
do_nothing,9.05863835024,7.58864722769,7.97158087005,4.11379619979,6.09606531426,5.79601459857,5.75844828113,6.01089177423,3.35987540607,6.33366959827,3.77733822174,2.52661643962,8.3071090751,24.4428528
do_nothing,10.3196562597,9.45473945549,8.53743171877,3.04572068267,5.29226484206,5.76181079383,5.84466123218,6.20866318664,2.70326625053,7.22791571,3.52191934654,3.92182199058,9.2541397815,19.6900245055
do_nothing,10.8942100161,10.8023071591,8.56672900188,1.8499647576,4.17059427959,5.269805669,5.54507223168,6.03744797045,1.93606822188,7.57556618334,3.13949225806,5.12068329337,9.65198509796,16.2632774316
do_nothing,10.6901278227,11.4963327791,8.01549457176,0.610700464887,2.81104429345,4.33944272393,4.88690678749,5.51862934671,1.10012602515,7.35301997141,2.63949581141,6.01834817806,9.43656800505,15.5005834837
do_nothing,9.68760412303,11.455420768,6.89048124151,-0.590003664198,1.31186490068,3.03732696342,3.92998314761,4.70326784589,0.239227867592,6.59933039474,2.03506840011,6.54231318486,8.59678506972,18.3149544144
do_nothing,7.94344545499,10.6588600096,5.24988223064,-1.67965962254,-0.220222434983,1.47094234179,2.75813199619,3.66318146568,-0.604321315905,5.40860576937,1.34280458434,6.65676967298,7.17679707914,25.0262070192
do_nothing,5.58643886878,9.147260347,3.19854130937,-2.60136177047,-1.68047446615,-0.222765198415,1.46820154588,2.47998791463,-1.3926993864,3.91526166729,0.582500713144,6.36204169029,5.27197605925,35.2643003342
do_nothing,2.80435449637,7.01707728137,0.878248371661,-3.31766000814,-2.97600192595,-1.89260803709,0.158233915092,1.23393013082,-2.09481805619,2.27441017318,-0.223109223339,5.68975976455,3.01906739631,47.9627241926
do_nothing,-0.175820364136,4.4100534566,-1.5457177502,-3.81194568535,-4.03392806432,-3.39032064637,-1.08355324587,-0.00572542149674,-2.6876211435,0.640342396897,-1.0486477666,4.69499557603,0.581885354998,61.4494000238
do_nothing,-3.11194609191,1.49913677533,-3.9002142119,-4.08732830243,-4.8069245463,-4.58751266525,-2.18752764318,-1.18724568996,-3.15636782225,-0.85370859418,-1.86645794633,3.4469359138,-1.86557248133,73.6297325771
do_nothing,-5.77208684752,-1.52727923767,-6.02022462052,-4.16331240697,-5.27557042771,-5.3902436868,-3.10807410586,-2.27902288532,-3.49398448904,-2.11157887047,-2.64708986654,2.01975482347,-4.156409751,82.2435048601
do_nothing,-7.95802003628,-4.48093068255,-7.76342604729,-4.07086432009,-5.44739690054,-5.74932851439,-3.82514671345,-3.26797824652,-3.69969659824,-3.08369039301,-3.35996583236,0.485148566875,-6.14634545002,85.1660382934
do_nothing,-9.52405522658,-7.18744817203,-9.0217807268,-3.84664930043,-5.35290742003,-5.66501714863,-4.3419752348,-4.15428585761,-3.77724268896,-3.76881668711,-3.97427084863,-1.09242973345,-7.72560383322,80.7161149145
do_nothing,-10.3889932818,-9.49712139217,-9.72902535059,-3.52729639472,-5.03924281065,-5.18542138948,-4.67952280916,-4.94357159659,-3.73301393707,-4.20803620091,-4.46009388402,-2.65738269811,-8.82589434995,67.9298704256
do_nothing,-10.5400144675,-11.29202939,-9.86348244262,-3.14450196996,-4.56244387065,-4.39888460176,-4.86875290034,-5.63819916749,-3.57444874909,-4.47201341664,-4.78981332912,-4.16161442666,-9.42193001586,46.761927634
do_nothing,-10.0283885322,-12.4894850959,-9.44621987139,-2.72162280094,-3.97941324946,-3.42130229881,-4.94205814827,-6.22944487835,-3.30894646773,-4.64377543411,-4.93968127195,-5.56098097576,-9.52772296228,18.1824513893
do_nothing,-8.95799313473,-13.0422590498,-8.53515407737,-2.2721607616,-3.34067579923,-2.38008762765,-4.92529195582,-6.69224952199,-2.94345835162,-4.79985129562,-4.89152062928,-6.81075097389,-9.18862561301,-15.8491727771
do_nothing,-7.46855516861,-12.936420849,-7.21615429564,-1.80024117164,-2.68488485744,-1.39694137254,-4.83171573422,-6.98383104313,-2.48478489598,-4.99290617612,-4.63441254906,-7.86149007458,-8.47064843542,-52.5381170082
do_nothing,-5.71616330734,-12.1878177007,-5.59249992947,-1.30288006784,-2.03574398879,-0.571763118814,-4.65885212405,-7.04680385595,-1.94047695843,-5.23878994738,-4.16622444181,-8.65672904951,-7.44889989046,-88.5229307135
do_nothing,-3.8538540885,-10.8381820612,-3.77413714147,-0.773566876216,-1.40164963583,0.0301002890742,-4.38876644851,-6.8166763814,-1.32012494587,-5.51025728851,-3.49481618073,-9.13346519926,-6.19701827482,-120.231382633
do_nothing,-2.01491884248,-8.95164491666,-1.86806890083,-0.206496852779,-0.777961371769,0.385516533865,-3.99175488964,-6.23280853434,-0.636743415344,-5.73859915396,-2.63876649386,-9.22602843294,-4.77919984699,-144.282733957
do_nothing,-0.301045659486,-6.6120795881,0.0290799963276,0.39930069639,-0.151428757592,0.515077651553,-3.43287852258,-5.25123248943,0.0920699623052,-5.823201283,-1.62748436245,-8.87319968916,-3.24591790501,-157.888112537
do_nothing,1.22341440401,-3.92128722451,1.83570458731,1.03666538297,0.494000525946,0.478240844033,-2.68032635686,-3.85728659759,0.843497406773,-5.64779504625,-0.500610116273,-8.02780536712,-1.63375515172,-159.198963931
do_nothing,2.53075608724,-0.997643166744,3.48693504833,1.68842982667,1.17095593647,0.36276862081,-1.71428444826,-2.07586592717,1.58960810497,-5.10107584851,0.693335432021,-6.6674380975,0.030956909323,-147.55833583
do_nothing,3.62350329778,2.02546773801,4.93376419732,2.32732919364,1.88301643545,0.269940213862,-0.534876646347,0.0227092591721,2.29831902115,-4.09859989783,1.89903304827,-4.80457112112,1.72566782223,-123.62057726
do_nothing,4.52382761857,5.00222806559,6.14031159055,2.91778057209,2.62059691044,0.297615466425,0.83215777572,2.32267851466,2.93518565307,-2.60255112789,3.05709245425,-2.49421316716,3.42378901839,-89.3206445346
do_nothing,5.26095481157,7.77871345717,7.08019132305,3.41932427625,3.35903786669,0.523560072035,2.33308722718,4.66936055383,3.46586498666,-0.636152500911,4.10727777954,0.162573682623,5.08726733161,-47.6926671326
do_nothing,5.85894896229,10.1994472897,7.73301606011,3.79125801223,4.05926193345,0.991437753319,3.8876966186,6.88194287872,3.85897907504,1.70983666396,4.99203231063,3.02051105501,6.66126371558,-2.55637417191
do_nothing,6.32711318715,12.1162547376,8.08195209542,3.99780349016,4.67098364715,1.70153663219,5.39472282353,8.77131509712,4.08903162507,4.28003082223,5.66006710939,5.89782714079,8.07233222876,41.8930654768
do_nothing,6.65473549713,13.3989900663,8.11296260846,4.01305173606,5.13808389055,2.60766607056,6.74069932402,10.1608838616,4.13900369415,6.86691369752,6.06975986748,8.58957546717,9.2309340316,81.5435425043
do_nothing,6.8111219403,13.9472142735,7.81598751049,3.82495172894,5.40544011685,3.62082029998,7.81119891915,10.9077301207,4.00228257604,9.23171618326,6.19211238068,10.8854229545,10.0384016676,112.817898266
do_nothing,6.75092280692,13.7014948947,7.18787495221,3.43773429608,5.4262829372,4.61926997265,8.50310432357,10.9212480304,3.68365652653,11.1312254171,6.01303720463,12.5900524278,10.397700025,133.064514678
do_nothing,6.4238212275,12.6527676597,6.23647584451,2.87238070724,5.16905948502,5.46384076555,8.73636290016,10.1765879074,3.19922590023,12.3471399878,5.53478461979,13.5438180682,10.22663164,140.839168602
do_nothing,5.78686712431,10.8481985156,4.98500857788,2.16502122188,4.62283648289,6.01639470062,8.46371839708,8.72080354999,2.57522141193,12.7141065423,4.77637679662,13.6410913003,9.47161680868,136.044096435
do_nothing,4.81723059781,8.39223751461,3.47565114326,1.36344262033,3.80046341525,6.15904969695,7.67715463087,6.67050928521,1.84586218881,12.142624335,3.77298277697,12.8438815098,8.11992962662,119.908011513
do_nothing,3.52300213531,5.44204624284,1.77135240802,0.522152625624,2.739012128,5.81152546034,6.41020009916,4.20096615923,1.05050942114,10.6335888856,2.57424070594,11.188803654,6.20833736434,94.8107274722
do_nothing,1.94991098351,2.19715144141,-0.0449258427243,-0.303346029544,1.49737201665,4.94421314347,4.73577116762,1.52768725141,0.230458011302,8.28229064028,1.24160754419,8.7862366575,3.82647387466,63.9754697404
do_nothing,0.182434860492,-1.11605967795,-1.87394891425,-1.06230801287,0.151259114194,3.58510708199,2.75980169829,-1.11728658111,-0.574253550371,5.27105017073,-0.155113769691,5.81147346714,1.11393186952,31.0683663506
