label,COUNTER,INTERPOLATED,AF3,F7,F3,FC5,T7,P7,O1,O2,P8,T8,FC6,F4,F8,AF4,RAW_CQ,GYROX,GYROY,MARKER,SYNC,TIME_STAMP_s,TIME_STAMP_ms,CQ_AF3,CQ_F7,CQ_F3,CQ_FC5,CQ_T7,CQ_P7,CQ_O1,CQ_O2,CQ_P8,CQ_T8,CQ_FC6,CQ_F4,CQ_F8,CQ_AF4,CQ_CMS,CQ_DRL
off_to_on,6.42184404101,7.20570911235,6.76442908256,6.4012336984,5.15029497939,0.314883142684,4.13214308748,2.77812331941,6.52673920514,5.43449892318,6.41516634781,6.75740972869,6.25301966507,38.8467198052
off_to_on,5.47608957283,5.70848944912,5.50386522307,5.67737733261,4.81510361008,0.0254560801084,4.73870319461,2.78711655605,5.6679283506,4.12955430644,5.51195943835,5.27266422994,5.60595422311,39.6485476156
off_to_on,4.37883106732,4.1467821471,4.05823819803,4.71001565869,4.28472379031,0.0971910313587,5.16153486162,2.89197165692,4.55617777454,2.91994481686,4.48477582031,3.75769425235,4.94852662499,36.3323044866
off_to_on,3.15350731659,2.59839434182,2.50559023833,3.55514386857,3.55332021267,0.46501895185,5.27144217227,3.00714069927,3.25853629969,1.83970256425,3.37159300532,2.30266815451,4.27362092652,28.6014416789
off_to_on,1.81801681243,1.11435704071,0.918580578102,2.27710339039,2.62962603982,1.01824264687,4.97117774612,3.03396368591,1.85094765907,0.886605882337,2.20145904209,0.966460875984,3.54607077907,16.7158631146
off_to_on,0.386513383845,-0.282860561391,-0.641754633812,0.942759379309,1.53809178087,1.61622799324,4.21106142786,2.8760050426,0.411335507824,0.0270712946519,0.994380797701,-0.226737101939,2.71135241242,1.46250017617
off_to_on,-1.12683464977,-1.596013934,-2.12943017152,-0.384082162162,0.318314137064,2.10802428195,2.99814963966,2.45439099976,-0.987025247299,-0.794098406129,-0.236711631941,-1.28508631345,1.70854845539,-15.9433122741
off_to_on,-2.70264605483,-2.84513959058,-3.51363372176,-1.64731595546,-0.97715412282,2.35340040848,1.39772160559,1.7211082097,-2.28103939562,-1.64041926579,-1.48223535073,-2.2414333952,0.485743026761,-34.008501076
off_to_on,-4.31057463608,-4.05628029401,-4.77565214911,-2.8016989109,-2.2863327074,2.24259066662,-0.473091775646,0.66846577821,-3.42159964691,-2.56874814812,-2.73108967898,-3.14153538423,-0.984470144577,-51.1413233923
off_to_on,-5.90414315808,-5.2487515513,-5.90331493552,-3.81423345749,-3.54227016622,1.7122013357,-2.4586400031,-0.666599646031,-4.37532010857,-3.61480789915,-3.96552761954,-4.03006221289,-2.69185172686,-65.8326484883
off_to_on,-7.41739200116,-6.42315643021,-6.88416489092,-4.66375589744,-4.67794774567,0.755218650893,-4.38321412663,-2.20404182023,-5.1241600143,-4.78143449902,-5.15675633693,-4.93666840197,-4.5800521396,-76.8148240784
off_to_on,-8.76446011567,-7.55236187554,-7.69886724432,-5.33899097705,-5.63114272176,-0.576182894254,-6.07213098522,-3.82796381266,-5.66321504193,-6.03148667823,-6.26222968012,-5.86449011626,-6.544585885,-83.178706067
off_to_on,-9.84289826288,-8.57730832451,-8.31641189665,-5.8355657343,-6.34881087771,-2.17540503599,-7.37261069452,-5.39879007255,-5.99721376508,-7.28679153502,-7.22540873466,-6.78312979937,-8.43819213161,-84.4372581551
off_to_on,-10.5410178603,-9.40886832808,-8.69242938082,-6.15262555165,-6.7906377602,-3.89316113916,-8.17168391803,-6.76887798946,-6.13642593668,-8.43370845255,-7.97843868218,-7.62756862104,-10.0835206067,-80.5331767446
off_to_on,-10.7489621161,-9.93608137706,-8.77145387971,-6.28974003917,-6.93152375046,-5.5546875758,-8.40880791138,-7.79963465181,-6.09274289686,-9.33497757983,-8.44776179502,-8.30357851051,-11.292018493,-71.7967329516
off_to_on,-10.3725339088,-10.0400930129,-8.49329473936,-6.24471897415,-6.76289114527,-6.98024303993,-8.08162318576,-8.37799118301,-5.87662199315,-9.84660061222,-8.56221549404,-8.69921212559,-11.8869227717,-58.8670322296
off_to_on,-9.34822551315,-9.61216154895,-7.80292355724,-6.0127894466,-6.29281653337,-8.00630540039,-7.24423823171,-8.43015102433,-5.49540898075,-9.83770939806,-8.26271991184,-8.70097532018,-11.7275249637,-42.5941051108
off_to_on,-7.65746719391,-8.57331294683,-6.66256840436,-5.58734083006,-5.54508685649,-8.50481534228,-5.99845373468,-7.93086352025,-4.95329429242,-9.21082931356,-7.5123109027,-8.21247938398,-10.7314873468,-23.9401053663
off_to_on,-5.33792799647,-6.89275200346,-5.06415171015,-4.96216228884,-4.55734581007,-8.39810243264,-4.47928792239,-6.90703790329,-4.25286243893,-7.91972800035,-6.30508170339,-7.17285684776,-8.89202409923,-3.89544196676
off_to_on,-2.48981659669,-4.60206529499,-3.03991641494,-4.13482241029,-3.37853705215,-7.66772011447,-2.83691086565,-5.4352323952,-3.39790599237,-5.98220202747,-4.67259987987,-5.5720932008,-6.28723475706,16.5794826755
off_to_on,0.724443110183,-1.80261341774,-0.669122548273,-3.1106157537,-2.065864938,-6.35622831629,-1.21753733005,-3.63333460818,-2.39694241076,-3.48568951783,-2.68657966607,-3.46071228039,-3.07974813086,36.5830492163
off_to_on,4.08807887494,1.33571978499,1.92091866628,-1.90636291173,-0.68148816444,-4.56188353446,0.254091743707,-1.6474899794,-1.26673053273,-0.584448644233,-0.456997101028,-0.951929983938,0.493997019858,55.274937189
off_to_on,7.34538203615,4.58516272736,4.56050948375,-0.553322528979,0.71085589192,-2.42710070736,1.48829580967,0.364063161502,-0.035056691276,2.51189334853,1.87460904544,1.78462438165,4.14418728654,71.8616566963
off_to_on,10.2236571634,7.67954553089,7.05004361049,0.90143743522,2.04912131505,-0.122317464317,2.43837469606,2.24820971587,1.2578470022,5.55747543817,4.14627345264,4.5373588614,7.5558364114,85.5782172931
off_to_on,12.4597302222,10.340829965,9.17839139648,2.39566680779,3.27596665448,2.17258102114,3.10196823134,3.87306830572,2.5596912333,8.29501384735,6.19017281625,7.07390573276,10.4216966363,95.67994486
off_to_on,13.828240972,12.3097553018,10.745315609,3.85474186366,4.34138017071,4.28689490325,3.51591365565,5.14100830737,3.80848986193,10.4834415755,7.84908973034,9.16658674174,12.4760662908,101.456184833
off_to_on,14.1684507948,13.3769020461,11.5852704731,5.19652430975,5.20480571497,6.07552141307,3.74558650854,5.99701495719,4.93674927912,11.9250373069,8.99287759126,10.6189828955,13.5253898109,102.272572176
off_to_on,13.4061939759,13.4101658922,11.5894941187,6.33783074531,5.83667710362,7.43127180779,3.87048339609,6.43147547832,5.87704986839,12.4886377323,9.53290929529,11.2901370635,13.4717778092,97.6416071246
off_to_on,11.5679313936,12.3748552503,10.723276581,7.20181563345,6.21929227483,8.29186162377,3.96831553625,6.47720724066,6.56834787817,12.1259082469,9.43263295518,11.1130934997,12.3263160975,87.3137308854
off_to_on,8.78461653898,10.3433728148,9.03570189695,7.72540390054,6.34698917384,8.64112323021,4.10006085221,6.20131265261,6.96218710886,10.8784379603,8.71275537295,10.1051177674,10.2102030356,71.3743895959
off_to_on,5.28418262113,7.49263711134,6.6599898863,7.865858571,6.22562494429,8.50479494717,4.2982475943,5.69312189255,7.02798906262,8.87453149195,7.45018630467,8.36796701894,7.34321399259,50.3280647512
off_to_on,1.37278273808,4.08890078701,3.80370580095,7.60564375829,5.87140786585,7.9419554471,4.56024206004,5.04998294686,6.75669196877,6.31585246309,5.77062998649,6.07786111386,4.02055746626,25.1489655923
off_to_on,-2.59369775214,0.46123803522,0.729418960296,6.95493522647,5.30918395778,7.0336968224,4.84756071628,4.36291243984,6.1622192212,3.4553652668,3.83550910049,3.46616770531,0.580658132767,-2.71946257957
off_to_on,-6.24506385251,-3.03350940414,-2.27230156093,5.95141410127,4.57033104868,5.87089585578,5.09133168544,3.70409763961,5.28054569381,0.569151132814,1.82464486648,0.793072028657,-2.63241583693,-31.4279755673
off_to_on,-9.23538657021,-6.05032721607,-4.9145483731,4.65731542964,3.69045450958,4.54292168103,5.20312038382,3.11794495897,4.16645381882,-2.07451111939,-0.0833055300677,-1.6825214541,-5.30743019076,-58.8507177517
off_to_on,-11.2803862708,-8.29543185373,-6.94662408569,3.15404582425,2.70710263071,3.1288233973,5.08953864189,2.61684555923,2.8883825551,-4.24502297331,-1.73031843535,-3.73305318549,-7.20073428865,-82.7724337802
off_to_on,-12.1892322593,-9.56060986642,-8.18341603042,1.53498610945,1.6577190794,1.69202784025,4.66848853974,2.18214789844,1.52202563031,-5.77462508457,-2.99600430415,-5.18848561103,-8.1630543994,-101.11552493
off_to_on,-11.8868653367,-9.74811039333,-8.52777999849,-0.102685701776,0.578021305143,0.278931629423,3.88463147356,1.77008492701,0.143493668048,-6.57573645303,-3.81003080455,-5.95520930059,-8.15504753126,-112.180145744
off_to_on,-10.4239498854,-8.88278039562,-7.98287877623,-1.66620824968,-0.499062355964,-1.07890312148,2.72175599529,1.32170281696,-1.17710470073,-6.64835669137,-4.15840642163,-6.02522485035,-7.24970500442,-114.865308799
off_to_on,-7.97295383865,-7.10966161017,-6.6526187819,-3.07456267183,-1.54384257943,-2.35983723928,1.2101325905,0.7752751676,-2.38088990185,-6.07667737754,-4.08282189882,-5.47441761081,-5.62132135782,-108.83825644
off_to_on,-4.81047478187,-4.67706478319,-4.72981149841,-4.26412508567,-2.52974284003,-3.54584233442,-0.572368888656,0.079338686318,-3.42366544136,-5.01542615984,-3.67312274203,-4.45018157242,-3.52241696615,-94.6236384655
off_to_on,-1.28758023282,-1.90697083807,-2.47326351915,-5.19210004215,-3.43272500547,-4.61629666826,-2.50575965726,-0.795599461841,-4.27728899774,-3.66777787821,-3.05386470037,-3.15006153249,-1.25150630725,-73.5930139738
off_to_on,2.20859743697,0.843759023425,-0.176459690148,-5.83749422765,-4.23047121117,-5.54332991878,-4.43945187438,-1.84844534049,-4.92896033426,-2.25773712592,-2.36666967599,-1.79427570142,0.884256799022,-47.8478291784
off_to_on,5.29766537417,3.22666862329,1.86835145614,-6.19971625848,-4.90157510414,-6.28984308684,-6.20841370054,-3.04332260734,-5.37872695712,-1.00058484849,-1.75064940417,-0.595790161263,2.60689875798,-20.0036362094
off_to_on,7.64823541837,4.94416198248,3.40619297227,-6.29519072523,-5.4250059193,-6.81082121647,-7.65190015856,-4.31050895846,-5.63575607038,-0.0751973079903,-1.32342349851,0.268069664697,3.70121962284,7.10216596111
off_to_on,9.01471568792,5.78584720953,4.25094696583,-6.15261120264,-5.78007589744,-7.05793748467,-8.63232664975,-5.5524986921,-5.71407890207,0.398237985147,-1.16519007244,0.678710772234,4.04003486208,30.7445471859
off_to_on,9.26430317221,5.65420923771,4.30843355319,-5.80759652407,-5.94706669104,-6.98681845042,-9.05181072853,-6.65446830573,-5.62855835587,0.372327873247,-1.30791749764,0.5910416004,3.59802914518,48.6444859034
off_to_on,8.39099695321,4.5763633146,3.58796977843,-5.29754060542,-5.9085619096,-6.56580468263,-8.86420389208,-7.49780399073,-5.39175798975,-0.123279942171,-1.73106420939,0.0380335558009,2.45265571471,59.2571384543
off_to_on,6.51499464372,2.70037842249,2.20085548291,-4.65735860178,-5.65140521147,-5.78468751774,-8.08102691328,-7.97491561383,-5.01221238413,-0.987880617861,-2.36438564927,-0.875418319556,0.772172894705,61.9735800148
off_to_on,3.8675853492,0.276600375588,0.345911670978,-3.91664768645,-5.16907503168,-4.66179250234,-6.7705273174,-8.00337021813,-4.49434485816,-2.06495528548,-3.0974645012,-1.98837877557,-1.20746116653,57.2051421902
off_to_on,0.763392899795,-2.37370211907,-1.71612570004,-3.09852940452,-4.46415848497,-3.24793695808,-5.04998483219,-7.53745445935,-3.83998853706,-3.16450740405,-3.79472376199,-3.10723334358,-3.2137248662,46.3342474702
off_to_on,-2.43666454132,-4.89844398662,-3.69610071706,-2.22016148996,-3.55053711569,-1.62619548548,-3.072275668,-6.57560796457,-3.05118656029,-4.0894350179,-4.31396741291,-4.03326978817,-4.97261888069,31.5334864311
off_to_on,-5.3672374471,-6.95855746049,-5.31353216622,-1.29464240819,-2.45488039605,0.0929936289512,-1.00844903864,-5.16271153859,-2.13372063038,-4.66240934269,-4.52603459142,-4.59068535859,-6.24318868245,15.4730643163
off_to_on,-7.70022816588,-8.27006928699,-6.33254473465,-0.333820646402,-1.21708654728,1.78114394226,0.971430200637,-3.38689028681,-1.10067960095,-4.74973348249,-4.33301018339,-4.65121090601,-6.84713000041,0.953048487054
off_to_on,-9.18137003259,-8.63918090247,-6.59202429979,0.648607019664,0.110586976609,3.30451771735,2.71672595429,-1.37120919191,0.0246469640903,-4.27912566146,-3.68262554849,-4.15204926964,-6.68984254387,-9.49133360506
off_to_on,-9.65746134208,-7.98602194762,-6.02614157746,1.63435149109,1.46580956768,4.53886896461,4.11165255712,0.738700158468,1.20717680785,-3.24923754594,-2.57698115753,-3.10477746937,-5.77047392347,-13.9576174458
off_to_on,-9.09121117649,-6.35420557981,-4.67265104288,2.5987103051,2.7798047131,5.38420607933,5.08580809525,2.78952701082,2.40018052435,-1.72985597215,-1.07446111474,-1.59412420679,-4.17996757626,-11.4653844399
off_to_on,-7.56221079847,-3.90512762415,-2.66797225685,3.51007579016,3.98205547484,5.77752514188,5.61864021271,4.63582549673,3.54733683284,0.147013041605,0.715410701612,0.233071653503,-2.08769665363,-2.12424621295
off_to_on,-5.25425947058,-0.897883648481,-0.229784842253,4.33095465362,5.00565849169,5.70163906713,5.73749686199,6.15430585739,4.58657311172,2.20378672885,2.64351836953,2.18708365241,0.281278310634,12.8466498961
off_to_on,-2.43092881719,2.3425221551,2.37051358969,5.02043127531,5.79277611268,5.18868248205,5.50977556735,7.25516547806,5.45528249239,4.23930847611,4.53763998218,4.05997617166,2.67513656021,31.2550045111
off_to_on,0.597362619171,5.46456599115,4.84184019735,5.53776966142,6.29958174638,4.31754991751,5.03045736387,7.88917652171,6.09628064962,6.05321441052,6.22179424145,5.6523182452,4.84651251885,50.2136404525
off_to_on,3.51054360066,8.1321892381,6.90949863099,5.84666036781,6.50011673821,3.20533416259,4.40689165613,8.04983137359,6.46372856404,7.469456152,7.5360337017,6.7982991177,6.58192924334,66.5265787813
off_to_on,6.01573233101,10.0641372692,8.34862784074,5.919506789,6.38857907267,1.99365989627,3.74301000247,7.7705090789,6.52822348173,8.35599810548,8.3542505505,7.38590269883,7.72574785355,77.1329067355
off_to_on,7.87929401852,11.065844226,9.01077364976,5.74112604439,5.97973471959,0.831537355597,3.12515273394,7.11727366188,6.28035358157,8.63832622166,8.59785366994,7.36954381549,8.19577774002,79.5490098025
off_to_on,8.95042010761,11.0500948995,8.84029307608,5.31131504928,5.30736105969,-0.143113959263,2.61139771691,6.17846065769,5.73220934831,8.30531934887,8.24373744539,6.77365811851,7.98889183035,72.2483013432
off_to_on,9.17371641887,10.0441939361,7.87868692037,4.64588973828,4.42087042562,-0.820879277157,2.2257323151,5.0525793768,4.91661754171,7.40710892811,7.32571435117,5.68701168029,7.17637239077,54.9245127411
off_to_on,8.58974789743,8.18312799411,6.25657196315,3.77602016241,3.38048836962,-1.13488846948,1.9576889036,3.83620910771,3.88417184601,6.04563435339,5.92942217045,4.24877450245,5.89008434622,28.5991307946
off_to_on,7.32403254373,5.68998504587,4.17463046228,2.74592341014,2.25154438963,-1.06956823668,1.76727486153,2.61348312827,2.69843242978,4.35954010587,4.18153093871,2.62850579671,4.30174962984,-4.44616420205
off_to_on,5.56640541482,2.84646539244,1.87629320538,1.60920394487,1.09854620226,-0.662858938985,1.59428128713,1.44845365203,1.42991097006,2.50573183505,2.23475844117,1.00297732089,2.59842371831,-40.9078837862
off_to_on,3.54380500573,-0.0425177218663,-0.384063891696,0.424313259854,-0.0202650129952,-0.00149461910645,1.37045429042,0.381162149401,0.149612575874,0.640228750125,0.250670551328,-0.466887750433,0.957652203709,-76.8425460708
off_to_on,1.49023240191,-2.68553431569,-2.37313137233,-0.750288661494,-1.05724712679,0.790142567479,1.03263993728,-0.572326272225,-1.07705067088,-1.09911173882,-1.61756073328,-1.65579867657,-0.474326369251,-108.144609605
off_to_on,-0.382177363863,-4.83801393436,-3.90669207376,-1.86066389664,-1.9780972851,1.56622695503,0.534916811732,-1.41624577045,-2.19523357394,-2.60583969079,-3.24035985561,-2.48799757288,-1.59853414395,-131.059389331
off_to_on,-1.907358921,-6.32827687719,-4.87011115228,-2.86107800209,-2.7627365485,2.17870514366,-0.142082654156,-2.16864285045,-3.16395680102,-3.81267209595,-4.52318585266,-2.94357693269,-2.37149978733,-142.664063681
off_to_on,-2.98196317694,-7.07328604354,-5.22884487697,-3.71643337813,-3.40432873721,2.49706118837,-0.986020901636,-2.85328469335,-3.95742476128,-4.69318041781,-5.41304623323,-3.05663587681,-2.80508799567,-141.253092965
off_to_on,-3.57273092764,-7.08261586321,-5.02792845744,-4.40325207791,-3.90667787665,2.42607993544,-1.95260644089,-3.49135132183,-4.56435063475,-5.25772821594,-5.89961715167,-2.90586814079,-2.95841449479,-126.576210196
off_to_on,-3.71416914495,-6.45070642888,-4.38091235278,-4.9092253993,-4.28046913275,1.91930489729,-2.97025886951,-4.09427407742,-4.98556535141,-5.54479197303,-6.01121908231,-2.59922883685,-2.92344232136,-99.8960889346
off_to_on,-3.49739612263,-5.33897191017,-3.4501216537,-5.23155707835,-4.53897317811,0.986438724385,-3.9489869624,-4.65885677415,-5.23042689801,-5.6093982824,-5.80654673635,-2.25511660763,-2.80668303933,-63.8563206868
off_to_on,-3.05214066035,-3.95056754772,-2.421225516,-5.37449440151,-4.69390104175,-0.306284326304,-4.79217684368,-5.16542806711,-5.31270168902,-5.51072019594,-5.36354826146,-1.98292700876,-2.70988037378,-22.1752811446
off_to_on,-2.52468687317,-2.50143617438,-1.47577897661,-5.34654236848,-4.75206536253,-1.84281860869,-5.40957885603,-5.5792848192,-5.24663866148,-5.30086131985,-4.76713194007,-1.8658314173,-2.71258149214,20.7955480194
off_to_on,-2.05495607717,-1.19156191152,-0.765556945095,-5.15787604685,-4.71337813911,-3.47027540947,-5.72962268306,-5.85517063385,-5.04389333997,-5.01653412452,-4.09742041789,-1.94822462645,-2.85911259648,60.5923305563
off_to_on,-1.7558746296,-0.180135787915,-0.392132068475,-4.81840392372,-4.57051163186,-5.01650281311,-5.70930012199,-5.94406761032,-4.71179455381,-4.67477044938,-3.42007908685,-2.2295333464,-3.15173918698,93.1718424921
off_to_on,-1.69771644245,0.432362274543,-0.394319414519,-4.33680149283,-4.31029638856,-6.31006939621,-5.34021498461,-5.80123032013,-4.25320725109,-4.27308395779,-2.77985495901,-2.66510415474,-3.55082342966,115.388336607
off_to_on,-1.89931104676,0.61322402386,-0.744948255721,-3.72065144591,-3.91666415478,-7.20016623711,-4.64995611531,-5.39420808658,-3.66796859542,-3.79375253987,-2.19793913421,-3.17383940912,-3.98173737854,125.353638952
off_to_on,-2.32699454009,0.397042739114,-1.35709413599,-2.97762394047,-3.37470175316,-7.57398932045,-3.69862147657,-4.70960871137,-2.95560431011,-3.21122109097,-1.67318932417,-3.6512770974,-4.34730537799,122.635514565
off_to_on,-2.90109730972,-0.123668004385,-2.09860042635,-2.11743958622,-2.67519985827,-7.36952522978,-2.57101220302,-3.75754939918,-2.11880994589,-2.50114304529,-1.18670217166,-3.98605438164,-4.54377170492,108.270932547
off_to_on,-3.50875792064,-0.815004109053,-2.81261679095,-1.15420902687,-1.81898484143,-6.58228310009,-1.36562725126,-2.57308723823,-1.16704177266,-1.64935244001,-0.708783470856,-4.07725866863,-4.47782647623,84.5953871229
off_to_on,-4.02105844116,-1.52274025049,-3.34112823102,-0.10865965086,-0.820327382881,-5.265307577,-0.182035632907,-1.21436861509,-0.1195260114,-0.659115668202,-0.207084570729,-3.85010918911,-4.08213190896,54.9135505447
off_to_on,-4.3119896325,-2.0948789802,-3.54813582558,0.990244733219,0.291171023385,-3.52266247182,0.89157786447,0.242283038231,0.992931135498,0.444662860392,0.345413802865,-3.26772502037,-3.32707472455,23.0569852174
off_to_on,-4.27662544807,-2.40260531349,-3.33930792467,2.10471031676,1.47061703754,-1.49737871109,1.78893560754,1.70967990367,2.12777774546,1.61507194502,0.963781421843,-2.33736639289,-2.22707710839,-7.11130330624
off_to_on,-3.84611465601,-2.35697239737,-2.67551097467,3.18882096694,2.65993610596,0.644491084551,2.47278892928,3.09848228858,3.2323947043,2.78679708718,1.64681703508,-1.11038400301,-0.840631023933,-32.1798586937
off_to_on,-2.99763394108,-1.91938069165,-1.57855582392,4.19063105548,3.79191746608,2.73165561526,2.93766511659,4.32612204968,4.2475377855,3.88316265185,2.37556475874,0.323954341427,0.735848495442,-49.5967637441
off_to_on,-1.75820282792,-1.10486668174,-0.128617959626,5.05551728484,4.79578577664,4.60501741334,3.20789881236,5.32473592692,5.11218877568,4.82550391742,3.11475672348,1.84970877013,2.37936446718,-57.9514892102
off_to_on,-0.202122095098,0.0217563791181,1.54605429401,5.73046590412,5.60367197723,6.13272185512,3.33128695139,6.0470711394,5.76923570567,5.54337004008,3.81683289892,3.33883274938,3.95516453984,-57.097521045
off_to_on,1.55735838877,1.35590996271,3.28550294023,6.16881635213,6.15721802901,7.22119939021,3.36933704814,6.46963765789,6.17125933063,5.98391473833,4.42782856909,4.66688663017,5.33289116894,-48.1048088771
off_to_on,3.38082258211,2.76766591593,4.9180944796,6.33489233893,6.41351356369,7.82117596744,3.38557133802,6.59279409855,6.28566436889,6.1189548547,4.89418535889,5.72764011819,6.40176876393,-33.0541652116
off_to_on,5.11810750243,4.11835874835,6.28142744863,6.20794023805,6.34963277076,7.92832446222,3.43363471482,6.43790479707,6.09846579195,5.94854703219,5.16946077417,6.44455454985,7.08275363442,-14.7066149213
off_to_on,6.62432243412,5.27706559117,7.2413215966,5.78486437725,5.96520786019,7.57892859343,3.5469925059,6.04212713984,5.61621229789,5.50048980079,5.21998737135,6.77767605224,7.33608148609,3.90346564939
off_to_on,7.77449502234,6.13483562537,7.70648833073,5.08138957376,5.28271842045,6.84153605486,3.73178931415,5.4517186125,4.86577577501,4.82581325937,5.02874563409,6.72521163947,7.16336921647,19.8938318856
off_to_on,8.47519159135,6.61504066247,7.63718726962,4.13147303811,4.34546091808,5.8060124807,3.96400199504,4.71494443641,3.89202083468,3.99096671647,4.59702449277,6.31988475843,6.60425007466,30.9202636349
off_to_on,8.67197455202,6.67889746783,7.04707953502,2.98500338923,3.21345078838,4.57162298824,4.19141876945,3.87569233292,2.75365059868,3.06795251423,3.94379754195,5.62094762497,5.7283190562,35.472034213
off_to_on,8.35218504598,6.32596842717,5.99845763515,1.70403371685,1.95776216307,3.23574721104,4.34029534819,2.9687588919,1.51776285076,2.12399526958,3.10308459382,4.70334725226,4.62382057324,33.0402731094
off_to_on,7.54317899639,5.59016421259,4.59192403766,0.357969506996,0.653993603994,1.8845948093,4.32587153487,2.01748505428,0.253810265298,1.21242396843,2.1198451707,3.6459097648,3.3849289121,24.1413118005
off_to_on,6.30670905224,4.53234741617,2.95228248715,-0.981752512408,-0.624361540632,0.586879198659,4.06536988815,1.03403042127,-0.972282511892,0.366263151578,1.04512334334,2.52047305269,2.09959726299,10.1977512777
off_to_on,4.73056042942,3.23099477945,1.21280874824,-2.24691641475,-1.81187507821,-0.609102909783,3.49171898147,0.0221461531016,-2.10314071753,-0.40439562865,-0.0687894105805,1.38365787553,0.839771909375,-6.70042145237
off_to_on,2.91876915762,1.77248034393,-0.499862446404,-3.37716647928,-2.85582272724,-1.67506963012,2.56609999167,-1.01810128684,-3.09354326549,-1.1107758534,-1.17248550856,0.272465929138,-0.344680721685,-24.1165240025
off_to_on,0.98176245784,0.24239646676,-2.07825277331,-4.32359451229,-3.71904638202,-2.59958673778,1.28752728312,-2.08452730147,-3.91227385133,-1.77977738544,-2.22236436255,-0.79578649513,-1.42763022669,-39.6215941622
off_to_on,-0.972419408409,-1.28102355174,-3.44250287784,-5.05099204422,-4.38083476912,-3.38304296652,-0.301972626719,-3.16701087528,-4.54214787539,-2.4452144073,-3.18210112606,-1.81943903235,-2.40395344144,-51.1316049684
off_to_on,-2.84498751924,-2.73080640752,-4.5440325408,-5.53866903359,-4.8358860395,-4.03185989398,-2.11747014269,-4.24275492889,-4.97840766339,-3.13737212537,-4.02269598632,-2.80529951243,-3.2831651204,-57.1809822718
off_to_on,-4.55093264968,-4.05242395718,-5.36441955274,-5.77992636727,-5.09166558744,-4.55303054874,-4.03674369193,-5.27358269427,-5.2259038298,-3.87265447237,-4.72139640166,-3.75977249789,-4.08073204176,-57.0967655426
off_to_on,-6.02121692897,-5.20271387204,-5.91023550662,-5.78042970542,-5.16466924458,-4.94991281944,-5.91089943381,-6.20594207224,-5.29563440125,-4.64515351833,-5.25997565767,-4.68007019655,-4.80875289223,-51.0532495235
off_to_on,-7.20299340718,-6.14735366389,-6.20513489398,-5.55584546935,-5.07622012907,-5.21990308388,-7.5788562757,-6.97389576312,-5.20127387226,-5.42174198731,-5.62294475647,-5.54727196252,-5.46777018602,-40.0047367252
off_to_on,-8.058473294,-6.85789384568,-6.28081632566,-5.12915224606,-4.84845262121,-5.35423785183,-8.88404487377,-7.50492772054,-4.95628458408,-6.14180052274,-5.79625707297,-6.32270645114,-6.04127901067,-25.5114980921
off_to_on,-8.5631734033,-7.30934253244,-6.16852362154,-4.52802847493,-4.50106839284,-5.33978108299,-9.69136837853,-7.72795964491,-4.57207100575,-6.72200860481,-5.76694138713,-6.94859064592,-6.49404343959,-9.48868842399
off_to_on,-8.70423995934,-7.47909096215,-5.89253545957,-3.78264583375,-4.04929960601,-5.16231510738,-9.9024166185,-7.58260713699,-4.05743594901,-7.0658503826,-5.52389159853,-7.35315550027,-6.77469633991,6.0822150133
off_to_on,-8.47937782688,-7.34762062642,-5.46665170432,-2.92408183812,-3.50330702962,-4.81061539786,-9.46711993327,-7.02846626816,-3.41935919805,-7.07672873056,-5.05978730973,-7.45972784392,-6.82238086197,19.4361365836
off_to_on,-7.89665581061,-6.90100473609,-4.89410136868,-1.98342562029,-2.86900725759,-4.28048667533,-8.39044742125,-6.0531431243,-2.66488154818,-6.67295694308,-4.37386301497,-7.19854097279,-6.57650344049,29.260634832
off_to_on,-6.97516189795,-6.13478821219,-4.17066965106,-0.991511292439,-2.15009784285,-3.57797966065,-6.73334212478,-4.67783492705,-1.80367834064,-5.80250491089,-3.47502990014,-6.51952204994,-5.98811569868,34.853443729
off_to_on,-5.74620448148,-5.05847852398,-3.29027154768,0.0209035741001,-1.35086444961,-2.72118020327,-4.60776713685,-2.95953162411,-0.850777475504,-4.45528097197,-2.38472154698,-5.40403812991,-5.03111290728,36.1819379551
off_to_on,-4.25454867429,-3.6996676815,-2.25177695019,1.02277275206,-0.479236007767,-1.74023096806,-2.16642575943,-0.989299259361,0.171162244201,-2.67095568999,-1.13880846157,-3.87362133674,-3.71138296296,33.8402903974
off_to_on,-2.55907903465,-2.10677246856,-1.06568104067,1.98249176557,0.450481845444,-0.675561584555,0.411669591772,1.113418784,1.23053963722,-0.540857398652,0.211985493862,-1.99403921661,-2.07227423182,28.9152828625
off_to_on,-0.732309766461,-0.349534125212,0.240756581332,2.86797583181,1.41571437935,0.4253884698,2.93814468381,3.21005013805,2.28684954848,1.79677428443,1.60353940332,0.126315686818,-0.195241870794,22.7847368923
off_to_on,1.14168329146,1.48326287186,1.62101964635,3.64725917354,2.38495815527,1.51242043701,5.23283566995,5.15480436911,3.29224505884,4.16800222393,2.96177010033,2.34395652194,1.80478947744,16.8815195847
off_to_on,2.97108336323,3.28896124621,3.01015885297,4.28967803995,3.31856079464,2.53711582749,7.140068831,6.80800504007,4.19455581648,6.37979899137,4.20784630032,4.49313963741,3.78904176255,12.4598719209
off_to_on,4.66177400427,4.95872337781,4.32904240871,4.76757442812,4.17093185315,3.4569511922,8.54193128684,8.0493925877,4.94145807921,8.24018990875,5.26468917532,6.40259976177,5.60843030172,10.3990332707
off_to_on,6.12395936578,6.3869377717,5.4915657798,5.05833991841,4.89396334013,4.23836812791,9.36721251774,8.78991120026,5.48529690969,9.57951791612,6.06403075816,7.91415275053,7.11938369794,11.0722600354
off_to_on,7.27926337833,7.48119907767,6.41384640627,5.14652939822,5.44125763212,4.85837649445,9.59523419741,8.98063421009,5.78793778126,10.2701700627,6.55316278244,8.90078376956,8.19989509062,14.298562916
off_to_on,8.06744656414,8.17155437122,7.02407533491,5.0257282702,5.77263764326,5.30453514231,9.25439499307,8.61778517471,5.82499307219,10.2422105909,6.700491741,9.28181268585,8.76366338393,19.3815565804
off_to_on,8.4518465607,8.41773883694,7.27155265144,4.69986243866,5.85836590044,5.57344250247,8.41586177984,7.7432398517,5.58883411696,9.49281564224,6.49912808044,9.03303948909,8.77038696726,25.2267273056
off_to_on,8.42275548671,8.2133524541,7.13352025922,4.1836979481,5.68253142787,5.66812965555,7.1833669233,6.44039698371,5.08995251158,8.08814570449,5.9679661798,8.19038413171,8.23075471334,30.5171299664
off_to_on,7.99818290751,7.58632527698,6.61871074426,3.502378242,5.24517028644,5.59493673953,5.68046313133,4.82582415437,4.35645282815,6.15722973352,5.15002692322,6.84636748357,7.20537440507,33.9196378361
off_to_on,7.22178554904,6.59552516436,5.76700770092,2.68997622309,4.56285092595,5.36053803267,4.03680239164,3.03755874456,3.43171052472,3.87844717565,4.10819256967,5.1397211456,5.79769081773,34.2904293506
off_to_on,6.15812624964,5.32390298904,4.64518749575,1.78717565858,3.66765490605,4.96974758965,2.37502659575,1.22131891669,2.37047644392,1.460147166,2.91881334609,3.23933491336,4.14176071044,30.8497399766
off_to_on,4.88579830004,3.86906452466,3.33929658206,0.83832059843,2.60468840218,4.42459147264,0.799691819013,-0.483886646472,1.23391637713,-0.882289163672,1.6639561108,1.32452418839,2.38645504253,23.3016358528
off_to_on,3.48926045543,2.33252947167,1.94472235301,-0.111837072929,1.42844146956,3.7248986354,-0.610674763434,-1.95919445907,0.0842104341608,-2.95016039194,0.423254676495,-0.43588289967,0.678150131885,11.8836330533
off_to_on,2.05042412701,0.809128329672,0.555361687097,-1.02131748117,0.198445503466,2.87037921883,-1.80771999787,-3.11691784758,-1.0206171579,-4.58302590754,-0.733619770214,-1.90295169444,-0.855821032509,-2.65811826871
off_to_on,0.641085117054,-0.622034212743,-0.746573567764,-1.85365544506,-1.02525263344,1.86387344806,-2.77343355746,-3.90799166105,-2.03101762112,-5.67550393133,-1.75293146485,-2.98302606637,-2.12078929169,-19.1613690806
off_to_on,-0.682813648934,-1.90385438802,-1.89867216419,-2.57990438305,-2.18628631877,0.715214090021,-3.51664197461,-4.32504431636,-2.90890455548,-6.18722934107,-2.60057175386,-3.6370903673,-3.06367632164,-36.1918829037
off_to_on,-1.88435293359,-3.00396059118,-2.86323364159,-3.17970636393,-3.23539612315,-0.555008981311,-4.06654627863,-4.40079473653,-3.62903062743,-6.14477664976,-3.26305945238,-3.88289256118,-3.6761098556,-52.2164797922
off_to_on,-2.94586878099,-3.91364976497,-3.62833350561,-3.64136717155,-4.13278123079,-1.91253527791,-4.46433025016,-4.20198852062,-4.17871571132,-5.63537168816,-3.74581173726,-3.78956866721,-3.99141056186,-65.7796407967
off_to_on,-3.86629604047,-4.64334933777,-4.20498878189,-3.96101620946,-4.84923637259,-3.30804441122,-4.75403707009,-3.81958204071,-4.55612614319,-4.79325753864,-4.06902514478,-3.46550640288,-4.07597906067,-75.6595649635
off_to_on,-4.65609963467,-5.21545090187,-4.62096446595,-4.14105756563,-5.36611358381,-4.67777268483,-4.97393326802,-3.35630195541,-4.7675057545,-3.78051101868,-4.26183604346,-3.04109146608,-4.01638240539,-80.984411204
off_to_on,-5.33063302854,-5.65576227503,-4.91227679312,-4.18821139146,-5.67431037856,-5.94634198965,-5.14945656829,-2.91300585022,-4.82389375362,-2.76480513728,-4.35566488988,-2.64867100035,-3.90402878021,-81.2969103992
off_to_on,-5.90301180334,-5.98503795276,-5.1138066259,-4.11148996806,-5.77260879023,-7.03168933537,-5.28860060697,-2.57541490815,-4.73791309691,-1.89699045262,-4.37775500514,-2.402451597,-3.81964526371,-76.5642621928
off_to_on,-6.37768482536,-6.21203981797,-5.25058056492,-3.92044388571,-5.66575607733,-7.85167193868,-5.38025883117,-2.40276492707,-4.52116977945,-1.29137617406,-4.34587906133,-2.38107094542,-3.81979104891,-67.1387546354
off_to_on,-6.74580882896,-6.32934865581,-5.33118506255,-3.62395251368,-5.36267939876,-8.33166082054,-5.39567382398,-2.41972819323,-4.18267658819,-1.01123024645,-4.26500990119,-2.61523839351,-3.92734519077,-53.6814825895
off_to_on,-6.98329098114,-6.31272417328,-5.34446132841,-3.22972937003,-4.87516490901,-8.41226415715,-5.29276061142,-2.61261357073,-3.72852513085,-1.06133434212,-4.12646145,-3.08217448253,-4.12734461559,-37.0658356857
off_to_on,-7.05198832493,-6.12425745161,-5.26013110411,-2.74458366243,-4.21721747926,-8.05626521179,-5.02273424771,-2.93038929327,-3.16280767453,-1.38851368974,-3.90964130193,-3.70768010711,-4.36879298364,-18.2785100792
off_to_on,-6.90409269821,-5.71895596506,-5.03339740637,-2.17534470097,-3.40516934057,-7.25392621756,-4.53820735305,-3.29053868411,-2.48957056542,-1.89003140511,-3.58617052069,-4.3756506788,-4.57221867743,1.66632919702
off_to_on,-6.48924755574,-5.05383697294,-4.61293865741,-1.53023742288,-2.45844803282,-6.02598859097,-3.80175677304,-3.58920822264,-1.71539820183,-2.4287247699,-3.12577290443,-4.94385336189,-4.64194718061,21.7888923017
off_to_on,-5.76350632676,-4.0981652555,-3.95116160416,-0.820413734596,-1.4007712184,-4.4239647261,-2.79390331475,-3.71459824604,-0.852109268845,-2.85289581766,-2.50306550286,-5.26393764893,-4.48138163028,41.1772106816
off_to_on,-4.69891304717,-2.8432238927,-3.01518086544,-0.0613091378006,-0.261431008606,-2.527629111,-1.5195062009,-3.56213513017,0.0809864420186,-3.01836000127,-1.70423301418,-5.20306317272,-4.00914785303,58.9946060407
off_to_on,-3.29231419629,-1.30999309265,-1.796812049,0.726487012969,0.923719327557,-0.43993292486,-0.0117353689545,-3.04969816151,1.05576645262,-2.80978052511,-0.732562317544,-4.66428135442,-3.17381684765,74.4695037485
off_to_on,-1.57202488595,0.446660332336,-0.319931851975,1.51708891394,2.11194896171,1.72015574343,1.66696809598,-2.1310895228,2.03526839903,-2.15850525118,0.388048661441,-3.60293257047,-1.96508809952,86.8797635476
off_to_on,0.398822736568,2.33823845503,1.35613199308,2.28002955161,3.25429784955,3.82617905608,3.42722519653,-0.806049522986,2.97511968809,-1.05456456776,1.61222988659,-2.03680277416,-0.419777993108,95.5447605795
off_to_on,2.52304680134,4.24767069163,3.13800473791,2.98182923503,4.29735210058,5.75326739532,5.15828837859,0.874571163488,3.82635990673,0.448775376384,2.87519472121,-0.0485613903856,1.37835391107,99.8364920418
off_to_on,4.6745970693,6.03886146205,4.9046377309,3.58827551094,5.18614066034,7.38694427876,6.73644990584,2.80938873738,4.53937008976,2.23857320122,4.09758611962,2.22002386628,3.30508541077,99.2163418384
off_to_on,6.70788541352,7.56976094155,6.51813021907,4.06715404075,5.86796749299,8.6309210923,8.03558327873,4.85310958667,5.06843997503,4.15353709268,5.19260561827,4.58155457191,5.20781841588,93.2976482674
off_to_on,8.47044528373,8.70745228338,7.83783334071,4.39108907975,6.29682735443,9.41330414429,8.9388619544,6.82881898471,5.3763884014,6.00179101094,6.07460000988,6.82262829742,6.92181724978,81.9270983304
off_to_on,9.81762515502,9.34339823912,8.73606387229,4.54012184573,6.43792597941,9.69083944555,9.35053304232,8.54488199311,5.43862111241,7.58295192747,6.66807113481,8.72730631415,8.28858192551,65.2715914263
off_to_on,10.6276902736,9.4068826839,9.11346212271,4.50368055283,6.27175713081,9.45103416864,9.20655828685,9.81481204368,5.24606966574,8.71184488994,6.91600070852,10.1015981119,9.17404465169,43.8928769332
off_to_on,10.8155673905,8.87483831642,8.91199238175,4.28167385895,5.79719190506,8.71218799436,8.48298097177,10.4780247853,4.80659656162,9.24096986593,6.78645409218,10.7959852928,9.48428766188,18.7909722953
off_to_on,10.3435423975,7.77665503579,8.12381553028,3.884558429,5.03311290334,7.52152009357,7.20103703327,10.4191700156,4.14465443183,9.07897553747,6.27663427999,10.7232261453,9.1767925179,-8.60038196168
off_to_on,9.2275081229,6.19316453572,6.79473585537,3.33237333372,4.01827025444,5.95167658965,5.42829356323,9.58376203846,3.2992213544,8.20287106785,5.41387192058,9.86924511551,8.26580223665,-36.4772691724
off_to_on,7.53782970186,4.24971847671,5.02157920249,2.65287748759,2.80923161172,4.0959489658,3.27544988336,7.98812111667,2.32026561648,6.66245734612,4.25341668255,8.29574754887,6.82113076833,-62.7907303143
off_to_on,5.39449521412,2.1040261338,2.94361382633,1.87904932046,1.47652047147,2.06253639429,0.888847701422,5.72217816055,1.26418764063,4.57639163665,2.87328936794,6.13420465369,4.96058897026,-85.4260954018
off_to_on,2.9568797593,-0.0699057945192,0.728881252786,1.04629145068,0.0992585323005,-0.03183811205,-1.56082849106,2.94443341794,0.18881607011,2.12030018725,1.36681130116,3.57190135216,2.83700203384,-102.41920226
off_to_on,0.409092955568,-2.0998731629,-1.44303635044,0.18971434913,-1.24118027342,-2.06867639667,-3.89276346242,-0.130777161923,-0.851419202358,-0.49169861518,-0.166298182721,0.831700566025,0.621465187591,-112.183998205
off_to_on,-2.05757529432,-3.83347104363,-3.39980999253,-0.658153044912,-2.46785954294,-3.93455372118,-5.9318848439,-3.25266165688,-1.80955779512,-3.02991579787,-1.62920798378,-1.85206687396,-1.51506375665,-113.721056336
off_to_on,-4.26321624301,-5.15382826034,-4.99448754432,-1.46895710448,-3.51460665145,-5.52779535163,-7.52489848055,-6.15813385721,-2.64896939485,-5.2737894183,-2.9365747484,-4.25871937124,-3.41956087994,-106.775883765
off_to_on,-6.05681163038,-5.99117857138,-6.12076566279,-2.21926933195,-4.33128962723,-6.76467790189,-8.55487656119,-8.5982514117,-3.34473747804,-7.03548471302,-4.02149792065,-6.20437573425,-4.97196712297,-91.9200111633
off_to_on,-7.33070661685,-6.32886676242,-6.72355306859,-2.89048631896,-4.88746411276,-7.58480520295,-8.95284361117,-10.3640468415,-3.88352025844,-8.17965976083,-4.84010274326,-7.56042521108,-6.09569398571,-70.5364594426
off_to_on,-8.03037355653,-6.20306662542,-6.80352926402,-3.46801612979,-5.17398808586,-7.9552638444,-8.70503032644,-11.3088127925,-4.26206353037,-8.63711938253,-5.37333861729,-8.26518899378,-6.76245844037,-44.7032833882
off_to_on,-8.15831022885,-5.69626019056,-6.41513101614,-3.94000658016,-5.20243276407,-7.87314432592,-7.85485004281,-11.3641945851,-4.48472758756,-8.41080687262,-5.62593737634,-8.3274895476,-6.99105174347,-16.982889821
off_to_on,-7.77158061359,-4.92529631478,-5.65820409021,-4.29594769849,-5.00237404395,-7.36604309271,-6.49916707999,-10.5480638111,-4.56051718859,-7.5734901147,-5.62282833054,-7.82183903925,-6.84043316826,9.86127257208
off_to_on,-6.97324321559,-4.02551528539,-4.66433952249,-4.52550205161,-4.61689889913,-6.49025613119,-4.7790221434,-8.96303701817,-4.50015151779,-6.25747813839,-5.40360940324,-6.87598159011,-6.39825932816,33.1873459327
off_to_on,-5.89863539235,-3.13291101022,-3.579574566,-4.6178780218,-4.0968744757,-5.32654309116,-2.86559539374,-6.78556731022,-4.31367434558,-4.63764088487,-5.0158891698,-5.65245068871,-5.76652042448,50.7960721814
off_to_on,-4.6981058186,-2.36654367296,-2.54559558188,-4.56196730022,-3.49467725297,-3.9735747283,-0.942753010906,-4.24665128411,-4.00899019724,-2.90978911985,-4.50841839284,-4.32652002438,-5.04628647825,61.207025937
off_to_on,-3.51823465052,-1.8133842358,-1.68177594242,-4.34733235128,-2.85814603221,-2.53945329935,0.812031432157,-1.60622389941,-3.59153916805,-1.26701155942,-3.92491222493,-3.06334656403,-4.32363047632,63.8507724929
off_to_on,-2.48379468844,-1.51747270533,-1.07029098637,-3.96597281933,-2.22549603929,-1.13197954521,2.24632439798,0.875871503417,-3.06511878686,0.123200495295,-3.29933202992,-1.99717870634,-3.65858793074,59.14732133
off_to_on,-1.68265570721,-1.4747424484,-0.746183974291,-3.41464610142,-1.62181371185,0.151413437336,3.24885106078,2.96896184089,-2.43365829034,1.13831148183,-2.65316966693,-1.21522200229,-3.07856539697,48.4556181063
off_to_on,-1.15551755525,-1.63416869005,-0.69365552691,-2.69739117928,-1.0575556858,1.23297609576,3.76118978371,4.49720588082,-1.70358067962,1.71427643148,-1.99498925764,-0.748155543438,-2.57698620957,33.8960401591
off_to_on,-0.891806520823,-1.90512565112,-0.849086442715,-1.82782740795,-0.529223881878,2.0620853814,3.78358317284,5.35870938003,-0.886277574106,1.85164236824,-1.32217078063,-0.568447689563,-2.11724404509,18.0655824702
off_to_on,-0.83234343507,-2.17007730786,-1.11047207987,-0.830785670983,-0.0221114842229,2.61980224633,3.37403807499,5.53569960295,-0.000188428653278,1.6134952694,-0.62450663152,-0.596633997739,-1.64131842115,3.68112303408
off_to_on,-0.878573135217,-2.30107245663,-1.35214628013,0.257116577948,0.485254190247,2.91979633634,2.64064823563,5.09442036222,0.927975492226,1.11550982743,0.110936841771,-0.714713799429,-1.08178360602,-6.80248827697
off_to_on,-0.907328837425,-2.17804303452,-1.44300128618,1.38822718118,1.01557290404,3.00529213455,1.72787843088,4.17466105038,1.86319820366,0.50931248819,0.894437459423,-0.78491819929,-0.375492746976,-11.5475527612
off_to_on,-0.789389850033,-1.70667033849,-1.26594938658,2.50604206235,1.58689380492,2.94218637771,0.798300944357,2.97012948322,2.76347307507,-0.0388155588557,1.72851675301,-0.671412425898,0.523001997633,-9.61177783125
off_to_on,-0.409566127408,-0.833613202217,-0.736179426393,3.54872930985,2.2072198727,2.80901391343,0.0118784405231,1.70205450994,3.58241126921,-0.371286664193,2.60387633332,-0.262104913792,1.63019927561,-1.10855911973
off_to_on,0.314222183106,0.442819437736,0.18413745651,4.45371139674,2.87037729816,2.68492411422,-0.494740881507,0.589305818892,4.27288662605,-0.361720323096,3.49698552999,0.512306256449,2.92619375727,12.7767770274
off_to_on,1.41536718241,2.06795648181,1.47665247078,5.16285674764,3.55379404354,2.63719681838,-0.626367129156,-0.181178855782,4.79128846541,0.0661999383735,4.36971933373,1.66460441926,4.35215265523,29.9216611895
off_to_on,2.86865353117,3.93274097905,3.06448565877,5.62771882702,4.21860736197,2.71001000472,-0.342532887313,-0.479841060566,5.10184410018,0.925946514673,5.17118414265,3.14456263793,5.8132248114,47.5380451341
off_to_on,4.58753573226,5.88235918163,4.81724705886,5.81421838732,4.81223492838,2.91612681272,0.335912806374,-0.252469137769,5.18044114426,2.16316723237,5.84159392154,4.84072811524,7.18668507894,62.5479442345
off_to_on,6.42932381948,7.73072343388,6.56308841915,5.70620089438,5.27323187336,3.23288294185,1.32789867892,0.471760228778,5.01743126973,3.65931198555,6.31780414794,6.59050004872,8.33444230445,72.0140757148
off_to_on,8.20804288138,9.27933253211,8.10658833719,5.30741397564,5.53795413355,3.60334762891,2.50100228615,1.58336673501,4.61902470073,5.24364563844,6.53990472706,8.19747943171,9.11847268563,73.5678493228
off_to_on,9.71377770061,10.3385166472,9.25054517123,4.64162580551,5.54829469702,3.94285770974,3.68721211866,2.90654842472,4.00706981023,6.7124043295,6.45813842585,9.45413972407,9.41735094341,65.7756571298
off_to_on,10.7364667389,10.748774814,9.81923518986,3.75082239084,5.25958637014,4.15036924436,4.70379774051,4.22240175827,3.21722753348,7.85295793056,6.03936173893,10.1671618092,9.14188619826,48.391224368
off_to_on,11.0914762879,10.3998635826,9.68045186602,2.69165142337,4.64769660774,4.12333805613,5.37680251687,5.29847735165,2.29576430658,8.47018330602,5.27230378279,10.1823842574,8.2479463222,22.4559675439
off_to_on,10.6439504506,9.24550058819,8.76370858929,1.5304922304,3.71438869248,3.77423722245,5.56426287288,5.92088033268,1.29536858606,8.41191424972,4.17099923994,9.40629286959,6.74486281748,-9.77094267619
off_to_on,9.32894728378,7.3119840412,7.07235884623,0.337696949647,2.49018723391,3.04644294703,5.17620223931,5.92471537171,0.270518432102,7.59036169585,2.7759583427,7.82132046033,4.69830916636,-45.0484128163
off_to_on,7.16474692255,4.69965145601,4.68802732558,-0.818355001406,1.03424865678,1.92714105967,4.18876620825,5.21881178212,-0.7270261939,5.99679681232,1.15286872302,5.49291236214,2.22717778154,-79.5281698478
off_to_on,4.2574214035,1.57684209068,1.76658330315,-1.87673196931,-0.568929403577,0.455156956006,2.65052937609,3.80133739538,-1.65206871556,3.70752075601,-0.61112481199,2.56725729369,-0.505331898251,-109.222085623
off_to_on,0.795714697089,-1.83319072259,-1.47416895498,-2.78836620857,-2.21576001332,-1.27782125566,0.679939429677,1.76404328138,-2.46873275802,0.880128667675,-2.41327228533,-0.740323392493,-3.30554041779,-130.502348622
off_to_on,-2.96361189585,-5.27123098474,-4.77396571108,-3.51896604335,-3.79222496252,-3.1333333166,-1.54604194259,-0.715666031886,-3.15187415279,-2.25979957618,-4.14269938214,-4.16522256294,-5.96659872003,-140.569220575
off_to_on,-6.71868802564,-8.46510751073,-7.85477495873,-4.05017733905,-5.18408188124,-4.93927915867,-3.81092514471,-3.39405670321,-3.68709345473,-5.44031420337,-5.68885347107,-7.41952730548,-8.28745921683,-137.824328548
off_to_on,-10.1514055653,-11.1545122282,-10.4481262773,-4.37897402457,-6.28755315209,-6.50881615553,-5.88313386007,-5.98949335672,-4.06949733466,-8.3707382251,-6.95015695238,-10.2212688646,-10.0915036627,-122.099068945
off_to_on,-12.9591938753,-13.1151758496,-12.3221569462,-4.51548124407,-7.01933855155,-7.66285434463,-7.54298626715,-8.21644585218,-4.30153122711,-10.7722984976,-7.84208980545,-12.3236511238,-11.2428706674,-94.7062476551
off_to_on,-14.8862128369,-14.1799907206,-13.3054318832,-4.47962581396,-7.3248365786,-8.25334024776,-8.60891301892,-9.82076172651,-4.39032497487,-12.40828875,-8.30397710014,-13.540925962,-11.6587912808,-58.3060928814
off_to_on,-15.7504521187,-14.254961526,-13.3049073678,-4.29714162271,-7.18363470639,-8.18423014268,-8.95963413852,-10.611659525,-4.34504089638,-13.1102929482,-8.30387852656,-13.767940661,-11.3166916005,-16.6021640233
off_to_on,-15.4636150292,-13.3283737746,-12.3160222965,-3.99551529591,-6.61161867887,-7.42717724288,-8.54946208998,-10.4862632954,-4.17468378867,-12.7973936904,-7.84115290877,-12.9910974809,-10.2554022223,26.0948573923
off_to_on,-14.0414331227,-11.4722458123,-10.4237496021,-3.60043330769,-5.65942344902,-6.02949967714,-7.41471444828,-9.44342014042,-3.88673085626,-11.4860584416,-6.94648378942,-11.2894553037,-8.57045718915,65.3800219901
off_to_on,-11.6031188572,-8.83590342213,-7.79443008329,-3.13319064367,-4.40736055971,-4.11290407221,-5.67030861249,-7.58490578176,-3.48678330829,-9.28945073214,-5.67938215624,-8.82585013767,-6.40409596867,97.2780094188
off_to_on,-8.35989546931,-5.63230738871,-4.65922926107,-2.60935867642,-2.95735999856,-1.86260550627,-3.49683698028,-5.1037516431,-2.97925551209,-6.40613195489,-4.12340779766,-5.82907713682,-3.93113004134,118.71107141
off_to_on,-4.59379965067,-2.11849201788,-1.2909882928,-2.03881007538,-1.42281012226,0.492240181455,-1.11962750084,-2.26110709924,-2.36893159182,-3.09935785746,-2.3795509867,-2.56921993354,-1.34224127933,127.851552044
off_to_on,-0.629081604944,1.42793906759,2.02302543975,-1.42699028478,0.0825755177632,2.7046622936,1.2176751245,0.645441202196,-1.66306249034,0.330716983497,-0.558373130157,0.670994137418,1.17349941072,124.314930117
off_to_on,3.20061016162,4.73392597844,5.00950989902,-0.777138156388,1.45562190644,4.53944840608,3.28175432058,3.31803760209,-0.873573380832,3.57876935828,1.22839527719,3.62548950852,3.44508735713,109.170518377
off_to_on,6.58558330511,7.55519460235,7.43558744043,-0.0930191426582,2.61307773299,5.80244936073,4.87693101626,5.49455398567,-0.0189181300379,6.36634147075,2.87606722109,6.0714232293,5.33338981257,84.7710283777
off_to_on,9.27026759708,9.69725896994,9.13049121511,0.618337618507,3.49849115253,6.36577259833,5.86772233485,6.97976579109,0.874840361885,8.47050652807,4.29432464897,7.85005205107,6.74103352148,54.4258966144
off_to_on,11.0768587691,11.0311719663,10.0001981017,1.34440239472,4.0858481917,6.18540558289,6.19382141447,7.66768633507,1.77403395235,9.74589301777,5.41305833432,8.87961503287,7.61758705358,21.963371009
off_to_on,11.9199000867,11.5025766373,10.0335464412,2.06583239619,4.37963733436,5.30867757717,5.8756256914,7.55220292086,2.63862387271,10.1375897627,6.18627718613,9.15896031517,7.95979935932,-8.75980386236
off_to_on,11.8103570815,11.1333215469,9.29935951419,2.75636527689,4.41143632763,3.87021618197,5.00964371657,6.72470624645,3.42462233194,9.68354932607,6.59383485417,8.7617894037,7.80720643583,-34.3364870549
off_to_on,10.8490029357,10.0156850282,7.93512573468,3.38401558333,4.23353743896,2.07652931742,3.75440558469,5.35912985827,4.08746865709,8.50637012979,6.64093422001,7.82253826813,7.23390689858,-52.2133702006
off_to_on,9.21020333044,8.30001993076,6.12874168096,3.91347184153,3.91048283339,0.180851909204,2.3087209341,3.68648733852,4.58596973822,6.79561255323,6.35558167946,6.51591756592,6.33768053776,-60.9708418222
off_to_on,7.1183114658,6.17729915539,4.09559089215,4.30940690177,3.50962755837,-1.54876329042,0.885111596498,1.96238627267,4.88631188652,4.78293349932,5.78435163923,5.03286848116,5.22784295065,-60.4457116436
off_to_on,4.81971679518,3.85854016996,2.05371913837,4.54027009236,3.09195236028,-2.86414564883,-0.318136238999,0.431921421553,4.96561967512,2.71316701229,4.98696821535,3.55606480762,4.01327506038,-51.6857653409
off_to_on,2.55403238537,1.55336023235,0.200019005965,4.58204743796,2.70429838068,-3.57004447148,-1.14268513136,-0.703320666884,4.81458220836,0.814930461945,4.03030090774,2.23806136506,2.79194110864,-36.7478537432
off_to_on,0.527903996768,-0.550064952871,-1.30986224179,4.42146749764,2.37399652227,-3.55114169373,-1.49031003406,-1.31172243772,4.43878237643,-0.725659409298,2.982395274,1.18476148009,1.64293539469,-18.3718179903
off_to_on,-1.10551521793,-2.30159717536,-2.37569950846,4.0581965035,2.10654094078,-2.78934772909,-1.33493038152,-1.34804476409,3.85853329249,-1.78501805244,1.90711676863,0.446111531976,0.621716640138,0.421757927116
off_to_on,-2.25919449466,-3.60069700736,-2.95953649224,3.50569794692,1.88654991638,-1.36886659876,-0.72499736325,-0.857649104965,3.10722360351,-2.31356066771,0.859881941895,0.0149317654899,-0.241248808028,16.7532323099
off_to_on,-2.91580758458,-4.4019803776,-3.08472006394,2.79060976957,1.68182054925,0.531944099385,0.224012347569,0.0319362684773,2.22837079248,-2.3374070214,-0.115200880451,-0.166306697354,-0.938650791153,28.2675311316
off_to_on,-3.12231199202,-4.71451135098,-2.82761074727,1.95069148565,1.44987296106,2.6611887253,1.345951513,1.1308481186,1.27175014984,-1.95037648922,-0.986640836616,-0.192002240671,-1.48190377584,33.4293391725
off_to_on,-2.97672725736,-4.59528988149,-2.30334340016,1.03158557194,1.14604866414,4.72414941444,2.44700865238,2.21531004747,0.289082419804,-1.29755598915,-1.73537191986,-0.175352514473,-1.89499823008,31.6933007431
off_to_on,-2.60927990072,-4.13803313955,-1.64770295549,0.0827951137876,0.732020156458,6.42035965368,3.33230896515,3.06067360209,-0.670191080637,-0.552773638449,-2.35327993229,-0.228374850209,-2.20766176184,23.5310922896
off_to_on,-2.16073257231,-3.45883640973,-0.997591481006,-0.84661921788,0.183512422839,7.48239049674,3.83259867867,3.47449147732,-1.5625466662,0.106952102798,-2.84080701627,-0.442895591987,-2.4488601898,10.3175612131
off_to_on,-1.76096897255,-2.68057972667,-0.472647314912,-1.71208932091,-0.50386001932,7.71139385708,3.82751077649,3.32504844787,-2.35303018661,0.526586781692,-3.20407562145,-0.875188606222,-2.64153337795,-5.90251548777
off_to_on,-1.51073872938,-1.91799098393,-0.160329955617,-2.47684751651,-1.31148745329,7.00477937997,3.26237926366,2.56141479057,-3.01667681116,0.594590240885,-3.45199556029,-1.53638119692,-2.79921125419,-22.7297869443
off_to_on,-1.46890989107,-1.26508666872,-0.106244354559,-3.1141146456,-2.1978740095,5.37234139097,2.15643384258,1.22226330371,-3.53863725698,0.258014131047,-3.59377646527,-2.38989987227,-2.92483103007,-37.760556731
off_to_on,-1.64671605105,-0.786318537966,-0.310721878105,-3.60795443297,-3.10201471145,2.93858444743,0.601350297523,-0.567758170248,-3.91313604707,-0.47067287217,-3.63717083493,-3.35621753102,-3.01172527539,-48.921624523
off_to_on,-2.00944599374,-0.512214569744,-0.731806670344,-3.95277149596,-3.949654151,-0.0692624739182,-1.24959916537,-2.61359548874,-4.14154909543,-1.51577267298,-3.58763482023,-4.32412839288,-3.0464225011,-54.7436266337
off_to_on,-2.48495454493,-0.439689206508,-1.29393320375,-4.15162204977,-4.66164966291,-3.34622750598,-3.20032575551,-4.67515864909,-4.23000054962,-2.74909979545,-3.44843538626,-5.16686083568,-3.01264298883,-54.5372504267
off_to_on,-2.9774243053,-0.536592893834,-1.90083885744,-4.21367086135,-5.16337235822,-6.54458612233,-5.03614374689,-6.49901753907,-4.18692634997,-4.00769973728,-3.22157668125,-5.7606676143,-2.89571768733,-48.4518365906
off_to_on,-3.384110216,-0.749552812838,-2.45073195071,-4.15124179232,-5.39393025481,-9.31457548975,-6.55025729413,-7.85209191327,-4.02102845883,-5.11607199264,-2.90928806884,-6.00319958422,-2.6866264902,-37.4133651084
off_to_on,-3.61244604921,-1.01379062188,-2.85149736498,-3.97695612855,-5.31400958586,-11.3457959259,-7.56908448214,-8.552747447,-3.73995414122,-5.90987416993,-2.51573031461,-5.82901764603,-2.38494550414,-22.9560746997
off_to_on,-3.59492717515,-1.26343202522,-3.03379550165,-3.70142621743,-4.91130228072,-12.4041551987,-7.97318557251,-8.49508297792,-3.34989405384,-6.25794179971,-2.04854733793,-5.22001934178,-2.00019436376,-6.97653340193
off_to_on,-3.29959453474,-1.44086255827,-2.96027948518,-3.33187568162,-4.20279721719,-12.3597646183,-7.71118172948,-7.66314323891,-2.85612391383,-6.0797395108,-1.51992280268,-4.2092903624,-1.55135205872,8.55113506141
off_to_on,-2.73466415689,-1.50392033625,-2.62976330092,-2.87190560061,-3.23361915147,-11.2023379028,-6.80500442273,-6.13318291521,-2.26434401352,-5.35601916277,-0.946888556243,-2.87783252519,-1.06462007667,21.8562155227
off_to_on,-1.94676461795,-1.43010897464,-2.0759306507,-2.32244052195,-2.07254808151,-9.04222561629,-5.3459727452,-4.06374774239,-1.58252569187,-4.13140480244,-0.350761946285,-1.34463494914,-0.569807274401,31.6082509842
off_to_on,-1.01322390536,-1.21750099621,-1.36097168419,-1.68369586634,-0.804783118318,-6.09703309439,-3.48239915131,-1.67499937168,-0.822876850767,-2.50872146397,0.244258870861,0.248499595579,-0.0959463978673,37.0775542715
off_to_on,-0.0297422236231,-0.882510546546,-0.565259037654,-0.957837218274,0.477129137927,-2.66558180829,-1.40051273984,0.77983596471,-0.00350495634911,-0.635984599576,0.813162300581,1.75521959358,0.333108893801,38.1995968911
off_to_on,0.904532880039,-0.455169726369,0.225276025317,-0.151877290537,1.68304898339,0.907451726806,0.698679935321,3.04696807445,0.850608908516,1.31207902943,1.33254978397,3.04339424046,0.702337484611,35.5383207714
off_to_on,1.70214656037,0.0271195921391,0.93210809297,0.719703248278,2.73444964292,4.27175122017,2.62350971748,4.90406658758,1.70761269845,3.15542606094,1.7830401265,4.01173711894,1.00778888752,30.1583940079
off_to_on,2.30030843919,0.526213098094,1.49545537222,1.63310972765,3.57193005581,7.11141045258,4.2136013737,6.18749478051,2.52990331577,4.73013083588,2.1512531995,4.60194826658,1.25695265618,23.4293602663
off_to_on,2.66967406409,1.00909660077,1.88230350499,2.55457172914,4.16012821262,9.17989484406,5.3569084637,6.8111449406,3.27633107296,5.9070558964,2.43102256336,4.80468634845,1.46709712687,16.7936962843
off_to_on,2.81758129498,1.452059154,2.08995286541,3.44112328722,4.48948709469,10.3257163403,5.99979361683,6.77446070223,3.90528322274,6.60540537712,2.62359462323,4.65857077219,1.6617425308,11.5348062038
off_to_on,2.7852582035,1.84255539741,2.14461755198,4.24288817304,4.574753875,10.5058730996,6.14910581168,6.1587458179,4.37829526234,6.79956594594,2.73672521621,4.24241553174,1.86574697587,8.57954293335
off_to_on,2.63946263943,2.17856800347,2.09535920227,4.90672250735,4.45053321654,9.78571104972,5.86630689508,5.11248082127,4.66374234106,6.51859507717,2.78276061414,3.66186924442,2.09973524886,8.36337111507
off_to_on,2.4598869266,2.46572424468,2.00434701552,5.38086849548,4.1646069713,8.32561185005,5.25476518998,3.82787371576,4.74013117565,5.83873296389,2.77596192541,3.03244015914,2.37474943512,10.7759186275
off_to_on,2.32433220202,2.71281410816,1.93499333661,5.62011448609,3.77002186505,6.35657209484,4.44222112556,2.5120511411,4.59855072978,4.87025069597,2.72947240764,2.46140556034,2.68802073885,15.1920839372
off_to_on,2.29402375628,2.92663864609,1.93984028013,5.59086010585,3.31709457226,4.14809799237,3.56102190844,1.35699222509,4.24394238725,3.74067580189,2.6524125376,2.03126694077,3.0206456909,20.581022003
off_to_on,2.40144463147,3.10724159126,2.05011942673,5.27546500414,2.84647029514,1.97272778882,2.72894528241,0.512426975279,3.69500261218,2.57686074448,2.54760152441,1.7871915596,3.3377091667,25.6741361762
off_to_on,2.64270668965,3.24452444019,2.26866657649,4.6753197245,2.38419927949,0.0718054411253,2.03326407653,0.0654538217026,2.98271089684,1.48842873981,2.41034019136,1.73030809477,3.59106200842,29.1652540819
off_to_on,2.97580773799,3.31702265979,2.56738158257,3.81221071256,1.93949033158,-1.37316423805,1.52017503638,0.0296474983439,2.14765685745,0.554843458587,2.22855422458,1.8178799098,3.72457796365,29.9125119782
off_to_on,3.32523839425,3.29326252236,2.88975080377,2.72774201398,1.50540460633,-2.26009444558,1.19090742913,0.345070452428,1.23649627366,-0.182246035661,1.98440532647,1.97038376514,3.68133703921,27.1124798138
off_to_on,3.59243407825,3.13568002061,3.15819449171,1.480799802,1.06232251189,-2.57461954891,1.0048558622,0.889060525613,0.297974170922,-0.72054492808,1.6572566295,2.08451632745,3.41186509983,20.422378041
off_to_on,3.67066004405,2.80663424258,3.28527351262,0.14327414931,0.583612070109,-2.38644004012,0.889084445176,1.49616021974,-0.621001572275,-1.092603829,1.2276593424,2.05027908959,2.88235057829,10.0148809045
off_to_on,3.46220698643,2.27565906867,3.18719557127,-1.20554349441,0.0426053458782,-1.83460092929,0.752663582866,1.98428707831,-1.47877598216,-1.35620047662,0.681842812382,1.76967923353,2.08169250793,-3.43947931983
off_to_on,2.89536956085,1.52683235662,2.79768785911,-2.4853145115,-0.580204168348,-1.10400987726,0.503646102154,2.18339351184,-2.24147970081,-1.581264523,0.0160692722817,1.1743180811,1.026324572,-18.8565693616
off_to_on,1.93864391758,0.565046015607,2.08020634566,-3.62110123723,-1.29086879066,-0.396576404697,0.066151870063,1.96254139755,-2.88444432773,-1.83545477147,-0.759821173811,0.239259597801,-0.237999429411,-34.8745395538
off_to_on,0.609922815409,-0.579946698074,1.0366474937,-4.54924508751,-2.07760180284,0.099041810515,-0.604949773963,1.25156123356,-3.39243327652,-2.17063861334,-1.62029035494,-1.00893623482,-1.63791057708,-50.0197729373
off_to_on,-1.02085800215,-1.85255769946,-0.288810440397,-5.22208353007,-2.90903783192,0.235030709416,-1.51390172957,0.0542378278768,-3.75879201808,-2.61233409559,-2.52387044557,-2.49133425346,-3.07763346486,-62.8784239032
off_to_on,-2.83625612327,-3.17389993829,-1.8114469992,-5.61105613796,-3.73550330698,-0.0742446586561,-2.619946459,-1.54884772837,-3.98377079394,-3.15369023928,-3.41505844597,-4.08322917608,-4.44725467606,-72.2500254473
off_to_on,-4.68265683792,-4.44776923282,-3.41326104184,-5.70794126253,-4.49323502101,-0.839841084883,-3.83986385268,-3.40825492285,-4.07237840718,-3.75487684329,-4.22830073631,-5.62752111349,-5.63319374446,-77.2640946048
off_to_on,-6.38704364475,-5.56949980882,-4.95492808696,-5.52418134805,-5.11106341487,-1.99621933284,-5.05685279072,-5.32335237352,-4.03217253551,-4.3479370646,-4.89374701558,-6.95319525913,-6.52970606775,-77.4477075224
off_to_on,-7.77704950054,-6.43667880691,-6.29097165879,-5.08846925466,-5.51872018117,-3.40966583352,-6.13457141705,-7.06734563989,-3.87137427812,-4.84634493352,-5.3441958402,-7.89651162698,-7.0500788329,-72.7403733179
off_to_on,-8.70164020501,-6.96039680312,-7.28621554508,-4.44295382508,-5.6556871209,-4.89585932442,-6.93444580705,-8.41630329256,-3.59761638096,-5.15782280603,-5.52246090708,-8.32210929516,-7.13618274086,-63.4607827154
off_to_on,-9.04966159422,-7.07558627525,-7.831400642,-3.63855836539,-5.47940881677,-6.24414190165,-7.33391752054,-9.17829925561,-3.21750902963,-5.19850774376,-5.38828700568,-8.14121071166,-6.76521678755,-50.2368030241
off_to_on,-8.76375505891,-6.74908012851,-7.85595987704,-2.72997585852,-4.97175881653,-7.24525584369,-7.2431827909,-9.21880073489,-2.73705461144,-4.90637446846,-4.92395416736,-7.32447779643,-5.95280976191,-33.9143981971
off_to_on,-7.8477732323,-5.98429966589,-7.33633052598,-1.77090355282,-4.14286831524,-7.71894775282,-6.61819029043,-8.47896526814,-2.16278773044,-4.25194716584,-4.13783041525,-5.90777175001,-4.75207887314,-15.4623992322
off_to_on,-6.36671969082,-4.82191798052,-6.29878862438,-0.810010350838,-3.03176729728,-7.53795042005,-5.46817570252,-6.98448668965,-1.50338351346,-3.24473975819,-3.06535489615,-3.99000533487,-3.24873619443,4.11178975229
off_to_on,-4.43926468982,-3.33637864603,-4.81652762746,0.111994976153,-1.70370346259,-6.64539904982,-3.85674529545,-4.84390807132,-0.771386829092,-1.93449063963,-1.7672275059,-1.72332026958,-1.55281306573,23.8248812575
off_to_on,-2.22390493049,-1.62870359586,-3.00146733934,0.963989724231,-0.244436640192,-5.06363576383,-1.89637430592,-2.23672119745,0.0153183211025,-0.407009063866,-0.324911452828,0.703170376335,0.212021820925,42.7541703337
off_to_on,0.0993073671084,0.183482666295,-0.991961063868,1.72473029839,1.24780357899,-2.89347694472,0.262957751035,0.607095318656,0.832650939764,1.22478417834,1.16612091365,3.08400170633,1.92029631844,60.0496298071
off_to_on,2.34896528199,1.97742528618,1.06192631902,2.38195472568,2.67171458436,-0.304211395692,2.44952837832,3.43336237927,1.65035126292,2.83337008416,2.60469347207,5.21971826952,3.45635055447,74.9291273352
off_to_on,4.36172480424,3.63674638509,3.0136374141,2.93057651152,3.93252939457,2.48428936072,4.48802795197,5.99237837961,2.43300767762,4.29096900866,3.89288704015,6.938167182,4.72442496943,86.6679779539
off_to_on,6.00840498048,5.06156323644,4.73392453172,3.37034489746,4.95068938775,5.22506922825,6.21784753461,8.06633365964,3.14206830382,5.48375089169,4.94467935694,8.11210177018,5.65613784912,94.5951267941
off_to_on,7.204776518,6.17603462418,6.12160696165,3.70338390767,5.66858093093,7.67033282846,7.50927798117,9.49207551914,3.73865593149,6.32402773629,5.69332883551,8.67100959716,6.21462952135,98.1064676052
off_to_on,7.91586330432,6.93256117757,7.11016053592,3.93200233588,6.05461332425,9.59736653648,8.27573005187,10.1765490003,4.1868711998,6.75886729974,6.09672257383,8.60588134125,6.39509305419,96.7014505314
off_to_on,8.15355432688,7.31237768091,7.66966154677,4.05709501218,6.10428215386,10.8312311412,8.48065155125,10.1032827444,4.45717920894,6.77411095811,6.14015978726,7.96659209102,6.22187545412,90.0430137772
off_to_on,7.96830478551,7.32281217553,7.80429214609,4.07734482681,5.83826521032,11.2618246132,8.13853695413,9.32951480006,4.52944315951,6.39345357407,5.83635392752,6.85254019379,5.74275583453,78.0341423572
off_to_on,7.43654803731,6.99196506752,7.54623618835,3.98930214889,5.29798070946,10.8536700646,7.31019664111,7.97478823516,4.39520036954,5.67294774923,5.22276905983,5.39804687689,5.02133150657,60.898328231
off_to_on,6.6460191107,6.3619073166,6.94726107868,3.78828257808,4.53934678506,9.64768705663,6.09317198021,6.20292253481,4.05886686288,4.69192560095,4.35671507667,3.75464735827,4.12862782804,39.247127735
off_to_on,5.68142084906,5.48165655859,6.06952580896,3.46990388937,3.62567574897,7.75513581765,4.6087548455,4.20004291395,3.53769354835,3.54179763514,3.30887222334,2.07272071231,3.13507171196,14.1168420236
off_to_on,4.61271337844,4.4011393349,4.97714648891,3.03199397445,2.62069236863,5.344770855,2.9874246518,2.15173058802,2.86045986434,2.3144258996,2.15606752268,0.484876400144,2.10383384497,-13.0414287122
off_to_on,3.48780263189,3.16709548505,3.72979657074,2.47655394253,1.58257882182,2.62490934492,1.35461361025,0.222305369694,2.06505587634,1.09174800773,0.97416660848,-0.90684540621,1.08627532869,-40.4285762143
off_to_on,2.33062441122,1.82146869398,2.37916615655,1.81145856949,0.559737185325,-0.177453299793,-0.181450885975,-1.4612083385,1.19524717484,-0.0619406932167,-0.168127681029,-2.03853392948,0.119873786468,-66.0231840835
off_to_on,1.14468944387,0.402323109674,0.968530675292,1.05161784229,-0.411341692864,-2.8381918236,-1.53846600967,-2.81866989708,0.297017879356,-1.10411123908,-1.21395016703,-2.88610688841,-0.771392638437,-87.7586053343
off_to_on,-0.0787816044,-1.05318604879,-0.464920039844,0.219400555092,-1.30605880933,-5.15608178112,-2.66452627061,-3.81919693199,-0.585068607689,-2.01419423337,-2.1210457734,-3.46138488389,-1.57459809418,-103.734368218
off_to_on,-1.34979826073,-2.50469270641,-1.88586585418,-0.65577844887,-2.10982763071,-6.96946338722,-3.53817216202,-4.4766093785,-1.41106943892,-2.79013643814,-2.86254346477,-3.80356442312,-2.28404821983,-112.437033604
off_to_on,-2.66780529947,-3.90453285362,-3.25598940992,-1.53869638681,-2.81489963883,-8.1681864228,-4.16445872932,-4.83918500994,-2.14807780816,-3.44218290304,-3.425910789,-3.96771876192,-2.89694982156,-112.940939508
off_to_on,-4.01151143233,-5.19494038569,-4.52983202405,-2.39027175233,-3.41663367186,-8.70007139467,-4.56801237913,-4.97570191468,-2.77163231287,-3.98516485483,-3.81050005024,-4.01229884217,-3.40946585228,-105.058758219
off_to_on,-5.33248141748,-6.30761514285,-5.65263435184,-3.17002648665,-3.90999723755,-8.57172436138,-4.78440225444,-4.96015660631,-3.26604902302,-4.43077980123,-4.0242544339,-3.98764568407,-3.8139360779,-89.4158943454
off_to_on,-6.55405230832,-7.16637869677,-6.56107663582,-3.83880808834,-4.28700774797,-7.84409262241,-4.8513008845,-4.85759324254,-3.62376026731,-4.78131540178,-4.08020547375,-3.92726468856,-4.09780480204,-67.4311976224
off_to_on,-7.57627956381,-7.69309904425,-7.18730447225,-4.36149796311,-4.53562694331,-6.62359431779,-4.80083544084,-4.71316782858,-3.84388070777,-5.02600035523,-3.99335687463,-3.84309917746,-4.24447284852,-41.1982797165
off_to_on,-8.28661648356,-7.81645132101,-7.46599977136,-4.70944600106,-4.64034519555,-5.04996552569,-4.65425560701,-4.54596066192,-3.93031917215,-5.14070716045,-3.77842355929,-3.72535875441,-4.23593385362,-13.2753491786
off_to_on,-8.57503520126,-7.48248609889,-7.34363551654,-4.86241497897,-4.58437889526,-3.28213330138,-4.41961476546,-4.34824121982,-3.88980006058,-5.09115530196,-3.44870179052,-3.54671416931,-4.05672186759,13.5950230384
off_to_on,-8.35146613009,-6.66550034654,-6.78854191481,-4.80988380933,-4.35310421315,-1.48345057184,-4.09264638117,-4.09000824148,-3.73014524159,-4.83915924768,-3.01611882049,-3.26997754275,-3.69844161681,36.8034561249
off_to_on,-7.56290093756,-5.37743596801,-5.80010123914,-4.55163553441,-3.93811243976,0.192458863424,-3.6604957363,-3.72780645137,-3.45909947278,-4.35092795531,-2.49228581063,-2.85784824725,-3.16401600459,54.1885211505
off_to_on,-6.20736522572,-3.67402659728,-4.41534086056,-4.09763332268,-3.34113444807,1.61416961666,-3.10751581011,-3.21617985259,-3.08387117692,-3.60603577829,-1.89019173702,-2.28299856155,-2.47079081599,64.3065513315
off_to_on,-4.3422571948,-1.65619634202,-2.71143094495,-3.46725559,-2.57706760945,2.68238841403,-2.42202000471,-2.51974954445,-2.61142404897,-2.605510555,-1.22605808918,-1.53674133434,-1.65178559027,66.6181965126
off_to_on,-2.08523971391,0.53423778699,-0.803093117913,-2.68801210384,-1.67545155152,3.33675280816,-1.60274712971,-1.62384923278,-2.04941532585,-1.37755316119,-0.52084281322,-0.634764444567,-0.754651447327,61.5629389331
off_to_on,0.393123918906,2.72475955021,1.16537515137,-1.79389213622,-0.679963418239,3.55914924697,-0.663852020279,-0.541913733134,-1.40755579043,0.0202926644905,0.199058222291,0.381107192993,0.161748803834,50.506883966
off_to_on,2.88462449172,4.7275934698,3.03295670205,-0.823502590261,0.354194842721,3.37344870733,0.362524044023,0.68165207756,-0.699083786352,1.50320306486,0.902222808224,1.44552741284,1.03283927779,35.5660002921
off_to_on,5.16500582984,6.35891150237,4.63836613707,0.18185891547,1.3648113581,2.84178627873,1.426664205,1.97367972622,0.0579862239625,2.96543183005,1.55383796517,2.47633403787,1.79525571632,19.324314382
off_to_on,7.01935306029,7.45964194031,5.83816809757,1.18007856756,2.28856263758,2.05772263331,2.46475979514,3.23928435436,0.840155607853,4.29037406559,2.11844467929,3.38440782614,2.39427595575,4.48190431516
off_to_on,8.26803096237,7.91528759589,6.5242340337,2.12996641722,3.06753350219,1.13682070842,3.40507513558,4.37277268255,1.61851209652,5.36316056707,2.56346196661,4.0852461962,2.7906982342,-6.52138370063
off_to_on,8.78968578572,7.67206826874,6.63812592529,2.99281597325,3.65546321485,0.205348569498,4.17597576694,5.27084151637,2.35969920634,6.08417541942,2.86299189637,4.51052925064,2.96612750198,-11.8555015318
off_to_on,8.53806429113,6.74698246763,6.18025789201,3.73376777656,4.02282179982,-0.612026914507,4.71469714223,5.84614631343,3.02776432636,6.38167776846,3.00131416628,4.61793354769,2.92580646813,-10.573936559
off_to_on,7.55011363197,5.23001904217,5.21227390564,4.3229817594,4.15995658754,-1.20457315872,4.97559028994,6.03925698986,3.5867235829,6.22175347892,2.97547896497,4.39769087053,2.69844229441,-2.7713315318
off_to_on,5.94391851811,3.27767247253,3.85192227729,4.73663136892,4.07780456885,-1.48680408529,4.93662558958,5.82724862045,4.00356061411,5.61412240229,2.79650360471,3.87485784535,2.33288966467,10.400545245
off_to_on,3.90636412867,1.09801320458,2.26069553928,4.95772892626,3.80600550549,-1.40773008002,4.60315908324,5.22765996921,4.25129484545,4.61284429565,2.48886011727,3.1068869757,1.89199908391,26.8652028586
off_to_on,1.67180296806,-1.07130663024,0.625502695065,4.97677928599,3.38862478082,-0.957098849435,4.00833557538,4.29721839586,4.31172556108,3.31163148258,2.08818244832,2.17677696173,1.44436109716,43.888581919
off_to_on,-0.505742647514,-2.98972601491,-0.863492028969,4.79224198917,2.87804825434,-0.167873571927,3.20996629416,3.12547624419,4.17748596072,1.83419767314,1.63738781088,1.18272773135,1.05501009496,58.4482620726
off_to_on,-2.38337240588,-4.44200206335,-2.03612161945,4.41076594118,2.32789041351,0.885513968768,2.28421017803,1.82422201656,3.85312281652,0.320749550489,1.18165705294,0.225737541373,0.776344135503,67.6569245188
off_to_on,-3.75913880405,-5.26450971693,-2.7635635198,3.84715012773,1.78591840186,2.09322271923,1.31683736336,0.514116289215,3.35504061309,-1.08773433679,0.762914568475,-0.603119475217,0.640537344145,69.1833637521
off_to_on,-4.49700636209,-5.36622172771,-2.97493317646,3.1239827966,1.28801124534,3.32003249828,0.393197830844,-0.68962480049,2.71029622835,-2.26547050188,0.4145574091,-1.23395052277,0.654560589595,61.6130324071
off_to_on,-4.54360716262,-4.74151853646,-2.66681760974,2.27092184301,0.854040001131,4.41856236903,-0.411790901296,-1.69056635899,1.95437982938,-3.11605634555,0.15718597011,-1.62626536003,0.798601719949,44.6967621916
off_to_on,-3.93450201426,-3.47291713685,-1.90431593136,1.32360064056,0.486287068194,5.24449329289,-1.04231234601,-2.42164482352,1.12824795841,-3.5830606097,-0.00401958606824,-1.77303266601,1.02822995498,19.4501982654
off_to_on,-2.78902424557,-1.72303339186,-0.813246369609,0.322173925628,0.170658188082,5.67230310053,-1.46782202439,-2.85165507535,0.274966986613,-3.65566213535,-0.07984024079,-1.70004653072,1.28013979118,-11.9141461502
off_to_on,-1.29429336688,0.283550589799,0.435653552491,-0.690446489904,-0.119469472965,5.609855743,-1.68589586484,-2.98687127824,-0.56363379572,-3.3686224608,-0.0953187365358,-1.46075448244,1.48080797973,-46.2180223618
off_to_on,0.319567139503,2.28653017973,1.64862420392,-1.67058153821,-0.417315788218,5.01019818382,-1.72137271583,-2.86772517974,-1.34991553615,-2.79661677826,-0.085975245616,-1.12734813656,1.55697329942,-79.6853839955
off_to_on,1.80978881769,4.02115749389,2.63412063181,-2.57588633697,-0.755558572796,3.87912292012,-1.62190178221,-2.56114720438,-2.05267441257,-2.04368380452,-0.0923956476013,-0.779445771978,1.44656400722,-108.401707443
off_to_on,2.95291662841,5.25075985812,3.22813808756,-3.36743027108,-1.1590642499,2.27744359036,-1.45048529249,-2.14975547116,-2.64847333032,-1.22918877864,-0.153897343064,-0.492026800179,1.10859477427,-128.806046991
off_to_on,3.57416390535,5.79645550983,3.3163110721,-4.01161702965,-1.63861307256,0.31747174113,-1.2760070639,-1.71947651604,-3.12199290473,-0.472140029402,-0.302132793184,-0.324364710016,0.530651772002,-138.151668634
off_to_on,3.57030173977,5.56029684539,2.84985048164,-4.48181480369,-2.18662698695,-1.846181918,-1.16300562515,-1.34734757132,-3.46547477772,0.124100670548,-0.555529262482,-0.311537373472,-0.267127999897,-134.874179003
off_to_on,2.92308257766,4.53883603336,1.85316176537,-4.75958943364,-2.77564093094,-4.03070179554,-1.16205128826,-1.09116691631,-3.6774546867,0.484745510475,-0.915375958942,-0.459698689172,-1.23223501102,-118.817410097
off_to_on,1.70146398324,2.82527274735,0.422062779633,-4.83546670938,-3.35987624916,-6.04268026753,-1.30200789038,-0.982345275867,-3.76107231965,0.572508668243,-1.36416614675,-0.745733549454,-2.28423619173,-91.2854862753
off_to_on,0.0523960387337,0.599762568632,-1.2872497987,-4.70918992276,-3.87983105729,-7.69741295964,-1.58521371636,-1.02281895364,-3.7222871314,0.391441669408,-1.86650790971,-1.12127300706,-3.32304406242,-54.9120860241
off_to_on,-1.81854003374,-1.89104500116,-3.07711752453,-4.38948002721,-4.26935974374,-8.83778334512,-1.98623621671,-1.18628967151,-3.56831864041,-0.0147360009218,-2.37257248495,-1.52041347308,-4.24004312586,-13.3618898121
off_to_on,-3.6740117499,-4.36280181526,-4.73280976003,-3.89334328278,-4.46433616918,-9.35062975067,-2.45439246985,-1.42344457106,-3.30656908976,-0.569497232808,-2.82370079695,-1.86995506495,-4.93071943469,29.0986616326
off_to_on,-5.2757244991,-6.52708601632,-6.04924977275,-3.24500079026,-4.41173797658,-9.17872817405,-2.91974279794,-1.67026944763,-2.94418617822,-1.17457151629,-3.15948558532,-2.10062564262,-5.30722289373,68.1068899365
off_to_on,-6.41502672009,-8.12572887812,-6.85663289987,-2.47453302837,-4.077891752,-8.32699676715,-3.30182116964,-1.85817277124,-2.48830024929,-1.72369396062,-3.32543126016,-2.15763699964,-5.30928056948,99.7211890751
off_to_on,-6.93931104972,-8.96161709402,-7.04164228813,-1.61633940492,-3.45469729275,-6.8621793203,-3.52001915821,-1.92443778677,-1.94684366832,-2.11719720958,-3.280197423,-2.0090423005,-4.9120754697,120.884116153
off_to_on,-6.77080640542,-8.92218465551,-6.56155520314,-0.707508791432,-2.56289570736,-4.90601750859,-3.50433278744,-1.82153557454,-1.32975026444,-2.2755294281,-3.00146958175,-1.65070754286,-4.13008318046,129.772517414
off_to_on,-5.91542287471,-7.99273116308,-5.44947719335,0.213815484149,-1.4518282273,-2.62268182168,-3.20513735789,-1.52405233029,-0.650257059883,-2.14995915019,-2.48966809674,-1.10722081369,-3.01636805866,125.990983316
off_to_on,-4.4606785103,-6.25798751369,-3.81011327262,1.1100100965,-0.195598535031,-0.201902919285,-2.600776823,-1.03236937484,0.0739989515744,-1.72912878637,-1.76898179071,-0.42866391476,-1.65741340547,110.585688988
off_to_on,-2.56321324697,-3.89182750392,-1.80672508234,1.94543787031,1.11396321634,2.16025735624,-1.7020230979,-0.372722678202,0.820374701497,-1.04068480247,-0.885558763925,0.316227863686,-0.164120004373,85.879333055
off_to_on,-0.427776069469,-1.13650244925,0.358937140487,2.68777354104,2.37669935601,4.28079701746,-0.552840596955,0.406213946617,1.56132199167,-0.147865381922,0.096943346682,1.04947839889,1.33991929999,55.1512295696
off_to_on,1.7193307952,1.72593583516,2.47105175718,3.30916754284,3.49472371812,6.0071413296,0.772666583919,1.23960611911,2.26530521622,0.858422134628,1.10390258478,1.69446383654,2.73143616747,22.2064894434
off_to_on,3.65869839957,4.40642493328,4.32529806539,3.78723044386,4.38288620635,7.23058273904,2.17679805201,2.05461942458,2.89851797903,1.87093669514,2.05755897662,2.18615113576,3.90022545557,-9.10799753809
off_to_on,5.20434053122,6.64183329805,5.75230557791,4.10581913676,4.97777736546,7.89440269924,3.5475616194,2.77928064839,3.42725174029,2.77934695692,2.8851480755,2.47953026922,4.76010449248,-35.3771888118
off_to_on,6.22486664766,8.22405291101,6.63605587217,4.25560072469,5.24413646566,7.99596093754,4.76969990705,3.35082865108,3.82065914168,3.48367559649,3.52633924447,2.55508075231,5.25684957837,-54.020234447
off_to_on,6.65668855234,9.02181015622,6.92504851819,4.23436434653,5.17786990376,7.58278741106,5.73621708249,3.72248633826,4.05357979925,3.90625991039,3.93908095849,2.42056741963,5.37227689535,-63.5714434415
off_to_on,6.50781640726,8.99275252638,6.63505298071,4.04704848817,4.80533689187,6.74343717767,6.35914463315,3.86786841217,4.10906889841,4.00078038034,4.10317778428,2.10900608458,5.12413980338,-63.8070543785
off_to_on,5.85213040324,8.18464521702,5.84340995501,3.70545480382,4.17905414318,5.59447509252,6.57838946094,3.78261449998,3.98029353318,3.75732055417,4.0212316922,1.67319468761,4.56204421193,-55.7063043288
off_to_on,4.81532073511,6.72590192154,4.67595979194,3.22763121661,3.37044218596,4.26536952546,6.36773859737,3.48324429205,3.67153524503,3.20294904194,3.71693054568,1.17768811112,3.76006755037,-41.2576522965
off_to_on,3.55478837902,4.80699521706,3.28861115972,2.6369275421,2.46061822086,2.88324374899,5.73742190893,3.00360985387,3.1981491516,2.39788556771,3.23101038416,0.689436093275,2.80714239153,-23.1413586575
off_to_on,2.23654388139,2.6553745936,1.84619678158,1.9607546315,1.5304819569,1.5593457295,4.73301732108,2.3896176539,2.58546419794,1.42785341083,2.61550858959,0.268457398418,1.79648738317,-4.33521585813
off_to_on,1.01243617475,0.507231274559,0.5015167951,1.22910977417,0.651409478467,0.378772457254,3.43087805682,1.69307182273,1.86674591949,0.393663312097,1.92712365746,-0.0401275362019,0.815412811936,12.3009558255
off_to_on,0.000859813834854,-1.42029166368,-0.62267929026,0.472962124088,-0.12224183378,-0.605524064846,1.93062477405,0.965533523867,1.08046283805,-0.60063198642,1.22057918091,-0.211625085808,-0.0633020219026,24.4054349593
off_to_on,-0.726532676776,-2.95305566881,-1.44654030112,-0.277383178771,-0.75788940266,-1.37403973875,0.345539497388,0.253003258856,0.267183007095,-1.45955724491,0.542846816169,-0.244168570366,-0.787541338125,30.4094944767
off_to_on,-1.15054458351,-3.97729650148,-1.93936360157,-0.993809915336,-1.24621259831,-1.93755913241,-1.20810561833,-0.407962991871,-0.53353374824,-2.10661975766,-0.0710748436353,-0.157777732467,-1.32895920867,29.7105908967
off_to_on,-1.30215303246,-4.44861471994,-2.1187886578,-1.65167414015,-1.59930476731,-2.33033461491,-2.62167016843,-0.992358636797,-1.2858947667,-2.49214273919,-0.600375735553,0.0096450034503,-1.68295131798,22.7053377297
off_to_on,-1.25297482205,-4.39194076079,-2.0434653171,-2.23073437221,-1.84588813594,-2.60083459776,-3.80364076072,-1.48699709019,-1.95999281804,-2.59772776773,-1.0384933248,0.20867493898,-1.86579586401,10.6836848779
off_to_on,-1.10023930161,-3.89300314249,-1.80060146122,-2.71565265977,-2.02438929954,-2.80152881456,-4.68707022357,-1.8891612408,-2.53309223026,-2.43698005083,-1.39117122526,0.386068656934,-1.90960791127,-4.39520614923
off_to_on,-0.948751593964,-3.08287563659,-1.49043254501,-3.09603948519,-2.1749534766,-2.97920066122,-5.23427081342,-2.20405315951,-2.99001540571,-2.05258135748,-1.67294481658,0.492653239383,-1.85597800942,-20.209329364
off_to_on,-0.892666394655,-2.11796782379,-1.20997727405,-3.36607180734,-2.33159962474,-3.16709297996,-5.4383754854,-2.44158779085,-3.32269111926,-1.51020932345,-1.90267981237,0.49027728459,-1.74925447936,-34.4163753411
off_to_on,-0.999806028431,-1.15826260284,-1.03841673295,-3.52376959056,-2.51567117382,-3.37984247867,-5.3217174348,-2.61310080614,-3.52904050196,-0.890132047212,-2.09889020851,0.356897975987,-1.63037702112,-44.9831638601
off_to_on,-1.30077295115,-0.346654623095,-1.02607730303,-3.57006352625,-2.73152814193,-3.61169934232,-4.93131199765,-2.72847752422,-3.61145999656,-0.27752095827,-2.27555402326,0.0892032480477,-1.53199548139,-50.4564973555
off_to_on,-1.78431037401,0.20807969677,-1.18837621286,-3.50781744226,-2.96508797505,-3.83803470565,-4.33202337333,-2.79407694472,-3.57520099736,0.247392857741,-2.43903441829,-0.297436278696,-1.47534691757,-50.1400324555
off_to_on,-2.39938259352,0.442782193425,-1.50530379008,-3.34097707745,-3.18540446794,-4.01968249798,-3.59823228815,-2.81165201373,-3.426938212,0.618241928829,-2.58652056742,-0.771488952712,-1.46906240084,-44.1564576997
off_to_on,-3.06342992679,0.34482293762,-1.92618937945,-3.07399937859,-3.34903675938,-4.10930657829,-2.80496690306,-2.77828741458,-3.17376525386,0.789610348047,-2.7061586551,-1.28971506193,-1.50978132411,-33.3913374737
off_to_on,-3.67535344596,-0.049720662158,-2.3787506645,-2.71167383782,-3.40656541499,-4.05877281245,-2.01950355529,-2.68722022947,-2.82276582054,0.741619190481,-2.77878644812,-1.80277049922,-1.58420967515,-19.3319237941
off_to_on,-4.13113160583,-0.663884663747,-2.78086416509,-2.2593841124,-3.31031458534,-3.82645788852,-1.29438145109,-2.52929995416,-2.38119677696,0.481640686496,-2.78095313839,-2.26108091192,-1.67210275653,-3.82863560669
off_to_on,-4.33965333337,-1.3921977482,-3.05319153614,-1.72378226556,-3.02217793801,-3.38353511956,-0.662611442345,-2.29479466303,-1.85720350344,0.043085252606,-2.68873239016,-2.62015284554,-1.7495990731,11.1832111461
off_to_on,-4.23640631811,-2.11571173914,-3.1307839045,-1.11377003639,-2.52044118027,-2.71851163772,-0.135608690346,-1.97525931054,-1.26088640782,-0.518500976826,-2.4817434526,-2.84466463992,-1.79237945951,23.9597277583
off_to_on,-3.79306439461,-2.71760033042,-2.97205195205,-0.441613372667,-1.80464272816,-1.83960343092,0.295933537662,-1.56523857559,-0.605466593449,-1.13154331973,-2.14679242799,-2.91094804837,-1.77825595055,33.1831806135
off_to_on,-3.02170116229,-3.0973565416,-2.56397868251,0.276030678838,-0.897792124885,-0.774868393486,0.658355179589,-1.0636604736,0.0917304199379,-1.7160834136,-1.68062888768,-2.80778029499,-1.68897724505,38.1231537807
off_to_on,-1.97320571352,-3.18198275162,-1.9230792739,1.01741269215,0.154368686064,0.429681909906,0.988990507561,-0.474864726375,0.808736546605,-2.19218690963,-1.09146479514,-2.53569934009,-1.5112334637,38.7041793703
off_to_on,-0.730356305154,-2.93310781474,-1.09227542076,1.75553486019,1.28697615399,1.7135481498,1.32853986677,0.190720382979,1.51905056874,-2.48830655409,-0.39909632521,-2.10528119037,-1.23701351822,35.4742910006
off_to_on,0.603215825672,-2.3495920698,-0.134446668021,2.45870581403,2.42206472783,3.00622492459,1.71283141121,0.916203077431,2.19250066708,-2.54883014947,0.366327165738,-1.53493953516,-0.8635815802,29.4836122394
off_to_on,1.91638236737,-1.46579690806,0.876139726109,3.09188663192,3.4762271037,4.23212876143,2.16506440046,1.67810989114,2.79684880754,-2.34013895842,1.16666071076,-0.848807160775,-0.393374777022,22.0948386441
off_to_on,3.10414167873,-0.346215046106,1.86309562065,3.61880187746,4.36895472295,5.31549117269,2.68961230728,2.44651932561,3.30000652041,-1.85464457951,1.95888757651,-0.0751406645195,0.165922164394,14.7565201134
off_to_on,4.07952258968,0.922482829138,2.75646627837,4.00467516708,5.03064082409,6.18488772636,3.26831900458,3.18550438657,3.67262815606,-1.11244785019,2.69858055172,0.754518136211,0.800986288222,8.7742167342
off_to_on,4.78214863964,2.24076315228,3.49940115007,4.21934231824,5.40930834189,6.77724829527,3.85995330146,3.85400340352,3.89077595626,-0.160459120724,3.34327443427,1.60544525043,1.49217181154,5.11346288714
off_to_on,5.18244680103,3.50571186724,4.05218008713,4.24041231808,5.47532517389,7.04134627087,4.40311995693,4.40727786197,3.9383224766,0.930976563689,3.85539094271,2.43937130286,2.2127236172,4.26240401244
off_to_on,5.28122039475,4.61968087475,4.39333861692,4.0561007201,5.22365650103,6.94085913317,4.8224967318,4.79911168582,3.8087748806,2.07370435857,4.204472927,3.21411067461,2.92822146285,6.17205470875
do_nothing,5.10505214608,5.49739737254,4.5181462567,3.6673609046,4.67353388725,6.45710742254,5.03782533883,4.98484582551,3.50627014707,3.16920174965,4.36862465396,3.88372967106,3.59666414532,10.2799799427
do_nothing,4.69864037813,6.07118257114,4.43512121077,3.08898936684,3.86574581007,5.59151102374,4.97468324727,4.92522407325,3.04559128298,4.11724218529,4.33519230794,4.3997627247,4.16959160096,15.6107063595
do_nothing,4.11559998146,6.2942537774,4.16154335202,2.34947859464,2.85802937927,4.36766798491,4.57575654077,4.59086293579,2.45117781916,4.82505840878,4.10082878468,4.71382076809,4.59453534533,20.9351899632
do_nothing,3.40941677184,6.14233635441,3.71901324024,1.48952532506,1.71923325839,2.83279627206,3.8111673866,3.96697473503,1.75523155766,5.21620651183,3.67115069346,4.78166656418,4.81889318664,24.9637627956
do_nothing,2.62611131344,5.61395442572,3.12999051318,0.559257573898,0.523006596643,1.05812814304,2.68641519056,3.05780248204,0.99513250467,5.23831467843,3.06020396565,4.56850191124,4.79506948538,26.5431952594
do_nothing,1.79977595192,4.72979085033,2.41595770333,-0.385598424526,-0.658255745998,-0.862242484719,1.2466809027,1.89010464674,0.21046402482,4.868952361,2.2899092823,4.05487966081,4.48644772578,24.8292234996
do_nothing,0.951568474615,3.53142241304,1.59745255681,-1.28825092378,-1.75860261682,-2.81454751235,-0.423390772579,0.514991771388,-0.560011180167,4.11898037133,1.38957189288,3.24238274078,3.87351567507,19.4107917672
do_nothing,0.0920792475821,2.0795807057,0.695770115302,-2.09561287793,-2.72243317218,-4.67091871445,-2.20480968087,-0.992510916109,-1.28108715629,3.0329376807,0.395432777722,2.15806032595,2.95929255765,10.3704187568
do_nothing,-0.773649236274,0.451911321747,-0.264261617211,-2.76279852774,-3.50692999963,-6.29743927892,-3.95404346018,-2.53661163018,-1.92327589936,1.68627618756,-0.649865516053,0.856619213211,1.77315171119,-1.72486727239
do_nothing,-1.63967153612,-1.25994454673,-1.25130644333,-3.2568477285,-4.08305198231,-7.56440326038,-5.51667897344,-4.00675225752,-2.46419456043,0.179551356449,-1.69809978986,-0.580446706396,0.372214769816,-15.8972722052
do_nothing,-2.49275485617,-2.9541966992,-2.2253232181,-3.55925440884,-4.43530629268,-8.35810187723,-6.74356447825,-5.28623067581,-2.88909166456,-1.37001232328,-2.6968010962,-2.04925605669,-1.16028248784,-30.8828992893
do_nothing,-3.30756359824,-4.52390370558,-3.13703211647,-3.6670059048,-4.56064125025,-8.5930589784,-7.50764046847,-6.26281493933,-3.19054507355,-2.83886911952,-3.59129640053,-3.43146139112,-2.71990659623,-45.2871641569
do_nothing,-4.04464586361,-5.86320867943,-3.92964873369,-3.59201084649,-4.46684673881,-8.22332953479,-7.71945200337,-6.84034819173,-3.3674742409,-4.10846089639,-4.32755497859,-4.60515071874,-4.18905233679,-57.7478167014
do_nothing,-4.651954268,-6.87467268837,-4.54306973272,-3.35898416647,-4.1708170409,-7.25132309163,-7.33936153838,-6.95006233563,-3.42369352224,-5.07637991666,-4.85579423977,-5.45767271856,-5.447454706,-67.0831347235
do_nothing,-5.06998433586,-7.47728640663,-4.92020270639,-3.00204471226,-3.69693630117,-5.73266995247,-6.38476186307,-6.56018170722,-3.36628031926,-5.66623472153,-5.1346301923,-5.89891713599,-6.38415453821,-72.406913815
do_nothing,-5.23992484915,-7.61446369765,-5.01465826089,-2.56043971929,-3.07571379813,-3.77593482658,-4.93110427308,-5.682443146,-3.20403581823,-5.8351501725,-5.13539153541,-5.87334571692,-6.90958246048,-73.1984344813
do_nothing,-5.11360311224,-7.2611054052,-4.79865097143,-2.07391985412,-2.34265499446,-1.53648942744,-3.10625588378,-4.37440020221,-2.94627774019,-5.57804073042,-4.84608520383,-5.36906036944,-6.96628214342,-69.3234307206
do_nothing,-4.66358099999,-6.42872165206,-4.26976056039,-1.57833338263,-1.53723541226,0.795465759054,-1.07850290565,-2.73680307492,-2.60213088585,-4.92811439225,-4.27443393124,-4.42243445424,-6.53684272797,-61.0098567514
do_nothing,-3.89159371957,-5.16765448558,-3.45523123857,-1.10198104891,-0.701772977302,3.01196990891,0.960674065375,-0.905910101882,-2.18038453594,-3.95346242083,-3.44942368527,-3.11730447028,-5.64785921865,-48.7886735107
do_nothing,-2.8336599786,-3.56566397314,-2.41274590864,-0.663176516581,0.120013911698,4.90794101778,2.81721571384,0.958775362162,-1.68988141598,-2.75002362687,-2.42090899963,-1.57837136662,-4.36916727776,-33.4139660226
do_nothing,-1.5606190609,-1.74251584963,-1.22707455365,-0.269301983715,0.884917756956,6.30323122316,4.31613866184,2.69022012537,-1.14030728039,-1.43163044125,-1.25702101072,0.0407883385343,-2.80815690847,-15.7779127594
do_nothing,-0.173509004952,0.159304305657,-0.00259892262662,0.0825459769718,1.55266460902,7.06353715665,5.32163574492,4.13137496296,-0.543177941989,-0.118195034895,-0.0393854315271,1.57395259741,-1.09958824395,3.16556366347
do_nothing,1.20600677357,1.98709130831,1.14763147246,0.403434432574,2.08874238483,7.11750679196,5.75310633031,5.15248192782,0.0872173121302,1.07666928373,1.1435475878,2.86093580602,0.608070015483,22.4587406938
do_nothing,2.44915158725,3.59247305039,2.11505684447,0.709306601634,2.46737713587,6.4676385339,5.59500408223,5.66605935667,0.733155001988,2.05720746651,2.20447408816,3.7664985915,2.16826622329,41.1755290747
do_nothing,3.43578369539,4.8464620664,2.8092749658,1.01699751728,2.67427475627,5.19316925084,4.89908111934,5.63761101049,1.37329732916,2.75495513033,3.06568655871,4.19710382638,3.45212637529,58.4362702623
do_nothing,4.07021787512,5.65324140605,3.17030074517,1.34011959672,2.70867704926,3.44404026814,3.77851108105,5.0905365907,1.98311677305,3.13497293201,3.66704107091,4.11329332863,4.36243256593,73.4089266093
do_nothing,4.29480871754,5.96093641056,3.17756333669,1.68540923635,2.58428913503,1.42611287273,2.394381052,4.10437794231,2.53595473019,3.19818387522,3.97245617384,3.5359226199,4.84406321934,85.3069984026
do_nothing,4.09918223377,5.76788275837,2.85413666344,2.05007184628,2.32872775963,-0.621057746751,0.936026742904,2.80634228581,3.00464230522,2.9795778293,3.97406816761,2.54521081253,4.88953658377,93.3952916814
do_nothing,3.52353092549,5.12338255246,2.2652968005,2.42053684686,1.9813104043,-2.45154127434,-0.402482612717,1.3568994998,3.36351922902,2.5425449893,3.69340335517,1.27245123572,4.53888762549,97.0127413895
do_nothing,2.65517843886,4.12259011816,1.51126669588,2.77285154622,1.58923214299,-3.84230082729,-1.44683825845,-0.0689584476486,3.59061780589,1.97006848162,3.17926569397,-0.114828808603,3.87381493869,95.6171866861
do_nothing,1.618563256,2.89590570809,0.714838011546,3.07472666018,1.20242831862,-4.62084323642,-2.06487972532,-1.30259113711,3.66974316675,1.35388522853,2.50243753689,-1.43259964258,3.00676706248,88.8510858421
do_nothing,0.559750287741,1.59397984219,0.00533043089079,3.28902440497,0.867656875501,-4.68770567324,-2.18396981129,-2.20216005797,3.59218420117,0.782963769933,1.74770056149,-2.50261297502,2.06629907921,76.6207691994
do_nothing,-0.372587780446,0.370042035603,-0.499056274245,3.37828157709,0.622514492739,-4.03072495158,-1.80101121179,-2.67007101241,3.35783078797,0.332716110954,1.004048195,-3.17450719325,1.18053032861,59.1762263311
do_nothing,-1.04719828652,-0.638324418146,-0.708117730113,3.30971111755,0.49019125778,-2.7289540976,-0.98364257979,-2.66513484281,2.97554609169,0.0562484712793,0.35422819228,-3.34495997782,0.460802298956,37.1747966666
do_nothing,-1.36853160975,-1.32569934161,-0.573372511278,3.06004643128,0.475746993224,-0.945332448259,0.137748059106,-2.20779315077,2.46273682724,-0.0213221387233,-0.135115966911,-2.97143180827,-0.0123678262666,11.7113782536
do_nothing,-1.29068260589,-1.63152736988,-0.0966104314897,2.61959439707,0.564552040984,1.09137163334,1.38637522415,-1.37761224104,1.84416564901,0.0951348836188,-0.421466706199,-2.078687574,-0.199221742172,-15.6996801925
do_nothing,-0.824927661189,-1.54733692742,0.668123872909,1.99494631835,0.723287866461,3.11342456506,2.56184985174,-0.303233337123,1.15014349532,0.372592658683,-0.491571893653,-0.757172721334,-0.105287945817,-43.2001138128
do_nothing,-0.0396367674359,-1.11748019703,1.61963344861,1.209951176,0.903577070138,4.84667441093,3.46660655295,0.85404851885,0.414312506338,0.755171828552,-0.362992635623,0.8466595008,0.220094850285,-68.7216148966
do_nothing,0.947624628085,-0.433215269166,2.62131428069,0.30476320407,1.04795085571,6.04482207584,3.93261398143,1.92105278449,-0.328727914578,1.17213769997,-0.0817874084729,2.54695569443,0.691075553628,-90.1694722008
do_nothing,1.98490589078,0.379192328566,3.51816962393,-0.666990150895,1.09751529231,6.52111444373,3.84490031562,2.73520339146,-1.04569336186,1.54748502771,0.283454456628,4.14001044901,1.19746468842,-105.638128001
do_nothing,2.90571845776,1.17489189235,4.15695691141,-1.64264310353,1.00039720472,6.17336675264,3.15875850856,3.16584977821,-1.70655618218,1.80983976595,0.650547680824,5.42813377146,1.6201986085,-113.633314702
do_nothing,3.55131531259,1.80933953857,4.40684716241,-2.55605440799,0.719880748094,4.99897321329,1.90824624553,3.13164199282,-2.28598763961,1.9014144228,0.934540716387,6.24292630359,1.84807401496,-113.271128868
do_nothing,3.79242263688,2.15727317656,4.17784619659,-3.34368323894,0.24111739312,3.09777365472,0.204674464651,2.61166656279,-2.76421122377,1.78492903458,1.05910606459,6.46513456355,1.79356412833,-104.42426738
do_nothing,3.54747981131,2.12936199692,3.43447373861,-3.95049851606,-0.424583062876,0.662160777143,-1.7749489059,1.648844409,-3.12726501876,1.44772433033,0.967063834993,6.03870352194,1.40564704629,-87.7900739481
do_nothing,2.79489012915,1.68441544564,2.20279160156,-4.3350611711,-1.23860443904,-2.04455696589,-3.80825015844,0.345095009866,-3.36675217578,0.902699411266,0.628699757021,4.97738906572,0.677967817044,-64.8637140315
do_nothing,1.57758052931,0.835606278285,0.569736596393,-4.47321876868,-2.13736177115,-4.71899194982,-5.65416354347,-1.15115017292,-3.47922151813,0.186143382178,0.0467999518546,3.36323736659,-0.348734111843,-37.8117149257
do_nothing,-0.000796139648143,-0.350068495942,-1.32527035859,-4.36001954496,-3.03802107011,-7.05394439555,-7.08264883262,-2.66349187812,-3.46535625011,-0.647063972821,-0.742273997725,1.33725526763,-1.59025315752,-9.25470789457
do_nothing,-1.78755329491,-1.75899968478,-3.30544057947,-4.00966662221,-3.84704559826,-8.77558040518,-7.90370329404,-4.00976714039,-3.32915322885,-1.53008969282,-1.6716559072,-0.916449064314,-2.92813832526,18.0184347233
do_nothing,-3.59902888995,-3.24391645047,-5.17656576205,-3.45356549371,-4.47061690379,-9.67683208264,-7.99194969345,-5.02502675219,-3.07724895657,-2.39164278804,-2.65086187116,-3.19100683734,-4.22332601648,41.3717688029
do_nothing,-5.24262955245,-4.64092723528,-6.74926501495,-2.73673937034,-4.82569497261,-9.64277274504,-7.30359797625,-5.58229440371,-2.71849690066,-3.16331008053,-3.57568784686,-5.27907573106,-5.33244897463,58.638385159
do_nothing,-6.53996035092,-5.78851410867,-7.86070301202,-1.91306993853,-4.85035256515,-8.66472231933,-5.88351827433,-5.6084103881,-2.2638334031,-3.78582872804,-4.33993915288,-6.99439072108,-6.12476296262,68.3893316649
do_nothing,-7.34802250063,-6.54614005105,-8.39304067954,-1.03994317267,-4.51206623867,-6.84127286891,-3.86140860935,-5.09291847302,-1.72639810281,-4.21362913536,-4.84758917858,-8.19009612821,-6.49758269404,70.1173540646
do_nothing,-7.57575939948,-6.81023131428,-8.28633829436,-0.172926970973,-3.81286903457,-4.36610474756,-1.43743183378,-4.08888319076,-1.12181171721,-4.41730146125,-5.02391794313,-8.77188601612,-6.38834288377,64.307185233
do_nothing,-7.19389873259,-6.52568443199,-7.54439175497,0.63892461089,-2.79064154009,-1.50416822867,1.14094848875,-2.70560050335,-0.468469953402,-4.38398589392,-4.82431599615,-8.7047197739,-5.78186408021,52.3783275165
do_nothing,-6.23697661837,-5.69166009505,-6.23293701093,1.35665068107,-1.51629221882,1.44069322884,3.60806294541,-1.09424126323,0.212305213756,-4.11600436945,-4.23973596948,-8.01274135934,-4.71203961949,36.5031562211
do_nothing,-4.79750304953,-4.36117532707,-4.47066983727,1.95351885804,-0.0870928843654,4.16250451696,5.71141714502,0.571602381336,0.89640349347,-3.62828902567,-3.29819243891,-6.77289328285,-3.25788111172,19.3204353613
do_nothing,-3.01328291646,-2.63478668894,-2.41445639344,2.41558614367,1.38307722946,6.38958550245,7.24140986371,2.11783886789,1.55745989319,-2.94528452414,-2.06219502156,-5.10346364267,-1.53456750219,3.57953775319
do_nothing,-1.04979532272,-0.649365367817,-0.24082636325,2.7407598878,2.77543053604,7.91600147868,8.05564854293,3.3913408097,2.16782853825,-2.09799173218,-0.622486710821,-3.14934097757,0.319256567324,-8.23844385707
do_nothing,0.919866293976,1.43649116749,1.87375069464,2.93661944247,3.97851644064,8.62408829506,8.09481831062,4.2781254154,2.69996746431,-1.12168603281,0.911112687755,-1.06601577468,2.1562700444,-14.2716333717
do_nothing,2.73475783563,3.45855135688,3.77125369882,3.01740227391,4.89954775864,8.49531470511,7.3881536192,4.71591145315,3.12813133169,-0.0546129689649,2.42064218743,0.995661063773,3.83550453958,-13.5513561858
do_nothing,4.26297450518,5.26262991113,5.32691440789,3.00064112288,5.47346466621,7.60831124055,6.04790779535,4.69951045898,3.43020712929,1.06231812513,3.79143093289,2.90225112529,5.23582888145,-6.15913093587
do_nothing,5.41360503764,6.71813569366,6.45879362584,2.90395235166,5.66868829553,6.1246042386,4.25363768568,4.27850873118,3.58948821905,2.18510145835,4.92273859197,4.5468295709,6.26639802289,6.75854067489
do_nothing,6.14247687847,7.72816997013,7.1312945337,2.74242053963,5.48894604117,4.26421409602,2.22843028699,3.54775666358,3.59617138788,3.26594526201,5.73647315638,5.85384190192,6.87304831036,23.1239753253
do_nothing,6.45135858401,8.2354000497,7.35266903528,2.52691061182,4.97105694782,2.27458981042,0.210222844945,2.63215596493,3.44838234541,4.25292974014,6.18314082856,6.77979597602,7.04020161073,40.1967929851
do_nothing,6.38123471832,8.22352869355,7.16741221747,2.2634839519,4.17907997331,0.397181636768,-1.57802732089,1.66798923734,3.15258492159,5.09061028979,6.24455749196,7.31044383255,6.78844400988,54.9441937482
do_nothing,6.00108750258,7.71474038286,6.64510638911,1.95392185151,3.19568138099,-1.16380864935,-2.95546042887,0.783468034137,2.72330118868,5.72202329028,5.93326182997,7.45552458052,6.16848656847,64.4651489249
do_nothing,5.39419173581,6.76395469823,5.86767722913,1.59719297622,2.11190963391,-2.26634207418,-3.80425961214,0.0812286223702,2.18215354245,6.0922959047,5.28896152555,7.24234565237,5.25262414414,66.4118343028
do_nothing,4.64417798979,5.45099965675,4.91711021645,1.19156445213,1.01673359202,-2.84590677161,-4.0818205918,-0.374823521709,1.55632326659,6.1537303508,4.37266654939,6.70945856512,4.12503397995,59.3504127604
do_nothing,3.82301710669,3.87190800152,3.86544466039,0.736967167868,-0.0123178262848,-2.9194878455,-3.82273430234,-0.566578262213,0.87659112245,5.87188284293,3.25937965004,5.90145730973,2.87227755122,43.0099826013
do_nothing,2.98265329122,2.13044280343,2.76836250413,0.237196262539,-0.916273773771,-2.57790319578,-3.13053766333,-0.521845050287,0.175173772888,5.23185061477,2.03030264311,4.86554523904,1.57519647288,18.3824049717
do_nothing,2.15133860164,0.330709910383,1.66300698968,-0.298439732789,-1.65880377782,-1.96788200704,-2.16054474448,-0.307686090703,-0.516411488241,4.24377646148,0.765475436617,3.65005516837,0.303063432215,-12.3449501862
do_nothing,1.33490944923,-1.42862979885,0.56991561491,-0.854319071046,-2.22691696779,-1.26666730023,-1.09623680957,-0.0180701322301,-1.16923455999,2.94652496652,-0.462391585442,2.30465243525,-0.889579208399,-46.019293355
do_nothing,0.522425359269,-3.05840774329,-0.501746004799,-1.4087234616,-2.6284129155,-0.652925017981,-0.122510876351,0.242250083554,-1.75841668408,1.4086020509,-1.59237182193,0.88158258246,-1.96341684407,-78.8890015409
do_nothing,-0.305110304138,-4.48144630044,-1.54699724872,-1.93508492351,-2.88666844609,-0.278204884256,0.600544045075,0.375222834635,-2.26406036811,-0.27432325869,-2.57782820618,-0.562892720854,-2.89263292914,-107.061417617
do_nothing,-1.16470183897,-5.6339367458,-2.55753914682,-2.40412268121,-3.03369970679,-0.243063702728,0.959800734791,0.305769101764,-2.67161281013,-1.98550993673,-3.38702084389,-1.96776039655,-3.66169761944,-126.993426453
do_nothing,-2.06191666605,-6.46622889476,-3.51557214944,-2.78659783459,-3.10265061881,-0.581254022998,0.904235961859,-0.0055294757516,-2.97170951862,-3.59655501113,-4.00211265676,-3.26795463521,-4.26158202594,-135.950896937
do_nothing,-2.98383530214,-6.94352805511,-4.39029072172,-3.05632166654,-3.12090001998,-1.25420363844,0.451107827829,-0.555157784247,-3.15961263088,-4.97930958108,-4.41704328381,-4.39690977379,-4.68630271207,-132.376136781
do_nothing,-3.89575419793,-7.04683404659,-5.13789612257,-3.19301438594,-3.10484726399,-2.15653188224,-0.31754657814,-1.29584875578,-3.2344051329,-6.01903845358,-4.63482513307,-5.29097509036,-4.93054302149,-116.113787873
do_nothing,-4.74234942376,-6.7742125043,-5.70530946339,-3.18462968458,-3.05715141449,-3.13177535119,-1.2674891956,-2.14232801386,-3.1981212256,-6.62725572882,-4.66480463513,-5.89526300609,-4.98881779994,-88.4636526132
do_nothing,-5.45324680243,-6.14221625138,-6.03707364517,-3.02883328196,-2.96680551743,-3.99604800195,-2.23210989877,-2.98279482033,-3.05498229989,-6.75256458904,-4.520337041,-6.17012285341,-4.85629796196,-52.0514013797
do_nothing,-5.95219232811,-5.18703521363,-6.08432111161,-2.73343955098,-2.81198294205,-4.56623882126,-3.03672183937,-3.69450353816,-2.81086988596,-6.38795705273,-4.21716726773,-6.09718180943,-4.53105285314,-10.5319624661
do_nothing,-6.16839547391,-3.96480226994,-5.81425745637,-2.31575229667,-2.56516238165,-4.68870800069,-3.5239658251,-4.16123963365,-2.47310829186,-5.57338597154,-3.77262298287,-5.68382376865,-4.01716299327,31.8375767724
do_nothing,-6.04822583157,-2.55045870329,-5.21844209391,-1.80090328025,-2.1996841887,-4.26436571185,-3.57685184178,-4.2902296387,-2.05056036323,-4.39297028162,-3.20554269695,-4.96510704862,-3.32795512671,70.701507379
do_nothing,-5.56534247948,-1.03470225054,-4.31826831536,-1.21941413636,-1.69666427833,-3.2665133342,-3.13631868745,-4.02611671248,-1.55397139904,-2.96686827196,-2.53671178953,-4.00244031011,-2.48854912246,102.121345586
do_nothing,-4.72754164353,0.481207981493,-3.16644119735,-0.604305444222,-1.0511252863,-1.74882346317,-2.21095870291,-3.36005447382,-0.996440043176,-1.43856332241,-1.78948641628,-2.87879799663,-1.53699260226,123.038289729
do_nothing,-3.57908951998,1.89266907675,-1.84386335499,0.0118724643595,-0.276307356733,0.157807963032,-0.877624824155,-2.33265778062,-0.393860250952,0.0410466099811,-0.990261664156,-1.69079138921,-0.523480127594,131.623734641
do_nothing,-2.19798852566,3.10046907641,-0.452070106075,0.599715214732,0.594622062747,2.25927500422,0.72713634474,-1.03040029236,0.234828932911,1.33087496586,-0.16848639775,-0.53843380568,0.49252687392,127.47417327
do_nothing,-0.688400542532,4.02017861634,0.897908976328,1.13502993439,1.50986567187,4.32138728628,2.42366536197,0.424056054673,0.867727547468,2.31605116107,0.643968557395,0.486137812938,1.44709796255,111.627401068
do_nothing,0.830800806613,4.59108091482,2.09876482832,1.60007230797,2.40326915279,6.09910502537,4.01158015607,1.88629982996,1.48048733328,2.92139030983,1.41414088099,1.30947124544,2.27801687693,86.4004269115
do_nothing,2.23977170506,4.78341553063,3.06030030055,1.98386341594,3.20109829139,7.36804057258,5.29503413015,3.20745400327,2.04728146478,3.12012564692,2.10990594206,1.88559299812,2.93153953285,55.0727034742
do_nothing,3.43178889518,4.60279054708,3.72098437323,2.28163054659,3.83047166758,7.95406333655,6.10756278205,4.2520314405,2.54218590593,2.93666755334,2.70226999016,2.20144918482,3.36875861878,21.4580989391
do_nothing,4.32567267451,4.09088673805,4.05585557892,2.493541387,4.22833819516,7.75708352418,6.33333683019,4.91405266067,2.94085602892,2.44290537724,3.16769914974,2.27807450992,3.57059824023,-10.5771907802
do_nothing,4.87475982329,3.32200919739,4.07945284306,2.62299732767,4.3497801037,6.7658503618,5.92214978044,5.12939199165,3.222325801,1.7484086651,3.49012048285,2.16714935155,3.54060878569,-37.5876273633
do_nothing,5.07115030553,2.39558196248,3.84316630725,2.67480532464,4.17448274764,5.06177542079,4.89631335506,4.88285868637,3.37072414434,0.98569987106,3.66226039526,1.9432601699,3.30501537,-56.9515986969
do_nothing,4.94465192884,1.42525361575,3.42723227352,2.65355154258,3.71043536124,2.81122035863,3.34869568283,4.2092432068,3.37669955344,0.292448319431,3.68607475881,1.69281349045,2.90985264658,-67.1549390143
do_nothing,4.55663453623,0.525801228815,2.92841929274,2.56245398271,2.99428146278,0.247178385684,1.43226986432,3.18836124885,3.23837082781,-0.207121295074,3.57215969353,1.50107206841,2.4154386637,-67.9217180013
do_nothing,3.98975931803,-0.200595860785,2.44513925828,2.40288298523,2.08817569874,-2.3573672125,-0.657405259812,1.93489735629,2.96167534119,-0.419169373146,3.33818973028,1.43910207494,1.88883781273,-60.1804025459
do_nothing,3.33515435012,-0.676957949357,2.06215896975,2.17462162114,1.07346570786,-4.72108167564,-2.70450902614,0.584483059091,2.56005902302,-0.293277172948,3.00658485547,1.55248860882,1.39527722017,-45.8756751011
do_nothing,2.67897237529,-0.861284785765,1.83721012406,1.87681047493,0.0419401584443,-6.58698844461,-4.49729765795,-0.722138754652,2.053533633,0.170186014484,2.60173389978,1.85347644222,0.98966324283,-27.6564263669
do_nothing,2.09033618634,-0.752116267931,1.79157247674,1.50940262659,-0.914289865144,-7.75223539038,-5.85151184103,-1.85485775116,1.46720508938,0.919393471925,2.14717764356,2.31774646337,0.709365236163,-8.48601246286
do_nothing,1.61244131622,-0.388989533675,1.90616160751,1.07486289575,-1.71302339443,-8.0913268335,-6.63012704355,-2.70796006143,0.829440169686,1.85723611225,1.66316768453,2.88640580263,0.569286431922,8.77023918416
do_nothing,1.25808255463,0.152432679738,2.1238641625,0.579794744293,-2.29104279331,-7.57009984742,-6.75727141,-3.21038182696,0.169878659987,2.85357725729,1.16496353361,3.47303998736,0.559945352794,21.7241269539
do_nothing,1.01017856039,0.770070680517,2.35794318474,0.0361766928124,-2.61090106434,-6.24891492126,-6.22493184844,-3.33145825569,-0.482491576898,3.7620066394,0.662118226069,3.97495352044,0.64888663299,28.7606508737
do_nothing,0.827094810001,1.34880838078,2.50541988975,-0.538061539723,-2.66458996511,-4.27488341605,-5.09199515258,-3.08180450639,-1.10099921725,4.43890556565,0.158849062325,4.28711641851,0.78528450364,29.2145476583
do_nothing,0.6518287936,1.77584874565,2.4635636895,-1.11930136293,-2.4736556793,-1.86429008873,-3.47610197148,-2.50959678798,-1.66254341124,4.76232058513,-0.344581226245,4.31692869665,0.907160418847,23.4084557552
do_nothing,0.42353594595,1.95603685727,2.14710835478,-1.6793925692,-2.08578171782,0.722480783878,-1.53960779632,-1.69306859532,-2.14835309493,4.6481660841,-0.84970974784,3.99777395305,0.950271454025,12.5535736132
do_nothing,0.0895297357025,1.82510492158,1.50364090523,-2.18762781947,-1.56830440223,3.21038131216,0.528450280074,-0.730428745929,-2.54424310554,4.06163506944,-1.35730947088,3.29948022811,0.857490283658,-1.46742649406
do_nothing,-0.384163441755,1.35903894739,0.524813257366,-2.61332979907,-0.999506396709,5.33995364336,2.53215241231,0.271397296821,-2.84043113541,3.02234332521,-1.8648528057,2.23422224208,0.58742418871,-16.3999695619
do_nothing,-1.00536796812,0.578267096343,-0.748418433528,-2.92874577467,-0.458799666654,6.89489715686,4.28799886294,1.20781371704,-3.03103826473,1.60257630002,-2.3644453154,0.85702537795,0.121119656676,-29.9543374396
do_nothing,-1.75260995474,-0.453941569056,-2.22749141438,-3.11188499285,-0.0170283319614,7.7239098405,5.64170006426,1.9861975496,-3.11343175429,-0.0810662014325,-2.84160966156,-0.739221436188,-0.534044048959,-40.1309749148
do_nothing,-2.57674058795,-1.63869686996,-3.78484783311,-3.14892589288,0.271918406709,7.75457551794,6.48090460108,2.53328494723,-3.08757675435,-1.88145342315,-3.275178257,-2.43357738376,-1.34379165976,-45.4892968507
do_nothing,-3.40706236507,-2.85338866972,-5.26843484465,-3.03586459909,0.377184015508,6.99810695584,6.74292536056,2.79985713849,-2.9555428583,-3.63825039565,-3.63839044415,-4.09035743636,-2.24979452187,-45.3247506265
do_nothing,-4.16098135613,-3.96669142629,-6.52019875187,-2.77916811855,0.294026988774,5.54487904716,6.41718239679,2.76269590429,-2.72126583629,-5.19645883124,-3.90111077153,-5.57413891584,-3.17554705766,-39.7332945925
do_nothing,-4.75565929163,-4.85467078727,-7.39607142915,-2.39532270414,0.0436135212246,3.55175189098,5.54269665727,2.4241291337,-2.3906022416,-6.4237250226,-4.03291600863,-6.76446192716,-4.03451613478,-29.5592643508
do_nothing,-5.11983375255,-5.41584659302,-7.78469439031,-1.90931238908,-0.330356283669,1.223062587,4.20146492547,1.80972606001,-1.97164545822,-7.22418994204,-4.00666516207,-7.56830029365,-4.73952483155,-16.2393388458
do_nothing,-5.20396041971,-5.5832231834,-7.62226818216,-1.35220451268,-0.76767672464,-1.21223907083,2.50887122386,0.964803091708,-1.47520782055,-7.54718503106,-3.8020886428,-7.9287366144,-5.21220158455,-1.56960127436
do_nothing,-4.98710977308,-5.33173349311,-6.90143542538,-0.758138093078,-1.19949652061,-3.52457546616,0.60242192169,-0.0496349952797,-0.915325612251,-7.38983364344,-3.40892109234,-7.8288523129,-5.39135607185,12.5674408182
do_nothing,-4.47957719736,-4.68019565709,-5.67293207246,-0.161090191985,-1.55699186035,-5.50619337097,-1.36995973386,-1.16104221517,-0.309620497061,-6.79349278081,-2.82915828662,-7.29055329787,-5.23932476542,24.4748141691
do_nothing,-3.72085625136,-3.68765554251,-4.03975506068,0.408176495918,-1.77977368076,-6.98981762248,-3.26104293773,-2.28930699065,0.320643131202,-5.83483624489,-2.07813291263,-6.36878686811,-4.74563074066,32.8728279927
do_nothing,-2.77336978975,-2.44477346945,-2.14464885254,0.924608972634,-1.82302813019,-7.86185923829,-4.93405761665,-3.35052576174,0.950930261333,-4.6131140336,-1.1842591432,-5.14225519098,-3.92767659738,37.0588750375
do_nothing,-1.7130336035,-1.06159442958,-0.152654804416,1.37050559814,-1.66258882771,-8.06928439793,-6.27069887907,-4.26073156924,1.55430256779,-3.23561893157,-0.187468343266,-3.70219790844,-2.82857993221,36.9752986925
do_nothing,-0.618232954144,0.346480400441,1.76884194253,1.73612771051,-1.29742982301,-7.62003342964,-7.17723764076,-4.93983531785,2.10277115092,-1.80357996175,0.863477600739,-2.14103218379,-1.51261124645,33.1795250574
do_nothing,0.440958402539,1.67249598845,3.46979489246,2.01924919463,-0.749407403355,-6.57759190095,-7.58882460456,-5.31602528129,2.56904508543,-0.400558972607,1.91447651899,-0.54257252998,-0.0589563468723,26.7251292956
do_nothing,1.41153628122,2.82958774313,4.83419874944,2.2237602069,-0.0604210112859,-5.05087918047,-7.47219003612,-5.33074302828,2.92851431931,0.915024812922,2.90997852339,1.02478178194,1.44533357649,18.975143568
do_nothing,2.26286296,3.75891292749,5.79156025493,2.35757241652,0.712535545953,-3.18098148883,-6.82695231142,-4.94413361693,3.16125323117,2.1123076032,3.79685693481,2.51105234149,2.91233384926,11.3779450962
do_nothing,2.98764743669,4.43291700186,6.32166908566,2.43016862875,1.5037379524,-1.12639676969,-5.68567356365,-4.14059810139,3.25380737678,3.18522075066,4.52787085153,3.88371512743,4.25942838315,5.24030475111
do_nothing,3.59848543543,4.85371881643,6.45219491953,2.45018591065,2.24569360789,0.951610595211,-4.11267784553,-2.93381441457,3.20053540498,4.14528066351,5.06442077024,5.1232890903,5.41414693089,1.53119173335
do_nothing,4.12059964146,5.04715587677,6.24969477574,2.42341166842,2.87587395815,2.90218816982,-2.20152233943,-1.37039957824,3.00432067749,5.01136913759,5.37842096987,6.21660597228,6.31739601697,0.74406536897
do_nothing,4.58209301839,5.05369392213,5.80557956017,2.35150774707,3.34248139699,4.59560678851,-0.0709313987249,0.468684387313,2.6765376998,5.79843502318,5.45324738126,7.1492960544,6.92510348613,2.83569342457
do_nothing,5.003497124,4.91787249326,5.2193170214,2.23166750433,3.60869250503,5.93091416611,2.14099691546,2.46979058578,2.23624769059,6.50723633612,5.28384482667,7.89917434188,7.20853837434,7.24759532418
do_nothing,5.38858167268,4.67815831992,4.58153151018,2.05727042778,3.6550515202,6.84034149002,4.2844023863,4.49186632419,1.7086931634,7.11709604238,4.87617289642,8.43207479533,7.15373103734,13.0038680305
do_nothing,5.71825338328,4.35898017009,3.95964163897,1.81944803146,3.47993987905,7.29061732464,6.20698578287,6.37549726264,1.12324978274,7.58318297792,4.24622130846,8.70127358729,6.76047937245,18.8682489426
do_nothing,5.94892401668,3.96633684403,3.38825767977,1.50933486646,3.09828432454,7.28159653348,7.76466757504,7.95535326791,0.511062328821,7.83911748605,3.41882748786,8.6510261154,6.04138047471,23.535354059
do_nothing,6.01603160923,3.48776260942,2.86580365565,1.12066944285,2.53885717537,6.84276196447,8.83290800217,9.07513050604,-0.0973695948716,7.80484355318,2.42648443186,8.22401126594,5.02118740848,25.8271428397
do_nothing,5.84255834091,2.8966951583,2.35784773079,0.652347375257,1.84064638969,6.02820869413,9.3177428955,9.60359256307,-0.674387201358,7.39883321116,1.30824716973,7.37174532204,3.73658883311,24.8662002537
do_nothing,5.35153216632,2.16053504752,1.80656604328,0.11052235765,1.04881973381,4.91069446628,9.16540285023,9.4499553869,-1.19691351586,6.55292747328,0.108749042647,6.06641516874,2.23628710685,20.2021077418
do_nothing,4.48076262981,1.25103151185,1.14478932,-0.490098892915,0.210778271074,3.57526383912,8.36933071152,8.5767070945,-1.64756829329,5.22758935125,-1.1227544821,4.31218916041,0.581054239642,11.8751038856
do_nothing,3.19756516655,0.155182372924,0.312336859194,-1.12602032784,-0.627298115464,2.1128574734,6.97352577565,7.00804969447,-2.01507247838,3.4251347768,-2.33346634844,2.15396591272,-1.15668340963,0.411067692453
do_nothing,1.51106024316,-1.11532990732,-0.72805642675,-1.76589311866,-1.42314582183,0.614227519094,5.07142975943,4.83250713323,-2.29395496842,1.19865752021,-3.46843423394,-0.318255092227,-2.89421110278,-13.2479790347
do_nothing,-0.520166220337,-2.51799567141,-1.9779033991,-2.37258257792,-2.14023909883,-0.835588269854,2.80000857749,2.19883627817,-2.48366778169,-1.34513653601,-4.47240462974,-2.97067197592,-4.54124065791,-27.8647066635
do_nothing,-2.78670180451,-3.97801157343,-3.39547848572,-2.90616927123,-2.74876956855,-2.16202197168,0.329227561788,-0.694858730271,-2.58729196318,-4.05018445678,-5.29223820757,-5.63317913944,-6.00418682761,-42.0590620437
do_nothing,-5.13407033017,-5.39218826472,-4.89516443277,-3.32755845963,-3.22593127504,-3.30476790232,-2.15230295527,-3.61806584157,-2.61006486551,-6.72244220779,-5.87987191158,-8.1127081118,-7.19195328484,-54.4699082327
do_nothing,-7.37543783313,-6.63810765028,-6.3540955787,-3.60228402067,-3.55573030599,-4.2204306416,-4.45420051156,-6.32930493567,-2.55797311546,-9.14739901151,-6.1956828425,-10.2111623636,-8.02287557949,-63.9035319482
do_nothing,-9.31005127701,-7.58756658955,-7.6254502807,-3.70405866535,-3.72855816855,-4.88386831927,-6.40198213019,-8.59985034358,-2.43663298391,-11.111830816,-6.21197909952,-11.7459397599,-8.43218243762,-69.4506419021
do_nothing,-10.7452965927,-8.1226174332,-8.55670726787,-3.61764621775,-3.74073941113,-5.28811786205,-7.85360042225,-10.2370995493,-2.25062470062,-12.4272076301,-5.91623776223,-12.5705282598,-8.37911795818,-70.5597813615
do_nothing,-11.5196245944,-8.1520153971,-9.01037200141,-3.3407106394,-3.5941969826,-5.44287221318,-8.71293395151,-11.10485024,-2.00336794512,-12.951818082,-5.31365219648,-12.5924874547,-7.85276032474,-67.0626970373
do_nothing,-11.5233229997,-7.62569137173,-8.88422354343,-2.88441961584,-3.29628988651,-5.37159966366,-8.93859706234,-11.1379951859,-1.69753426885,-12.6087162776,-4.42855567316,-11.7863291434,-6.87560683483,-59.1548217654
do_nothing,-10.7142619886,-6.5450250798,-8.12810318755,-2.27273124355,-2.85978597551,-5.10754195886,-8.54693854407,-10.3497250856,-1.33590228033,-11.3970352142,-3.30436247429,-10.1993696195,-5.50417852565,-47.3403895988
do_nothing,-9.12630144715,-4.96718542739,-6.75467439533,-1.54045047959,-2.30285680044,-4.68898037524,-7.60877477267,-8.83018167127,-0.922486501556,-9.3949962984,-2.00180695042,-7.94947746397,-3.82621507743,-32.3558332433
do_nothing,-6.86895228797,-3.00257030396,-4.84237640869,-0.730286622858,-1.64893610159,-4.15429044505,-6.24016731585,-6.73652530598,-0.463722078719,-6.75397530551,-0.595450322463,-5.21467220654,-1.95444430247,-15.086467767
do_nothing,-4.11801275951,-0.805312978273,-2.52986126871,0.110744590621,-0.926277481324,-3.53738773804,-4.5883069852,-4.27544403255,0.030527694419,-3.68412494693,0.831359669654,-2.21560122051,-0.0173651093267,3.51000027307
do_nothing,-1.09809927817,1.44220472617,-0.00239450091311,0.935164755023,-0.167081239255,-2.86417456353,-2.81420295895,-1.68009512037,0.546353464278,-0.433149451267,2.1926796441,0.807114599036,1.85208674551,22.4634267733
do_nothing,1.94090736648,3.54902103936,2.52815749739,1.69870085851,0.593871001508,-2.15051582052,-1.07430600796,0.815795304503,1.06573043189,2.73927235076,3.40673876607,3.61795863375,3.52877992281,40.8302651425
do_nothing,4.75063220966,5.33699193486,4.84720099445,2.36339797404,1.32104496185,-1.40210057267,0.496646234594,3.00354805695,1.56707781184,5.58833661926,4.40259722418,6.01094607767,4.90712989397,57.7130259209
do_nothing,7.11085421718,6.66115152075,6.76201737726,2.899885443,1.98032143322,-0.616299137499,1.79941607245,4.721730456,2.0264352553,7.90897647188,5.12597708331,7.83037025517,5.91092308262,72.2664741223
do_nothing,8.85267212188,7.42633495277,8.12381940763,3.28862710329,2.54129623727,0.21416659113,2.77897005861,5.87220893799,2.41915203974,9.5557231906,5.54360873543,8.98528933208,6.49998404738,83.7001006853
do_nothing,9.87526363423,7.59780848134,8.84430408188,3.52012328426,2.97945159788,1.09621802047,3.42705448943,6.42808692834,2.72190588277,10.4551986665,5.6455855616,9.45598078982,6.67280589256,91.2872285855
do_nothing,10.1541513369,7.20441912164,8.90448207319,3.59416566538,3.27792396771,2.03081200885,3.77841409162,6.43259109332,2.91481418932,10.6098288621,5.44544052279,9.29164307195,6.46475858395,94.3893440466
do_nothing,9.74001515332,6.33376492215,8.35461789705,3.51835751272,3.42862377423,3.00762889338,3.90128461723,5.98913583532,2.98337927278,10.0925101123,4.97792386179,8.59977944697,5.94205589999,92.500181222
do_nothing,8.74835216274,5.11996053445,7.30533778498,3.30618676658,3.43253480854,4.00099948443,3.88357137594,5.24394535842,2.9200237086,9.03313249036,4.29473640627,7.52879972343,5.19222252811,85.3084882935
do_nothing,7.3415051292,3.72558247757,5.91118068035,2.97496907026,3.2991252615,4.96791786749,3.81672036984,4.36359122317,2.72502039228,7.59890901299,3.45872121787,6.24626870282,4.31227946926,72.7723432708
do_nothing,5.70559156607,2.32018210193,4.34890873565,2.54395997304,3.04492331287,5.84875184556,3.77961144684,3.51047789031,2.40669712903,5.97123542587,2.53720350699,4.9157917742,3.39618896491,55.1925881139
do_nothing,4.02552451213,1.05823727807,2.79360909057,2.03287496922,2.69142911348,6.57091302041,3.82480511171,2.81958513666,1.98088692014,4.322208892,1.59526860402,3.67567913322,2.52321985695,33.2695549158
do_nothing,2.46153254202,0.0595057829144,1.39590670524,1.46096355903,2.26263313891,7.05532756979,3.96915176603,2.37961264744,1.46968956023,2.7939125002,0.689765804903,2.62224909699,1.74878834425,8.12662968756
do_nothing,1.13033020221,-0.605571902249,0.263427697702,0.846674292403,1.78247216483,7.22511473111,4.19016508354,2.2210856789,0.899694449629,1.48313192259,-0.135278506689,1.79995663765,1.09900663022,-18.7132499818
do_nothing,0.0933979668224,-0.923454280694,-0.550970114365,0.207838992241,1.27256780428,7.01549702235,4.4287512491,2.31304596697,0.299877021853,0.43337403197,-0.851348318361,1.19955949543,0.569672974732,-45.4064711281
do_nothing,-0.646198725783,-0.937054519327,-1.05265896944,-0.437787244125,0.750555074662,6.38369508856,4.5979837042,2.56879154723,-0.300586439955,-0.364983344068,-1.44599197389,0.764397079642,0.129827079967,-69.9233487868
do_nothing,-1.13824295753,-0.73735813513,-1.30004511891,-1.07185433442,0.229224062125,5.31744856839,4.59674395949,2.85989726277,-0.87434242139,-0.966721362671,-1.92129269632,0.403715848994,-0.270642473254,-90.2296511326
do_nothing,-1.47208415971,-0.448280649294,-1.39159995757,-1.67485875533,-0.283422041508,3.84087932845,4.32633493089,3.03661012679,-1.39751349904,-1.45738247757,-2.29057891911,0.0109886159505,-0.69042828702,-104.49733142
do_nothing,-1.7577565766,-0.206873887399,-1.44710752027,-2.22592173386,-0.78322726295,2.01667540003,3.70771576237,2.95182485493,-1.85083407318,-1.93471301459,-2.5739228803,-0.51551803221,-1.18479486001,-111.319618365
do_nothing,-2.10439111864,-0.141632382902,-1.58593449087,-2.7030672262,-1.26823219585,-0.0560040749039,2.69687298762,2.48532697539,-2.22019999871,-2.48876354677,-2.79312258697,-1.25297786643,-1.79388091814,-109.901611115
do_nothing,-2.59917368635,-0.35191740563,-1.90554350201,-3.0840735139,-1.73659650594,-2.24797255962,1.29605433318,1.56491695666,-2.49664776938,-3.18361558273,-2.96691101614,-2.23796335439,-2.53305101527,-100.197591363
