label,COUNTER,INTERPOLATED,AF3,F7,F3,FC5,T7,P7,O1,O2,P8,T8,FC6,F4,F8,AF4,RAW_CQ,GYROX,GYROY,MARKER,SYNC,TIME_STAMP_s,TIME_STAMP_ms,CQ_AF3,CQ_F7,CQ_F3,CQ_FC5,CQ_T7,CQ_P7,CQ_O1,CQ_O2,CQ_P8,CQ_T8,CQ_FC6,CQ_F4,CQ_F8,CQ_AF4,CQ_CMS,CQ_DRL
off_to_on,0.687455595187,0.28403295223,-0.214313059152,-1.22999379905,-1.61174450128,0.0127780781926,-0.0676809302931,-0.482912470355,-1.11921075373,-0.515352443576,-0.877532382659,-0.406437322123,-0.159726182389,138.175685905
off_to_on,1.84364945958,1.55807281461,0.389618434408,0.427414258347,1.69005750533,5.63164427179,0.734206984465,0.17433775242,0.56000169842,0.36727665677,-0.0813452822123,0.975010843248,2.06196012057,21.4665190317
off_to_on,-2.55274427067,-2.36484309824,-0.485354593992,-0.0702390531476,-0.373418560029,-3.32328465403,-2.29086385629,-1.66147353435,-0.126631029072,-1.74088753369,-0.641583863532,-1.86473673974,-1.9581144327,-168.481037376
off_to_on,0.505589189964,0.604717921345,0.924382168155,0.671594441289,-0.227518666663,-3.38065109409,1.03497727111,1.47402476842,0.54117525731,1.36411990886,1.26350131461,1.02535109983,-0.307720846229,23.3906953527
off_to_on,1.81877323165,1.83629262273,-0.94999712011,-0.966163193414,0.133694514684,3.70829601056,2.69063830546,1.68606682451,-0.8350578073,1.84029053089,0.0518102736434,1.72958512986,1.92128975859,106.61091464
off_to_on,-1.13206311739,-1.21388417081,-0.0850411580465,0.379107148818,0.0528850883977,2.28064671588,-2.17138078565,-2.0925128818,0.364159236223,-2.09958947632,-0.906818085085,-1.80333424182,-0.38342662082,22.3261643851
off_to_on,-1.72244072293,-2.04881570025,0.558978184313,0.0308027606555,-0.844111224085,-4.57543379748,-3.22108826403,-2.22675348163,-0.0210293367516,-2.33508474861,-0.746654080694,-1.93682549992,-2.39747660843,-126.077029466
off_to_on,2.24091371247,2.83862583083,0.583624308697,0.369604358194,1.46853749264,0.210110036473,4.38359183133,3.92877029874,0.352473138581,3.89052926148,2.0749305136,3.39390231897,2.17185632759,3.36214037016
off_to_on,0.180837574332,0.230297989899,-1.34651584409,-0.674324182591,-0.324547782329,2.95637098212,1.20333340121,0.247034914124,-0.537415133771,0.420624574203,-0.489341744313,-0.173941438731,0.636340395854,81.8244773908
off_to_on,-1.07362606908,-2.01669564453,0.29566789671,0.123306237178,-1.14184768094,-0.315371548079,-3.7453689721,-2.85668418477,0.140992213913,-2.84409691812,-1.35072531833,-1.88209108836,-1.38066977627,26.2702086747
off_to_on,-0.474814594188,0.0220243244445,0.755912490322,0.503782468924,0.281981786325,-2.59154394442,-0.755475147794,-0.0549596918583,0.0826153069366,-0.104315723533,0.502924971362,0.236284105711,-0.463928931127,-82.0879280685
off_to_on,0.516270340874,1.49204735325,-0.300046433858,-0.162283802299,1.40646748545,0.69678709592,3.28000375855,2.1462742957,0.179267974747,1.69936941648,1.07149747473,0.549292458688,0.864862602332,-24.46501501
off_to_on,0.812509537026,-0.233200544296,-0.477465843393,-0.646351477524,-0.697464916945,2.10670815899,0.204789355298,-0.232260324484,-0.229258266741,0.375840185502,-0.715083319938,0.332066150806,0.368387353209,65.2689194687
off_to_on,0.294400014963,-0.420906408719,0.489655572399,0.562173868113,-1.1811556341,-0.733717532707,-1.91840817781,-0.674128022747,-0.125313870984,-0.372154929367,-0.31595658128,0.807035482551,0.139756071259,26.5073785665
off_to_on,-1.7251418584,-0.39260206817,-0.0685655970971,0.407751123913,1.02884523233,-1.82771162953,-0.549759206882,-0.271446417477,0.234640843386,-1.38359665164,0.282119463145,-1.62787072251,-1.03413076494,-40.1247192664
off_to_on,-1.08950194914,-0.629041021059,-0.693780586739,-0.786583614634,0.298811125293,0.377963979496,0.0718853746885,-1.3619547247,-0.0111328876205,-0.990523623947,-0.230738316439,-2.08100849402,-1.23373530796,-51.804863811
off_to_on,3.83736472919,2.36617102642,1.30125621932,0.0576421428974,-0.335133193901,2.57040592542,2.91026975207,2.92935806285,0.0568042811515,3.95948156016,0.746723359437,4.49061863142,3.22874270221,55.6328659058
off_to_on,-0.0162979362937,-0.348466042247,-0.227802885342,0.41298258864,-0.186792383665,-1.42390829442,-0.39635639139,1.10946248006,-0.370752360416,0.112122461354,-0.281164338496,0.949125386121,0.126671196109,23.0604500929
off_to_on,-4.72345659551,-2.9299513133,-1.68276976363,0.268289254844,0.0698250712586,-1.85560554981,-4.46190777859,-4.80775242956,0.402818199655,-5.34200557033,-0.95845659306,-6.1069545527,-4.07406523716,-9.29932446497
off_to_on,1.26357944484,1.10003934111,0.90104178269,-0.971805650948,-0.440499357079,1.38090845046,1.40915270548,-0.165542332294,-0.224876477966,1.25209171294,0.471008522471,0.927270978679,1.16544916358,-64.9636349439
off_to_on,5.21314275958,3.42608620814,2.36970664769,0.625306517342,1.15098241064,1.67679434069,5.34410932299,6.33608337566,0.327788267591,6.00419351731,1.55005529284,6.65225126597,4.34129442682,45.6259878402
off_to_on,-3.67792405112,-2.94280954915,-2.96049776042,-0.0565708332553,-0.315637525873,-1.88379142747,-3.52756462411,-2.37696053583,-0.583206312276,-3.68377231062,-1.87664485684,-3.76908595789,-3.37119089331,15.2381926029
off_to_on,-2.74602443496,-1.39909546353,-0.553542846212,0.25470866706,-0.766635763854,-0.0467366633042,-3.28003987389,-4.76387786232,0.565037009371,-3.64621367151,0.0199037080516,-4.08848314044,-1.79941250581,13.4319016489
off_to_on,3.04062661073,2.10832263036,2.56444084993,-0.642748349149,-0.658817314343,-0.12122765131,2.62714909241,2.17573946806,-0.443723509304,2.98059827532,0.836509466164,3.57423781419,2.47903092325,-65.0709821701
off_to_on,2.08074777471,1.03732844101,0.291650952389,0.581049393667,2.40511319031,1.23409590851,2.87713885926,4.6877414159,0.575876221157,3.13166526572,0.538906166328,2.96492583322,1.06792734202,33.251919527
off_to_on,-3.65140374661,-2.36094244039,-3.46408638409,-0.617060637216,-0.881139458081,-0.326877225338,-2.71013818511,-3.24408113197,-0.761352515665,-3.49976543747,-1.74364976103,-4.23987917502,-2.48406789316,5.93022438773
off_to_on,0.853178004739,1.19168991506,2.21737091773,0.951927839805,-1.23585530527,-0.308438113012,-0.408137614772,-2.2555911815,0.714517813847,-0.495258804812,1.21904287599,0.29515494439,1.27599760214,28.7177553844
off_to_on,0.697923900116,-0.529824546038,1.1005471507,-0.847551634619,-0.146052860132,-1.36883239138,-0.809567901181,0.995105321564,-0.652575284557,0.712129833953,-0.20534398431,1.34685247171,-0.540690481372,-56.14894503
off_to_on,-0.219732367424,0.0961031669418,-1.55982616361,0.468491146314,2.18169914568,1.77169752081,1.66009673604,2.9570430988,0.789656417975,1.19270810444,-0.00173690259302,-0.156252432469,-0.177142454899,20.189020693
off_to_on,-0.192566928523,0.628854273242,-1.09245730443,-0.81178266709,-0.930787927955,0.447957960551,1.9234756059,-1.15070253848,-0.90186065364,-0.253278207329,-0.503119577141,-0.517852188667,1.00412777132,-2.83028312148
off_to_on,1.40201423947,0.728711790397,3.04291568335,1.37381145236,-0.453096901681,-0.455190059888,-1.41666531847,-1.34142113068,0.843884207376,-0.189942961476,1.24979637513,1.43712196496,0.860384992477,36.4201878618
off_to_on,-3.01052273001,-3.26088929352,-1.89079439402,-0.837159517326,-1.35881701903,-2.55980731141,-5.42136293246,-1.85109788435,-0.836425813173,-2.66469725611,-1.6245832402,-2.81191813467,-3.85065570128,-41.6845764706
off_to_on,1.65882227948,2.19060740853,-0.547911422488,0.0389351147945,2.47621105302,2.61164791884,5.40085287714,3.86140912293,0.960171553308,3.21667083243,1.04110529625,1.60254115266,2.38569834104,8.30980138806
off_to_on,1.4289799833,1.40404571556,0.73157818383,-0.765590695613,-0.11739689103,0.853303942046,3.98741856459,0.466751311515,-1.00571580308,0.691810667044,-0.191884508008,1.03965023166,1.83577247907,-9.86121146806
off_to_on,-0.734394696878,-0.931727901901,1.62032329166,2.00753071447,-0.901291094562,-1.02487277551,-5.54481852311,-2.46657149872,0.950273720053,-1.84337378767,0.459175661704,-0.243500189365,-1.16217102832,37.1893869821
off_to_on,-3.02000785444,-3.13221236068,-2.80721393589,-1.44672511449,-1.98274066212,-2.71310272612,-5.16451237951,-2.57733799731,-0.984435627904,-2.21687603994,-1.49265593272,-2.67130695535,-3.45646897044,-24.778831068
off_to_on,3.22546175061,3.35719880366,0.992271832439,0.00558384215901,3.21680555676,3.32855876726,8.64872554394,4.71230275447,1.08073092162,3.82128584083,1.6627687003,2.09926971436,3.40808991701,-3.02880736279
off_to_on,0.454034009233,0.540303034921,0.53494231363,-0.414316435442,-0.126153431791,0.0991348239836,2.03376887527,0.753507839811,-1.07332944847,-0.124756925301,-0.949108727569,0.700326983263,1.18931172073,-6.47021327169
off_to_on,-1.48476328057,-1.24066852417,0.821525438276,2.0473240307,-1.53070659847,-1.23351718361,-7.10335804329,-3.29322464846,1.0310883883,-1.71157593483,0.683106652966,-0.202606447892,-1.62167003647,15.7565802828
off_to_on,-1.44924367341,-1.95583777956,-2.28151158195,-1.99462797972,-1.20042520508,-1.10572268034,-2.39035594069,-1.92456831474,-1.09011891596,-1.21911474448,-0.924538253604,-2.24313218598,-2.59974373244,7.58525948919
off_to_on,2.9274984053,2.59606979248,1.23925445339,0.448449676961,3.23345651762,2.47949387776,8.26174817368,4.88417274302,1.14915355057,3.01263055897,0.974835154968,1.77264043419,3.39598011635,-2.65854176964
off_to_on,-1.39907046838,-0.420880735152,-0.275952062071,-0.151990453723,-1.73669043928,-2.21724334513,-1.23891138798,-1.24448107921,-1.10507626047,-1.46640197968,-1.31786001234,-0.278178921709,-0.262565194126,-51.8951880482
off_to_on,0.68649305124,0.847476406822,1.56837637453,1.30800258582,0.367440967287,1.98051112147,-3.12457564788,-0.41560919572,1.08253955391,0.910413901304,2.07395618688,1.68529191759,0.151341037644,68.8025504301
off_to_on,-1.41571823057,-2.64739589863,-2.20140046989,-1.70211856138,-0.817055970131,-0.504961662142,-2.14974381918,-2.09136670358,-1.15046569106,-1.69194181952,-1.62095348445,-2.77152341771,-2.54344080495,-15.7418240823
off_to_on,0.828598440799,0.738554507016,0.342646704512,1.03638381214,0.796668108947,-1.30142504964,3.29607927316,1.16721666263,1.17047654785,0.400874254049,-0.0942352739329,0.0531666197008,1.3289486095,-18.494220914
off_to_on,0.106387276873,1.6825678852,0.439867842411,-0.899280463311,-0.602616576272,-0.844516331279,2.43591443858,1.83497099183,-1.10679459434,0.778254104352,0.103209625824,1.53607759071,1.14498469561,-6.77311389646
off_to_on,1.37803571631,1.24631004574,1.74842513107,1.37540062245,1.8553565749,4.46087086102,-0.805829693236,1.37752522019,1.09817425733,1.89313714441,2.22190183165,1.94913184649,1.24449658614,19.2090830564
off_to_on,-2.93524998815,-4.80584017353,-2.83008078952,-1.33309556716,-2.13423963027,-2.10105210108,-6.73994585955,-5.95511539783,-1.1447208945,-3.99720351994,-2.85579805151,-4.25570445017,-4.20907551465,18.8497279402
off_to_on,0.981615007244,1.61201401048,0.574940535037,0.965101338953,-0.143376716774,-3.12300440304,3.51512738299,1.30412490467,1.12060607213,0.481611572975,0.261048291929,0.40228588104,0.81143562985,-56.1945119161
off_to_on,1.41157614575,3.08627172023,0.782003550737,-1.08247634148,0.693853466793,1.00893864966,6.36908573445,5.49530432879,-1.07183063248,2.89387674547,0.925299976185,2.75777147579,3.07759578765,57.8537040758
off_to_on,0.56429658613,-0.368952477139,1.37783366264,1.24859521341,2.45608127745,5.44347409849,-3.00772983664,-0.785012105497,1.10951868006,0.681430142828,1.75746937592,0.970988226882,0.86997121455,-38.1167910973
off_to_on,-3.92050071988,-4.97386300587,-3.00715756285,-0.90114651453,-3.59858283105,-3.9719287218,-8.93522067551,-8.03801713005,-1.1315049777,-5.24804651126,-3.42171800325,-4.96580658867,-5.92421554161,16.0036869507
off_to_on,2.60868611354,3.15606451839,1.17245192114,0.699605806804,0.0996004693324,-3.08443285983,6.99183286862,4.76516398048,1.02815034182,2.48708541772,0.820326645068,2.08830497435,2.22979373984,-14.1259851569
off_to_on,1.28028817603,1.97642014885,0.591904686626,-1.07404338828,1.50053628218,2.24925253221,5.35269954286,4.58312669275,-0.95695475813,2.39767808316,1.17621464942,1.98444110182,3.4763384826,30.7790269535
off_to_on,-0.973743162811,-0.757984247285,0.702912123953,1.26040834128,2.05651804114,5.08384448051,-4.94102807625,-3.01247563266,1.04905347624,-0.518277918604,1.2204146068,0.0147142799292,-0.330701394343,-5.82688649905
off_to_on,-2.68352369773,-3.59381444689,-2.17068716884,-0.920904979937,-3.82662021882,-4.90085900725,-6.13698257314,-5.16193300765,-1.10925978612,-3.75107260539,-3.25592789638,-3.32941242555,-5.24402759698,-65.4545459615
off_to_on,2.87061716348,2.12355617572,1.1093005286,0.797415485367,0.022130704163,-2.66845687946,5.78648401374,3.98297374967,0.961744282724,1.77625864158,0.81721581028,1.22591715654,2.01023278826,62.4679185906
off_to_on,0.573719274251,1.86727187683,0.087229215621,-1.09145994835,2.2896876609,3.68818097845,4.09195464867,2.87789936581,-0.802718436933,2.19304729089,1.42488792637,1.78280743352,3.64412591097,42.6998883027
off_to_on,-1.11848391438,-0.0354923555196,0.796971293126,1.10984263126,1.25826987326,3.41987829878,-2.86284419006,-1.15621504403,0.858046468448,0.273825065094,0.900635404504,0.68408925671,-0.239830175418,-68.5240031728
off_to_on,-2.01451478654,-3.80618022158,-1.56805252451,-0.771053472551,-3.94399464153,-5.67180658826,-6.46869312696,-4.88413119852,-0.970949882663,-4.5318541978,-3.23203894921,-3.97474647924,-5.66202574501,-48.990645478
off_to_on,2.66766870264,1.58616051703,0.54318268994,0.682908258807,0.978876499305,-0.358157433786,4.01258056259,2.26831418712,0.887903103293,1.76345766754,0.990336112152,1.48564687714,2.23164243948,82.9260431484
off_to_on,0.190948273695,2.3251214697,-0.0625771886203,-0.832177706471,1.70611749746,3.56561477904,5.61441991985,3.6238908718,-0.713420893233,3.17730101291,1.43869125923,2.27027900888,3.90237068776,59.3807083852
off_to_on,-0.749336696425,0.0859918277703,1.38690542877,0.754001340344,0.657621456167,0.938992404119,-2.36805411894,-0.461419173126,0.704424719322,-0.739044682264,0.637251087974,-0.259689752913,-0.64071852046,-111.622882651
off_to_on,-1.90021092425,-4.00280783439,-1.69634211599,-0.600266132399,-2.99464037623,-4.46186579129,-7.7331969055,-5.4549839383,-0.793407706972,-4.59487376964,-3.03043858908,-3.58914861208,-5.45679542634,-39.234063387
off_to_on,2.02535443074,1.39928039902,-0.175299006406,0.752022501395,0.848287080929,1.24367102422,3.96635395401,2.07518776319,0.725173309619,2.70755566706,0.972254123285,2.00273961876,2.21769220579,91.2063919964
off_to_on,1.04231197627,2.6556305936,0.833592111663,-0.950424794545,1.45605670304,2.53687376451,6.81936649745,4.02297203306,-0.556508881993,2.87713186502,1.63797196381,2.00422412044,4.01610549875,80.1741892439
off_to_on,-1.33307660147,-0.202034514106,1.16888161814,0.778379748347,0.227222767806,-0.78343041819,-3.28299743227,-1.29588801276,0.561193153297,-2.11597063311,-0.00235297064764,-1.33506403661,-1.2899861031,-138.932296315
off_to_on,-1.9104878036,-3.66343191761,-2.11396184129,-0.390559321924,-2.40048798791,-2.75826248499,-7.44015862511,-4.04022229107,-0.677907096493,-2.77609663246,-2.48163254849,-2.10686095134,-4.4766277375,-43.1063004045
off_to_on,2.64127198482,1.313190132,0.191929144872,0.201862408749,1.22677686298,2.20876391029,4.0707139732,1.83570519677,0.576797490574,2.88715605954,1.23696404387,2.13116073354,2.12696633623,96.9752743399
off_to_on,0.253045647866,2.22075227475,0.872601426027,-0.371699807595,0.828319538126,0.81915867682,5.90040860995,1.96085183233,-0.304604632916,0.53968219601,0.964388645601,0.150677864269,2.7311655152,103.623376474
off_to_on,-1.22883680164,0.0162666474002,0.811242185414,0.674317835346,-0.395677298872,-1.18592608314,-1.9235644623,0.581042697072,0.265011864144,-0.627354433007,-0.174744506198,-0.0807116671782,-0.329720181371,-159.069082038
off_to_on,-0.916918224997,-2.9144596685,-1.52167845703,-0.577479401194,-1.19292722106,-1.07499279644,-7.48632616412,-2.91166676378,-0.465074507089,-1.35214784307,-1.31193299162,-1.14399345319,-3.47330987464,-50.2889899518
off_to_on,1.53176212952,0.365102186556,-0.412084768022,-0.0480312955911,1.2235498983,1.84687648663,2.40467428061,-0.797409476952,0.454590406193,0.617087305399,0.500626320443,0.309723628188,0.382813612432,97.840129301
off_to_on,0.174216865271,2.22598905457,0.996673102688,0.311299679317,0.109928050758,-0.0929625085788,7.40528721364,2.7766630548,-0.159454236647,0.711930873411,0.451503001089,0.609491230676,2.98292743361,124.178679632
off_to_on,-0.484985175652,0.439386397526,1.15571126473,0.424397000468,-0.942099635882,-1.37875803226,-2.32996215383,1.41533948962,0.0338665582573,0.512109951055,0.402008452266,0.651508044044,0.519151787251,-165.027165683
off_to_on,-0.523051598518,-2.5152206755,-1.47603796444,-1.01151985462,0.441946584986,0.994545930036,-7.16516047244,-2.96888784586,-0.197560845299,-1.02470920021,-0.688437120486,-1.11376836718,-3.35547123905,-67.4491178348
off_to_on,-0.119618609378,-0.651289297452,-1.29762307539,0.190401053336,0.592449996526,0.242016814165,2.19763905395,-1.59689523437,0.215460504443,-1.08599281747,-0.601983752004,-0.943264394228,-0.842294692829,101.448138643
off_to_on,1.12319570555,2.75086591586,1.83857405998,0.871263234733,-0.712578673204,-1.27136218985,6.53055571783,2.90994877191,0.0455689143736,1.2868396479,0.642912031601,1.46411564487,3.73081488933,137.312954375
off_to_on,0.222440145362,0.499718587307,1.31188203087,-0.366661149257,-0.280453248275,1.15183211695,-1.82711905801,1.58148953415,-0.162520489148,1.50544720509,0.88663208274,1.11216355961,0.656372626495,-159.671667836
off_to_on,-1.51177235591,-2.61403738614,-2.19322092258,-0.717755876235,0.758046457261,0.904190276933,-5.35385615963,-2.37973912387,0.000114597241625,-1.55886371386,-0.686861043504,-1.81099998994,-3.63737922139,-89.3655400329
off_to_on,-0.0756848094497,-0.366314958245,-1.06955991551,0.257672793361,0.122257793983,-2.53198116461,0.629893126992,-1.86111712417,0.0107390070464,-1.69319518134,-1.07059444258,-0.961328300406,-0.372334590321,107.044060378
off_to_on,1.48153170295,2.18265963245,2.25021425115,0.97062472794,-0.731295484303,0.0354941829016,4.1792358584,1.69219470543,0.294352176707,1.55237102965,0.740408244812,1.62367309275,2.9387623511,142.189400605
off_to_on,0.0227212280286,0.373640000866,0.777745400711,-0.705757929583,-0.182764089964,3.7053945783,1.52277461083,2.54664930679,-0.479656016791,2.0191628046,0.998181588569,1.16530568641,0.541635338696,-146.406676738
off_to_on,-0.833905337261,-1.19621741741,-1.68461377159,-0.472374902023,1.21265104233,-1.37426757013,-3.59042898779,-0.971100062484,0.301448579034,-1.27575755173,-0.130135599266,-1.05666793904,-1.81175640433,-110.626909482
off_to_on,-1.36228114447,-1.79234505736,-1.62470238695,0.315819513661,-0.916225518187,-4.9193583279,-4.90276528774,-4.43359736874,-0.139853469124,-3.40869749881,-2.14478331788,-2.86155268455,-2.25002772717,111.86255501
off_to_on,2.00852130682,2.05271025797,2.53629590799,0.779750194077,0.100444932103,4.1659646544,5.96204360269,2.59797701919,0.323916118618,2.91933432044,1.21098628218,2.86604555563,2.8477521141,140.5853793
off_to_on,1.00173177391,1.59317222203,1.03845221012,-0.781640467225,0.122935349894,3.73269550463,5.25434247255,3.83290715244,-0.599187030339,2.65656447632,1.51403258161,2.15284235473,2.03126690758,-128.604189774
off_to_on,-1.84647066361,-1.66977537624,-2.04360859726,0.0466810672869,0.184435240703,-4.92383671247,-6.71324013607,-2.57937612197,0.599848748702,-2.98002364507,-0.738293414322,-3.01479697375,-2.6268457657,-128.569791816
off_to_on,-1.99276636211,-2.86829853866,-1.90966085709,-0.312279151938,-0.831554241425,-3.8209622942,-6.22934475838,-4.23674612552,-0.426699033878,-2.99596921728,-2.38406695742,-2.52772057422,-2.8945683013,115.152131309
off_to_on,3.58929247758,3.60721622317,3.47241790708,1.10588680368,1.27281822486,7.12116778085,8.73608991449,3.89537581152,0.420408302426,4.49455062886,2.14556990353,4.62113704777,4.16108793605,134.443050596
off_to_on,0.629445560657,1.31475912715,0.347346184717,-0.92386818092,-0.341711214654,1.6688976255,4.74655812255,2.68459023642,-0.618965767583,1.11445120416,0.917768656376,0.612909351034,1.25895310093,-109.909591744
off_to_on,-3.24828138423,-3.21091685547,-2.35347555831,0.34532555433,-1.01820159734,-6.95906840773,-8.32374987595,-3.25339094406,0.758044246205,-3.67602263615,-1.14129701553,-3.86269423182,-3.29767344332,-141.248510441
off_to_on,-0.797575735962,-1.28396930698,-1.12767124448,-0.601929020108,-0.178936140723,-1.33890972453,-4.81411786249,-2.8429066834,-0.713238154242,-1.02885875099,-1.69525465294,-0.293730815753,-1.37026684765,116.615929262
off_to_on,4.69445360218,4.48895606906,3.64028903211,0.984022447,3.11323003548,8.93743254403,9.53937642533,4.80602571603,0.660643766378,4.66911361675,2.50689234793,4.51661032878,4.20580454534,125.709936772
off_to_on,-2.09599783327,-1.67762626074,-1.07578022002,-0.599558237611,-2.71983318826,-2.66353922885,1.89099437804,-0.331608976655,-0.75486247555,-2.0344874824,-0.435800636717,-2.74036751689,-1.45842241888,-93.1434602289
off_to_on,-1.93209801614,-1.75794458783,-1.37007712242,0.426954425635,-1.21587828717,-6.2898319321,-6.76317207982,-2.35219577564,0.881628910866,-1.41463787493,-0.494847158465,-0.824583096006,-0.894484613411,-148.171910717
off_to_on,0.851430318429,0.801455040844,-0.282172111109,-1.10999157084,2.0047970584,2.92531567522,-2.58629377761,-0.121295412606,-0.881640135157,0.792163499237,-0.837209555858,1.21018852532,-0.0712074762073,116.71456465
off_to_on,2.35330215008,1.93315764139,2.26678691724,1.3463984893,2.27505327319,6.05551807062,6.82376488471,2.82253153292,0.832824589406,1.49583640467,1.70165151506,0.51580378557,1.01690404927,116.000171877
off_to_on,-2.16368107744,-2.46607138273,-1.31528099605,-0.589770736649,-4.25628886627,-5.84976427041,0.390476436612,-2.37089054406,-0.886468011301,-2.19222869554,-1.13778670038,-2.0635477607,-1.03489685295,-80.1823587214
off_to_on,0.0430037832161,1.08455457851,-0.0496277803233,0.398140851844,0.213353545485,-1.74201959532,-3.31862404484,0.371986885135,0.976970378159,1.29831373232,0.600946487951,2.3641909478,1.61777059559,-149.92220495
off_to_on,0.0253533125839,0.114865199804,-0.449615922138,-1.31865318643,2.74009132214,4.25272939538,-1.97240768244,0.830991158536,-0.965769441154,0.160675101251,-0.573110487205,-0.485192252551,-1.26288259345,116.534869117
off_to_on,1.33924591444,-0.00233409190452,1.32994601087,1.65332806578,0.636401185337,0.775393131716,2.99624488585,-0.0908952214286,0.934949356752,-0.496885731212,0.753350983857,-1.37506438958,-0.514422777285,104.851521735
off_to_on,-1.62443429782,-1.37183545374,-1.40464703089,-0.797833109609,-4.28596783911,-4.94671271227,0.89653291357,-2.14304701598,-1.026985721,-1.68452076221,-1.40194317513,-0.763162099794,-0.0496427299725,-65.2352335632
off_to_on,0.9819305762,2.32467721807,1.24938313374,0.410419190625,2.09883246757,3.16636127129,0.585666667504,3.14981989943,1.1265449263,3.59966649551,1.91041583104,4.15839687263,3.02137968047,-164.193449825
off_to_on,-0.70007061218,-1.2115628405,-0.884099487202,-1.09253413194,1.37927131466,0.914589693338,-4.59482973674,-1.23854782928,-1.05417894137,-1.34178608796,-1.08265501177,-2.11622290889,-2.71423608839,139.87215708
off_to_on,1.00281009515,-0.246498906704,0.453234584153,1.3905236312,-0.00200482093407,-1.58525186907,1.49007396993,-0.768229679215,0.945945151455,-1.89275439886,0.015082571956,-2.43583541175,-0.948017800963,86.5326828201
off_to_on,-1.60718086622,-0.769365274402,-1.06602361532,-0.920656035722,-3.09157219045,-1.50939588148,3.39637932893,-0.201205656027,-1.04072102072,-0.161593487115,-0.799190036757,0.457273030774,0.835016923089,-91.1749769992
off_to_on,1.750127846,2.60519709204,2.01312778534,0.975126648714,2.22581668769,3.40971793828,-0.132662619868,2.02963593457,1.21215487616,4.49057355197,2.26019105947,5.0950203599,3.29370542686,-96.7998160321
off_to_on,-0.574510398489,-1.52640308947,-1.13007089052,-1.56572598718,0.607745516622,-1.23357243558,-5.1203832106,-1.403360765,-1.16210374861,-2.72321158156,-1.62802778001,-3.00628005861,-3.19181255434,94.9744464315
off_to_on,-0.615676828346,-0.971041627922,-0.445558868725,1.35019761807,-0.372523879496,-1.1416775943,2.37737227481,-0.0343590685049,0.974261919683,-2.82235350545,-0.137970969283,-3.9566627019,-1.63378453845,68.1676315432
off_to_on,-0.590172783815,0.258925128065,-0.479092870685,-0.582159873403,-2.04236611973,-0.397825923168,2.48162098027,-0.809278427994,-0.979645280784,1.88540031444,-0.162685730744,2.33638036226,1.89402373682,-49.8516715273
off_to_on,2.99403300112,2.7984451699,2.63370373855,0.730919635132,2.51421945532,2.86043863851,-0.114504886392,2.34382992325,1.15270623699,4.64932577767,2.07117889729,6.08084223812,3.62420080646,-107.092108539
off_to_on,-2.74077120889,-3.06946903477,-2.0016028424,-1.45555704328,-0.950846762919,-1.86874983494,-4.26827507295,-1.56371602879,-1.1701708224,-5.26348520323,-2.3443233265,-6.05044479255,-4.9907454284,89.8245059589
off_to_on,0.100789651031,0.329561248586,-0.327623559901,1.26510105311,0.201456191899,-0.0396395471908,2.4811005147,0.0620988923063,1.01547658442,-1.21142546734,0.768600682163,-2.54530389027,-0.264102504518,41.2737049062
off_to_on,0.60017631664,0.706251649563,-0.0195116140405,-0.570035184057,-0.894024115438,-1.04895688251,1.10661002983,-0.836902465334,-0.980160579409,3.20187599398,-0.0669181896174,4.039525752,2.59622902224,-2.69467596379
off_to_on,1.34181557656,1.04889365048,2.1793937157,0.841628201468,1.50705198413,2.2940664785,0.0433061965979,2.26208598789,1.09593085989,2.32770091675,0.921706506908,3.60574536986,1.54438079092,-118.001739322
off_to_on,-2.18616392841,-2.08393603304,-1.88341303423,-1.57767112459,-1.33553566882,-0.353719586741,-2.31881268898,-1.26938993436,-1.1051257759,-4.78587169941,-1.53939634572,-5.67862967732,-3.96021056292,58.9747111
off_to_on,0.988468331229,1.26555870587,-0.0314794057423,1.27841925458,0.779998132214,-1.00213265968,1.21693077024,-0.451318225777,0.97780679996,0.10294139587,1.24900139123,-0.933038147961,0.86819759566,66.4996913039
off_to_on,-0.462005453705,-0.789078797903,-0.369760980883,-0.50091498795,-0.383754466315,-1.51508310811,0.0234262155904,-0.393457792038,-0.941674343291,2.43709814552,-0.897133657937,3.12208706521,1.15876504434,-24.7709422172
off_to_on,0.945388101999,1.05071362007,2.0745856758,0.826916987253,0.715205316707,3.32849321402,1.10873251078,2.23036305608,1.01681540646,1.51400142981,0.721616996371,2.36007822103,1.0536443833,-37.1622822157
off_to_on,-0.635044859318,-0.674480295983,-1.49702707462,-1.70745874828,-1.59303433184,-0.739290437571,-1.45834425413,-1.59294360958,-1.00243595346,-3.87246894651,-0.555656032162,-4.11051808467,-2.29305150598,-72.5771232509
off_to_on,0.360615218756,0.257837630124,-0.155868869276,1.39307425629,1.5945566679,-1.64594609156,0.198076796599,-0.24499355774,0.892591624736,0.450538216942,0.793276286181,-0.520633320527,0.471212414095,134.304712559
off_to_on,-1.4721077819,-1.01311453004,-0.367564238643,-0.244284604869,-0.337142244521,-0.239408279382,-0.542666828195,-0.160136613892,-0.863561998055,1.65515506967,-1.31239105935,1.58474966419,0.0569992855544,34.282030948
off_to_on,1.93526900948,1.75258579718,1.81981507962,0.153701742438,-0.00474309584426,2.87183269741,2.15093717456,1.96150767823,0.905245850815,1.41627848618,1.19360323367,2.60598859867,1.7389459809,-134.388281186
off_to_on,-0.44765528933,-1.22080054546,-1.39009451595,-1.18300276656,-1.69769464329,-2.63560784817,-1.74735459312,-1.97091077366,-0.864494857028,-3.41388160762,-0.572540811156,-3.22382822299,-2.01210347493,-44.4497420229
off_to_on,-0.203078762631,0.579357767854,0.175704593177,1.56574301771,2.51378395869,0.996124122538,-0.0154567207793,0.406366262599,0.769908304969,0.748300543438,0.587264003289,-0.541874933456,0.374488891756,153.139436057
off_to_on,-1.14332078565,-0.663450545612,-0.265525019842,-0.81299860589,-0.149805645669,0.62217925949,0.401743480202,0.315740768531,-0.757180462553,1.41033827971,-1.073921576,1.08646868966,0.0760330448271,55.9298007195
off_to_on,1.30610421555,0.424230262799,0.735425484898,0.262524151498,-1.94347058238,-1.74054859921,0.226942952499,0.110035619257,0.782473227547,0.0194878579475,0.882183129547,1.44139513034,0.491383909973,-211.087299683
off_to_on,0.330705885648,0.0260360664351,-0.545902810162,-0.56093493047,-0.196597900376,-0.206255172609,-0.713214429908,-0.607544811414,-0.719627052668,-1.27967809245,-0.343169205925,-0.977698197353,-0.183399584484,28.0236643955
off_to_on,-0.0869027033904,0.766619587172,0.716789650007,0.867578190776,3.36720159223,4.26061644836,1.39373661118,1.03950442349,0.609746309859,0.654615868144,0.584663815554,-0.688053315653,0.349151969733,133.814005821
off_to_on,-2.04577610124,-1.84433339104,-1.1829621974,-0.67270054061,-1.97522026574,-3.27262226039,-1.37296841138,-1.28547662689,-0.560922849392,-0.936727881427,-1.04020748497,-1.32982404917,-1.9510728392,22.5678121676
off_to_on,1.74436393836,0.9485389385,0.530402565693,0.466328031724,-1.80777031591,-3.12245041399,-0.185796192343,0.781018484439,0.554211782895,1.83894298879,0.617120084862,3.09624883372,1.95446997785,-168.533988633
off_to_on,0.702840126099,0.647519944916,0.295716038044,-0.48734363303,1.34026463121,3.96340737254,0.589938464962,-0.136639652229,-0.53303060741,-0.455741832915,-0.149003904355,0.0597417875769,0.589360754441,25.8820353238
off_to_on,-0.550489991121,0.00770857362498,0.582885329872,0.409022333804,2.54867094022,3.6017483078,1.59628767074,0.38699981599,0.501237258445,-1.24096243367,0.646663547056,-2.45019557418,-1.28406201365,103.772531593
off_to_on,-1.78730234347,-1.66178033264,-1.53412311794,-0.251283342199,-2.75697321707,-6.25722009025,-2.17044152838,-0.740148982694,-0.431789579875,-0.387700104735,-0.887052424539,-0.9243527536,-1.39977444918,23.1368092155
off_to_on,1.34458481591,0.899825310892,0.190680522116,0.334318917121,-1.26935147396,-1.71843100032,-0.931605519475,0.044813518233,0.307434090175,2.31919760601,-0.142875167939,3.32832869803,2.33922414268,-126.821659875
off_to_on,1.44855356817,1.13178872665,1.28143689115,-0.548910947705,2.41483943683,6.26791641584,2.24054263267,0.54899770416,-0.25591896421,-0.215940207817,0.705420631787,0.461088394023,0.640139451013,5.4984983176
off_to_on,-1.36330704938,-0.533191102393,0.123125179169,0.586733499974,1.27522374892,0.985534176977,1.24986773262,0.405325586334,0.347759125906,-2.10424709917,0.556231449517,-2.94661536958,-2.03184125873,79.9739764678
off_to_on,-1.61822698598,-1.86107114242,-2.07192752604,-0.417012182153,-3.12714393323,-6.77463169251,-3.38982576786,-1.42082703487,-0.360928217149,-0.2824589981,-1.58846877511,-1.15818335516,-0.994442110762,27.2085472754
off_to_on,2.18412736111,1.53532813914,0.869736838442,0.0492800277571,-0.188080534751,0.715472296309,-0.138497445855,0.314724302189,0.132513293139,2.77595173065,0.391141490158,3.56772432402,2.7125055592,-83.4543725926
off_to_on,0.662390922799,1.46984847574,1.5332185447,0.379158472144,2.93860283039,5.99230009079,3.48739471411,1.51555214767,0.0602766234603,0.145662368745,1.19379721341,1.10758490502,0.485789453393,-22.7417872745
off_to_on,-2.05281736781,-2.11293691542,-1.01586917991,-0.28026279401,-0.510354793202,-1.82787129517,-0.860109400117,-0.841325614544,0.0467512556144,-3.09534484255,-0.60982021361,-3.7227831027,-2.87486274573,64.1530271499
off_to_on,-0.16302401691,-0.940424633877,-1.29155760042,-0.44428537417,-2.92003914613,-5.10398574963,-3.49532857335,-1.70205805075,-0.171671429204,-0.205369115079,-0.999508198373,-1.44704600658,-0.0642344318701,27.6405951398
off_to_on,2.14144402098,2.66551208278,1.3519225692,0.64695616155,1.76424253461,3.20509078374,2.67729664743,1.88623730209,-0.0177265428817,3.82217917891,0.964838864827,4.50989552396,3.02191775003,-41.8414688151
off_to_on,-0.801984024848,-0.122199767442,0.656968046856,0.301760390105,2.02206241497,3.25606381711,1.96270448612,1.07626968345,0.25709033186,-0.594695853843,0.420145908991,0.911703211676,-0.658274797076,-50.5428960461
off_to_on,-1.55673719996,-2.53402132056,-1.37230709231,-0.999279754194,-2.7010318533,-4.03453498338,-3.72389959443,-2.55241062366,-0.185193391343,-3.7231912712,-0.949043018617,-4.79868861103,-2.73433579316,55.0154199894
off_to_on,1.67842253304,1.29582692946,0.302966071433,0.253171715896,-0.160273348041,-0.38563759333,0.715692366566,0.300069538496,0.0450626440395,1.63602547514,0.395991858187,0.341678600367,1.68511773464,24.2916438318
off_to_on,-0.207892636714,1.08121604184,0.278550385055,0.611701826844,1.74298787937,2.59522128222,2.31927068203,1.34281181582,-0.192780004941,1.95270025823,-0.159008265137,3.04403818201,0.811488226861,-10.9053511048
off_to_on,-0.554223487909,-0.636363428715,0.12517799583,-0.0491953745178,0.00367318436562,-0.598478644416,-1.57877326125,0.436912668467,0.400397020053,-0.578251326709,0.297905686639,0.800937065604,-0.356205198448,-64.3828222896
off_to_on,0.324148607637,-0.943818276073,-0.225225188525,-0.906974181561,-1.58279257377,-1.50156416801,-0.916637615023,-1.43107615122,-0.34541477275,-1.37829326981,0.0172476154362,-2.8769682519,-0.664738376795,45.4734349265
off_to_on,0.266123972872,0.601162372896,0.0997098777186,0.731997577097,0.439514303203,1.10201809112,1.62782302962,-0.897373784607,0.259102580299,-0.361826734502,-0.191728785133,-1.42025896796,-0.354588082146,16.3314571033
off_to_on,-1.13116126332,0.17427795543,-0.576357753653,-0.209577371193,0.698285872929,-0.0525172893684,-0.747244350338,1.52761889889,-0.422744529196,0.765088282732,-0.67647725967,2.55890275856,0.404069563161,12.3830096553
off_to_on,1.31170341044,0.68173072922,0.879629002954,0.507768812377,0.699956978945,0.444779114386,0.125607251148,1.95339480936,0.591737372315,2.26164967512,1.44716046835,2.71692697141,1.74030375274,-65.3677718382
off_to_on,0.0535630496578,-1.2665701459,-0.210719588842,-0.808293726362,-1.89558103634,-0.91663198624,0.155550779946,-3.23963372177,-0.523336798911,-2.2113165932,-0.702507310014,-3.92566878065,-1.9026680881,33.6204353153
off_to_on,-0.814141778925,0.18573043401,-0.0957196531451,0.329565544605,0.29215647474,-0.211525940203,0.00978827450884,-0.581219667779,0.470318141949,-1.56946484753,-0.355282455081,-1.52875499891,-0.539444210226,6.59648858449
off_to_on,-1.12054754257,0.186342064588,-0.91650131683,-0.117854428818,0.915736127579,0.61608944403,-1.40373168494,2.39004635592,-0.631241213824,1.21660103768,-0.161329557931,2.7153227636,0.648684372851,28.5695881835
off_to_on,2.80388505393,1.13145961181,1.5224375774,0.734641740392,1.19830857598,1.95722635896,2.32558131305,1.41799852188,0.746263328492,3.11277701945,1.40634738362,2.60203596813,1.85716831325,-57.4128451976
off_to_on,-0.879628944302,-1.58514924572,-0.582822106578,-1.02431576198,-2.85475691241,-3.73180573954,-0.708549873066,-3.7983137304,-0.664230138537,-2.90292006777,-1.40683998277,-3.91836663645,-1.93694916263,21.1323955125
off_to_on,-1.39609485036,0.574982738894,0.0228473768426,0.675863043859,0.524696135089,0.654033350537,-0.723395369134,0.827016566666,0.656252844564,-1.13015249161,0.487490090341,-0.453548949162,-0.125760771783,-2.84307855197
off_to_on,-0.228302150947,-0.373490433835,-0.968020595868,-0.797675507586,1.62431243649,2.80583677771,-0.918259287468,1.4709230588,-0.835686295888,0.81773988686,-0.185388134251,1.35950844198,-0.27056128057,37.372726115
off_to_on,2.51676298551,0.892165705409,1.33289572559,1.18014055206,0.583459226017,-0.435474996022,1.92650200108,0.140543803155,0.921500923318,2.25140530042,0.542032527331,1.59759584055,1.72020274339,-43.9004585878
off_to_on,-1.02725608909,-0.437071482373,-0.299558557372,-0.654026770907,-2.89963636449,-3.74326523567,0.687821474362,-1.15003336659,-0.816214838506,-1.0655647923,-0.874798457805,-1.10637696489,-0.207801362443,9.86537464291
off_to_on,-0.869799991689,0.285955168025,0.315720029124,0.161867546103,0.760699426124,2.13264785471,-1.54482193662,0.404956612106,0.789071873036,-1.13923457131,1.17058230589,-0.898459774074,-1.15478672635,-10.7358767418
off_to_on,-0.958035848759,-1.71456640207,-1.77150662534,-1.24222287855,1.51150542763,1.94396999745,-2.51579225826,-1.45110575725,-0.933777549807,-1.45681386317,-1.17540048863,-1.49874840331,-1.53707205286,39.2961472026
off_to_on,2.68205894338,2.09619459018,1.63160552439,2.21847516281,0.995938986288,-0.157257430159,4.19651238522,2.65552824188,1.02204327652,3.58143831702,0.598687193582,3.67887134926,3.62457490521,-27.8408939361
off_to_on,-0.679815473466,-0.288631699277,0.119948498898,-0.812493191942,-3.92582402682,-4.53066833883,0.203200768778,-0.45458598289,-0.965279904869,-0.266380461635,-0.553491867568,-0.360960143512,-0.942569702776,-0.858210330414
off_to_on,-0.559041404627,-0.0526911397429,0.222822618039,-0.840662750457,1.76733878381,2.86885639327,-2.11859516537,-1.15544880071,0.920572999208,-1.52274720472,1.67177226734,-1.80869336314,-1.18190406539,-8.28615431418
off_to_on,-1.94604250844,-2.00154851771,-2.36132719474,-0.523240364026,1.63718936407,2.75729340031,-2.298151233,-1.75386212765,-0.947463595507,-2.26668136373,-1.92515347532,-1.87586469608,-1.1563260423,18.9118937926
off_to_on,2.81104774749,2.10869870798,1.90089860144,2.83556984061,-0.311785348245,-1.90995797671,3.74810415469,3.53585611022,0.970879160487,3.41479522495,0.247958984523,3.53007910613,2.5379363322,3.89164801571
off_to_on,0.403346157035,0.131800480019,0.610157567717,-1.98549287067,-3.03697544512,-4.45554962321,0.952350329748,-0.0912581696354,-1.00089839065,0.889234377363,0.391986259597,0.466609541453,-0.257735901024,0.0560993841538
off_to_on,-1.31371490545,0.121891574882,-0.0994784469256,-0.458632500941,2.5486897882,5.11354497118,-1.72649873522,-1.86460600662,1.06524726676,-1.44218084573,1.67544385987,-1.42030218941,-0.0834257342958,-54.6475135463
off_to_on,-2.30153895252,-2.37857791038,-2.75972325136,-0.00476598454151,0.445791134806,1.26677269764,-3.50410915866,-1.6222588092,-1.07218774407,-3.08397883325,-2.74033968292,-2.64444944629,-2.39181230951,72.8637528199
off_to_on,3.34584516213,1.35163585228,2.33228501608,2.35541669679,-0.787329589676,-3.7814093128,3.77431770214,3.42853863003,0.994480225887,2.84483184419,0.518872755363,2.47192614058,1.56363385718,-19.7705139719
off_to_on,0.278442475353,1.18272077621,0.695660690305,-2.08106909739,-1.60504720872,-1.51166188205,1.82368359092,-0.360071977452,-0.992134262874,1.65095681281,0.812962838549,1.64619922716,1.38794905749,-15.8741063391
off_to_on,-1.08538207951,0.761762285412,-0.320836633745,-0.163829820895,2.85096053539,5.54323727236,-1.61094427911,-0.56407303485,1.1330136892,-0.0987744619112,1.4447486558,0.23027515097,0.543785033236,-9.19318423928
off_to_on,-2.77332353632,-4.0456364159,-2.81858447024,0.0070110325294,-1.60639719486,-2.31146775201,-4.11103831085,-2.23763971559,-1.20873147359,-4.81970288997,-2.83327199638,-5.17271755512,-4.31663322792,23.107393931
off_to_on,3.44869579144,1.63273176949,2.56495805964,2.11919052625,-0.13539362123,-2.21688659067,3.38323326252,1.94929270581,1.06057025781,2.18043922668,0.535442027862,2.08028860815,1.8477639237,13.2528725284
off_to_on,0.774547688329,2.37191113751,0.540829833169,-2.0667653117,0.303186645328,1.18983203019,1.95833801483,0.683337900128,-0.897903344686,3.30489324883,0.719015350758,3.86141829843,2.53299714302,-49.4574399614
off_to_on,-1.71320435418,0.14319531955,-0.444624304215,0.154363802245,1.32757556538,3.08586241504,-0.0916227948623,1.10646154544,1.00440759752,-0.0329030573745,1.77172672618,-0.237194229802,0.0544402278996,51.684209795
off_to_on,-2.58369976246,-4.65944044578,-2.39463292562,-0.214098100905,-2.7478236953,-4.13518632595,-4.80685890019,-3.716826367,-1.23668832938,-5.75009707839,-2.89972591261,-6.31817260232,-4.52874350735,-34.8106862586
off_to_on,3.87859684307,2.29273366892,2.26133298613,1.89053872537,1.63447445103,0.51790072955,0.796288008476,0.00486028094969,1.18504394596,2.00343461644,0.10272849205,2.46023944717,1.78899464142,14.1044641196
off_to_on,0.360305153185,2.50781117022,0.373283228558,-1.69919959817,0.854697686633,2.7673775789,4.8423659825,3.35102866362,-0.856075701695,4.02543686509,1.10573794859,4.48878964827,2.58741477484,-8.52986357857
off_to_on,-2.27049790407,-0.557223867057,-0.204682764622,0.178022485596,-0.80910785807,-0.714467063674,1.20197601077,1.95933597624,0.743918837491,-0.209133617245,1.83534975689,-0.873444195184,0.273546531666,21.218499226
off_to_on,-1.52101715267,-4.14749000355,-2.29094011286,-0.482516524197,-2.17306372882,-4.36356296895,-8.99414437769,-6.77197755287,-1.03396346033,-5.82565330347,-3.23204806993,-6.04208583729,-4.53746116564,0.749419180442
off_to_on,4.13804142387,2.7043460686,2.22623300717,1.75564983898,3.58244536699,4.77899988456,2.63452304662,1.03249704237,1.2382199285,2.40422974438,0.470654288908,3.17683491064,1.89152459905,-65.7990907799
off_to_on,-1.43551650535,1.54366000201,0.0959128048361,-1.08376884049,-1.13683508877,0.758087223432,7.1870498956,4.98416709397,-0.977463223613,3.04657562864,0.971630493046,2.82642517285,1.93518430365,62.9570063482
off_to_on,-1.3335217275,-0.591627124595,-0.383179594415,-0.235722527586,-1.42051682488,-3.69108606735,-2.30076195263,0.110239977947,0.623475009995,-0.139391236883,1.32228273371,-0.680092316505,0.301706518605,36.3638593281
off_to_on,-0.0407005477403,-2.75549761676,-1.30820424838,-0.721733997684,0.475693672135,-0.502074762261,-7.72324959681,-6.09098971746,-0.677116157873,-3.94282658765,-2.28057468891,-3.39202402174,-3.05216827696,-59.8093267892
off_to_on,1.8970479576,1.75662328204,1.53833348845,2.3234347408,1.99937696875,4.19237946041,4.22976837662,1.3500730615,0.956729728759,0.725247425268,0.022691320389,0.757173903797,0.516929825402,-54.340130733
off_to_on,-0.793131051308,1.00117946383,-0.341326343041,-1.38439955856,-2.27194676224,-1.47019816242,4.82985827066,4.19760363803,-0.965235777755,2.36225702551,0.603837694308,1.872229552,1.63502099874,85.2621613281
off_to_on,-0.280261230264,0.0413655808021,0.312976366141,-0.534826856699,0.51216318428,-1.40850449707,-2.18163350218,0.407553478743,0.711366927698,1.3946796071,1.72396286579,1.74302964389,1.18825967014,56.130730294
off_to_on,-1.3082214585,-2.35042242113,-1.1699061831,0.0756988240462,0.459456919116,-0.758936460086,-5.12375002371,-5.30915710363,-0.593412714662,-3.98457730984,-2.16597293223,-3.76949746524,-3.12319627674,-105.633823331
off_to_on,2.27026417096,1.22810496781,0.869322089032,1.64616488873,0.314503550969,2.08194724274,2.2524634255,0.535013863975,0.696814938002,-0.214432718329,-0.314346268927,-0.689616288513,0.236433995631,-46.2338733958
off_to_on,-0.0365967471758,0.933965912722,-0.0142949711999,-1.47002894053,-1.31904584647,0.807848874537,3.43215339512,3.80635404523,-0.738539641969,2.75840908669,0.869175773557,2.8862887154,1.73802071316,95.5366153706
off_to_on,-1.57359287538,0.0353351786124,0.450230087595,-0.016278350259,1.26763210372,-0.859278375963,0.452418571836,1.35654225934,0.607428426155,1.57977912797,1.58073344042,1.80401819135,0.935864560798,79.2834818391
off_to_on,-0.765895159978,-2.17184669858,-1.41365008602,0.20510161083,-0.513697183247,-3.58231939087,-5.28402145641,-5.53191109245,-0.505086301092,-4.42683053702,-2.3444210112,-4.63115083648,-3.19064691881,-136.314355263
off_to_on,3.17019143274,1.57946840396,1.0002119076,0.734977444148,0.0569451582078,3.17349377759,0.306042208173,0.10765855994,0.537457483374,0.365796780113,0.0160162126067,0.588902647286,1.16311422298,-50.6252838874
off_to_on,-1.12263469768,0.711435997512,0.252436542781,-1.00517629138,-0.195043105639,3.11041245507,4.67623946671,4.52565218862,-0.534246056997,3.24185342976,1.22257277158,3.02340597045,1.58446208872,102.797812237
off_to_on,-2.29593765312,-1.16389095688,-0.461710171655,0.594531633233,0.415508247202,-3.62202621409,0.136239081292,-0.0357870025992,0.3813307724,-0.756336755409,0.430870493234,-1.11273418682,-1.25862229414,105.03436896
off_to_on,1.52345807229,-0.605256863642,-0.435863285409,-0.399987349543,-0.312601496637,-3.18342236243,-4.62421999847,-4.21302127829,-0.246964640848,-2.53546996342,-1.70722207186,-1.8009369728,-0.890896097273,-159.785584691
off_to_on,2.09915103548,1.89259372333,1.05120127259,0.304785437403,0.145144689443,4.41727128446,0.195104357383,0.767755881584,0.294867230765,1.60496260974,0.634356700102,1.87187583607,2.04697990374,-58.0060929072
off_to_on,-2.76161530052,-0.820155522519,-0.724817189495,-0.141188013649,-0.298280056427,2.29270173458,3.27244488005,2.5309592554,-0.384454998977,0.659171334607,0.625652859438,-0.629452870666,-1.1047328325,104.829309129
off_to_on,-0.409273648357,-1.22989569605,-0.146531366412,0.27132190621,0.617811740703,-3.94799946272,1.06421036092,0.0809070542246,0.29562509176,-0.832944704107,-0.233853554902,-0.676589620741,-1.00643496998,127.567331162
off_to_on,2.37655532258,1.13354503615,0.690284495925,-0.351436312801,-0.637375479461,-2.37560779475,-3.58446268007,-2.23044412013,-0.103894296865,-0.115798746712,-0.752992610508,1.40306151217,1.5108023524,-168.452529268
off_to_on,-0.152148974023,1.34385700653,-0.114945430685,-0.154844684269,0.215406379679,4.31066148211,-0.717189737241,0.268828261397,0.051211850845,0.844524384313,0.872784515578,0.353405351209,0.872858654585,-75.1429410398
off_to_on,-2.79252501577,-2.22833674423,-0.981847348843,0.424408873259,0.262882278777,1.32678102178,2.64651000478,0.827772177527,-0.132686965405,-1.09680742966,-0.152977809378,-2.83607325565,-2.53189971453,108.674720109
off_to_on,1.6923866351,-0.460014964962,0.781179084195,0.305905382622,-0.267891582703,-3.47294401924,1.02487773867,0.192226183584,0.120376183086,0.0747033568869,-0.568530217562,1.0567591589,0.135027188629,142.834510062
off_to_on,2.21738035708,2.47050243712,0.75045333482,-0.793857105886,-0.140961533277,-0.825558024951,-1.89734138103,0.37422219121,0.0343670230349,1.53014699362,0.518268470044,3.22217379129,2.67148793868,-164.996849228
off_to_on,-3.05505095976,-0.299198432546,-1.18925770184,-0.119841934344,0.157788634364,2.27931674205,-1.41713558059,-1.17535841553,-0.141306923869,-1.15899578349,0.24547601632,-2.58974380254,-1.10475921318,-97.3328054319
off_to_on,-0.629982630887,-2.06480943159,-0.197654441995,1.05695039518,0.529128071888,1.09300491614,1.5749931753,-0.599400998602,0.127117711127,-0.806039746868,-0.525304621072,-2.19580308864,-1.76434482109,113.932150186
off_to_on,2.98092416511,0.202751612014,0.884528648247,-0.441978117336,-0.837461616347,-1.68945574639,1.00088683131,1.22909803061,-0.134603881552,0.977582294919,-0.309073296033,2.7061802013,0.735531026867,149.997599517
off_to_on,-0.236407771791,2.27156455093,0.253001013706,-0.570360412359,-0.0268812476266,-0.976878706946,-0.362574152607,1.41978821486,0.223779101798,0.720739246905,0.936935452917,1.52126488968,1.6372935947,-153.052258088
off_to_on,-2.70997373983,-0.56769851275,-0.846292239204,0.184243308199,0.751986356316,0.539782253624,-1.16414097758,-1.69002800011,-0.285663826512,-0.961875674951,-0.259292678429,-2.4968604968,-0.558836390204,-119.06339367
off_to_on,0.918535076064,-1.8530001587,-0.114484993031,0.932163636196,0.141018936008,1.94213250217,-0.653746899315,-1.77900425462,0.304058375178,-0.361545450681,-0.42770304055,-0.779188788644,-1.35801400737,118.070343844
off_to_on,1.65888780849,-0.0530786034899,0.189022089978,-1.09391929057,-1.44474692608,-0.919563068644,1.15878734994,1.55497493562,-0.384856332319,0.199426990891,-0.265807672225,1.3709612111,-0.230095818288,150.592087857
off_to_on,0.148084993319,2.87897737123,1.3042977716,0.381703437172,1.04900479745,-1.29688770733,2.40678283311,3.04516087169,0.490032280031,1.30703510598,1.18153634625,1.51395459842,2.35678275409,-136.105495737
off_to_on,-2.64241436814,-1.19944202039,-1.42569178002,0.0479343409349,0.318301611416,-0.231587396083,-2.88211781956,-2.97996140282,-0.4851903753,-1.20688766458,-0.804945493145,-1.88933714552,-0.803106769104,-137.45098869
off_to_on,0.646825239947,-1.88072887747,-0.448744383953,0.123285524204,-0.239006637414,2.39859551714,-1.60936054242,-2.08666521974,0.452525784149,-0.249293617583,0.0528447127762,-0.546107877838,-1.33904487623,120.403667201
off_to_on,1.81451886627,0.578289667087,0.761284227344,-0.556005653642,-1.21893046551,-0.907033460787,1.90903802743,1.98505194539,-0.571062925851,0.140918564645,-0.338768812535,0.512241573523,-0.146011254038,146.40861398
off_to_on,0.66944946635,2.70767421784,1.44807334735,0.977535201006,1.69267200142,-0.827564200307,3.17086280253,3.45456141442,0.728645611901,1.4333895597,0.978530101438,1.8417836542,2.41831698961,-117.906434955
off_to_on,-3.58524678193,-2.20081297568,-2.26872069335,-1.02323478083,-0.543200626948,-0.580218834535,-3.15253195298,-3.49321985099,-0.692825500286,-1.67315502889,-0.865621145916,-1.80310779428,-1.40924793643,-150.398613076
off_to_on,0.972438794593,-0.637467749479,0.220666774649,0.595634752751,-0.306207300058,1.71544930194,-2.18291525108,-1.92996198473,0.581595038673,0.281244173111,0.5673557973,-0.237036795612,-0.601600735886,120.734686377
off_to_on,2.48150251061,0.670934835288,0.890661765196,-0.382999752264,-0.327694091057,-0.380328554306,1.48247276515,2.11399483464,-0.671389955575,0.367737014484,-0.736882276229,0.30221669878,0.0896372607323,139.26341749
off_to_on,-0.26075757073,1.30734538783,0.762164546718,0.830020181473,1.21855159539,-0.20679496469,3.9778897696,2.76440538366,0.860820616538,0.394804798159,0.690504199807,0.961276394961,1.20700723683,-101.362518447
off_to_on,-3.29577399937,-1.25575494134,-1.83761462794,-1.20388709595,-1.02052471953,-0.814523684906,-2.02609347224,-2.64498488672,-0.856250425446,-0.990495598676,-0.229373582751,-0.620184155864,-0.723735673878,-157.32521107
off_to_on,1.67261201787,0.0346126853317,0.63482596283,0.877874834837,0.455150041212,0.802942905639,-3.9451476907,-1.50036217906,0.731871504938,0.949165410489,0.485880092731,0.185350785258,0.189483894485,119.614923351
off_to_on,1.16924078535,-0.916220538019,-0.109800748007,-0.489057816868,-0.911089690608,-0.698602281921,0.241506359613,0.241677132657,-0.762766800426,-1.3135961979,-1.54897570587,-1.94591619002,-1.44133057927,130.709846651
off_to_on,0.759925221664,2.55016143499,1.48428635944,0.673715959629,1.77387915498,2.37622724355,7.6966388601,4.22267187888,0.89908004088,1.83866390928,1.72944231602,3.01001324399,2.37827598916,-88.4250866853
off_to_on,-3.3351634429,-1.51072691831,-1.71123079814,-0.984513363746,-1.20830716586,-2.24954401866,-3.57144093794,-2.38354946081,-0.926672020447,-1.00217434955,-0.484669524399,-0.444740919289,-1.01501032853,-158.818116168
off_to_on,0.823472819229,-0.954173337164,-0.154272752753,1.01320598038,-0.288813787863,-1.45480845717,-6.56285530142,-2.85663568089,0.899633988438,-0.692173645073,-0.323744629489,-2.16370794399,-0.763536460154,118.261906709
off_to_on,2.24164833401,0.773437575282,0.589094836221,-1.06550389196,0.00783676938422,2.13976214078,3.69463347874,1.47906866749,-0.945188682544,0.506290834765,-0.628869234393,0.264263668504,0.354797813978,120.161957801
off_to_on,0.395236287729,2.09311275105,1.76239090103,1.13399364428,2.07490180592,3.04049237572,7.47649478784,4.06440306575,0.960690008542,1.98064159907,2.00385881125,3.51816890002,1.74204161525,-72.9196899997
off_to_on,-4.334494912,-3.43739011545,-2.99478135679,-0.885417189877,-2.33119038496,-5.10369409345,-6.6105199287,-3.7114586881,-0.899309078171,-3.12399460986,-1.90161391861,-3.32672451278,-2.87160418846,-173.642412486
off_to_on,2.27234054785,1.10517850329,0.580979789089,0.757511393986,-0.155970169516,-0.677124007342,-4.05612874614,-1.33992311456,0.948544175215,0.708752692761,0.594873664977,-0.560756140684,1.42407769678,141.712431578
off_to_on,2.5034204368,1.69246294675,1.74218552272,-1.22645734424,1.05214368287,4.12517634782,4.81650900669,1.85835037039,-1.11137577832,1.69797643908,0.0603259480766,2.23638303092,1.03272863541,102.07641155
off_to_on,-1.54395862684,-0.657788769863,0.289642949526,1.47202774941,1.73219362579,1.59651043394,4.530367411,2.41735470471,1.10881988561,0.0452127495333,0.805193994676,0.8539778259,-0.883530291221,-100.327057346
off_to_on,-4.18684234128,-3.17737172604,-4.04176962802,-0.780792194957,-3.64655143409,-6.54414527576,-6.57838050129,-3.87308452705,-0.931898275526,-3.59376568756,-2.04145254505,-4.31960862409,-2.53735234687,-103.914486624
off_to_on,5.5525736957,4.11922997356,3.42031223966,0.238352513837,1.35858629499,2.1056849357,-0.596762806824,0.933687917595,0.912911231654,3.49036298013,1.99270306115,3.31136294199,4.47948787554,96.3063867003
off_to_on,0.13148771893,-0.253163770598,1.1953111436,-0.888869400707,1.19586647554,3.59023671819,3.07032286184,1.10272199516,-1.09040261143,0.124073663598,-0.64091431497,0.681626757596,-1.26640730959,82.269539911
off_to_on,-4.46573276873,-2.58752903032,-2.64752616467,1.68758106171,0.0234039604024,-1.30066942573,1.60517036352,0.10295710653,1.13323378157,-1.87428163484,-0.218677168347,-2.14008073953,-2.74323537635,-59.8093819303
off_to_on,0.469687994235,-0.48907346719,-1.68210845546,-1.40585394284,-2.38331279186,-3.92902315951,-3.42280428815,-1.97342544955,-0.983688189801,-0.484101868849,-0.681882572428,-0.696958227215,0.981493884027,-109.895091755
off_to_on,6.25347250745,4.72770690016,5.00333973066,0.765446573393,2.15244188389,4.05606062601,0.679509762051,2.23673239905,0.93095228648,3.24324823884,2.08072187546,3.58927353742,4.1078941428,88.426259167
off_to_on,-5.0232175355,-2.76437972122,-1.77828324811,-0.771205736108,-0.465134346616,-0.4617970205,0.270283114512,-0.777716228121,-1.02511653908,-2.52508562852,-1.76078006409,-2.43882542163,-4.04665580142,53.5973171852
off_to_on,-3.1967941846,-2.67681926059,-3.13345940742,0.993464758645,-0.317570502224,-2.24116845005,0.616370449446,-1.03598792481,1.03812433992,-0.64823955374,0.0433399586459,-1.03681840353,-1.50330495907,-10.8147340245
off_to_on,5.61068229751,2.4686843848,1.88769746839,-0.992115501256,-0.031262111066,2.06575855446,-0.259180957816,0.594780824438,-0.956610408901,1.7850041926,0.290650185647,1.71387836921,3.27029188708,-119.291120657
off_to_on,2.70496745007,3.64260993524,4.45958413394,1.14366982868,1.61752482729,2.27407061976,1.31757658283,2.79450939539,0.951786523205,1.37694447191,1.61536482642,1.84380975988,2.35964849548,56.4482558815
off_to_on,-9.15940468944,-5.91787112892,-7.02427736989,-1.19739564894,-3.42681548278,-7.10616168157,-4.2637022812,-4.74078975691,-0.985649480439,-4.82568726687,-2.8118400976,-4.77356996899,-6.41763889468,76.5425841268
off_to_on,2.61227676963,0.351202458353,0.54895471609,0.576172641343,1.88787603245,3.36186609346,2.28252621663,1.04880357923,0.928906111575,2.61821959985,1.07595974874,2.07838482619,1.559385725,-30.9352272063
off_to_on,7.24259862619,4.48878242998,7.87190438824,-0.193788107548,2.40672668101,6.65968592046,4.19478971916,3.96056259244,-0.866716293132,3.11793479155,1.01213827501,3.12872135747,5.00194569854,-37.1971999556
off_to_on,-4.01416429372,-0.869200904499,-4.32496517788,1.06192894558,-2.0976511375,-5.98693686364,-3.19271664686,-1.91738879848,0.896172741599,-2.98105328775,0.108211774414,-2.39866355287,-2.15067089427,-75.8442368931
off_to_on,-7.66520102249,-5.67393640652,-10.6510376038,-1.80377691186,-4.05560299996,-7.6815036374,-6.44496911196,-5.32875110903,-0.896946687438,-4.10173769318,-2.77442310776,-4.30201418513,-6.34281489293,141.704476973
off_to_on,8.08140099176,4.66127461672,13.9175017576,0.87057955594,5.4812832602,11.3251700582,7.73566072141,5.87310023095,0.8017317218,6.20738342746,2.37384802695,5.79690595355,6.30531586749,30.5969764729
off_to_on,4.19469933843,2.64090383318,6.28108348592,0.19045153538,1.8557539302,3.95434121637,4.39337145266,2.71433441039,-0.755605537554,1.5553373763,0.723632624174,1.89984525819,3.41617406454,-133.791781308
off_to_on,-8.21913194375,-4.54215764573,-20.181594775,0.595402261038,-5.29380184538,-12.0225389678,-9.11815613304,-6.3952906404,0.79776575394,-5.88352152401,-1.28494764728,-5.83682081258,-7.09713290313,-48.5605794283
off_to_on,-3.45847811895,-2.25119720889,-0.625815910277,-1.69197451558,-2.28106895585,-2.82916232971,-4.15161709161,-2.37901316387,-0.768314295848,-1.81728741744,-1.75451669034,-2.11992262838,-2.23031284321,159.008458576
off_to_on,10.5063520676,6.40298280233,25.3574352315,0.872857853908,7.44246410277,14.2888444907,12.6365917869,9.06086394537,0.654589772269,7.85926336918,3.022838767,8.2483531733,9.56619715765,53.9907399438
off_to_on,-0.261538977133,-0.710807309643,-8.62933794443,0.388872294374,-0.439192615406,-1.19762407205,0.257170306325,-1.11097386549,-0.622323310381,-0.642027051187,-0.143474856704,-0.709235998195,-2.41820252116,-210.760104983
off_to_on,-8.99149412381,-4.90623233436,-23.6888702834,0.292037782317,-5.74859545044,-12.1525201174,-11.9710875705,-7.90304429237,0.660243095744,-6.41576377075,-1.77211250723,-6.86621216757,-7.43315972076,24.5644415142
off_to_on,0.795575197138,0.542818586176,13.2874856439,-1.58949671882,-0.115742310704,1.57957354682,0.813178315033,1.51869815786,-0.606168945722,-0.163025144997,-0.631648618549,0.0737865816903,3.82260624335,137.903047122
off_to_on,9.37194225158,5.59754898172,22.1104905469,1.07785271898,6.09852865017,11.5879315734,12.4883391389,8.49226483457,0.493591771688,7.25270909962,2.69893134694,7.72728165135,6.2274270137,21.5131854235
off_to_on,-2.86359032039,-2.0809000445,-17.3175585281,0.158485977638,-0.84921744741,-2.78594669971,-2.93240884992,-3.23148291965,-0.473372558212,-0.528319728105,-0.482764251223,-0.813055364252,-5.63808836487,-167.919011008
off_to_on,-7.72812459092,-4.34860878358,-17.8137880702,0.1121399519,-4.61822298343,-9.33041602106,-11.1692115244,-7.29977351671,0.491487081773,-6.72567441996,-1.77941349227,-7.2044985498,-3.15563400112,23.0117342745
off_to_on,2.86346902725,1.51706485539,16.5603370771,-0.959004306957,-0.197796262594,1.79507217835,3.21346464344,2.95011793182,-0.413937352487,-0.24144704721,-0.230757736705,-0.130540200522,4.45048836854,106.423735966
off_to_on,7.61752842638,4.93560474627,16.6474411031,0.490563165996,4.85848687822,8.62960678824,11.0363263594,7.75300131084,0.312984025307,7.82418683235,2.63176653609,8.59812748409,2.55656619402,22.446511958
off_to_on,-4.36159782487,-2.60293945909,-16.9328594862,0.319433020003,-0.268002183944,-1.82354714721,-4.89643730487,-4.30239752358,-0.30550543891,-1.05506734408,-0.79750054928,-1.21617744418,-4.63442320373,-125.812198944
off_to_on,-5.38851660719,-3.73392901835,-14.0531207132,0.139094452732,-3.46671909212,-6.5556301445,-8.47083498068,-5.98753802802,0.313908160157,-6.4945910396,-1.8283915545,-7.45114372491,-0.731653997187,3.24379952612
off_to_on,3.56946839408,1.89151551196,15.278035695,-0.76055744148,-0.906189681612,-0.022712466657,3.99696406829,3.19264539865,-0.244474269628,0.285894411479,0.427132648637,0.491021012296,2.92967067204,81.5169497838
off_to_on,4.6872646017,3.93119387686,12.3699856311,0.115763384711,3.30065524994,6.24816943879,7.28048118094,5.99606692897,0.153676642363,6.33511714737,2.10243060994,7.43603218168,0.986878917754,26.5847714058
off_to_on,-3.35537288428,-2.05700444482,-13.2426679075,0.53843196992,1.4972803598,0.673854471714,-3.30775092883,-2.78589145657,-0.0776238433822,-0.0144254906482,-0.9237065116,-0.249282338158,-2.45282399892,-82.192893055
off_to_on,-3.94927906975,-3.69167569902,-10.7621773115,0.164166556045,-3.06974268122,-5.35503605916,-6.05615797445,-6.04628873374,-0.00309727908277,-5.93799192364,-1.66033042214,-7.27737441765,-1.20960590972,-24.2336200369
off_to_on,3.42567171033,2.22784842112,10.4059144874,-0.867347428167,-2.00487049714,-1.51158340406,2.35988525105,2.67586322443,0.000962529227253,-0.348292408615,0.964601212882,0.302288783561,2.54474920506,64.7463020409
off_to_on,2.71163945242,3.10539152132,9.81959893719,0.145490254823,2.91975367586,4.53688266983,4.93766695248,5.91673606894,0.0998815050274,5.53484173311,1.32262029158,6.48841380335,0.986616524521,27.0617301335
off_to_on,-3.13015939377,-2.04370094486,-7.3549570317,0.746741002696,2.42315730881,2.29230329123,-1.00281794937,-2.57079402983,-0.0359611324685,0.76798526468,-0.858685364655,0.199435258591,-2.45741279939,-40.6035906659
off_to_on,-1.51815846059,-2.74945704515,-9.69473263787,-0.396562704539,-3.12635993511,-3.82426716863,-4.65562476784,-5.98102819204,-0.280648116166,-5.40768897602,-1.20128308063,-6.14980097436,-0.981101901548,-51.196374444
off_to_on,3.00691459091,2.29350326755,5.15270935211,-0.191533970581,-2.08648414274,-2.76479395666,0.421106495252,3.20244168991,0.409046688188,-0.629704197605,0.98913252668,-0.0821467422391,2.78368328363,54.8400630886
off_to_on,-0.539867087336,1.48262329738,9.03186957716,-0.147022888861,2.84284011025,2.68412825694,4.16044760715,5.13321569223,-0.105949155162,4.85482381157,0.711945501978,5.20450014509,0.55875364334,23.8576974316
off_to_on,-1.5713772429,-1.45436577489,-2.62294858804,0.562778873278,1.7085715688,3.92974753774,-0.0963992616291,-3.44846638208,-0.0741528588119,0.449935882312,-0.507574691136,0.143403031993,-2.86834748499,-10.063016656
off_to_on,1.76103006396,-0.968988076358,-9.00916466375,-0.255894500996,-2.6814966571,-2.70383218239,-3.69927094204,-4.19763414929,-0.308150558442,-4.22707802639,-1.07697591019,-4.23986483558,-0.376452712927,-64.096577876
off_to_on,0.177537274058,1.06611052186,1.33090610347,0.0912337107625,-0.21012200124,-3.65423729791,0.813525416064,4.1176545363,0.687912038654,0.407525135557,1.09255165411,0.344989037863,3.63044167373,44.6496150361
off_to_on,-3.2773229693,-0.378234903153,7.47224195341,-0.540181330246,0.365008678363,1.23262425064,1.108983044,1.4926549564,-0.466384675931,1.89967654739,0.0978043524961,1.71739183415,-1.28870343153,16.1958779801
off_to_on,3.06939137906,1.11450955237,1.55095339119,0.628436181618,1.23874047646,5.16847622365,1.12819822636,-1.98691114377,0.141534378668,1.07331107158,0.00309341429623,1.51741257974,-2.1643093841,12.5084302138
off_to_on,1.67127931653,-0.707895463296,-7.82288049991,-0.154964227344,-0.213104557374,-2.0033650994,-0.733031510925,-1.35391520111,-0.386268216398,-1.88989889981,-0.976333730684,-1.65839626518,0.599311325634,-64.0936548578
off_to_on,-3.75909947515,-1.21946853802,-2.47941146725,0.279167423683,-0.786777094859,-4.61953637851,-2.082726542,1.20968757425,0.788244039571,-0.806473005192,0.647615336695,-1.59388663332,2.47752238602,32.2223846495
off_to_on,-0.973545834434,0.555647424553,6.81404111814,-1.03972467123,-1.10348676928,1.49824698424,0.157813260038,0.69749792374,-0.678946371178,0.64787544812,0.263970209703,0.635292125495,-1.13217291651,6.92932997844
off_to_on,4.85910725393,2.47888412132,4.4871718801,1.06759918022,1.96135187192,5.0858867066,4.06840678861,0.63518625,0.404183084934,2.02910767789,0.452198960504,2.7189771649,-1.35271234518,27.7660905589
off_to_on,-1.46169202922,-2.5092938487,-7.8123962111,-0.320527641496,0.0475039188109,-2.72766600515,-2.36896266244,-2.47131010325,-0.577085783447,-1.743002288,-1.76096780977,-1.64709079741,-0.543189696759,-55.1958889227
off_to_on,-2.79137957927,-0.787301246215,-3.42584821912,0.236599731778,-0.58007018362,-3.13721927195,-2.64087641714,0.639092065963,0.886040212646,-0.489736232855,1.02411316973,-1.17397056565,2.88551855018,19.225605469
off_to_on,0.701918082796,1.67753426303,5.91676174222,-0.896331651573,-1.21805861001,1.68264002402,2.24301361614,1.57358884893,-0.793211007768,0.382813374231,0.656585739422,0.283110930791,-0.280707639335,-1.90189255238
off_to_on,3.28141830554,1.39746608286,4.59105380066,0.966473738474,1.45666674729,3.26886114004,2.67109791454,0.309631759767,0.597449693776,1.31248854722,0.0232960434021,1.81492354548,-2.02868828855,35.5556136337
off_to_on,-2.73354938946,-3.55731905164,-6.57851175064,-0.463566837396,-0.622789328136,-3.54436761229,-4.6993355639,-3.55978170951,-0.754016320497,-2.2009141899,-2.31917804899,-1.94947146421,-1.87905695364,-40.8642549871
off_to_on,0.0607065242421,1.85042997273,-2.2241914457,0.598684654288,1.52312276175,0.94684695787,2.14356648664,2.90761524432,0.96552066473,2.05785267049,2.25236390064,1.7599448587,5.15755346213,7.50795889364
off_to_on,0.536740579104,1.07755644317,3.48197515745,-1.15515806497,-1.56749899294,0.564582232376,1.52709242477,1.00109083837,-0.86226607371,-0.202752351284,0.333646613379,-0.779553565238,-0.283814491011,-9.09544521971
off_to_on,-0.0558556950878,-1.53527755947,3.00140646956,0.992460955078,-1.05981216221,-1.46224385732,-3.13680426869,-2.7256164442,0.746770242909,-2.29455815646,-1.17374273564,-2.02410947434,-4.88713108634,36.5008931284
off_to_on,-0.65892893144,-1.13095725109,-3.08781729266,-0.566730488661,1.04457495882,0.15392535518,0.241600248087,-0.36791955539,-0.904320961618,0.547947124533,-1.17901593911,1.42844547655,0.309414661679,-24.1654793753
off_to_on,2.56635219352,3.91271733921,-0.868524145749,0.997477316913,3.23845424845,4.44720652227,5.3674055836,4.36563161983,1.02367513493,4.77528104522,2.91961431789,4.36231984448,6.77466050605,-3.61188239554
off_to_on,-2.89789587821,-2.7164402437,-0.785332528431,-1.54238242429,-3.85007417884,-5.12483492358,-5.47091377665,-3.4444325905,-0.897534434349,-4.53078436751,-1.41084498258,-5.51296873674,-3.95023486646,-5.90148866293
off_to_on,-0.825400608548,-1.72256352275,2.68795362449,0.950251696311,-1.5163167275,-2.18401123687,-2.42958068504,-1.71356640985,0.844754200898,-2.58436876868,-0.717469120135,-2.06672588936,-3.94817883138,15.2128380242
off_to_on,2.92631798978,2.77306171781,0.742491691322,-0.148513019579,2.97861503827,6.14438393484,6.4231049036,3.33064446958,-1.00413358749,4.40282307616,0.189771919427,5.39442154764,3.45450306958,8.13458975198
off_to_on,1.79585261188,2.22311939085,-1.04907330269,0.651511060677,3.07372825301,2.07825852834,1.95413077559,2.12425551773,1.05495553462,3.35697557554,1.91891405362,2.72070899341,4.13839081388,-3.22232674159
off_to_on,-6.208110796,-5.78849627632,-4.11183179789,-1.62627484446,-5.79729811297,-9.83699448786,-10.1416938603,-6.6825061096,-0.91675406059,-7.53270992536,-2.44984011878,-8.29917997222,-6.239893182,-51.4607235279
off_to_on,1.92306739773,1.72875537245,3.5439923495,1.39721599753,-0.106775048814,3.11363331861,3.56636900439,2.38924595704,0.902993193325,0.763082961914,0.953728065869,1.20870903815,0.391041686957,68.651652703
off_to_on,4.37251851738,3.55090672561,2.89412663373,-0.499459931473,4.13388245294,7.53450390143,7.92712365121,4.72603802613,-1.04462374801,5.14557753448,0.27241097935,5.88054582938,3.76667574564,-15.6681615427
off_to_on,-1.79514575684,-1.40167567682,-2.10814779154,0.543921072718,0.560795553431,-4.45712603025,-5.39450453779,-3.22090387747,1.04539816404,-0.86820874897,0.300268953032,-1.16716269566,-0.927684278053,-19.05450508
off_to_on,-4.9896767032,-4.10801511443,-4.81456626369,-1.33239506569,-5.1342609775,-6.58329700025,-6.75378699653,-4.74749592968,-0.916737267802,-4.97900592509,-1.71717534942,-5.69368373773,-3.74265633897,-5.57484644224
off_to_on,4.29162958007,3.71883737895,4.14222796317,1.49915282474,2.0531189521,7.56303737927,8.79961464239,6.50608636509,0.929004944375,3.23095803897,2.06118353364,3.31589674745,3.89628588403,18.5302715921
off_to_on,1.68552327981,0.881993995198,2.40878484158,-0.916888903676,2.17291318994,1.16427533168,0.958781707342,0.355568710946,-1.03485139458,1.07973315944,-0.896912545477,2.00757130895,0.0194120041359,17.1824031325
off_to_on,-2.13248527398,-1.43401400369,-1.81153646459,0.533526848363,-0.341520216856,-4.61361365173,-6.14102853668,-4.63016870156,0.996621713841,-0.894810066284,-0.0671858978417,-1.06804317787,-2.29625750746,-52.4120415292
off_to_on,-2.72700067925,-1.95764055503,-3.81169108336,-0.718387549306,-3.29633322002,-0.679235645192,0.611746691373,0.11825720789,-0.891652471933,-1.54691391266,-0.759555939634,-2.59612120142,-0.594720679109,55.5515268684
off_to_on,3.99005316032,2.8824361173,3.30219482535,1.09284335615,2.45102937709,4.66142014432,5.63028841604,5.58996098854,0.921391859058,2.2565208496,2.2160195556,2.78217417648,4.54558013025,-40.0536754999
off_to_on,-0.515789759277,-0.766283868078,0.848120693822,-1.26137289755,0.574280509454,-2.50312329169,-5.17436051779,-4.2363939231,-0.98755545677,-1.70321529505,-1.79250409565,-0.891956670939,-2.97579259837,18.8982740857
off_to_on,-1.36985212385,-0.158290427335,-0.367591962199,1.05352135198,-0.583683035387,-0.712346801699,0.38426563217,-1.46265932481,0.929620344271,0.560862034139,-0.14411409326,-0.284074394278,-2.1978791959,-12.2292042614
off_to_on,-0.183576263535,-0.59518838652,-1.66816803767,-0.691630704535,-1.7865606994,0.792188734365,3.74721728802,3.50720803092,-0.855034346913,0.82922399975,0.411211213461,0.600393346145,2.41239305301,25.2105264712
off_to_on,1.87443426419,0.983280496774,0.602139359994,0.736693201219,2.34144623532,0.8924167544,-2.90715278077,0.23276905652,0.866813396606,-0.0743532098471,1.64991436193,0.773354221301,2.87581822046,-4.08005584381
off_to_on,-1.92773097506,-1.18059063194,-0.54190917079,-1.21812285463,-0.10492624068,-1.55838440312,-3.25791773968,-4.23917085591,-0.842935230465,-2.4708020967,-2.5483485367,-2.8784958006,-4.33831232465,-61.1016033844
off_to_on,0.594632058599,1.24600817005,2.34160013176,1.32026521957,-1.58097483208,0.423735553355,6.60996841926,2.9557400358,0.753490867981,2.03957705826,0.502924874514,1.46046909445,-0.769730532921,58.8248352129
off_to_on,1.02570434618,-0.0652576710703,-0.506877595868,-0.671236650689,-0.240135726184,0.526643413585,-0.658760491523,1.6153021294,-0.769895246899,1.2967926941,1.0868724316,2.25749515048,3.26295851799,40.2917028324
off_to_on,-0.259422209575,-0.569338379446,-2.23527625625,0.129727409191,3.52857765531,1.09208737478,-5.70317848893,-2.24551969393,0.867505961347,-0.99140467872,0.651263673475,-0.860383233394,1.43869849858,-63.5253210942
off_to_on,-3.0039496836,-1.64994040199,-1.14489345156,-0.444500056711,-3.19371588839,-3.32113709063,0.980943751051,-2.41306441625,-0.786868038925,-3.24254866893,-2.80640886358,-4.6874893417,-5.0147129121,-50.8101685897
off_to_on,3.41368304371,3.21111532568,4.82308483444,1.03905328018,-1.05616631974,1.70915246042,7.18105537767,4.59788298014,0.547739037497,3.36400817141,1.55702652048,4.03527699258,1.35049709144,81.4333559069
off_to_on,1.0200563451,-0.195163777933,-0.275078607461,-1.02576835134,2.84700249191,2.13245151227,-4.05240603063,-0.0441425440156,-0.510250730518,1.66577763571,1.09696335838,3.00650792814,2.98616072008,60.0368442232
off_to_on,-3.08458388786,-2.67420043046,-4.30640488265,0.568973495558,0.985684504725,-1.70368955731,-5.09756110601,-3.75428353404,0.74656940746,-2.86553920025,-0.763308167909,-3.96621055873,-1.05090533544,-108.756981121
off_to_on,-1.35279351601,-0.344826883671,-0.738611031083,-0.372748417775,-4.19057708726,-2.53654874881,4.18277006889,0.0934155197342,-0.837715551882,-1.95433837783,-1.74181348368,-3.21837162682,-2.97939360495,-43.5547885689
off_to_on,4.40194106524,4.11753983564,5.64409175096,0.545684319131,1.22572134011,3.16556542942,4.50043671855,4.59398824693,0.545967287591,3.86586757875,2.05353434901,5.38215753168,2.41183667707,92.1676393059
off_to_on,-0.370059161899,-1.38833860694,-0.345442014213,-0.711975924044,2.76090801258,0.553815495695,-5.53206894424,-1.9807151557,-0.251333138682,0.270960926468,0.0767133000563,1.24517120336,0.865284624587,82.9016179316
off_to_on,-2.99249494163,-2.96527905539,-4.37671503554,0.667882672846,-0.891281958454,-1.69574672664,-1.64613759691,-3.0650449846,0.362987817163,-2.41114017142,-0.832400335056,-4.02148732151,-1.24702535762,-138.818709085
off_to_on,-0.468333749598,0.903186521725,-1.03622817912,-0.437598937484,-3.01619664273,-0.693142416668,4.06560220724,1.61093721406,-0.63897953773,-0.870584475849,-0.628989546874,-1.69675828607,-1.01492674028,-48.7486300034
off_to_on,3.26136939983,3.21636441812,4.93691152711,0.162634569679,1.73060366012,0.958631513725,0.922362852692,3.14483467574,0.561448992612,2.74021040502,1.24234412834,4.33563036567,1.67965717203,100.053047133
off_to_on,0.104259486041,-1.49303057617,0.979280349874,-0.104843934184,1.85739341004,0.538415984142,-3.97999568763,-2.71094632894,-0.18755230691,-0.255896424203,-0.188130979591,0.615822827976,-0.218969052752,108.101586086
off_to_on,-1.86030680297,-1.91622389216,-4.05111252762,0.294573853428,-0.638278579015,1.05001144945,1.42804356325,-1.11246804565,0.0627584498446,-0.832481906974,-0.0277120147165,-2.54405329302,-0.178745285415,-161.572603483
off_to_on,-2.0215616607,-0.00804511167989,-2.39149112606,-0.344779660152,-2.80229688844,-2.92540802409,1.63855625565,1.34515350054,-0.314325539474,-1.15315720453,-0.835368033996,-2.01246605509,-0.957607947179,-56.9330622909
off_to_on,2.42162006683,2.45143581983,4.46735277452,0.119382035463,1.24008468188,-0.537859404585,-1.84784221985,0.680386702236,0.446376535856,0.782884996279,0.219997502534,2.57577762809,0.506323973613,102.83326571
off_to_on,3.21521378093,0.677028191447,2.8690450196,-0.088593950175,2.86885028985,4.39317695262,0.234856304499,-0.0781005605393,-0.190092806837,2.04945635443,1.3619693619,2.97820487341,1.65236993912,129.885548593
off_to_on,-3.37410581393,-3.07660287152,-4.46149080546,0.400662141992,-1.69650326668,-0.666253338375,1.48888185573,-0.882428387196,-0.0585895224444,-1.08060555742,-0.508314618851,-3.15856812897,-1.19493663164,-169.445672304
off_to_on,-3.89894243863,-1.10596437944,-3.44501948426,-0.368777078561,-2.93329114102,-5.24351001643,-1.52040715971,-1.06281329678,-0.0424602671266,-2.84838638133,-1.95959910679,-3.57853402093,-2.23483142522,-74.8516210572
off_to_on,4.50085391978,3.96972308169,4.7478527708,-0.302429875183,2.55567274546,2.62448912777,-0.631101662616,1.78153195262,0.203510526442,1.97215009893,1.36482017005,4.25815319598,2.41039989735,107.467379716
off_to_on,3.90222663156,0.886310491098,3.36099075884,0.693606509672,2.27742080521,4.6934594522,1.88921767301,1.41972238185,-0.0645358595431,2.99263941738,1.93030490133,3.22967680376,2.19517273627,144.293829741
off_to_on,-5.24877578868,-4.56194780945,-4.48280996074,-0.115622431779,-2.93791913701,-4.16126549188,0.0449200962922,-2.48218291876,-0.178096404079,-2.85360254407,-2.17291928438,-4.88129843285,-3.52660301473,-165.114853905
off_to_on,-3.63890504298,-0.22997797377,-3.32145139118,-0.546898395543,-1.57593098947,-3.32936660117,-1.97950394602,-1.58119566559,0.188913568849,-2.73076259246,-1.32103205407,-2.71598167338,-1.80664689878,-97.8674048369
off_to_on,5.55437220843,4.4242459919,3.95605298164,0.187381357387,2.99173190959,4.88938044693,0.534046478303,3.13543688946,-0.0942415188378,3.63152189397,2.33564071392,5.30921616447,4.38484272685,113.563323472
off_to_on,3.67732746543,0.0566774335736,3.64263212201,0.661144494325,1.30051830942,2.07976793304,1.81720455041,1.73335051245,0.172505470971,2.32812943757,1.04174585784,2.21436695527,1.52685064425,150.557074801
off_to_on,-6.56508286629,-4.76458571922,-4.15851682426,-0.726618509555,-3.83166994046,-5.94822515087,-1.53783149775,-4.41849028153,-0.329979458648,-4.95906316062,-2.85690873796,-6.27068700694,-5.94771159148,-152.277176521
off_to_on,-2.09490758541,1.20014415909,-2.69835737031,0.0849559172879,0.376805033426,0.744676337231,-0.114254464032,-0.314278400217,0.354015537976,-0.235141325674,0.205521842187,-0.0928134280554,0.58437873598,-120.449288718
off_to_on,5.63658485578,3.47813567741,2.96708814962,0.138426313227,2.99637202663,4.75867747542,0.609854815649,3.77802425162,-0.339026017413,4.27741950002,1.79890558465,5.10282768885,5.24664827654,118.567585555
off_to_on,1.74808916639,-0.981822120544,2.86734405602,0.331534510261,-0.764625819354,-2.19878229469,-0.266394673204,0.371200964668,0.435828664616,-0.639392076987,0.170079399755,-0.499501598839,-1.23774193238,150.266018378
off_to_on,-5.28115730617,-3.2209646213,-2.79296891267,-0.746086533657,-2.97613423634,-3.63349894949,-0.18629718033,-4.04100070114,-0.514308929192,-3.96341240812,-2.01855281274,-4.54197575318,-5.02188357213,-134.480351749
off_to_on,-0.447252107955,1.85072390627,-1.66153239025,0.725546356251,2.14633240215,3.75786680637,1.05448065085,0.425362280113,0.45626846058,1.97475717551,0.600098188743,1.53143956273,2.50405320253,-139.664404089
off_to_on,3.04335521936,1.28883997673,0.751278540355,-0.582995785682,1.32922426058,0.969982167536,-1.42373261802,3.10331989528,-0.445428840522,2.32944818367,0.778810331132,2.83398653145,3.16060117224,121.744186617
off_to_on,1.30826509402,-0.652350096263,2.55920526461,0.522719766474,-1.6836430558,-2.68811252096,0.169064029444,0.192319363,0.613765850035,-1.35525237173,0.534497444566,-0.715375117975,-1.58910592955,145.264769675
off_to_on,-2.39998631258,-1.21639359404,-0.702818262427,-0.487578878817,-1.17958769242,-0.505332148952,0.999139759602,-3.63051363841,-0.736598258138,-2.54760187393,-1.6953639488,-2.94342474166,-3.00386537024,-115.520933026
off_to_on,-0.933415276002,1.03130397561,-1.62497502971,0.518055622867,2.68746461923,2.80989569968,0.264690345551,1.06669165078,0.626758125672,2.38275064041,0.618054184976,1.42934476926,1.90361961839,-153.370313801
off_to_on,-0.283484488495,-0.843346734102,-1.46645643112,-0.612545685245,-1.29823246268,-1.33871638524,-2.68524051247,1.35368669232,-0.513481120819,0.512726876129,0.077729158781,0.982061989976,0.97323479773,122.845419866
off_to_on,4.16544197936,1.58597562191,3.63362654764,0.631073383256,-0.258715647033,0.0617637923108,2.86391878561,1.28012470221,0.660763203711,0.088124174844,1.10367688503,1.31176524232,1.06741756755,137.413333326
off_to_on,-1.51566663615,-0.748410791005,0.0478303179621,-0.666687184113,0.0149845320553,-1.23276389115,-0.191453935261,-2.69115528737,-0.880592793773,-2.69222019669,-1.52305343039,-3.34708024689,-3.02308538194,-98.3409816427
off_to_on,-3.59767454318,-0.851144209645,-2.28306792175,0.916241944932,1.05667178578,1.30288587008,-2.08745930692,-0.652372194644,0.838052294219,1.1832737996,0.185862305447,-0.327718614951,-0.496222957491,-160.944656261
off_to_on,0.883717279167,-0.317349138249,-1.25731696119,-1.10264628368,-1.36364736112,0.941567501757,0.755009312395,1.5729761575,-0.646402753601,2.12383325999,0.0580332021688,3.28257028434,2.68088705744,122.374919503
off_to_on,5.0553653677,2.63666166761,3.31288289509,0.835474277834,0.701369318161,-0.931011891736,2.83306287593,2.54985915895,0.689510788101,-0.170787424936,1.47403236838,1.25253802447,1.78633657514,128.299620483
off_to_on,-3.158844078,-1.6024182015,-0.379816835591,-0.483773487784,-0.085453519577,-2.29870377796,-3.42286166936,-3.28342258902,-0.942527271929,-4.09097505992,-1.64980643458,-5.65905246455,-4.62360385898,-84.9132675537
off_to_on,-2.77352233133,-1.15930053779,-0.963991389595,0.717040231397,0.500285113103,2.9357329674,-0.506744199495,-1.6570019,0.992355455412,2.0768797599,-0.0807339149207,0.860728594696,-0.17942771481,-162.945323082
off_to_on,1.91155939533,0.469933379034,-1.52395661946,-1.27204045811,-1.55609468636,0.296976115634,2.6512767049,2.42498307002,-0.765370634593,2.95930205236,0.239956692723,4.9790779906,3.53201355663,121.504356943
off_to_on,3.40885796369,2.68451213838,2.10698288775,1.23239710995,1.7326964448,-0.913453835605,1.47421498832,3.63714238585,0.683383180101,-0.650013183414,1.86242684803,0.0484327778185,1.59917137047,117.430221157
off_to_on,-3.70179096107,-2.91078242891,-0.00996074769005,-0.540520670575,-0.659932527246,-2.26606374695,-5.14723657952,-5.35951394577,-0.93966319779,-5.64924496389,-2.439691583,-7.90223553179,-5.9096342947,-69.3334908574
off_to_on,-0.207671452553,0.00991747093692,0.209641038959,0.216486997164,0.00628312007212,2.31239726906,1.17876526238,-1.14015235013,1.15111656367,3.46703115439,0.296451418342,3.4690858772,1.09589710227,-177.558365358
off_to_on,1.12504742681,1.13183007225,-2.12363310586,-0.846236706166,-0.867824889956,1.03590409612,3.60317319495,4.0520857115,-0.99400944675,4.18278620894,0.779798795195,6.30976333482,4.07734919194,144.634731122
off_to_on,1.04603620118,1.01221559498,1.42106631618,1.65300804476,1.80610434997,-0.0171757861792,0.269705068999,2.12547318423,0.735288671968,-2.65269285542,1.09760350615,-3.29789793294,-0.119353781466,99.1035221455
off_to_on,-1.73716456916,-2.76283937773,0.319050613213,-1.54973280965,-1.20708664414,-4.08894659949,-5.85253259703,-5.85141853698,-0.796361204532,-5.98912202677,-2.59149135199,-7.66776807237,-5.47652918726,-95.3357544004
off_to_on,0.846143359156,1.56766972526,0.60689979177,0.675486848647,0.0657650015866,1.90697287979,1.76264101735,0.270727567104,1.09678247716,5.35323364686,1.26161637483,6.34664080744,2.56853363269,-109.764397455
off_to_on,-0.891678113521,0.449215186735,-2.0877146801,-0.231447893791,-0.318095391745,3.65134145639,4.74430561822,3.90316364902,-1.18785288125,3.79049570808,0.344762092995,4.9930391412,2.94365044857,100.19476981
off_to_on,1.42583980149,-0.181748529106,1.14355391595,0.799616701097,1.57448281265,-0.806686970134,-0.454048896949,1.06590765632,0.921036692688,-4.01538045383,0.385453792203,-5.21123265118,-0.941535409338,79.4818021514
off_to_on,-0.891612739541,-1.80293830573,-0.012631893107,-1.51928605511,-1.83126561162,-6.51316671102,-7.22704966918,-5.58930263706,-0.67238492621,-5.24957704386,-1.77370067372,-5.9188782484,-4.1830895649,-54.5412770858
off_to_on,0.201789022211,2.33627818057,0.850419021333,1.34537414986,0.821683180192,3.95899176081,3.50929691064,1.57282462909,0.811404359438,6.34927641812,1.50124415937,7.57526827176,2.93669988345,-117.138747077
off_to_on,-0.908625581677,-0.6921007458,-1.58159829198,-0.566864146583,-0.263162960722,4.51683719424,4.63642627556,2.77094842471,-1.14149461674,2.42810226939,-0.597263924337,2.52884110905,1.44694763132,92.8668168986
off_to_on,2.0134820742,-0.363688157724,0.832706828421,0.34036476464,0.810322096748,-2.87379641724,-1.94763296142,0.182312367409,1.14682359464,-4.13407167272,0.692461076191,-5.1489938602,-0.607787207654,52.8623580257
off_to_on,-1.2911495142,-0.679832040597,-0.237808307065,-0.96877014669,-1.22019876475,-5.51032632989,-5.2095833623,-3.50522468849,-0.780031633485,-3.45779705251,-0.929569799501,-3.11126846443,-2.76378952908,-8.7570774752
off_to_on,-0.61903624724,1.77282442344,0.580309229065,1.50726299173,0.90057938766,4.49235828799,2.68781033582,0.983051925563,0.594277836829,4.82361907348,0.50800989017,5.53693174608,1.65442820119,-124.868936469
off_to_on,0.452640166963,-1.22298210093,-1.06958020458,-1.20578166326,-0.675516414826,2.88756141373,3.00346306889,1.17239646016,-0.885129944558,1.89076795873,-0.667031117964,1.08157216278,1.16290837334,60.8520034572
off_to_on,1.92284811399,0.240340627917,1.39412372152,0.570855530381,0.655175071874,-1.94079795597,0.117865683585,1.25302414741,1.1657508309,-2.77406928895,1.58866248669,-2.85248105943,0.111929618949,76.3258759067
off_to_on,-2.31546346933,-0.201313990209,-1.13717894988,-0.514691635418,-0.313623760823,-3.74836384755,-4.37462263047,-2.13036371849,-0.937856560997,-3.14115953222,-1.36446641162,-2.24577645656,-2.43311507301,-30.5712394747
off_to_on,-0.140954902412,0.819823367139,0.149692298465,0.953274281508,0.522913852899,1.96587238533,0.220855304165,-0.448357440749,0.544368024651,3.70078866939,0.0913165497968,3.18756804531,1.25760237409,-41.4918729682
off_to_on,0.554580795663,-1.46123811428,-0.20324088142,-1.01450696232,-1.85699330861,2.03525114953,2.82040518629,-0.124190549591,-0.599358554837,0.963000589558,-0.241589804682,0.167759747156,0.0983541214471,-71.0961011703
off_to_on,2.19140678356,1.46450441842,1.82802744585,0.532564021616,2.04982519397,1.31901229833,2.65218628917,3.36943291223,0.928408682352,-0.827302305425,1.56163937957,0.316440651685,1.27105356684,140.316775993
off_to_on,-2.431170094,-0.371386418038,-1.8573247972,-0.368057875445,0.180602467351,-4.34940897585,-5.19292337046,-1.63143176093,-0.897381662554,-2.51977943431,-1.25132257985,-2.20723723984,-1.49256455793,31.4698275395
off_to_on,-0.876214688104,-0.38216049646,-0.547373010331,0.874620525891,-1.30103026219,-0.52606273475,-1.17232012992,-2.70691617569,0.545455648388,1.32776142486,-0.17622413852,-0.158385466082,-0.54519916549,-137.609540295
off_to_on,1.32262578347,-0.761408626354,0.951846162041,-1.13892122328,-1.13986831009,3.56346540667,4.0301321792,0.855710515237,-0.465796797657,1.16145733281,-0.24275034748,1.52269408369,0.143079489788,-44.3802152366
off_to_on,1.87099747213,1.72180591083,1.70737031558,0.596482270943,2.8543733095,1.41204325569,1.5598574785,3.71335349262,0.702666310403,0.60205937649,1.56652270609,1.98218431748,2.17202355429,157.548509572
do_nothing,-1.9905987611,-0.152549933141,-2.10929028021,-0.206549758845,-0.279367711182,-3.97528054486,-3.93378602464,-1.82392511074,-0.733040387689,-1.91513550993,-0.737345320627,-2.7561099945,-0.970418979826,55.2144626647
do_nothing,-1.00196892397,-1.07607285465,-0.727668627819,0.702229975925,-1.94626508445,-0.275191330737,-0.165725050718,-2.37220423416,0.480885378405,-0.500678948406,-0.737523395326,-1.60563218089,-1.68214102317,-214.48824242
do_nothing,0.541878781188,-0.904292089582,0.975266837437,-1.01793270355,-0.565120956481,1.56253325163,1.131528047,0.363529715313,-0.395284653553,0.734969018573,-0.323374355201,1.87336920377,-0.149787144697,28.3719470569
do_nothing,2.04933439518,2.25451793467,1.85894474295,0.258068902361,3.10446358545,1.69359068242,1.45735459936,2.95351708776,0.544749764427,2.19360305949,1.89868600907,2.98325651285,2.98117143566,136.443024768
do_nothing,-0.738587919143,0.1609540397,-1.7462530173,0.309340489069,-0.848338503153,-1.01441860863,-0.484826328697,-0.712089736755,-0.542236816802,-1.53695298297,-0.759890809531,-2.8960538936,-0.754841112033,22.9077409603
do_nothing,-1.14147675304,-1.38405783452,-0.947401646635,0.473350106553,-1.68048405756,-1.32087380868,-0.780058995029,-1.07579637441,0.34559704022,-1.43294110308,-0.711726527966,-1.73720142245,-1.72116069884,-171.207147108
do_nothing,-1.57323139168,-1.65972394811,0.334851807684,-1.15410849056,-0.135791510441,-1.78737604849,-2.31241494753,-1.92919724051,-0.289712733426,-0.201069523996,-0.409936168311,0.976331560847,-1.07837114621,25.9203987201
do_nothing,2.65542632955,2.55882045709,1.87495559767,0.257959891179,1.88487677034,3.37118555522,2.25550458332,1.64920031169,0.380891977445,2.56033755115,1.25603198325,2.74540507009,2.64017333623,105.461299157
do_nothing,2.41546228792,1.65349223724,-0.0857794263098,0.636622535111,0.241980522577,2.87642941335,3.59951652344,3.6285780475,-0.328986976027,1.04230619797,0.525314298058,-0.0781092742982,1.7237761567,23.6804210024
do_nothing,-3.87276067695,-2.84835677099,-2.15932371835,0.264009422401,-1.4854397821,-5.08867847306,-3.39632691216,-2.68881124567,0.168934460822,-3.55260188882,-1.17690336754,-3.70764347311,-3.19124429694,-128.451377423
do_nothing,-3.06961712696,-2.175419959,-0.693728133916,-1.28859435808,-1.01779694957,-3.3892608694,-4.44842618581,-4.70220074076,-0.155303328469,-1.85249149657,-1.28468662106,-0.656277330159,-2.56416677696,5.05752224502
do_nothing,5.48626188528,3.82054972749,3.18864317092,0.282936276852,1.7884284004,6.80230203063,4.57389989635,4.22362506314,0.214084586489,5.02657543173,2.05412346548,5.12514378428,4.43319696671,81.3424930513
do_nothing,2.42179193489,1.65223594412,0.550872574356,1.11518055667,1.25654823875,2.61979254249,4.15468208094,4.28163906547,-0.119989557165,1.55060527495,0.955438680935,0.152856408595,2.2096321872,27.2800981463
do_nothing,-5.84039922946,-3.90466358297,-3.59659266688,-0.416057694323,-1.76703616525,-7.11205465435,-4.34108679109,-4.65098951536,-0.0197008771791,-5.53871199262,-2.22234887298,-5.38017711041,-4.72604894597,-83.9135823044
do_nothing,-1.93941671762,-1.22387996558,-0.341570265383,-0.965569245966,-1.82144373167,-1.96004498217,-4.46547578501,-3.77348166266,0.00447247190351,-1.34543579817,-0.722477320591,0.142863167149,-2.01931951873,-23.5515892181
do_nothing,5.58844982028,3.48149088277,3.55453744737,0.405526736981,2.24331286015,6.58121474545,4.00997956586,4.54591409683,0.0344191512985,5.72662997415,2.2335522762,5.22714676628,4.83826107583,65.3484155685
do_nothing,1.65279233561,1.12222628881,0.359363630966,0.943369211611,1.99213575635,1.76166431192,4.84370580264,3.23163193921,0.0794316017832,0.964645946226,0.445443210332,-0.443042144441,1.63407475352,27.0859802555
do_nothing,-4.86820951492,-2.93842023146,-3.51616754151,-0.516009633184,-2.93129089516,-5.86345454977,-3.6300476575,-4.06918930534,-0.199621108418,-5.34883757364,-2.07342065737,-4.54148698244,-4.50637509265,-41.2630508047
do_nothing,-1.53409261249,-1.03477623982,-0.0229369850465,-0.713459757822,-1.29890805784,-1.5580650406,-4.87423736778,-2.37219224048,0.174420982108,-0.50661282492,0.00912752858388,0.669321314448,-1.13279295589,-51.6221935862
do_nothing,3.26760064185,1.72348242453,2.49689360726,0.2950417931,2.59110285731,4.42183668137,2.22306421335,2.16365760429,-0.156733922229,3.76332457145,1.12173363891,2.77853783345,3.08672097933,56.1442180386
do_nothing,3.0318721274,2.27546071524,0.966233182654,0.955201206892,1.49177575633,2.59941120839,6.4880732265,3.50588293815,0.271265192601,1.79580724448,0.743739895177,0.900918038457,2.28141623563,23.196633592
do_nothing,-3.22530831594,-1.99407704842,-2.64500958757,-0.750247083473,-3.22767797064,-4.42047881353,-2.61928989985,-2.02627282372,-0.364489804029,-3.66142621833,-1.41793436975,-2.63046361131,-3.17459389951,-9.67791713827
do_nothing,-3.54212403615,-2.36362401292,-0.958727673854,-0.256218481475,-0.393828658922,-2.2725314853,-6.66427705303,-3.49468783891,0.339446939145,-2.14310395561,-0.405201425016,-1.47377058565,-2.46434800747,-65.4846529797
do_nothing,2.75062234893,1.55511742886,1.94082870307,-0.00138252679834,2.54888723816,3.46998835755,2.44978918724,1.27913885224,-0.344686145619,2.98244842848,0.702674236254,1.91017717595,2.74537640267,46.5202167615
do_nothing,4.4113529938,3.04840325191,1.89724919554,1.02822574306,0.189791629814,2.28391621899,6.83633415792,3.94792015288,0.448636963478,3.08676731239,1.21135933723,2.64091902,3.17105398781,14.90066118
do_nothing,-3.13902731402,-2.03373591713,-2.46091951879,-1.00633494434,-2.43286232397,-2.5313033704,-2.70018502398,-1.26311205534,-0.51126752221,-3.35079222465,-1.42097163382,-2.16543821419,-3.32198843678,13.8325783446
do_nothing,-3.72314931246,-2.31776215575,-1.24954539714,0.204213057855,0.955224119332,-1.85825423609,-5.53414284284,-3.13866697375,0.491499377726,-2.31732340566,-0.261380172316,-2.27952079014,-2.23400144458,-66.2467080781
do_nothing,1.45729709549,0.61959451497,1.02841271717,-0.0722514432656,0.335976010166,-0.18079262693,0.598823959127,-0.731940088888,-0.517417535748,1.44114645984,0.0517923813508,0.241211012564,1.76480965383,34.5149876463
do_nothing,5.47123930222,3.94659678098,2.93630343163,0.578991472363,0.828423560518,4.86776048867,7.0426242101,5.07650239689,0.604402633801,4.21816059052,1.75276655634,4.80756139327,3.75999386911,5.08302874783
do_nothing,-2.51159240042,-1.91658542012,-2.24333816296,-0.827938443583,-1.29854185888,-1.16295218098,-1.4619182126,-0.372110978705,-0.638935886683,-2.41720451847,-1.36610120303,-1.6330398461,-2.90160385267,29.8689432659
do_nothing,-4.44475758039,-2.86570706529,-1.94677593105,0.803853861854,-0.180627947093,-4.98256247148,-5.76912113861,-4.35958089011,0.628602784245,-3.3980324531,-0.628647670888,-4.37194509285,-2.57542650828,-57.9047546014
do_nothing,1.06933828213,0.764287678836,1.01911812914,-0.847638358625,0.445931709845,1.22795668614,-0.0870495994701,-0.396481743591,-0.666559489632,1.17734323408,0.361354154264,1.00026478504,1.58120279571,21.8219942214
do_nothing,5.73908925198,4.19994509998,3.30376409628,0.800415272416,1.39468964726,6.4442313002,6.84217519881,5.36840619229,0.714732947961,4.54105573077,1.69917575304,5.48778904049,3.60997949956,-4.21799214366
do_nothing,-2.20635555745,-2.42017238241,-2.47745469476,-0.632753180744,-2.05321382354,-4.43266899911,-1.07319954029,-1.2539517528,-0.694253113926,-2.25381112216,-1.82452886672,-2.51695254459,-2.55530384361,38.2591888953
do_nothing,-4.13116494627,-2.39559846685,-1.55380913384,0.6690929929,0.355168486694,-3.58749103092,-4.97968355177,-3.36784525883,0.687785982809,-2.94775709413,0.0414368842438,-3.61994592694,-2.1331634471,-43.9299053416
do_nothing,0.58020969474,1.18823461543,0.843613963813,-0.86168021063,0.687960760235,4.3170315861,-0.428990044445,0.217108234906,-0.799542048166,0.694041478569,0.537308562402,1.09806648119,1.02291623998,10.3122125913
do_nothing,4.97500559606,2.98309675381,2.55917430633,0.894464228953,0.65830238917,2.28231273743,5.55197276796,3.3659752267,0.920951296833,3.76288279398,0.619657541162,4.08651073594,3.09754613677,-11.7981643356
do_nothing,-1.69125791969,-2.47783280802,-1.93460558255,-0.794440865389,-2.21940651486,-5.68754215058,-1.00212970853,-1.35600093943,-0.875819436712,-1.96937314636,-1.6642299536,-2.1703398344,-2.3687458185,39.6264925649
do_nothing,-2.21171154656,-0.140686883672,-0.377486115168,0.689418140018,1.80727239336,2.384974377,-2.25877456186,0.0524974417001,0.734884235621,-0.749522162462,1.78360104453,-0.860889993771,-0.249695055692,-27.4187323592
do_nothing,-1.35159179409,-0.417055767604,-0.603779266326,-0.607620694118,-0.262827678408,2.11128809283,-1.82631251259,-2.00970162923,-0.75838731074,-1.21520258936,-0.991206663631,-1.45435340819,-0.690455609642,-0.649530965053
do_nothing,3.22144022203,1.22541114707,1.78255967504,0.813659629354,-0.281342701983,-2.60623114248,2.64355263012,0.764012401026,0.992962189243,1.80130512884,-0.348363587478,1.96934594858,1.39933770423,-9.00758440394
do_nothing,1.5389103701,0.319480201763,-0.0326715517058,-1.31074472353,-0.700539684896,-1.15527084106,1.96548125178,2.57004536409,-1.12816083442,1.46099190727,0.367444135571,2.17065830162,0.755995134923,18.8315305894
do_nothing,-1.92209679312,0.209973406894,-0.323597900084,1.30872795336,1.64025324365,4.48499431054,-0.756727987016,0.103047983219,0.931198254653,-0.744669601116,1.80214158797,-1.21235564856,-0.0993817542023,4.54020693261
do_nothing,-4.43533258161,-3.32610381951,-2.34378012547,-0.588689889596,-1.11663984703,-2.32340429112,-4.96972122086,-5.24517944704,-0.671814399277,-4.12397833178,-2.97598865122,-5.15588904868,-3.74555170953,-0.135275917771
do_nothing,4.31302341778,2.42877367158,2.37644940243,0.405181193243,0.115736869257,-2.39208474656,2.65575584867,2.67311370926,0.766302565278,3.19160078528,0.688863278228,4.04612346963,2.63882712234,-54.3285530956
do_nothing,3.17063051012,2.09270121763,0.9203765675,-1.26885108739,-0.517386141824,1.5770882024,4.10203138471,3.4456282775,-1.0751651508,2.76082538748,1.40380878357,3.91077583485,2.6565090715,71.5992711145
do_nothing,-3.09133556236,-1.69389667288,-0.903465603104,1.56215142548,1.6536887655,3.52174854425,-1.43555608811,-1.71076984875,1.07629109206,-2.2251614431,0.533857871033,-3.33175073799,-1.80114926566,-18.5126778915
do_nothing,-4.88451289804,-3.49587779522,-2.6126619197,-0.48730082332,-1.43439644699,-3.43400480589,-6.1452022161,-4.35601170113,-0.7572952693,-4.16313004218,-3.06249043567,-5.4836615313,-4.37792872668,-16.535925931
do_nothing,5.27206773162,4.10707294333,2.63370452715,-0.0346738946319,0.4827206054,-1.27211713164,4.10838604937,3.71723276768,0.662582153307,4.51573179165,1.6143281196,6.04353432855,4.3434061965,-7.79794630181
do_nothing,2.13640555768,0.473986297588,0.653902136884,-1.1349991899,-0.834984730015,0.726436316225,3.45587851623,1.13862711489,-0.92653733145,1.20449550357,0.848116531628,2.28773313407,1.60633061711,20.8557132347
do_nothing,-2.77947725575,-1.6022527563,-0.604427079643,1.93762474555,1.43480480671,3.69127105332,-2.70634842438,-1.20620150256,1.0422964772,-2.19848241744,0.261453909935,-3.72269753303,-2.20069896876,14.0590438114
do_nothing,-2.97107038408,-1.42884130585,-2.013969409,-0.889779838475,-0.310540776656,-1.65221783757,-3.37133891313,-1.46048770572,-0.812099205867,-1.82136470368,-2.2595736961,-2.76938029313,-2.43727931208,-48.5085426595
do_nothing,2.58636966629,1.68059835384,1.39771430795,-0.0797189445501,-0.528364030762,-3.57002358433,3.25957357242,0.940420099814,0.684706751291,2.17255087918,0.98406710005,3.47186485268,2.43091388373,52.0539546994
do_nothing,1.79135914269,0.273968825329,0.637503373923,-0.678268550765,-1.30342559812,0.34094761144,0.73978151746,-0.146892884772,-0.865892094047,0.471235399262,0.69244364314,1.50399946695,1.13768525886,-37.3719024953
do_nothing,0.443302792038,1.12451233802,0.873710735451,1.54391808479,2.85802733392,6.30079020903,-0.288964271784,2.18178460294,0.954638334992,0.663337536674,1.0525704798,-0.432898442586,0.25841078661,15.4799228473
do_nothing,-4.553930968,-3.11381019712,-2.75062860363,-0.963974626913,-0.821080761996,-2.8650848292,-2.11532803911,-2.34280730986,-0.765279425499,-3.00867135017,-2.87697578945,-4.1711298057,-3.75174756517,-7.33120398455
do_nothing,0.81225140342,0.305413728121,0.458573814934,0.20585826327,-1.52519642601,-4.86640097636,1.06368951103,-0.921718852064,0.661712225277,0.584989926757,0.857156810112,1.38052609588,1.2489381397,20.9105229739
do_nothing,3.77410363682,2.61280502429,1.59711880238,-0.491748188682,-0.159058525781,1.95320760539,0.30842327434,1.31084764001,-0.795503218323,2.19010369207,1.41707997532,3.76594762652,2.8170566642,-1.87918842693
do_nothing,0.611143482925,0.631067389386,1.10081429615,0.886255626586,3.05146920643,6.09625310765,1.23213113972,2.39589736711,0.833149158144,0.912052686054,0.369004350297,0.0646061874923,-0.0134542467049,-63.1079120943
do_nothing,-5.83676691706,-4.56759511464,-3.39408846613,-0.747197411962,-2.08205335409,-3.92350470127,-1.93924406328,-3.23116546756,-0.665652098001,-4.28516412056,-2.8649273869,-6.03616885977,-4.56350822569,62.3010302256
do_nothing,1.54434595518,1.73322890103,0.514905138435,0.834626194576,-1.18659427765,-3.95818733328,-0.227387141771,-0.461595864347,0.606405956664,0.816626304498,1.40305233689,1.70575849267,1.9301139454,37.166595516
do_nothing,4.56348455916,3.01705170189,2.30106993943,-1.03855662619,1.63223274949,3.12350174089,1.43170008871,2.27736939414,-0.72624473008,3.59882734149,1.34894202176,5.43102906695,3.21910753246,-62.2615543275
do_nothing,-1.7711515838,-1.53991228966,0.0269736853986,0.46999736426,1.06350091113,3.3319175412,0.235326832059,0.195695136261,0.721812881072,-0.709280672301,-0.625317235279,-1.70912122047,-1.64604071104,-52.2224882313
do_nothing,-4.32092774836,-3.02865288266,-3.02701521431,0.0964234708879,-2.8257574468,-3.62455652599,-2.19758696554,-2.58729559328,-0.535772747204,-4.40168426151,-1.91116420362,-6.07500036695,-3.36632860631,84.389334227
do_nothing,3.74898249303,3.00041041217,1.6740392914,0.565790006345,1.49218137099,-0.235231816495,2.43690058726,2.27757462346,0.452376914805,2.74836897581,1.85999877976,3.80624193869,3.20503930708,57.7451004146
do_nothing,1.00086322367,0.551747307176,0.998291608311,-1.26065219002,0.925283346485,0.670259142568,-0.723377227237,-0.514904662021,-0.543913140514,2.24062952105,0.135500006174,3.37780347162,0.747009482623,-108.343515686
do_nothing,-2.3821983257,-1.59634386744,-0.807056412658,0.42453702054,-1.17417075877,0.133817733718,-1.82297661337,-1.25224794622,0.57716214263,-1.83050661655,-0.518609948722,-2.38536405798,-1.65624384443,-44.5507407517
do_nothing,0.0348013411197,-0.384741494599,-0.746614621818,0.511750820692,-1.09528810755,0.607999412421,1.63479305288,1.28641626383,-0.455690473773,-2.26874125493,-0.73534903849,-3.19326385797,-0.632451521936,94.784785651
do_nothing,2.12468373505,1.69724853582,1.1069437413,0.282790843273,2.42164457936,1.05402269606,2.43692081043,1.35338963998,0.32655702443,2.4570929768,1.09885223331,2.49075931201,1.77717103288,81.3561019595
do_nothing,-2.10123495386,-1.092898054,-0.779619684196,-1.29502792672,-0.477999607333,-3.79047109901,-4.1278604131,-3.1087563776,-0.299909375721,0.762068795138,-0.313206376809,1.61794545992,-0.880292263187,-139.18067073
do_nothing,0.0117884644919,-0.0881900887224,0.381054860161,0.553585624196,-1.68808804965,0.685997718155,-0.937144274482,0.292402046555,0.343490138178,-1.35747425741,-0.0348701714335,-0.931645084107,-0.282657240412,-49.3892201809
do_nothing,1.95530146688,0.712504853335,0.405321063137,0.460341060103,0.566781554255,4.61754102698,5.18727197543,3.17659545646,-0.367570310116,-0.696844272128,-0.221529569294,-1.51497028097,0.831999208665,102.316085391
do_nothing,-0.990787896443,-0.300639716166,-0.571477163778,0.154451995004,1.47855777713,-2.14103533833,-0.735581831791,-1.34961683063,0.290556699124,0.991246301938,0.231349912069,0.0828829055585,-0.298116141918,107.307105948
do_nothing,-1.61906295145,-0.704835713119,-0.615409035674,-0.917227007091,-0.803238624579,-4.43485349963,-5.44435059353,-2.83949687279,-0.145897411483,0.298532111937,-0.150707310994,1.28599836479,-1.14023251756,-162.615504925
do_nothing,1.82413215731,0.952381015229,1.25683161385,0.139044061368,-0.612160523316,3.56103104593,2.86282786371,2.53334492201,0.0957234589139,0.0742316011854,0.402569869407,1.13948211721,1.51124579268,-57.3331411086
do_nothing,0.139095666047,-0.202111669072,-0.104521976866,0.617823431711,-0.21874844089,2.38536498414,3.58802781675,0.888590392573,-0.173305158574,-1.3448665623,-0.433630609997,-2.27846858867,0.0580832492012,104.833908443
do_nothing,-0.695477616457,-0.220248744622,-0.764390938456,0.0792501315997,1.04201189295,-2.53565662484,-2.70342180374,-1.39661756436,0.175820829622,0.641082216031,-0.0966554757589,-0.580394379094,-1.10635494138,129.68987285
do_nothing,-0.109881335126,-0.0317988083429,-0.0486625697317,-0.582003415462,0.353601619918,-1.69069905855,-2.78194007431,-0.471290710061,-0.0158734519729,1.07492702866,0.387451636882,1.80233040288,0.0124673607482,-170.997535525
do_nothing,-0.0577447793665,-0.050046740284,0.553801508931,-0.188637544732,-1.16695436383,1.43673210452,2.45202819008,0.407255799272,-0.0944072382072,-1.01950845555,0.0124724281344,0.566685361244,0.905141667036,-75.0430060502
do_nothing,0.424741318416,0.403315008027,0.415147651117,0.447729564926,-0.15394580008,1.78707391001,2.29175608806,0.728837747907,0.0398335105033,-0.27327478328,-0.278876434651,-0.997354479051,0.186698996812,109.144409134
do_nothing,0.231885537138,-0.15542517025,-0.809718588378,0.438346220812,0.524354882013,-1.02336470485,-2.32222701073,-0.108767131986,-0.0249596742969,0.535445728497,-0.156598910204,-1.35288164129,-1.22085604167,144.656118936
do_nothing,-0.154324959769,-0.171891242548,-0.281024133404,-0.389533597791,0.723852922995,-1.72339031753,-1.49275228834,-0.501439200134,0.160429464685,0.244137058229,0.572891257506,1.1096025931,0.413335523093,-167.067882938
do_nothing,-1.02096140334,-0.287836224148,0.632684251835,-0.887724159366,-0.47801756047,0.687410499575,1.20358118903,-0.815152883743,-0.244621204259,-0.803386957346,-0.315997918336,1.30561198788,0.460379488672,-97.8375213298
do_nothing,0.679146394589,0.707093794199,0.561260959453,0.975324729423,-0.655253109352,2.15571367789,2.21935448028,1.28688585942,0.189888388519,0.795645108529,-0.0694994163725,-0.567902975381,0.110061277305,114.825124447
do_nothing,0.888532929589,-0.214184260869,-0.939573926981,0.282241588812,-0.407300262907,-1.79641334251,-1.38610767545,0.650015291197,-0.205667105212,-0.0821375172384,-0.109650106163,-1.71781706222,-0.520133540956,151.47460714
do_nothing,-0.43674518,-0.204647756732,-0.238085614428,-0.304721761247,1.49606423856,-0.834155166536,-2.40260046317,-1.37276941592,0.352851386385,-1.02748160244,0.540030768337,0.37147279061,-0.268303987828,-154.57961384
do_nothing,-1.4347998435,-0.356646670542,0.427243867322,-0.982625521009,0.488282829291,1.76843809025,1.44446753529,-0.864957401322,-0.408048357428,0.631966662751,-0.579481215905,1.69538639294,0.34541397644,-120.158086509
do_nothing,1.32234607531,0.901675593406,1.0675901056,1.01755527926,-1.66762273719,-0.139115110796,3.09364018873,2.04763011397,0.332080902735,1.70902132258,0.309943930768,0.622819008343,1.1126088535,119.348812512
do_nothing,0.206660718445,-0.423077937481,-1.33893618974,0.174109658118,-1.27482465739,-2.01409940361,-2.83380690397,-0.0468926198312,-0.359198235824,-2.43226446486,-0.235859640497,-2.99221291926,-1.54807297105,151.712166109
do_nothing,-0.305587407096,-0.197114533767,-0.4139340978,-0.170030296758,2.99449650787,2.27899529469,-1.78405636257,-1.12535454296,0.512610986473,-0.31119016655,0.488010636278,0.133816638603,-0.167006062985,-137.095666963
do_nothing,-0.604401873437,-0.332636093838,0.751528591141,-0.907298045138,0.133280510792,-0.178975547049,1.97643208862,-0.99498629085,-0.557859423667,1.90626894539,-0.782137629364,2.29974380159,0.864933176314,-139.06609892
do_nothing,0.968704242454,1.45840985402,1.48201587909,0.926441000988,-1.92070334008,-1.45077170691,2.61030068072,2.44295190717,0.487201192801,0.991585321632,0.770853706976,1.29189209601,1.21499271342,122.011709548
do_nothing,-1.17918287649,-1.35639859648,-2.23470757094,-0.162242016317,-1.16125200073,0.158988026849,-3.02017708447,-0.187463756071,-0.522305125382,-3.25123254403,-0.350485890662,-4.02247953193,-2.38983536342,147.191480312
do_nothing,0.862090477256,-0.200703818652,-0.305972819463,0.359861229463,2.53097457249,1.69474945161,-1.69698536007,-1.99318960496,0.647405342556,0.296662717434,-0.00997629423219,-0.272788144658,0.026085644038,-118.421026674
do_nothing,0.737521297306,0.860903502263,1.55083425272,-1.02981666201,0.614072135196,-1.01915191714,2.40889082223,0.077013636038,-0.65966629892,2.48431615291,-0.3637208908,3.71031237402,1.81577088354,-152.431742495
do_nothing,-0.979474811932,0.860738707661,1.22283284635,0.840195921395,-1.2832942015,-0.224727867698,2.39531318618,2.95134319693,0.608048937984,0.443399467632,1.16512273315,0.74059086122,0.587841840089,122.612056897
do_nothing,-1.89443789368,-2.4736987511,-3.14198021459,-0.488032878475,-2.34850822664,-0.707287924942,-3.58238766045,-2.09320849544,-0.676807844126,-3.65015113846,-1.20746354468,-4.87646027732,-3.15300120406,139.743931924
do_nothing,3.31323765248,1.15165028873,0.541369571336,0.814255383108,2.8080820679,1.71142540652,-0.747058761115,-1.060311236,0.773491410688,1.03178926739,0.414144660328,1.03625556091,1.16680674701,-101.49392563
do_nothing,-0.176088294682,0.909928570208,1.68824043752,-0.849218081128,0.954495199739,-0.596446674533,1.72307440639,1.01336076369,-0.722273345184,2.03342660068,-0.223443293922,2.85977008848,1.56782770301,-159.656274105
do_nothing,-1.85371980727,0.106599064835,0.843672772823,0.255112913318,-1.25455788103,-0.212552865026,2.43462805852,2.16785916423,0.664222717598,0.650595127136,1.03144246318,0.713668880583,0.260656868674,121.695346466
do_nothing,-1.22388746678,-2.4028632889,-3.2874754711,-0.399165986403,-2.46597863775,-1.02100536443,-3.03575234694,-2.95848718683,-0.788926748447,-3.60804386015,-1.31189299621,-4.11072665555,-3.1264345468,130.937190047
do_nothing,3.22564646574,1.59623864776,0.771008711813,1.31306854268,2.85434226143,1.89002172041,-1.15102722413,0.0602695782526,0.917728771967,0.827110449482,0.548159531109,0.573206829372,1.43828972639,-88.2793387829
do_nothing,-0.0622725304736,0.742064701065,1.80979674938,-1.29748215289,0.362203991196,-1.17144934263,1.30446031947,1.38710434846,-0.81967079264,2.0392952324,-0.356686726992,2.22631417763,1.4801169354,-161.326820319
do_nothing,-1.66512940195,0.00947232210865,0.727764530522,0.420448371883,-0.92517294496,0.560490725156,3.05017051786,0.816637146108,0.677202785345,0.586152221614,1.18001287784,1.32118514521,-0.0637035031154,120.474712258
do_nothing,-1.55298445893,-2.20068718733,-3.34583084741,-0.448216658596,-1.07302891167,-0.135289422313,-2.56936346079,-2.15739105627,-0.784479863075,-2.87971635757,-1.17862395251,-3.1693276206,-2.46210967667,120.203162389
do_nothing,2.6448759348,1.14931807152,0.733423764976,1.20485701823,1.27741229667,-0.64393316801,-2.45982870872,0.327349792767,1.01186594525,0.136805489141,0.0995522852025,-0.866202334458,0.972844300325,-72.6044072148
do_nothing,0.760194398641,1.04234077524,1.76208391264,-1.05769534106,-0.773173780292,-0.428131985606,1.64471791299,0.441018314711,-0.999653351616,1.32444697463,-0.246544328681,1.79323658283,0.987413616719,-176.261060247
do_nothing,-0.838747958573,0.495302492604,1.21926916802,0.40400483251,1.7888120385,3.32255569494,4.49812460541,1.77127182093,0.75312568328,2.2091241909,1.80579360083,3.40213600839,1.18964214336,144.123560395
do_nothing,-3.45529017091,-3.1168755408,-3.87431666032,-0.694343068346,-1.52245764849,-2.95562764035,-4.43801486566,-2.4598976898,-0.664950690548,-3.56990377932,-1.90611454706,-4.44064761699,-3.26901782992,101.772260714
do_nothing,3.1889264448,1.54696776043,0.681905567293,1.25353880256,-0.698456744581,-1.36961051519,-1.84265849684,0.0742552527599,0.916377203809,-0.383179713031,0.141855004947,-1.33877401331,0.812747898318,-99.7353858355
do_nothing,1.83212070703,1.39000607927,2.26502728522,-0.809281438672,0.264185646846,2.41369174977,2.50420700895,0.517953113406,-1.14443419257,1.94645577481,0.316241096965,2.96636015189,1.49460158753,-106.574585648
do_nothing,-1.77675172743,-0.154891743041,0.703586809616,0.328423187105,2.69485286406,2.10385005762,2.91912229361,1.74183606564,0.941402650195,1.69156948517,1.23117704495,2.3496594541,0.705357482815,98.6802691364
do_nothing,-3.26513419035,-2.69041068415,-3.56827857856,-0.968366719866,-2.2968109195,-4.39035667188,-3.18805780793,-1.69606102184,-0.552241263076,-3.06232689746,-1.7523269776,-4.12480935014,-2.81747536251,81.8870720993
do_nothing,3.29602338171,1.82379825131,0.830471962561,1.55749048917,-0.998208126584,0.75065407076,-1.56629321248,-0.808512444257,0.616314449764,0.0125285586468,0.527543540779,-0.278247358689,0.93448679292,-59.1605120772
do_nothing,1.50402579588,0.695037419817,1.77601946674,-0.989013337373,0.83716792375,2.08604743212,0.744542519307,0.0963485416491,-1.11336600066,0.854282455338,-0.16775634897,1.86759198678,0.792191784124,-112.270532816
do_nothing,-1.68781223748,-0.328479921089,0.682494667291,0.391589934457,2.10416565726,-0.0522520965776,3.84857412533,2.8693946694,1.22058066629,1.33854869429,1.00593053199,1.14952094699,0.596655128053,90.0594140893
do_nothing,-2.49483879626,-1.41374423247,-2.79791718254,-0.659186879299,-1.82239898472,-2.21603324257,-1.52534992501,-1.5734535497,-0.634261457123,-1.18900551425,-0.925402600281,-1.95502040008,-1.57370821837,54.2382234637
do_nothing,2.77053274613,1.35494588042,0.531899632891,0.846856669082,-0.458338292712,1.80145131204,-3.69590139605,-1.98517460036,0.249108384642,-0.177591465145,0.357012817887,0.519305796212,0.651357926667,-11.142174242
do_nothing,0.43396045962,-0.702144702711,0.926330859098,-0.579834934948,-0.518175318847,-1.23176128498,-0.102922448721,0.166527837066,-0.73905312613,-1.56377037559,-1.02978952897,-1.32589708482,-0.792639209171,-121.126267872
do_nothing,-0.486494322143,0.923780859183,1.40220021137,0.792247458439,2.49530755321,0.907641508,6.97423975759,4.35408366113,1.2924157447,2.78855381306,1.52594674644,1.78948476825,1.62130231013,58.1309142725
do_nothing,-1.72401583288,-0.616998239508,-2.3344168938,-1.23584454992,-0.678692965272,0.712940309038,-2.57255253485,-2.5379193917,-0.918884857047,0.36135916993,-0.288048081122,0.736979634947,-0.376972700598,76.9769533761
do_nothing,1.21961447736,-0.17333633863,-0.217384484207,0.710507514273,-1.66422838552,-1.21140663182,-6.66282756071,-3.18059486868,0.221277669793,-2.06163532879,-0.333697347753,-0.905272613641,-0.811777852557,-31.5054132089
do_nothing,0.557304599636,-0.4749023286,1.04608464457,0.0803363883623,-0.281011693967,-1.49497889297,3.59423536056,2.61067790925,-0.371150394639,-1.48170695647,-1.13890012318,-2.60712516303,-0.871613335608,-38.5325639225
do_nothing,0.0290744429077,1.60409308701,1.38419091737,0.487202807007,2.89932511475,3.2419719945,7.0263130552,3.25438349864,1.01704941261,3.15545180913,1.62354935827,2.11961775765,2.08550083737,-74.0107688155
do_nothing,-1.3830574455,-0.926957093862,-2.14410021949,-1.56088970901,-1.33092127072,-0.60527730142,-6.52253539781,-4.2974422311,-0.960950807086,0.394137234816,0.13509682837,2.38136413802,-0.166540094037,141.116321089
do_nothing,1.15431004663,-0.228721822672,0.102141345101,1.10330046125,-1.18336504,-2.16375049245,-3.61455579324,-0.413048575822,0.348264738798,-1.39258091052,-0.375949898779,-1.10648764415,-0.747290238542,30.906400164
do_nothing,-0.629028950873,-0.342525056645,0.465350541047,0.249447943233,0.137947368681,0.507256169985,5.53467338136,2.38615635063,-0.289157617876,-2.37285530442,-1.79069255791,-4.68660784096,-1.47683901601,-135.024140116
do_nothing,0.606667694592,1.21233114696,1.05872098658,-0.305744823375,1.96218637389,2.65948862069,2.65057652665,0.657160487242,0.745156857763,2.49787764527,1.81565543022,3.07693589316,2.06016387273,-47.2939237579
do_nothing,-0.154263442789,-0.687116445402,-1.2026633916,-0.735433200921,-1.38392681205,-2.51859521134,-6.16612741098,-2.73335508365,-0.72829805032,1.75009579589,0.929600891109,3.96032245523,0.429453200977,158.52710087
do_nothing,0.101565679682,0.204892633261,-0.0291863368113,0.97544012335,-0.219429344159,-0.18840879524,0.751064261625,1.14713850276,0.254197736121,-1.23553750907,-1.11229177825,-2.73458827578,-0.801681661026,54.5828553299
do_nothing,-1.18307108019,-0.622264593808,-0.0467494034439,-0.347177943251,0.253576313629,1.57376364132,3.42173992661,0.739864470389,-0.211268702267,-3.29935402124,-1.88622137874,-4.73105194322,-1.51573694822,-212.021508612
do_nothing,1.13925998584,0.448313123582,0.814955295296,0.221908851742,0.363333486649,-0.226115690306,-1.40728830054,-0.581409898869,0.579118123861,1.97359287497,2.18824138003,3.80721816713,1.16666010682,25.5762244227
do_nothing,0.720686000439,0.209331000552,-0.340206159933,-0.582585056843,-0.393073320793,-1.7510880433,-1.64493976029,-0.487812805049,-0.548928043554,3.20872329335,1.02576312025,3.78090338435,1.33293792276,137.55250611
do_nothing,-1.08122334279,0.251714535782,-0.205526951301,0.446574114539,0.350665065477,1.40585860935,1.89943696767,0.877528592758,0.142382373743,-1.72208356831,-1.74652562776,-3.41310514335,-0.529804296305,22.0668661285
do_nothing,-0.869977711484,-0.845288843092,-0.429428465258,-0.0517196838569,-0.294938223652,1.00576769203,-0.354326046383,-0.180042416713,-0.0882073954116,-3.60935307396,-1.13861205988,-3.51065397045,-1.93219355387,-168.934578785
do_nothing,1.44082235692,-0.0078153901635,0.629327740248,0.203674183253,0.00130593904415,-1.42043202676,-1.17826022954,-0.580694942321,0.370404341206,2.12786431531,2.05286081926,3.34746279636,0.673127933809,23.6710282656
do_nothing,0.0903981235714,0.435058556069,0.180369846938,-0.511663235428,-0.354084451078,-1.49512428232,0.77453885201,-0.252112168633,-0.356209709495,2.70522614685,0.211115886576,2.33912468792,1.43297269698,106.269722913
do_nothing,-0.23735769833,0.994690660078,-0.0120472847716,0.255606126661,1.16140361491,2.68959626797,1.88943134503,1.98434287271,0.0624529352504,-0.747100165801,-0.989491146185,-1.43565601727,0.760176178144,22.8376526933
do_nothing,-1.02749456752,-1.36604391977,-0.979549382059,0.131652341436,-0.515389641211,0.702385356388,-2.75748954833,-1.46418139039,-0.0110603578215,-3.5474162202,-0.543900134272,-3.45100202945,-2.79854124438,-126.479796311
do_nothing,0.357849537598,-0.778920235621,0.310114148179,-0.034957250402,-1.11977937726,-2.95590760032,-0.918222443791,-1.50227620857,0.164385383633,0.600125750674,0.751868228891,1.28078521377,-0.600302152747,3.50119529253
do_nothing,1.30833294006,1.52466681651,1.2784411178,-0.161054382646,0.777807999575,-0.268064170577,3.83505912167,2.48419500453,-0.112910905883,3.92969738472,0.387354299569,4.04212594261,3.4302387102,81.6499853695
do_nothing,-0.408217212246,0.899367359351,-0.657608902545,0.0825036629073,1.19504632298,3.17796927383,-0.355264090462,0.474073701375,-0.060546521998,-0.631606220936,-0.0871015858059,-1.68261730464,0.320349004352,26.6674626061
do_nothing,-1.46966052666,-1.89575701901,-1.25995080256,-0.10152374019,-1.07848172949,-0.279602781296,-4.34703700627,-2.766415153,0.044138004404,-4.03482575609,-0.698593158693,-3.94653828553,-3.78162152849,-82.4332587982
do_nothing,0.473287896405,-0.799242562717,0.825344451851,0.183297529739,-1.18811584702,-3.30949177065,1.63763322336,0.488151523346,0.0127134000119,0.64993728854,-0.2156059402,2.00475646423,0.0394885743624,-24.3421685934
do_nothing,1.68618349235,2.37369143563,1.3199631769,0.259187405092,1.63647052707,1.59409119831,4.96714004324,2.82688746291,0.136987165757,4.23550461935,0.96705486691,3.67230512092,4.08113417374,65.1126904652
do_nothing,-1.08698396199,0.00619962049163,-1.39105235695,-0.785392030718,0.347016432361,1.81372644846,-4.0726225726,-1.83000254971,-0.270023776088,-1.38306178913,0.225811799612,-2.78352158934,-1.04534730943,26.8449297709
do_nothing,-1.05717894643,-1.98737479429,-0.551203520745,0.337038893011,-1.27444592786,-1.75078772586,-4.12637656887,-1.92871959036,0.161132020032,-3.36407786838,-0.843836327542,-2.2612191136,-3.27746955087,-40.4289445686
do_nothing,1.29681962928,0.380626798489,1.11315945705,0.449721097831,0.159349659564,-0.0439284052774,6.21365670217,2.48771650801,-0.0937792702135,1.5626540466,-0.564185052602,2.7385174823,1.47264432767,-51.6255681423
do_nothing,0.302531439291,1.69365162753,0.383871273018,0.0287228536747,0.811480499635,1.17385281817,2.66241673701,1.17604433327,0.310111447415,2.34123032527,1.19952167213,0.802554218065,2.2733721435,55.3905337983
do_nothing,-1.86458352644,-1.43089819639,-1.57278025284,-1.14692171819,-1.02301450006,-2.41629091234,-8.75763114787,-3.58350087438,-0.493396291342,-1.83667410406,-0.0689109763057,-2.64124686772,-1.94662089018,23.3977347294
do_nothing,2.13569432544,0.309390537769,1.11146253059,0.789047315574,1.01932476936,1.97137854081,1.19273185908,1.03821759329,0.353182863224,-0.0513084469314,-0.108192684083,1.85717369396,0.0527729144017,-9.56164092251
do_nothing,0.00053438439831,0.312236245347,0.2899913043,0.58193671736,-0.132457879344,1.98855352419,8.34880542843,2.60312224876,-0.19553258129,-0.118980960718,-0.875375373881,0.0544628033275,0.0927624041208,-64.7580578303
do_nothing,-2.73491988903,-0.597888549436,-1.00722144078,-0.383910889998,-0.907054475349,-3.66709878038,-3.51532250806,-1.47748913956,0.365086189175,-0.0420282726963,0.504227215357,-1.94457290231,-0.221388624202,45.3312319801
do_nothing,1.01834781234,-0.303579416823,-0.28877429068,-1.28036678619,-0.239740761156,-1.62587483854,-8.07921243225,-2.93722846012,-0.60914776286,0.548992432009,0.357049029635,0.864754236462,0.455562386739,15.55044232
do_nothing,4.16068975999,2.09500060933,2.21801033011,1.54013978837,2.11107502357,5.8357363337,6.51249167665,3.39526384866,0.549858035605,1.23083380221,0.656936163803,3.04664531881,1.30290775924,13.2370486727
do_nothing,-3.81775255028,-1.6382652142,-1.36999397167,-0.0054875492917,-0.86522518101,-0.934605934632,5.50696811808,1.38540474968,-0.36453071762,-2.23695718987,-1.4874219657,-3.05497707123,-2.39423589212,-64.8915388091
do_nothing,-3.23292872407,-1.1856448939,-1.57546743835,-0.459967449068,-1.55939953486,-5.02132868564,-6.98456757902,-3.67559856994,0.43340204832,-0.859997118224,-0.17541272325,-2.36394516165,-0.370102981604,32.9791717401
do_nothing,4.92927260914,1.51040324719,1.2979883134,-0.958564237636,0.0945003669635,1.76436845415,-3.80451402657,-0.711694690759,-0.654519631503,2.39431012025,1.04408401616,3.55128977151,2.3859048768,6.16013477158
do_nothing,3.01139264565,1.71803280363,2.60906215656,1.61089241784,2.94811774421,4.34290945912,7.27269498209,4.76242012576,0.672886325262,1.94700498894,1.33287219578,2.99294032653,0.858663356825,28.625207639
do_nothing,-7.01971065194,-2.83293638695,-3.3032690658,-0.383648959495,-1.55881564085,-3.03648569627,0.909976687055,-1.8637172032,-0.532159473354,-4.44177251956,-2.60741102979,-5.67213810289,-3.80069188427,-56.0471432103
do_nothing,-0.239070019844,-0.0402981192112,-0.954540255284,-0.414996233353,-1.62634828417,-1.21143820915,-4.05728538355,-2.7479136965,0.549421445163,-0.389926962818,0.0149876987334,-0.973273661815,0.931123685601,20.0131043413
do_nothing,5.26542007074,1.14330931701,2.36639899023,-0.520931401116,-0.0242883754748,0.265990763854,-2.29507372897,1.11947427899,-0.721811579015,3.40464915083,1.39685463465,4.39766188718,1.95505195333,-2.74094433495
do_nothing,1.27419592854,1.71061136976,2.1090543672,1.39137083132,3.46386561903,2.03467220187,4.25434142102,3.62364299085,0.772254756041,2.0019460472,1.41652789168,2.372786856,0.915626718882,36.4627242592
