label,COUNTER,INTERPOLATED,AF3,F7,F3,FC5,T7,P7,O1,O2,P8,T8,FC6,F4,F8,AF4,RAW_CQ,GYROX,GYROY,MARKER,SYNC,TIME_STAMP_s,TIME_STAMP_ms,CQ_AF3,CQ_F7,CQ_F3,CQ_FC5,CQ_T7,CQ_P7,CQ_O1,CQ_O2,CQ_P8,CQ_T8,CQ_FC6,CQ_F4,CQ_F8,CQ_AF4,CQ_CMS,CQ_DRL
off_to_on,4148.8237218,4204.67454989,4180.79306383,4129.82186935,4098.66781984,4199.86589763,4191.56908988,4212.98268988,4137.06280815,4178.21277683,4100.51208764,4189.36891039,4220.54615472,-83.8761505221
off_to_on,4149.29148899,4204.78647601,4181.13463706,4129.78258314,4099.24865034,4200.09518713,4192.1432977,4213.53198768,4137.04754527,4179.32160223,4100.82671927,4189.32267405,4220.88713409,-110.997506863
off_to_on,4149.70881276,4204.70874998,4181.37011481,4129.74582294,4099.86601966,4200.39473203,4192.7938292,4214.08320533,4137.02968506,4180.23171261,4101.08053273,4189.14755664,4221.13488385,-132.883692789
off_to_on,4150.07642541,4204.44078203,4181.49418851,4129.71364772,4100.52214334,4200.75511612,4193.50247102,4214.61531637,4137.00998452,4180.91207267,4101.26853579,4188.83764895,4221.29239916,-149.263417321
off_to_on,4150.40057996,4203.99300728,4181.50971218,4129.68805827,4101.21981599,4201.16954019,4194.2548922,4215.11235145,4136.98925528,4181.34429301,4101.38942239,4188.396335,4221.37004952,-160.013839246
off_to_on,4150.69318668,4203.3869568,4181.42792135,4129.67093288,4101.96225707,4201.63407873,4195.04120024,4215.56395783,4136.96833031,4181.52350133,4101.44573196,4187.83650109,4221.38548715,-165.164278173
off_to_on,4150.97169774,4202.65486952,4181.26829646,4129.66396438,4102.75293148,4202.14777843,4195.85626426,4215.9657035,4136.94803058,4181.45866566,4101.44384767,4187.18032747,4221.36323588,-164.894693275
off_to_on,4151.2587408,4201.83885552,4181.05807491,4129.66860044,4103.59535353,4202.71259853,4196.69979738,4216.31912021,4136.92913299,4181.17235276,4101.39383247,4186.45866701,4221.33397354,-159.528916984
off_to_on,4151.58151231,4200.98963833,4180.83142923,4129.68598949,4104.49288333,4203.33319999,4197.5762001,4216.63149037,4136.91234083,4180.69992704,4101.30910786,4185.71003251,4221.3335327,-149.52280942
off_to_on,4151.97095039,4200.16492015,4180.62834102,4129.7169341,4105.44852433,4204.01659725,4198.49417679,4216.91539249,4136.8982578,4180.08821804,4101.20598716,4184.97922995,4221.40165636,-135.447688803
off_to_on,4152.46071616,4199.42742857,4180.49321213,4129.76185407,4106.46473048,4204.77169287,4199.4661468,4217.18802947,4136.88736661,4179.39370605,4101.10308052,4184.31569027,4221.58055483,-117.969581713
off_to_on,4153.08601964,4198.8427159,4180.47326433,4129.82076073,4107.54323072,4205.6087204,4200.50748,4217.47037172,4136.88001286,4178.68029511,4101.02059449,4183.77156413,4221.91331852,-97.8250078294
off_to_on,4153.88233318,4198.47679235,4180.61678701,4129.89324385,4108.68487769,4206.53862491,4201.63559384,4217.78615401,4136.87639466,4178.01676012,4100.9795533,4183.39965479,4222.44224779,-75.7941551904
off_to_on,4154.88403999,4198.39368169,4180.97129873,4129.97847222,4109.8895264,4207.57241241,4202.86895384,4218.16076965,4136.87655839,4177.47396843,4101.0009724,4183.25127158,4223.20716532,-52.672411333
off_to_on,4156.12306889,4198.6529917,4181.58169236,4130.07520806,4111.15594723,4208.72050015,4204.22602269,4218.62010856,4136.88040048,4177.12198598,4101.10501733,4183.37409053,4224.24377776,-29.2412933753
off_to_on,4157.62756789,4199.3075927,4182.48843501,4130.18183503,4112.48177645,4209.99209803,4205.72420425,4219.18938708,4136.88767511,4177.02718357,4101.3101816,4183.81010964,4225.5821527,-6.23986158034
off_to_on,4159.42066865,4200.40149423,4183.72589243,4130.29639923,4113.86350587,4211.39464802,4207.3788281,4219.8920166,4136.89800728,4177.24945908,4101.63251696,4184.59378353,4227.24537259,15.6623004881
off_to_on,4161.51939161,4201.96800332,4185.32084385,4130.4166616,4115.29651183,4212.93334413,4209.20221769,4220.74855569,4136.91091079,4177.83968777,4102.08494719,4185.75041578,4229.24842122,35.8895026863
off_to_on,4163.93373695,4204.02823773,4187.29124606,4130.54016051,4116.77512228,4214.61074967,4211.20288133,4221.77578634,4136.92581002,4178.83750423,4102.67669372,4187.29487781,4231.59734912,53.9808138809
off_to_on,4166.6659999,4206.59005402,4189.64529643,4130.66428223,4118.2927191,4216.42652377,4213.38485957,4222.98594905,4136.94206487,4180.2695064,4103.41283654,4189.23071015,4234.28875351,69.6065550835
off_to_on,4169.7103402,4209.64743419,4192.3808324,4130.78633759,4119.84187125,4218.37726317,4215.74725501,4224.38616437,4136.95899758,4182.14795586,4104.29402894,4191.54964646,4237.30959602,82.5797601552
off_to_on,4173.05262575,4213.1803563,4195.48509214,4130.90364213,4121.41449331,4220.45646064,4218.28396283,4225.97806028,4136.97592043,4184.47002793,4105.31637798,4194.23158331,4240.63736759,92.8621337749
off_to_on,4176.6705591,4217.15515557,4198.93484624,4131.01359759,4123.00202289,4222.65457672,4220.98361101,4227.7576158,4136.99216318,4187.21764331,4106.4714963,4197.24500049,4244.24059628,100.56424535
off_to_on,4180.53408453,4221.52536282,4202.69689608,4131.11377184,4124.59560999,4224.9592172,4223.82971022,4229.71522245,4137.00709913,4190.35788885,4107.74672333,4200.54781801,4248.07967989,105.939917861
off_to_on,4184.60606247,4226.23298842,4206.72892004,4131.20197484,4126.18631132,4227.35540616,4226.80100461,4231.83595649,4137.02016891,4193.84401171,4109.12550783,4204.08865875,4252.10801239,109.374995216
off_to_on,4188.84318757,4231.21020298,4210.9806361,4131.27632786,4127.76528237,4229.82594132,4229.87200667,4234.10004693,4137.03090101,4197.61694792,4110.5879367,4207.80846908,4256.27336156,111.370891448
off_to_on,4193.19711801,4236.38135146,4215.39523733,4131.33532377,4129.3239608,4232.35181733,4233.01369228,4236.48351708,4137.03892831,4201.60732541,4112.11138955,4211.64243603,4260.51944586,112.523529478
off_to_on,4197.61577609,4241.66522543,4219.91104765,4131.37787615,4130.85423522,4234.91270079,4236.19432663,4238.95897165,4137.04400015,4205.73786331,4113.67129395,4215.52212777,4264.78765111,113.498458201
off_to_on,4202.04477441,4246.97751051,4224.46333775,4131.40335569,4132.34859475,4237.48744074,4239.38038731,4241.49649683,4137.04598949,4209.92607418,4115.24195233,4219.37777607,4269.01882338,115.003088651
off_to_on,4206.42891862,4252.23332082,4228.98623626,4131.41161256,4133.80025572,4240.05459762,4242.53754828,4244.06463733,4137.04489492,4214.08716417,4116.79740923,4223.14061367,4273.15507212,117.757106674
off_to_on,4210.71373525,4257.3497309,4233.41466877,4131.40298406,4135.20326285,4242.59297396,4245.63168722,4246.63141257,4137.04083782,4218.13701924,4118.31232627,4226.74517799,4277.14151842,122.462194443
off_to_on,4214.84697364,4262.24821709,4237.68625703,4131.37828743,4136.55256348,4245.08212971,4248.62987892,4249.16533328,4137.03405448,4221.99516208,4119.76283222,4230.13149417,4280.92792572,129.772223391
off_to_on,4218.78003205,4266.85692481,4241.74311313,4131.33879788,4137.84405406,4247.50286522,4251.50133839,4251.6363802,4137.02488408,4225.58756605,4121.12731651,4233.24705499,4284.4701555,140.26506714
off_to_on,4222.46926149,4271.11268557,4245.53346786,4131.28621264,4139.07459891,4249.83765532,4254.21827986,4254.01690854,4137.01375272,4228.84921809,4122.38713727,4236.0485235,4287.73139761,154.417125066
off_to_on,4225.87710555,4274.9627175,4249.01307927,4131.2226021,4140.24202216,4252.07101952,4256.75666179,4256.28244559,4137.00115438,4231.726333,4123.52721773,4238.50309479,4290.68313376,172.58154581
off_to_on,4228.97304093,4278.36595574,4252.14637658,4131.15034958,4141.34507483,4254.18981593,4259.09679274,4258.41235343,4136.98762972,4234.17813554,4124.53650986,4240.58946707,4293.30580353,194.970999547
off_to_on,4231.73429111,4281.29397357,4254.90730497,4131.07208156,4142.38337975,4256.18345038,4261.22377985,4260.39033563,4136.97374345,4236.17814503,4125.4083087,4242.29838769,4295.58915393,221.645675237
off_to_on,4234.14629426,4283.73147126,4257.27984898,4130.99059091,4143.35735807,4258.04399596,4263.12780813,4262.20477361,4136.96006124,4237.71491709,4126.14040725,4243.63275753,4297.53226592,252.506981154
off_to_on,4236.20291554,4285.6763258,4259.25822414,4130.90875539,4144.26814126,4259.76622254,4264.80424604,4263.84888586,4136.94712721,4238.79221925,4126.73508761,4244.60729404,4299.14326342,287.297209687
off_to_on,4237.90640304,4287.1392112,4260.84673907,4130.82945439,4145.11747277,4261.34753884,4266.25357889,4265.32071011,4136.93544275,4239.42863964,4127.19895086,4245.24777115,4300.43872229,325.605199522
off_to_on,4239.26709505,4288.14281345,4262.05934162,4130.75548638,4145.9076033,4262.78785243,4267.48117702,4266.62291455,4136.92544751,4239.65664974,4127.54259404,4245.58986943,4301.44280661,366.877800302
off_to_on,4240.30289444,4288.72067872,4262.91887304,4130.68949,4146.641183,4264.08935506,4268.49691063,4267.76244966,4136.91750331,4239.52116273,4127.78014844,4245.67768434,4302.18616924,410.436725561
off_to_on,4241.03853321,4288.9157447,4263.45606418,4130.63387087,4147.32115398,4265.25624292,4269.31462749,4268.75005678,4136.91188153,4239.07764835,4127.92869848,4245.5619526,4302.70466095,455.500175784
off_to_on,4241.50465654,4288.77861576,4263.7083154,4130.59073651,4147.9506462,4266.29438337,4269.95151376,4269.59965429,4136.90875435,4238.38988124,4128.0076048,4245.29806652,4303.03789884,501.208432996
off_to_on,4241.73676131,4288.36565005,4263.7183089,4130.5618411,4148.53287967,4267.21094189,4270.42736204,4270.32762598,4136.90819016,4237.52741386,4128.03775841,4244.94395375,4303.22774883,546.652479799
off_to_on,4241.77402749,4287.7369322,4263.53250619,4130.54854146,4149.07107632,4268.01398525,4270.76377419,4270.95204,4136.91015319,4236.56287456,4128.04079506,4244.55790458,4303.31677935,590.904584716
off_to_on,4241.65808324,4286.95420714,4263.19958609,4130.55176549,4149.56838405,4268.71207787,4270.98332929,4271.4918289,4136.91450735,4235.56919812,4128.03830017,4244.19642985,4303.34674352,633.049724459
off_to_on,4241.43174551,4286.07885008,4262.76887849,4130.57199362,4150.02781566,4269.31388874,4271.10874858,4271.96596308,4136.92102388,4234.61689743,4128.05103427,4243.91223096,4303.35714443,672.216684953
off_to_on,4241.13777683,4285.16994375,4262.28884694,4130.6092537,4150.45220455,4269.82782577,4271.16209003,4272.39265042,4136.9293926,4233.77148304,4128.0982078,4243.75235821,4303.38393431,707.607699273
off_to_on,4240.81769742,4284.2825279,4261.80566998,4130.66312928,4150.8441789,4270.26171281,4271.16400376,4272.78859417,4136.93923617,4233.09113033,4128.19683169,4243.75662525,4303.45839203,738.525540795
off_to_on,4240.51068835,4283.46607773,4261.36196526,4130.73278088,4151.20615565,4270.62252327,4271.13307796,4273.1683394,4136.95012656,4232.62468323,4128.36116701,4243.95633685,4303.60621577,764.397089723
off_to_on,4240.25261708,4282.76325728,4260.99569385,4130.81697923,4151.54035519,4270.9161819,4271.08530029,4273.54373516,4136.9616034,4232.41006831,4128.60229235,4244.37337349,4303.84685884,784.792526685
off_to_on,4240.07521129,4282.20898179,4260.73927408,4130.91414959,4151.84883649,4271.14744328,4271.03365519,4273.9235343,4136.97319297,4232.47317527,4128.92780315,4245.01966164,4304.19312658,799.439474465
off_to_on,4240.00540006,4281.82980938,4260.61892442,4131.02242551,4152.13355177,4271.31985206,4270.98787061,4274.31314702,4136.98442749,4232.82723902,4129.3416509,4245.89704192,4304.65104131,808.231601458
off_to_on,4240.06483438,4281.64366825,4260.65424528,4131.13971035,4152.39641825,4271.43578598,4270.95432044,4274.71455639,4136.99486364,4233.47273711,4129.84412453,4246.99753054,4305.21997179,811.231408711
off_to_on,4240.26959135,4281.65991158,4260.85803945,4131.26374482,4152.63940313,4271.49657791,4270.93608125,4275.12639696,4137.00409972,4234.39779379,4130.43197044,4248.30395287,4305.89301236,808.667138646
off_to_on,4240.63005903,4281.87967885,4261.23636133,4131.39217829,4152.86461695,4271.50270871,4270.93313414,4275.5441889,4137.01179081,4235.57906111,4131.09864178,4249.79091234,4306.65758751,800.923961038
off_to_on,4241.15099221,4282.29653041,4261.78877694,4131.52264199,4153.07440901,4271.4540574,4270.94269592,4275.96071338,4137.01766125,4236.98302771,4131.83466286,4251.42604429,4307.49624858,788.529802148
off_to_on,4241.83172336,4282.8973121,4262.50880892,4131.65282174,4153.27145789,4271.35019101,4270.95965749,4276.36650736,4137.0215142,4238.56768895,4132.62809008,4253.17149347,4308.38762205,772.13637644
off_to_on,4242.66650833,4283.66319858,4263.38453538,4131.78052866,4153.45884935,4271.19067349,4270.97710269,4276.75045068,4137.02323775,4240.28449799,4133.46504733,4254.98554559,4309.30746379,752.496150134
off_to_on,4243.6449828,4284.57085902,4264.39930755,4131.90376577,4153.64013429,4270.97537221,4270.9868776,4277.10041365,4137.02280754,4242.08050751,4134.33031133,4256.82433939,4310.22977016,730.436107349
off_to_on,4244.75270395,4285.59368675,4265.5325494,4132.02078908,4153.81935995,4270.70474145,4270.98017887,4277.40393153,4137.0202859,4243.90060613,4135.20792154,4258.64358441,4311.12789629,706.829297665
off_to_on,4245.97175108,4286.70303529,4266.76060289,4132.13016165,4154.00106914,4270.38006406,4270.94813001,4277.64887133,4137.01581742,4245.68975286,4136.08178896,4260.40021246,4311.97563337,682.565213238
off_to_on,4247.28135949,4287.86940628,4268.05758349,4132.23079892,4154.19026353,4270.00363473,4270.88231685,4277.82405786,4137.00962149,4247.39511573,4136.93627932,4262.05389609,4312.7482007,658.520072057
off_to_on,4248.65856365,4289.06354053,4269.39621398,4132.32200411,4154.39232899,4269.57887115,4270.77525591,4277.91982848,4137.00198188,4248.968028,4137.7567481,4263.56837549,4313.42311362,635.528072806
off_to_on,4250.07882795,4290.25736985,4270.74860786,4132.40349197,4154.61292294,4269.11034266,4270.6207741,4277.92849016,4136.9932341,4250.36568539,4138.53000779,4264.91254604,4313.98089574,614.354636794
off_to_on,4251.51664677,4291.42479685,4272.08697917,4132.47539977,4154.85782561,4268.60371035,4270.41428307,4277.84465814,4136.98375089,4251.55252177,4139.24471119,4266.06127089,4314.40561241,595.672564257
off_to_on,4252.94609965,4292.54227971,4273.38426085,4132.53828448,4155.13275972,4268.06557806,4270.15293813,4277.66546222,4136.97392654,4252.50121614,4139.89163932,4266.99589735,4314.68521197,580.0419104
off_to_on,4254.34135217,4293.5892109,4274.6146208,4132.59310533,4155.44318523,4267.50325972,4269.83567873,4277.39061496,4136.96416075,4253.19330308,4140.46388695,4267.70447053,4314.81167111,567.894238716
off_to_on,4255.67709894,4294.54809196,4275.75387261,4132.64119176,4155.79407885,4266.92447625,4269.46315653,4277.0223454,4136.95484257,4253.61937821,4140.95694449,4268.18165351,4314.78095212,559.52174298
off_to_on,4256.92895208,4295.4045202,4276.77978656,4132.68419666,4156.18971064,4266.33700288,4269.03756627,4276.56521234,4136.94633508,4253.77891255,4141.36868051,4268.42837953,4314.59279035,555.071549842
off_to_on,4258.07378478,4296.14701667,4277.6723154,4132.72403554,4156.63343258,4265.74829518,4268.56240383,4276.02582107,4136.93896151,4253.67970977,4141.69923428,4268.45127633,4314.25034023,554.5453246
off_to_on,4259.09004432,4296.76673441,4278.41375513,4132.76281274,4157.1274947,4265.16512599,4268.04218193,4275.41247445,4136.93299316,4253.33705774,4141.95083231,4268.26191406,4313.75971551,557.804107134
off_to_on,4259.95804922,4297.25709166,4278.98886356,4132.80273621,4157.67290335,4264.593266,4267.48213562,4274.73479188,4136.92863971,4252.77263709,4142.12754519,4267.875934,4313.12946215,564.578107232
off_to_on,4260.66028289,4297.61337423,4279.38495737,4132.84602385,4158.2693333,4264.0372364,4266.88794754,4274.00332787,4136.92604214,4252.01325563,4142.23500196,4267.31211545,4312.37000173,574.480996161
off_to_on,4261.18169088,4297.83234785,4279.59200405,4132.89480492,4158.91510145,4263.50015557,4266.26551674,4273.22921707,4136.92526853,4251.08947813,4142.28007911,4266.59143433,4311.4930798,587.028056944
off_to_on,4261.50998254,4297.91191369,4279.6027187,4132.95102109,4159.60720524,4262.98369269,4265.6207876,4272.42386513,4136.92631293,4250.03421843,4142.27057941,4265.73615986,4310.51124795,601.657414273
off_to_on,4261.63593183,4297.85083206,4279.41266905,4133.01633224,4160.34142465,4262.48813143,4264.95964647,4271.5986972,4136.92909708,4248.88135496,4142.2149144,4264.76902663,4309.43740187,617.753464579
off_to_on,4261.5536663,4297.64852996,4279.02038559,4133.0920319,4161.11248228,4262.01253708,4264.28788542,4270.76496756,4136.93347507,4247.6644229,4142.12180145,4263.71250961,4308.28439077,634.671566054
off_to_on,4261.2609289,4297.30499873,4278.42746834,4133.17897735,4161.91425277,4261.55501217,4263.61122513,4269.93362738,4136.93924052,4246.41542746,4141.99998431,4262.5882199,4307.06470636,651.763023072
off_to_on,4260.75929484,4296.82078054,4277.63867799,4133.27753839,4162.74001007,4261.11301875,4262.93538337,4269.11524207,4136.9461361,4245.16381294,4141.85798358,4261.41642984,4305.79025378,668.399409483
off_to_on,4260.05432494,4296.19703482,4276.66199654,4133.38756815,4163.5826998,4260.68374187,4262.26617198,4268.31994652,4136.95386477,4243.93561307,4141.70388151,4260.21572783,4304.47220124,683.995323499
off_to_on,4259.15563738,4295.43567071,4275.508642,4133.50839782,4164.43522245,4260.26446748,4261.60960383,4267.55742468,4136.96210244,4242.75279865,4141.54514362,4259.00279615,4303.12090092,698.028751703
off_to_on,4258.0768823,4294.53952708,4274.19302213,4133.63885612,4165.2907139,4259.85294843,4260.97199139,4266.8368998,4136.97051143,4241.63283006,4141.3884781,4257.79229905,4301.74587028,710.058334769
off_to_on,4256.83560701,4293.51257936,4272.7326144,4133.77731248,4166.14280957,4259.44773488,4260.36002041,4266.16712261,4136.97875418,4240.5884135,4141.2397322,4256.59686454,4300.35582081,719.736964796
off_to_on,4255.45300417,4292.36015138,4271.14776282,4133.92174195,4166.98588029,4259.04844883,4259.78078491,4265.55634621,4136.98650664,4239.62745333,4141.10382432,4255.42714043,4298.95871982,726.821296066
off_to_on,4253.95354079,4291.08911104,4269.4613861,4134.06980809,4167.81522923,4258.65598689,4259.24177327,4265.01227933,4136.99347087,4238.75318612,4140.98470932,4254.29190452,4297.56187134,731.176908547
off_to_on,4252.36447159,4289.70803048,4267.69859698,4134.21895972,4168.62724156,4258.27264058,4258.75079944,4264.542012,4136.99938639,4237.96447767,4140.88537422,4253.19820893,4296.17200273,732.779019631
off_to_on,4250.71524641,4288.22729443,4265.88623723,4134.36653652,4169.41948096,4257.90212909,4258.31587751,4264.15191159,4137.00403967,4237.25626052,4140.80786152,4252.15154028,4294.79534548,731.708792819
off_to_on,4249.03682752,4286.65914457,4264.05233861,4134.50987833,4170.19072989,4257.54954485,4257.9450425,4263.8474905,4137.00727173,4236.62008709,4140.75331703,4251.15598033,4293.43770147,728.145443433
off_to_on,4247.36093814,4285.01765188,4262.22552447,4134.64643335,4170.94097328,4257.22121738,4257.64612462,4263.63325066,4137.00898326,4236.04477214,4140.72205939,4250.21435522,4292.10448852,722.354490236
off_to_on,4245.71926737,4283.31861371,4260.43437087,4134.77386062,4171.67132811,4256.92450424,4257.42648796,4263.51251291,4137.00913736,4235.51709765,4140.71366834,4249.32836537,4290.80076234,714.672643301
off_to_on,4244.1426599,4281.57937601,4258.70674886,4134.89012286,4172.38392383,4256.66752036,4257.29274762,4263.48724258,4137.00775969,4235.02255294,4140.72708887,4248.49869214,4289.53121454,705.489946192
off_to_on,4242.66031973,4279.81858544,4257.06917089,4134.99356613,4173.08174015,4256.45881858,4257.25048123,4263.55788362,4137.00493619,4234.5460834,4140.76074787,4247.7250802,4288.30014881,695.229898214
off_to_on,4241.29905666,4278.05587837,4255.54616426,4135.08298372,4173.76841055,4256.30703519,4257.3039508,4263.72321462,4137.00080841,4234.07282177,4140.81267986,4247.00639776,4287.11143888,684.328364629
off_to_on,4240.0826028,4276.31151688,4254.15969372,4135.15766184,4174.44800061,4256.22051509,4257.45585008,4263.9802391,4136.99556671,4233.58877735,4140.88065767,4246.34067862,4285.96847349,673.212135067
off_to_on,4239.03102306,4274.60598355,4252.92865309,4135.21740592,4175.1247708,4256.20693127,4257.70709071,4264.32412087,4136.98944176,4233.08146075,4140.96232376,4245.7251523,4284.87409455,662.278009718
off_to_on,4238.1602406,4272.95954891,4251.86844326,4135.26254675,4175.80293412,4256.27291344,4258.05663829,4264.74817316,4136.98269448,4232.54042448,4141.05531804,4245.15626978,4283.83053549,651.873277743
off_to_on,4237.48169319,4271.39182642,4250.99065096,4135.29392656,4176.48641855,4256.42370081,4258.50140711,4265.24390743,4136.97560513,4231.95770374,4141.15739787,4244.62973332,4282.8393671,642.27840243
off_to_on,4237.00213163,4269.92133068,4250.30283861,4135.31286605,4177.17864393,4256.66283312,4259.0362193,4265.80114476,4136.96846174,4231.32814506,4141.26654633,4244.14053866,4281.90145777,633.692644552
off_to_on,4236.72356546,4268.56505446,4249.80845185,4135.32111411,4177.8823223,4256.99189284,4259.65383172,4266.40818943,4136.96154856,4230.64961505,4141.38106547,4243.68303683,4281.0169539,626.223241801
off_to_on,4236.64335518,4267.33807948,4249.50684656,4135.3207828,4178.59928932,4257.41030972,4260.34503073,4267.05206139,4136.95513484,4229.92308571,4141.49965148,4243.25102161,4280.18528468,619.878622578
off_to_on,4236.75444446,4266.25323402,4249.3934326,4135.31427048,4179.33037322,4257.91523621,4261.09879283,4267.71878103,4136.9494645,4229.15259734,4141.62144936,4242.83784647,4279.40519352,614.565972003
off_to_on,4237.04571964,4265.32080869,4249.45992683,4135.30417679,4180.07530639,4258.50150012,4261.90250659,4268.39369807,4136.94474694,4228.34510457,4141.74608562,4242.43657274,4278.67479606,610.093293263
off_to_on,4237.50247937,4264.5483386,4249.6947037,4135.29321297,4180.83268268,4259.16163765,4262.74224949,4269.06185392,4136.94114947,4227.51021487,4141.87367763,4242.04014793,4277.99166287,606.175925349
off_to_on,4238.10699284,4263.94045755,4250.08322797,4135.28411144,4181.59996235,4259.88600666,4263.60311123,4269.70836595,4136.93879158,4226.65983233,4142.00481964,4241.6416109,4277.35292315,602.447296165
off_to_on,4238.83912269,4263.49882675,4250.60855124,4135.27953808,4182.37352434,4260.66297744,4264.46955394,4270.31882123,4136.93774115,4225.80772214,4142.14054571,4241.23431794,4276.75538409,598.473515482
off_to_on,4239.67698685,4263.2221374,4251.25185202,4135.2820108,4183.14876409,4261.47919508,4265.32579828,4270.87966672,4136.93801286,4224.96901273,4142.28227089,4240.81218157,4276.19565941,593.771252332
off_to_on,4240.59763361,4263.10618368,4251.9929981,4135.29382713,4183.92023358,4262.31990574,4266.15622363,4271.37858293,4136.93956871,4224.15965405,4142.43171248,4240.36991243,4275.6702998,587.828202883
off_to_on,4241.57770481,4263.1440004,4252.81110972,4135.31700316,4184.68181829,4263.16933701,4266.94577007,4271.80482809,4136.94232059,4223.39585058,4142.59079399,4239.90325288,4275.17591745,580.125343332
off_to_on,4242.59406434,4263.32605732,4253.68510367,4135.3532257,4185.42694483,4264.01112069,4267.68032954,4272.14954068,4136.94613487,4222.69348781,4142.76153497,4239.40919025,4274.70929734,570.160082545
off_to_on,4243.62437174,4263.64050152,4254.59420014,4135.40381856,4186.14881138,4264.82874483,4268.34711348,4272.40598906,4136.95083857,4222.06757036,4142.94593071,4238.88613746,4274.26748878,557.469384514
off_to_on,4244.6475845,4264.07343763,4255.51837682,4135.46972352,4186.84063201,4265.60602068,4268.93498445,4272.56975828,4136.9562271,4221.53168898,4143.14582599,4238.33406893,4273.84787126,541.65192307
off_to_on,4245.64437645,4264.6092358,4256.43875791,4135.55149579,4187.49588559,4266.32754896,4269.43473963,4272.63886589,4136.96207296,4221.09753233,4143.36278764,4237.75460108,4273.44819055,522.388361185
off_to_on,4246.59746394,4265.23085673,4257.33792871,4135.64931307,4188.10855924,4266.97916922,4269.83933528,4272.61380045,4136.96813529,4220.77445788,4143.59798074,4237.15100899,4273.06656169,499.458913483
off_to_on,4247.49183523,4265.92018386,4258.20017,4135.76299695,4188.67337673,4267.54837514,4270.14404272,4272.49747927,4136.97416962,4220.56913427,4143.85205325,4236.52817343,4272.70143788,472.757450799
off_to_on,4248.31488303,4266.65835343,4259.01161018,4135.89204494,4189.18600261,4268.02467885,4270.34652851,4272.29512421,4136.9799377,4220.48526534,4144.12503401,4235.89245582,4272.35154562,442.301535699
off_to_on,4249.05644325,4267.42607463,4259.76029616,4136.03567082,4189.64321377,4268.39990852,4270.44685401,4272.01405784,4136.98521672,4220.52340336,4144.41624852,4235.2515021,4272.01578874,408.237932825
off_to_on,4249.70874696,4268.20393311,4260.4361879,4136.19285093,4190.04303148,4268.66842562,4270.44739206,4271.6634244,4136.98980792,4220.68085632,4144.72425683,4234.61397951,4271.69312562,370.843311494
off_to_on,4250.26629522,4268.97267304,4261.03108419,4136.36237365,4190.38480838,4268.8272512,4270.35266194,4271.25384337,4136.99354386,4220.95169148,4145.04681687,4233.98925437,4271.38242561,330.52004336
off_to_on,4250.72566896,4269.71345447,4261.53848996,4136.5428894,4190.66926664,4268.8760944,4270.1690864,4270.79700555,4136.99629444,4221.32683441,4145.38087626,4233.3870216,4271.08231248,287.787187808
off_to_on,4251.08528783,4270.40808403,4261.9534374,4136.73295833,4190.89848548,4268.8172806,4269.90467798,4270.30522403,4136.99797128,4221.7942602,4145.72259406,4232.81689996,4270.79100366,243.266944481
off_to_on,4251.34513367,4271.03921913,4262.27227472,4136.93109345,4191.07583798,4268.65558087,4269.56866475,4269.79095473,4136.99853034,4222.33927053,4146.06739364,4232.28800886,4270.50615493,197.667028792
off_to_on,4251.50645451,4271.5905469,4262.49243743,4137.13579706,4191.20587965,4268.39794943,4269.17106888,4269.266303,4136.99797272,4222.94484851,4146.4100462,4231.80854444,4270.22472078,151.759585229
off_to_on,4251.57146574,4272.04694102,4262.6122176,4137.34558923,4191.29419281,4268.05318028,4268.72225455,4268.74253465,4136.99634371,4223.59208115,4146.74478401,4231.38537328,4269.94284065,106.357388786
off_to_on,4251.54306472,4272.39460042,4262.6305466,4137.55902741,4191.34719333,4267.63149855,4268.23246439,4268.22961117,4136.99373004,4224.26063866,4147.06544116,4231.02366328,4269.65576079,62.2881914827
off_to_on,4251.42457365,4272.62117542,4262.54680607,4137.77471706,4191.37190756,4267.14410531,4267.71136575,4267.73576965,4136.99025559,4224.92929902,4147.36561906,4230.72657051,4269.35780108,20.3681446116
off_to_on,4251.21952428,4272.71588631,4262.3606801,4137.99131376,4191.37572899,4266.60269722,4267.16762875,4267.26716753,4136.98607572,4225.57650554,4147.63887269,4230.49499992,4269.04237421,-18.6247346447
off_to_on,4250.93149509,4272.66963986,4262.07205953,4138.20751768,4191.36616477,4266.01898379,4266.60855747,4266.8276111,4136.98137046,4226.1809449,4147.87891301,4230.3274554,4268.702063,-53.9760827537
off_to_on,4250.56400888,4272.47514745,4261.6810056,4138.42206193,4191.35058291,4265.40422498,4266.03979371,4266.41838382,4136.97633686,4226.72213204,4148.07981973,4230.21999098,4268.32875834,-85.0587622317
off_to_on,4250.12049469,4272.12704751,4261.18777699,4138.63369681,4191.33597072,4264.768811,4265.46510925,4266.03818648,4136.97118085,4227.18098848,4148.23625818,4230.16627131,4267.91385758,-111.353625354
off_to_on,4249.60431447,4271.6220325,4260.59291965,4138.84117204,4191.32871469,4264.12190291,4264.88629838,4265.68319632,4136.96610887,4227.54039931,4148.34369314,4230.15774444,4267.44851906,-132.466711724
off_to_on,4249.01885075,4270.95897872,4259.8974151,4139.04321966,4191.33441057,4263.47114997,4264.30317779,4265.34724695,4136.96131974,4227.78573496,4148.39859219,4230.18392544,4266.92396582,-148.142252625
off_to_on,4248.36764789,4270.13907499,4259.10287891,4139.23853989,4191.3577114,4262.82249554,4263.71369593,4265.02212504,4136.95699692,4227.90532316,4148.39861101,4230.23278409,4266.3318278,-158.271002522
off_to_on,4247.65459649,4269.16594433,4258.21179803,4139.42579226,4191.40221919,4262.18007901,4263.11414894,4264.69797469,4136.95330158,4227.89085798,4148.34275329,4230.29122511,4265.66450984,-162.893572906
off_to_on,4246.88414754,4268.04575136,4257.2277925,4139.60359368,4191.470424,4261.54623637,4262.49949516,4264.36379492,4136.95036668,4227.7377334,4148.23149828,4230.34564449,4264.91557056,-162.198601677
off_to_on,4246.06154115,4266.78728667,4256.15588523,4139.77052442,4191.56369197,4260.92159683,4261.86375554,4264.00801132,4136.94829233,4227.44529074,4148.0668901,4230.38254163,4264.0800961,-156.51575541
off_to_on,4245.19303282,4265.40201867,4255.0027617,4139.92514257,4191.68230189,4260.30526816,4261.2004822,4263.61909864,4136.94714248,4227.01697051,4147.85258346,4230.38916296,4263.15505172,-146.303737761
off_to_on,4244.28609967,4263.90410273,4253.77700062,4140.06600655,4191.82552701,4259.69509909,4260.50327377,4263.18622793,4136.9469432,4226.46036116,4147.59384186,4230.35414993,4262.13959421,-132.133663874
off_to_on,4243.34960887,4262.31033688,4252.48925621,4140.19170522,4191.9917572,4259.08800383,4259.76631243,4262.6999091,4136.94768239,4225.78713818,4147.29748518,4230.26816197,4261.03532825,-114.66834635
off_to_on,4242.39393121,4260.64005389,4251.15237351,4140.3008947,4192.17865388,4258.48032992,4258.98489529,4262.15259864,4136.94931109,4225.01288954,4146.97178507,4230.12444416,4259.84649087,-94.6382063152
off_to_on,4241.43098436,4258.91494005,4249.78141967,4140.39234061,4192.38332874,4257.86824923,4258.15593187,4261.53924181,4136.95174621,4224.15682492,4146.6263081,4229.91930987,4258.5800499,-72.8146616648
off_to_on,4240.47419305,4257.15877337,4248.39361693,4140.4649645,4192.60253612,4257.24814975,4257.2783795,4260.85772032,4136.9548745,4223.24136944,4146.27170804,4229.65251044,4257.24570505,-49.9819512319
off_to_on,4239.53835702,4255.39707602,4247.00816676,4140.51789252,4192.83286815,4256.61700634,4256.35359066,4260.10917951,4136.95855768,4222.29164556,4145.91947091,4229.32746803,4255.85578363,-26.9084287249
off_to_on,4238.63942205,4253.6566803,4245.64595992,4140.55050433,4193.07094191,4255.97270889,4255.38554989,4259.29821371,4136.96263845,4221.33485126,4145.58161817,4228.95135247,4254.42502732,-4.31839948393
off_to_on,4237.79415506,4251.96521122,4244.32917292,4140.5624798,4193.31356884,4255.31432879,4254.38098359,4258.43289509,4136.9669471,4220.39954675,4145.27037584,4228.53499018,4252.9702715,17.1344302934
off_to_on,4237.01972983,4250.35049417,4243.08075765,4140.55384084,4193.55789765,4254.64230752,4253.3493322,4257.52463799,4136.97130848,4219.51486671,4144.99781894,4228.09260053,4251.51002335,36.8908702926
off_to_on,4236.33323581,4248.83990045,4241.92383767,4140.52498573,4193.80152401,4253.95855559,4252.30258159,4256.58789933,4136.97554907,4218.70967946,4144.77550264,4227.64136351,4250.06395014,54.5065967963
off_to_on,4235.75112747,4247.45964846,4240.88103038,4140.47671343,4194.04256238,4253.26645501,4251.25495701,4255.63972279,4136.97950376,4218.01171795,4144.61409224,4227.20083072,4248.65229348,69.6681325926
off_to_on,4235.28863596,4246.23408174,4239.97371951,4140.41023585,4194.27967745,4252.57076387,4250.22248963,4254.69914261,4136.98302226,4217.44671021,4144.52300504,4226.79219968,4247.29522909,82.203812625
off_to_on,4234.95916821,4245.18494798,4239.22130641,4140.32717616,4194.51207504,4251.87742752,4249.2224719,4253.78646964,4136.98597471,4217.03753861,4144.51007698,4226.43747814,4246.01219508,92.0892809931
off_to_on,4234.77371994,4244.33070506,4238.64047102,4140.22955199,4194.73945454,4251.19330572,4248.27282327,4252.92248805,4136.98825635,4216.80345761,4144.58126687,4226.15857141,4244.82121375,99.4472727639
off_to_on,4234.74033083,4243.68588088,4238.24447514,4140.11974258,4194.96192704,4250.52582998,4247.39139257,4252.12759652,4136.98979121,4216.75939918,4144.74040976,4225.9763303,4243.73823375,104.541652723
off_to_on,4234.86360847,4243.26051342,4238.04253981,4140.00043989,4195.17990494,4249.88260934,4246.59522636,4251.42093027,4136.99053441,4216.9153933,4144.98903001,4225.90960065,4242.77651947,107.765905693
off_to_on,4235.14434652,4243.05969546,4238.0393267,4139.87458445,4195.39396999,4249.27100526,4245.89983446,4250.8195019,4136.99047337,4217.27612731,4145.32622249,4225.97431575,4241.94611345,109.626490284
off_to_on,4235.57925771,4243.08324516,4238.23454957,4139.74528744,4195.60472781,4248.69769758,4245.31848351,4250.33739785,4136.98962756,4217.8406632,4145.74860796,4226.18267213,4241.25339484,110.72166958
off_to_on,4236.16083812,4243.32551857,4238.62273627,4139.61574176,4195.81265653,4248.16826341,4244.86154804,4249.98506501,4136.98804708,4218.60232575,4146.25036606,4226.54242524,4240.70075327,111.716610282
off_to_on,4236.87737311,4243.77537547,4239.19315634,4139.48912534,4196.01795783,4247.68678943,4244.53594591,4249.76871784,4136.98581,4219.54876779,4146.82334624,4227.05633691,4240.28639233,113.315690809
off_to_on,4237.71308977,4244.41630372,4239.92992215,4139.36850067,4196.22041785,4247.25553647,4244.34468155,4249.68989189,4136.98301874,4220.66221217,4147.45725426,4227.72179999,4240.00427211,116.233072408
off_to_on,4238.64845497,4245.22670229,4240.81226589,4139.25671505,4196.41928532,4246.87467308,4244.28651645,4249.74516375,4136.97979544,4221.91986323,4148.13990907,4228.53065811,4239.84419422,121.162659336
off_to_on,4239.66061295,4246.18031778,4241.81498741,4139.15630591,4196.61317372,4246.54209241,4244.35578238,4249.92605193,4136.97627672,4223.29447544,4148.85756217,4229.46923107,4239.79202804,128.748601707
off_to_on,4240.72395083,4247.24682458,4242.90906259,4139.06941555,4196.79999361,4246.25332385,4244.54234825,4250.21910694,4136.972608,4224.75506183,4149.59526981,4230.51854857,4239.830072,139.557478248
off_to_on,4241.81077637,4248.3925349,4244.06239546,4138.99771946,4196.97692049,4246.00154725,4244.83174735,4250.60619255,4136.96893754,4226.26772134,4150.33730645,4231.65478784,4239.937539,154.053236257
off_to_on,4242.89208766,4249.58122097,4245.24069253,4138.94237157,4197.1404025,4245.77771372,4245.20546647,4251.06495369,4136.96541052,4227.79656084,4151.06760649,4232.84990357,4240.09115179,172.575863311
off_to_on,4243.93841141,4250.77502883,4246.40843318,4138.90396938,4197.28621046,4245.5707725,4245.64139301,4251.5694592,4136.96216335,4229.30468482,4151.77022093,4234.0724319,4240.26582981,195.324623769
off_to_on,4244.92068365,4251.93546044,4247.52990594,4138.88254075,4197.40953156,4245.36799894,4246.11441002,4252.09100093,4136.95931847,4230.75522387,4152.42977466,4235.28844349,4240.43544694,222.346520182
off_to_on,4245.81114451,4253.02439831,4248.57027809,4138.87755345,4197.50510528,4245.15541417,4246.5971234,4252.59902403,4136.95697981,4232.11237175,4153.03191073,4236.46261472,4240.57363624,253.530441973
off_to_on,4246.58421762,4254.00514523,4249.49666334,4138.88794696,4197.56739855,4244.91828227,4247.06069932,4253.062157,4136.95522906,4233.34240042,4153.56370774,4237.55938074,4240.65461672,288.60724719
off_to_on,4247.21734383,4254.84344983,4250.27915207,4138.91218535,4197.59081464,4244.6416672,4247.47578515,4253.44930593,4136.95412292,4234.41462285,4154.0140574,4238.54413003,4240.65401507,327.155796515
off_to_on,4247.69173968,4255.50848801,4250.89176841,4138.94832884,4197.56992837,4244.31102834,4247.81348297,4253.7307732,4136.95369139,4235.30227457,4154.3739903,4239.38439752,4240.54965541,368.614732548
off_to_on,4247.99305236,4255.97377021,4251.31332012,4138.99412072,4197.4997385,4243.91283189,4248.04634159,4253.87935935,4136.95393712,4235.98328677,4154.636939,4240.051012,4240.3222904,412.299580143
off_to_on,4248.11188578,4256.21794523,4251.52811011,4139.04708577,4197.37592666,4243.43515453,4248.14933154,4253.87140655,4136.95483595,4236.44092652,4154.79892976,4240.51915454,4239.95624813,457.424542223
off_to_on,4248.04417621,4256.22547344,4251.52648251,4139.10463596,4197.19511145,4242.86825574,4248.10076731,4253.68774318,4136.95633838,4236.6642834,4154.85869622,4240.76928654,4239.43997227,503.128187752
off_to_on,4247.79140051,4255.98714501,4251.30518117,4139.16417885,4196.95508578,4242.20509555,4247.88314216,4253.3144927,4136.95837208,4236.64858605,4154.81771092,4240.78791071,4238.76643579,548.502082955
off_to_on,4247.36060574,4255.50042251,4250.8675046,4139.22322426,4196.65502635,4241.44177538,4247.48384428,4252.74371433,4136.96084526,4236.39533801,4154.68013336,4240.56813379,4237.93341304,592.621308693
off_to_on,4246.7642551,4254.76959245,4250.2232481,4139.27948496,4196.29566473,4240.5778815,4246.89572628,4251.97384965,4136.9636507,4235.91226739,4154.45267605,4240.11000744,4236.94360005,634.575738503
off_to_on,4246.01989174,4253.80571552,4249.38843097,4139.33096724,4195.87941088,4239.61671346,4246.11750546,4251.00995568,4136.96667031,4235.21309162,4154.14439284,4239.42063166,4235.80457787,673.500925652
off_to_on,4245.14962889,4252.62637216,4248.38481464,4139.37604788,4195.41042156,4238.56538351,4245.15397732,4249.86371292,4136.96978007,4234.31710404,4153.76639647,4238.51401443,4234.5286194,708.607466264
off_to_on,4244.17948145,4251.25520668,4247.2392253,4139.41353456,4194.89460789,4237.43477776,4244.01603139,4248.55320456,4136.97285502,4233.24859518,4153.3315146,4237.4106903,4233.13234549,739.207767721
off_to_on,4243.13856018,4249.72128069,4245.98270227,4139.4427074,4194.33957884,4236.23937534,4242.72046518,4247.10247164,4136.97577424,4232.03612719,4152.85389596,4236.13711018,4231.63624156,764.739252985
off_to_on,4242.05815548,4248.05825378,4244.64950017,4139.46334027,4193.75451985,4234.99692761,4241.28959978,4245.54085712,4136.97842558,4230.71168442,4152.34857973,4234.72482356,4230.06405103,784.78316812
off_to_on,4240.97074191,4246.30341599,4243.27597915,4139.47570107,4193.15000875,4233.72800578,4239.75070748,4243.90215964,4136.98070986,4229.30972784,4151.83104249,4233.20948229,4228.44206623,799.078328292
off_to_on,4239.90893785,4244.49660243,4241.8994218,4139.4805313,4192.53777373,4232.45543106,4238.13526865,4242.22362472,4136.98254455,4227.86618351,4151.31673775,4231.62970199,4226.79834071,807.529330081
off_to_on,4238.90445679,4242.67902461,4240.55681863,4139.47900574,4191.9304003,4231.20360675,4236.47808103,4240.54480686,4136.98386667,4226.41739749,4150.82064294,4230.02582182,4225.16184929,810.208965797
off_to_on,4237.98708649,4240.89205638,4239.28366505,4139.47267414,4191.34099655,4229.99777601,4234.81624939,4238.90634061,4136.98463486,4224.99909007,4150.35682822,4228.43860707,4223.56162345,807.354790755
off_to_on,4237.18373163,4239.17601378,4238.1128126,4139.46338744,4190.78282727,4228.86323165,4233.18808756,4237.34866149,4136.98483059,4223.64534113,4149.9380602,4226.90794018,4222.0258895,799.360010588
off_to_on,4236.51755269,4237.56896843,4237.07341459,4139.45321157,4190.26892883,4227.82450608,4231.63196782,4235.91071921,4136.98445835,4222.38763696,4149.57545242,4225.4715455,4220.5812367,786.759064197
off_to_on,4236.00723041,4236.10563263,4236.19000268,4139.44433257,4189.81171749,4226.90457007,4230.18515375,4234.62872545,4136.98354502,4221.25400579,4149.27817245,4224.16379131,4219.25184059,770.208469364
off_to_on,4235.6663805,4234.81635221,4235.48172609,4139.43895704,4189.42260436,4226.12406852,4228.88265365,4233.53497721,4136.98213833,4220.2682662,4149.05321345,4223.0146089,4218.05876488,750.463665539
off_to_on,4235.50313816,4233.72623906,4234.96177867,4139.43921208,4189.11163031,4225.50061997,4227.7561308,4232.65679457,4136.98030449,4219.44940902,4148.90523635,4222.04856469,4217.0193627,728.352727347
off_to_on,4235.51992652,4232.85447143,4234.63703323,4139.44704903,4188.88713416,4225.04820465,4226.83290627,4232.01560882,4136.97812522,4218.81113041,4148.83648634,4221.28411596,4216.14679507,704.747927897
off_to_on,4235.71341705,4232.21378448,4234.50789474,4139.46415482,4188.75546686,4224.77666259,4226.13508748,4231.62623299,4136.97569417,4218.36152939,4148.84678562,4220.73307517,4215.44968141,680.536197758
off_to_on,4236.07468374,4231.81016784,4234.56837718,4139.49187492,4188.72076354,4224.69132113,4225.67885257,4231.49634178,4136.97311292,4218.10297944,4148.93360195,4220.40030103,4214.93189307,656.589551599
off_to_on,4236.58954634,4231.64278059,4234.80640096,4139.53115057,4188.78478366,4224.7927671,4225.47391615,4231.62618169,4136.97048687,4218.03217878,4149.09219076,4220.28362777,4214.59249711,633.736541246
off_to_on,4237.23909192,4231.70408699,4235.20430089,4139.58247305,4188.94682726,4225.07677498,4225.52319673,4232.0085248,4136.96792091,4218.14037944,4149.31580603,4220.37403605,4214.42585319,612.735742007
off_to_on,4238.00035771,4231.98020931,4235.73952675,4139.64585659,4189.20373305,4225.53439697,4225.82270005,4232.6288716,4136.96551532,4218.41378955,4149.59597345,4220.65606164,4214.42186161,594.252189522
off_to_on,4238.84715294,4232.45148656,4236.38551234,4139.72083066,4189.54996082,4226.15221465,4226.36162541,4233.46589953,4136.96336188,4218.8341381,4149.92281685,4221.10842909,4214.5663557,578.837561363
off_to_on,4239.75099174,4233.09322023,4237.11268177,4139.8064516,4189.97775706,4226.91274529,4227.12269469,4234.49214475,4136.96154044,4219.37938534,4150.28542729,4221.70488974,4214.84162608,566.91474913
off_to_on,4240.68210534,4233.87658134,4237.88955681,4139.90133274,4190.47739963,4227.79498864,4228.08269527,4235.67489581,4136.960116,4220.02455606,4150.67226245,4222.41523547,4215.22705969,558.767300462
off_to_on,4241.6104979,4234.76964643,4238.6839246,4140.00369117,4191.03751338,4228.77509375,4229.21322016,4236.97726977,4136.95913645,4220.74266796,4151.0715627,4223.2064524,4215.69987111,554.534031124
off_to_on,4242.50700838,4235.73852543,4239.46402278,4140.11140879,4191.64544594,4229.82711995,4230.48158074,4238.35943344,4136.95863106,4221.50572289,4151.47176946,4224.04397287,4216.23590017,554.208918657
off_to_on,4243.34433998,4236.74854005,4240.19969774,4140.22210479,4192.28768988,4230.9238626,4231.85186078,4239.77992714,4136.95860969,4222.28572549,4151.861931,4224.89297924,4216.81044619,557.646194347
off_to_on,4244.09801894,4237.76540972,4240.86349276,4140.33321649,4192.95033572,4232.03771215,4233.28607455,4241.19704292,4136.95906283,4223.05569165,4152.23208124,4225.71971011,4217.3991076,564.570353622
off_to_on,4244.74724722,4238.75640141,4241.43162524,4140.44208531,4193.61953843,4233.1415142,4234.74538742,4242.57020715,4136.95996239,4223.79060891,4152.57357763,4226.49271853,4217.97859491,574.590614012
off_to_on,4245.27561658,4239.69140156,4241.88481627,4140.5460447,4194.28197986,4234.20939939,4236.19135497,4243.86131611,4136.96126323,4224.46831164,4152.87938559,4227.18403288,4218.52748601,587.219177274
off_to_on,4245.67165747,4240.54387145,4242.20894178,4140.64250709,4194.92530923,4235.21755376,4237.58713578,4245.03597487,4136.96290525,4225.0702368,4153.14429882,4227.77017464,4219.02689461,601.892513189
off_to_on,4245.9292017,4241.29165284,4242.39548137,4140.72904695,4195.53854466,4236.14490356,4238.8986342,4246.06459306,4136.96481617,4225.58203051,4153.3650875,4228.23299227,4219.4610267,617.994784783
off_to_on,4246.04754545,4241.91759655,4242.44174895,4140.80347753,4196.11242024,4236.9736921,4240.09553251,4246.923297,4136.96691456,4225.9939812,4153.54056864,4228.56027798,4219.81760417,634.882476725
off_to_on,4246.03140646,4242.40999401,4242.35089771,4140.86391887,4196.6396649,4237.68993103,4241.15217568,4247.59462429,4136.96911335,4226.3012623,4153.67159666,4228.74614261,4220.08814071,651.909265797
off_to_on,4245.89067669,4242.76279967,4242.13170051,4140.90885524,4197.11520213,4238.28371288,4242.04827749,4248.06797562,4136.97132333,4226.50397487,4153.7609748,4228.79113391,4220.2680613,668.450184564
off_to_on,4245.63997965,4242.97564005,4241.79811567,4140.93718035,4197.53626282,4238.7493771,4242.76942337,4248.33980757,4136.97345677,4226.60698832,4153.81329157,4228.70209332,4220.35666307,683.924179417
off_to_on,4245.29804856,4243.05361338,4241.36865585,4140.9482292,4197.90240683,4239.0855265,4243.30735298,4248.41356022,4136.97543083,4226.61958577,4153.83468916,4228.4917575,4220.35692194,697.814250351
off_to_on,4244.88694853,4243.00689169,4240.86558578,4140.94179574,4198.21545281,4239.29489601,4243.66001399,4248.29932353,4136.97717076,4226.55492764,4153.8325734,4228.17812046,4220.27515548,709.684475772
off_to_on,4244.43117224,4242.85014401,4240.31398085,4140.91813627,4198.47931979,4239.38408037,4243.83138759,4248.0132568,4136.97861267,4226.42935493,4153.81527712,4227.78358224,4220.12055847,719.193363301
off_to_on,4243.95664354,4242.60180621,4239.74068434,4140.8779586,4198.69978754,4239.3631321,4243.83109534,4247.57678524,4136.97970583,4226.26156017,4153.79169068,4227.33391854,4219.90463239,726.103119336
off_to_on,4243.48966794,4242.283228,4239.17320529,4140.82239771,4198.88418683,4239.24504622,4243.6738059,4247.01560709,4136.98041441,4226.07165996,4153.77087436,4226.85711326,4219.64053466,730.28458701
off_to_on,4243.05587079,4241.91773253,4238.63860155,4140.75297883,4199.04103345,4239.045153,4243.3784689,4246.35855298,4136.98071857,4225.88020818,4153.76166853,4226.38210202,4219.34237678,731.717757347
off_to_on,4242.67916565,4241.52962648,4238.16239343,4140.67156915,4199.17962256,4238.78044443,4242.96741065,4245.63634614,4136.98061491,4225.70719205,4153.77231717,4225.93747929,4219.0245023,730.48791018
off_to_on,4242.38079415,4241.14320086,4237.76755221,4140.58031963,4199.30960168,4238.46886369,4242.46533307,4244.8803169,4136.98011624,4225.57105558,4153.81011997,4225.55022418,4218.70077721,726.777591137
off_to_on,4242.17847646,4240.78176197,4237.47360469,4140.48159873,4199.440541,4238.128589,4241.89826144,4244.12112755,4136.97925074,4225.48779447,4153.8811271,4225.24450027,4218.3839244,720.854777783
off_to_on,4242.08570739,4240.46673056,4237.29589016,4140.37791976,4199.58151963,4237.77734356,4241.29248884,4243.38756345,4136.97806052,4225.47016461,4153.98988907,4225.0405825,4218.0849322,713.05772745
off_to_on,4242.11122703,4240.21684286,4237.24499886,4140.27186412,4199.74074543,4237.43176167,4240.67356373,4242.70544281,4136.97659964,4225.52704159,4154.13927164,4224.95395885,4217.81256281,703.777124845
off_to_on,4242.2586872,4240.04748156,4237.32641293,4140.16600244,4199.92522353,4237.10683756,4240.06536413,4242.09669132,4136.97493173,4225.66296155,4154.33034279,4224.99464697,4217.57298128,693.436253155
off_to_on,4242.52652635,4239.97015824,4237.54036102,4140.06281603,4200.14048663,4236.81547808,4239.48929574,4241.57861961,4136.97312726,4225.87786556,4154.56233565,4225.16675565,4217.36951925,682.469992607
off_to_on,4242.90805645,4239.9921615,4237.88188863,4139.96462109,4200.39039633,4236.56817415,4238.96364445,4241.16343078,4136.97126061,4226.16705962,4154.83268768,4225.46830989,4217.20258097,671.303501044
off_to_on,4243.39175596,4240.11637764,4238.34113596,4139.87349818,4200.67702154,4236.37279902,4238.50310417,4240.85797404,4136.969407,4226.52139232,4155.13715346,4225.89134551,4217.06969234,660.331449051
off_to_on,4243.9617541,4240.34128315,4238.90380681,4139.79122973,4201.00059573,4236.23453367,4238.11849179,4240.66374728,4136.96763958,4226.92764145,4155.46998471,4226.42226683,4216.96568665,649.898665968
off_to_on,4244.59848315,4240.66110103,4239.55180311,4139.71924791,4201.35955129,4236.15591251,4237.81665,4240.57713933,4136.96602649,4227.36909027,4155.82416875,4227.04244786,4216.88301461,640.283002572
off_to_on,4245.2794681,4241.06610641,4240.26399311,4139.65859518,4201.75062546,4236.13697547,4237.60052924,4240.58989052,4136.96462831,4227.82626485,4156.19171361,4227.72904652,4216.81216003,631.681132869
off_to_on,4245.98021747,4241.54306124,4241.01707614,4139.60989922,4202.1690293,4236.17550764,4237.46943075,4240.68973977,4136.96349584,4228.27779536,4156.56396643,4228.45599126,4216.74213829,624.197904072
off_to_on,4246.67517501,4242.07575361,4241.78650343,4139.57336356,4202.60866872,4236.26734397,4237.41938561,4240.86121835,4136.96266824,4228.70135878,4156.93195056,4229.19509234,4216.66105113,617.839704765
off_to_on,4247.33868997,4242.64561402,4242.54741291,4139.54877444,4203.06240483,4236.40671555,4237.44363887,4241.08654447,4136.9621718,4229.0746562,4157.28670624,4229.91722443,4216.55666923,612.512161796
off_to_on,4247.94596288,4243.23237904,4243.27553634,4139.53552418,4203.52233957,4236.58661383,4237.53320468,4241.34656885,4136.96201909,4229.37637644,4157.61961979,4230.59352478,4216.41701312,608.02230296
off_to_on,4248.47392531,4243.81477135,4243.94803836,4139.53264999,4203.98011255,4236.7991513,4237.67745637,4241.62172087,4136.96220885,4229.58709791,4157.92272705,4231.1965504,4216.23090347,604.085141903
off_to_on,4248.90201466,4244.37116617,4244.5442509,4139.5388873,4204.42719477,4237.03589942,4237.86471616,4241.89290556,4136.96272625,4229.69008386,4158.1889778,4231.70134011,4215.9884534,600.33446136
off_to_on,4249.21281044,4244.88021523,4245.04627116,4139.55273535,4204.85516653,4237.28818793,4238.08281123,4242.14230667,4136.96354382,4229.67193113,4158.41245019,4232.08633244,4215.68147888,596.337398058
off_to_on,4249.39250451,4245.32140318,4245.43939826,4139.57253275,4205.2559678,4237.54735308,4238.31956738,4242.35405701,4136.96462277,4229.52304027,4158.58850614,4232.33409759,4215.30380753,591.612274567
off_to_on,4249.43118658,4245.67551601,4245.71239174,4139.59654006,4205.62211211,4237.80492592,4238.56321701,4242.51474623,4136.9659148,4229.23788415,4158.71388213,4232.43185153,4214.85147205,585.648986585
off_to_on,4249.32293545,4245.92500692,4245.85754445,4139.62302603,4205.9468569,4238.05275584,4238.80270554,4242.61374675,4136.96736421,4228.8150628,4158.78671293,4232.37173133,4214.32278087,577.931144205
off_to_on,4249.06571687,4246.05425219,4245.87057202,4139.65035394,4206.22432657,4238.28306844,4239.02788808,4242.64334933,4136.96891024,4228.25714369,4158.8064893,4232.15082349,4213.71826597,567.959087388
off_to_on,4248.66109882,4246.04969656,4245.75033096,4139.67706438,4206.44958673,4238.48846117,4239.22961613,4242.59871145,4136.9704896,4227.57029827,4158.77395443,4231.77094933,4213.04051498,555.272852288
off_to_on,4248.11380443,4245.8998946,4245.49838655,4139.7019508,4206.61867132,4238.66184437,4239.39972167,4242.47763226,4136.97203904,4226.76375682,4158.69094672,4231.23822473,4212.29390093,539.474158334
off_to_on,4247.43113091,4245.59546072,4245.11845962,4139.72412433,4206.72856661,4238.79633986,4239.53091298,4242.28017775,4136.97349783,4225.84911385,4158.56019962,4230.56242318,4211.48422935,520.246516327
off_to_on,4246.62227016,4245.12894633,4244.61578894,4139.74306482,4206.77715875,4238.88515334,4239.61660238,4242.00818806,4136.97481013,4224.83952496,4158.38511116,4229.75618188,4210.6183264,497.372624293
off_to_on,4245.6975727,4244.49466732,4243.9964511,4139.75865548,4206.76315398,4238.92144086,4239.65069191,4241.66470632,4136.97592709,4223.7488436,4158.16949779,4228.83409974,4209.70359638,470.748317785
off_to_on,4244.66780102,4243.68850944,4243.2666842,4139.77119918,4206.68598237,4238.89819137,4239.62734634,4241.25337295,4136.97680864,4222.59075078,4157.91734842,4227.81178228,4208.74757909,440.392470856
off_to_on,4243.54342018,4242.7077413,4242.43226294,4139.78141507,4206.54569746,4238.80814853,4239.54078512,4240.77783229,4136.97742488,4221.37793285,4157.63259454,4226.70489216,4207.75753891,406.452398016
off_to_on,4242.33397274,4241.55086485,4241.49797098,4139.79041541,4206.34288403,4238.64379323,4239.38512422,4240.24119774,4136.97775706,4220.12136137,4157.31891202,4225.52826427,4206.74011629,369.204479858
off_to_on,4241.04758075,4240.21753063,4240.46721163,4139.79966288,4206.07858534,4238.39740476,4239.15429588,4239.64561822,4136.97779807,4218.82972377,4156.97956808,4224.29514057,4205.70106905,329.04991907
off_to_on,4239.69060967,4238.70853912,4239.34178971,4139.81091007,4205.75425883,4238.0612133,4238.84206818,4238.99198145,4136.9775525,4217.50904521,4156.61732411,4223.01657278,4204.64512496,286.505721846
off_to_on,4238.26751852,4237.02594139,4238.12188581,4139.82612316,4205.37176583,4237.62764879,4238.44217762,4238.27977949,4136.97703616,4216.16252929,4156.23440101,4221.70102958,4203.57595856,242.191184821
off_to_on,4236.78090727,4235.17324111,4236.8062305,4139.84739301,4204.93339665,4237.08968239,4237.94857717,4237.50714935,4136.97627528,4214.79063054,4155.83250915,4220.35423064,4202.49629563,196.810342423
off_to_on,4235.23175811,4233.15568924,4235.39247125,4139.87683698,4204.44192816,4236.44124758,4237.35579068,4236.67108735,4136.9753052,4213.39135511,4155.41293993,4218.97921399,4201.40813841,151.130986914
off_to_on,4233.61985371,4230.98065124,4233.87771029,4139.91649571,4203.90070728,4235.67771897,4236.65935364,4235.76782304,4136.97416879,4211.96077043,4154.97671152,4217.57662652,4200.31309507,105.96100738
off_to_on,4231.94434292,4228.65801788,4232.25917911,4139.96822908,4203.31375048,4234.79642023,4235.85631189,4234.79332633,4136.97291459,4210.49369091,4154.52475733,4216.14521335,4199.21278934,62.1228992551
off_to_on,4230.20441507,4226.20062399,4230.53500548,4140.03361584,4202.68584793,4233.7971281,4234.94574341,4233.74391276,4136.97159478,4208.98449596,4154.05814272,4214.68246902,4198.1093198,20.4273685618
off_to_on,4228.40003684,4223.6246356,4228.70502184,4140.1138614,4202.02265985,4232.68253733,4233.92926509,4232.61690483,4136.97026304,4207.42802872,4153.57829363,4213.18540513,4197.005735,-18.3530077889
off_to_on,4226.53270252,4220.94986553,4226.7715613,4140.20971783,4201.33079293,4231.45865183,4232.81148593,4231.41130466,4136.96897234,4205.82051979,4153.08722001,4211.65138312,4195.90648897,-53.5091039456
off_to_on,4224.60614744,4218.19997935,4224.74018724,4140.32141989,4200.61784594,4230.13506938,4231.60037047,4230.12843269,4136.96777294,4204.16047875,4152.58771695,4210.07895858,4194.81784271,-84.4186239973
off_to_on,4222.62697693,4215.40255815,4222.620306,4140.4486402,4199.89241536,4228.7251325,4230.30748041,4228.77248961,4136.96671039,4202.44949832,4152.08352791,4208.46868381,4193.74818001,-110.566684065
off_to_on,4220.60516723,4212.58899141,4220.42561796,4140.5904658,4199.16405386,4227.24592398,4228.94806875,4227.35100326,4136.96582386,4200.69292025,4151.5794563,4206.82381802,4192.70821038,-131.562847511
off_to_on,4218.55440182,4209.794181,4218.17437026,4140.74539777,4198.44317738,4225.71809373,4227.54100776,4225.87512793,4136.9651447,4198.90031887,4151.08141418,4205.15089969,4191.71103783,-147.153992781
off_to_on,4216.4922148,4207.05604712,4215.88938449,4140.91137438,4197.74091864,4224.16551201,4226.10854016,4224.35977093,4136.96469541,4197.08576726,4150.59640041,4203.46014258,4190.77208074,-157.232539825
off_to_on,4214.43992279,4204.41483714,4213.59784366,4141.08581743,4197.06892819,4222.61475275,4224.67585141,4222.82352879,4136.96448888,4195.26786108,4150.13240382,4201.76562557,4189.90883604,-161.839714642
off_to_on,4212.42233742,4201.9122487,4211.33083476,4141.26570057,4196.43912642,4221.09441919,4223.27046939,4221.28842461,4136.96452813,4193.46948697,4149.69823145,4200.0852563,4189.14048838,-161.163688169
off_to_on,4210.46726105,4199.59038876,4209.12265541,4141.44763743,4195.86341274,4219.63433258,4221.92150635,4219.77944683,4136.96480637,4191.71733452,4149.30326546,4198.4404996,4188.48737342,-155.532588549
off_to_on,4208.60477938,4197.49059953,4207.00990444,4141.62798674,4195.35334058,4218.26461152,4220.65876609,4218.32389938,4136.96530749,4190.04116323,4148.95715674,4196.85587291,4187.97031217,-145.40256031
off_to_on,4206.86637436,4195.6521901,4205.03038712,4141.80297049,4194.91976864,4217.01467554,4219.51174635,4216.95058219,4136.96600692,4188.47284792,4148.66946659,4195.3582227,4187.60984047,-131.341229042
off_to_on,4205.28388999,4194.11111899,4203.22187504,4141.96880106,4194.5725007,4215.91221014,4218.50857271,4215.68882982,4136.96687275,4187.0452374,4148.44927094,4193.9758071,4187.42536419,-114.007113891
off_to_on,4203.88839105,4192.89867708,4201.62076815,4142.12181226,4194.31992713,4214.98213322,4217.67490505,4214.56744358,4136.96786717,4185.7908711,4148.3047444,4192.73721997,4187.43427553,-94.1256958693
off_to_on,4202.70896056,4192.04022278,4200.2607118,4142.25858938,4194.1686815,4214.24560329,4217.03286041,4213.61355845,4136.96894814,4184.74060613,4148.2427426,4191.67020072,4187.65106888,-72.4629863986
off_to_on,4201.7714855,4191.55402107,4199.17122517,4142.37609288,4194.12332581,4213.7191096,4216.59999729,4212.85149085,4136.97007106,4183.92221327,4148.26840263,4190.8003808,4188.08649581,-49.7975458567
off_to_on,4201.09748229,4191.45023679,4198.37639815,4142.47177083,4194.18607662,4213.41368145,4216.38840548,4212.30161518,4136.97119046,4183.35900302,4148.38478094,4190.15002257,4188.74679832,-26.8919766544
off_to_on,4200.70301323,4191.73012826,4197.89371284,4142.54365529,4194.356584,4213.33425113,4216.40394318,4211.97931807,4136.97226142,4183.06854341,4148.59254741,4189.73680818,4189.63305718,-4.46495508911
off_to_on,4200.5977433,4192.38548226,4197.73304241,4142.59043848,4194.63177333,4213.47920006,4216.64565836,4211.89407748,4136.97324068,4183.0615292,4148.88975241,4189.57273605,4190.74068909,16.8351361876
off_to_on,4200.78418274,4193.39832415,4197.89587469,4142.61152531,4195.00575873,4213.84011261,4217.10542603,4212.04871052,4136.9740873,4183.34085742,4149.27168112,4189.6631795,4192.05912127,36.4539600914
off_to_on,4201.25715423,4194.74092831,4198.37480046,4142.60705997,4195.46983475,4214.40175531,4217.7678252,4212.43882831,4136.9747629,4183.90095748,4149.7308064,4190.00615715,4193.57166665,53.9514346261
off_to_on,4202.00351574,4196.37614354,4199.15329663,4142.57792509,4196.01255066,4215.14229161,4218.61027108,4213.05252969,4136.9752315,4184.7274152,4150.25684708,4190.59185688,4195.25561478,69.0175990091
off_to_on,4203.00215995,4198.25803708,4200.20582401,4142.52571341,4196.61986945,4216.03373338,4219.60340831,4213.87035645,4136.97545914,4185.79691873,4150.83693475,4191.40244557,4197.08254579,81.4834953153
off_to_on,4204.22430035,4200.33284823,4201.49824687,4142.4526729,4197.27541074,4217.04262104,4220.71176107,4214.86552355,4136.97541319,4187.07754208,4151.45588708,4192.41218527,4199.01886526,91.3266122397
off_to_on,4205.63404299,4202.54023125,4202.98856942,4142.36162744,4197.9607748,4218.1309154,4221.89462608,4216.00442714,4136.97506174,4188.52936852,4152.09658131,4193.58786388,4201.02654943,98.670644171
off_to_on,4207.18923142,4204.8147557,4204.62797231,4142.25587628,4198.65594204,4219.25707568,4223.10718492,4217.24742255,4136.97437296,4190.10544239,4152.74041736,4194.88953547,4203.06408113,103.77953632
off_to_on,4208.84254217,4207.08762258,4206.3621203,4142.13907625,4199.33974029,4220.37729083,4224.30180329,4218.54985382,4136.97331472,4191.75302444,4153.36785596,4196.27155184,4205.08754912,107.046008193
off_to_on,4210.54279738,4209.28854581,4208.1327018,4142.01511148,4199.99036953,4221.44682479,4225.42947671,4219.8633058,4136.97185447,4193.41511304,4153.95901408,4197.68385414,4207.05187612,108.974964167
off_to_on,4212.23645283,4211.34774167,4209.87915119,4141.88795561,4200.58597143,4222.42143116,4226.44137562,4221.13704024,4136.96995953,4195.03218175,4154.49429712,4199.07348197,4208.91213477,110.162401007
off_to_on,4213.86921168,4213.19796322,4211.54049738,4141.76153201,4201.10522863,4223.25878874,4227.29043696,4222.31956841,4136.9675978,4196.54407417,4154.95504555,4200.38624745,4210.62490636,111.270599821
off_to_on,4215.38770888,4214.7765142,4213.05727614,4141.63957705,4201.52797683,4223.91990756,4227.93294675,4223.36030645,4136.96473894,4197.8919896,4155.32417252,4201.56851478,4212.14963446,113.000538754
off_to_on,4216.74120815,4216.02717613,4214.37344083,4141.52551187,4201.83581134,4224.37045486,4228.33005657,4224.21125484,4136.96135597,4199.02048852,4155.58676929,4202.56902113,4213.44992544,116.062576302
off_to_on,4217.88325262,4216.90198481,4215.43820568,4141.42232736,4202.01266939,4224.58195233,4228.44917907,4224.82864207,4136.95742731,4199.87944551,4155.73065604,4203.3406729,4214.49474938,121.146527276
off_to_on,4218.77321153,4217.3627964,4216.20775764,4141.33248689,4202.04536921,4224.53280052,4228.26521122,4225.17447282,4136.95293906,4200.42587812,4155.74685786,4203.84225142,4215.25949861,128.892281315
off_to_on,4219.37766861,4217.38258977,4216.64677685,4141.25785023,4201.9240879,4224.20909196,4227.76153983,4225.21792425,4136.94788748,4200.62558375,4155.62998785,4204.03996482,4215.72686588,139.862097885
off_to_on,4219.67160286,4216.94645949,4216.72971186,4141.1996217,4201.64276111,4223.60518209,4226.93079079,4224.93653819,4136.94228148,4200.45452228,4155.37852276,4203.90878744,4215.88751059,154.515652242
off_to_on,4219.63931852,4216.05226287,4216.4417627,4141.15832409,4201.19938909,4222.72399566,4225.7752921,4224.3171636,4136.93614507,4199.89988997,4154.99495951,4203.43353444,4215.74048804,173.188804629
off_to_on,4219.27508827,4214.71089446,4215.77953407,4141.13379922,4200.59623566,4221.57705502,4224.30722942,4223.35661103,4136.92951942,4198.96083946,4154.48584506,4202.60962738,4215.29342442,196.076924003
off_to_on,4218.58348285,4212.94617236,4214.75133026,4141.12523448,4199.83990878,4220.18422641,4222.54848323,4222.06199001,4136.92246451,4197.64881216,4153.86167599,4201.44351668,4214.56242799,223.223425225
off_to_on,4217.57936937,4210.79433208,4213.37707454,4141.1312143,4198.94131429,4218.57318935,4220.53014641,4220.45070963,4136.91506021,4195.98746135,4153.13666818,4199.95273743,4213.57173526,254.513981392
off_to_on,4216.28757131,4208.30313536,4211.68784738,4141.14979378,4197.91547726,4216.7786438,4218.29173135,4218.55013381,4136.9074066,4194.0121583,4152.32840144,4198.1655876,4212.35309946,289.676656857
off_to_on,4214.74219413,4205.53061314,4209.72505016,4141.17859163,4196.78122901,4214.84127717,4215.88008487,4216.39689302,4136.89962342,4191.76908706,4151.45734763,4196.12043031,4210.94493661,328.287980336
off_to_on,4212.98563115,4202.5434732,4207.53921324,4141.21489826,4195.56076241,4212.8065214,4213.34803897,4214.0358661,4136.8918487,4189.31394846,4150.546295,4193.86463482,4209.3912525,369.784751556
off_to_on,4211.06727553,4199.41521399,4205.18847968,4141.25579474,4194.27906219,4210.72313633,4210.75283396,4211.51885716,4136.88423642,4186.71030763,4149.61968484,4191.45318431,4207.74038108,413.481157993
off_to_on,4209.04197462,4196.22399636,4202.7368073,4141.29827758,4192.96322279,4208.64166211,4208.15435935,4208.90300426,4136.87695324,4184.02763369,4148.70287992,4188.94699107,4206.04357133,458.590576987
off_to_on,4206.96827344,4193.05033442,4200.25194311,4141.3393846,4191.64167094,4206.61278855,4205.61326534,4206.24896761,4136.87017443,4181.33909263,4147.82138719,4186.41097246,4204.35346541,504.251260914
off_to_on,4204.90650314,4189.97467466,4197.80323384,4141.37631668,4190.3433152,4204.68569274,4203.18900427,4203.61895505,4136.86407909,4178.7191659,4147.00005921,4183.91195114,4202.72251539,549.554957505
off_to_on,4202.91677793,4187.07493885,4195.45934433,4141.40655085,4189.09664876,4202.90639891,4200.9378659,4201.07465063,4136.8588447,4176.24117549,4146.26230043,4181.51645225,4201.20138914,593.577409203
off_to_on,4201.05696978,4184.42410972,4193.28596141,4141.42794018,4187.92883484,4201.31621419,4198.91107238,4198.67511804,4136.85464132,4173.97480179,4145.62930524,4179.28847545,4199.83741711,635.409606954
off_to_on,4199.38073252,4182.08793955,4191.34356303,4141.43879694,4186.86480605,4199.95029298,4197.15299867,4196.47475334,4136.85162562,4171.98368289,4145.11935375,4177.28732228,4198.67313154,674.188647602
off_to_on,4197.93564737,4180.12285924,4189.68533222,4141.43795578,4185.92641001,4198.83637868,4195.69958082,4194.52136168,4136.84993491,4170.32318214,4144.74719059,4175.565558,4197.74494674,709.127062613
off_to_on,4196.76155855,4178.57416038,4188.35529166,4141.42481477,4185.1316327,4197.99376725,4194.57697006,4192.85442974,4136.84968145,4169.03840647,4144.5235092,4174.16718313,4197.08202519,739.539547921
off_to_on,4195.88916205,4177.47451466,4187.38672811,4141.3993528,4184.49392983,4197.43253008,4193.80048344,4191.50366008,4136.8509473,4168.16254997,4144.45456107,4173.12608251,4196.70536779,764.86612598
off_to_on,4195.33890166,4176.84288434,4186.80096678,4141.3621228,4184.0216931,4197.15302667,4193.37389298,4190.48782524,4136.85377992,4167.71562653,4144.54190523,4172.46481049,4196.62715952,784.690907698
off_to_on,4195.12021497,4176.68386403,4186.60654292,4141.3142213,4183.71787425,4197.1457286,4193.28908506,4189.81398837,4136.85818869,4167.70364161,4144.7823087,4172.19375826,4196.85039249,798.755789852
off_to_on,4195.23115871,4176.98747908,4186.79880406,4141.25723571,4183.57978455,4197.39136663,4193.52610919,4189.47712413,4136.86414264,4168.1182373,4145.16780312,4172.31073497,4197.36877875,806.968616135
off_to_on,4195.65842779,4177.72944906,4187.35995923,4141.19317165,4183.59908113,4197.86140238,4194.0536222,4189.46015866,4136.87156937,4168.93682671,4145.68589717,4172.8009787,4198.16695468,809.405537833
off_to_on,4196.37776707,4178.87190821,4188.2595756,4141.12436348,4183.76194497,4198.51881543,4194.82972006,4189.73443195,4136.88035539,4170.1232158,4146.319939,4173.63759669,4199.22096875,806.307525485
off_to_on,4197.35476038,4180.3645586,4189.45550578,4141.05337185,4184.04944873,4199.3191861,4195.80313562,4190.26057015,4136.89034785,4171.62869262,4147.04961692,4174.78241882,4200.49903456,798.071199066
off_to_on,4198.54596709,4182.1462171,4190.89521404,4140.98287273,4184.43810526,4200.21204413,4196.91476793,4190.98974067,4136.90135768,4173.39354723,4147.85158216,4176.18723317,4201.96252256,785.234352871
off_to_on,4199.90036447,4184.14670399,4192.51745544,4140.91554234,4184.90058135,4201.14244376,4198.09949686,4191.86524908,4136.91316403,4175.34897051,4148.70017288,4177.79535945,4203.56715613,768.456742821
off_to_on,4201.36104371,4186.28901053,4194.25424985,4140.85394304,4185.4065548,4202.05271674,4199.28822629,4192.82442484,4136.92551996,4177.41926716,4149.5682152,4179.54350486,4205.26437163,748.496871568
off_to_on,4202.86709862,4188.4916737,4196.03308283,4140.80041468,4185.92368743,4202.88434667,4200.41009072,4193.80073211,4136.93815912,4179.52430746,4150.42787451,4181.36383748,4207.00279696,726.185645904
off_to_on,4204.35563997,4190.67127961,4197.77925742,4140.75697587,4186.41868156,4203.5799016,4201.39475297,4194.72603317,4136.95080331,4181.58213379,4151.25152821,4183.18620553,4208.72980009,702.397886654
off_to_on,4205.76386458,4192.74501376,4199.41831623,4140.72523905,4186.85838406,4204.08495786,4202.17471611,4195.53292584,4136.9631706,4183.51163247,4152.01263062,4184.94042559,4210.39305684,678.022738116
off_to_on,4207.0311072,4194.63317489,4200.87845147,4140.70634259,4187.21089976,4204.34994681,4202.68757078,4196.15707244,4136.9749837,4185.23517934,4152.68654065,4186.55856143,4211.942088,653.934050277
off_to_on,4208.10080559,4196.26157203,4202.0928219,4140.70090242,4187.44667543,4204.33185869,4202.87810061,4196.5394383,4136.98597843,4186.68116859,4153.25128481,4187.97711547,4213.32971761,630.961793823
off_to_on,4208.92231323,4197.5637299,4203.00170043,4140.7089852,4187.53951632,4203.99574316,4202.70017267,4196.62836075,4136.99591187,4187.78633961,4153.68823031,4189.13905949,4214.51340873,609.865516012
off_to_on,4209.45250161,4198.4828352,4203.55438303,4140.73010384,4187.46749976,4203.31595399,4202.11834732,4196.38137554,4137.00456987,4188.49782398,4153.98264658,4189.99563741,4215.45643776,591.310755799
off_to_on,4209.65710154,4198.97336649,4203.71079845,4140.76323571,4187.21375359,4202.27709495,4201.10915044,4195.76673593,4137.01177382,4188.77484505,4154.12413768,4190.5078818,4216.1288747,575.849213413
off_to_on,4209.51174207,4199.00235984,4203.44276814,4140.80686269,4186.76707174,4200.87463434,4199.66196168,4194.76456907,4137.01738621,4188.59001335,4154.10693205,4190.64779513,4216.50834249,563.903320905
off_to_on,4209.00265484,4198.55027354,4202.73487633,4140.85903174,4186.12234452,4199.11516602,4197.77948412,4193.36762606,4137.02131502,4187.93017443,4153.93002074,4190.39915742,4216.58053503,555.755693583
off_to_on,4208.12702173,4197.61142638,4201.58492172,4140.91743322,4185.28078738,4197.01630584,4195.47777419,4191.5815949,4137.02351646,4186.79677911,4153.59713981,4189.75793312,4216.33948005,551.543762644
off_to_on,4206.89295438,4196.19399605,4200.00393482,4140.97949414,4184.24995882,4194.60622376,4192.78582551,4189.42496061,4137.02399637,4185.20576196,4153.11659751,4188.73226276,4215.7875401,551.259700426
off_to_on,4205.31910655,4194.31957754,4198.01575833,4141.04248205,4183.04356547,4191.92282336,4189.74471571,4186.92841314,4137.02280974,4183.18693002,4152.50095186,4187.34203892,4214.93515286,554.755554919
off_to_on,4203.43393262,4192.02231573,4195.65620302,4141.10361552,4181.68105992,4189.01259291,4186.4063419,4184.13382099,4137.02005882,4180.78288112,4151.76654942,4185.61808113,4213.80032032,561.753313723
off_to_on,4201.27461945,4189.34764121,4192.97180705,4141.16017637,4180.18704447,4185.92916459,4182.83178628,4181.09280609,4137.01588954,4178.04748874,4150.93294104,4183.60093946,4212.40786548,571.859426818
off_to_on,4198.88573154,4186.35065346,4190.01824213,4141.20961917,4178.59050133,4182.73163074,4179.08936901,4177.86497274,4137.01048655,4175.04400743,4150.02219497,4181.33937195,4210.78848361,584.583144905
off_to_on,4196.31762198,4183.09420966,4186.85842465,4141.24967352,4176.92387653,4179.48267685,4175.25245921,4174.5158586,4137.00406697,4171.84286837,4149.05813195,4178.88855387,4208.97762359,599.357890474
off_to_on,4193.62467124,4179.64678942,4183.5604019,4141.27843488,4175.2220505,4176.24659916,4171.39712591,4171.11468812,4136.99687313,4168.51924741,4148.06550987,4176.30808811,4207.01424137,615.56478024
off_to_on,4190.86342302,4176.08021436,4180.19509212,4141.29444039,4173.52123248,4173.08728013,4167.59971724,4167.73201703,4136.98916452,4165.15049753,4147.06918773,4173.65989341,4204.93947236,632.557358591
off_to_on,4188.09068933,4172.46730645,4176.8339625,4141.29672645,4171.85781798,4170.06619601,4163.93445902,4164.43735997,4136.98120915,4161.81354223,4146.09329939,4171.00605109,4202.79527231,649.68657777
off_to_on,4185.36169675,4168.87956975,4173.5467297,4141.28486592,4170.26724925,4167.24052832,4160.47116102,4161.29689216,4136.97327485,4158.58232673,4145.16046685,4168.40669114,4200.62307607,666.325071729
off_to_on,4182.72834174,4165.38497737,4170.39916524,4141.25898343,4168.78291728,4164.66144537,4157.27311306,4158.37131093,4136.96562059,4155.52541971,4144.29108083,4165.91799525,4198.46252196,681.889819829
off_to_on,4180.23761677,4162.04593955,4167.45108196,4141.2197485,4167.43514156,4162.37261149,4154.39524301,4155.7139335,4136.95848815,4152.70385024,4143.50267355,4163.59038791,4196.35028524,695.862382331
off_to_on,4177.93026021,4158.9175207,4164.75456969,4141.16834699,4166.25026034,4160.40897218,4151.88259649,4153.36909639,4136.95209467,4150.16925386,4142.80940448,4161.46697773,4194.31905903,707.806005404
off_to_on,4175.83967349,4156.04596331,4162.35253807,4141.10643241,4165.24986003,4158.79585225,4149.76918461,4151.3709082,4136.9466259,4147.9623891,4142.22167577,4159.582301,4192.39671523,717.379031383
off_to_on,4173.99113847,4153.46756589,4160.27761318,4141.0360593,4164.45016801,4157.54839255,4148.07723183,4149.74239378,4136.94223087,4146.11207181,4141.74588944,4157.96140811,4190.60567099,724.344202409
off_to_on,4172.4013577,4151.20795028,4158.55142261,4140.95960161,4163.8616285,4156.67133945,4146.81684245,4148.49505353,4136.93901768,4144.6345611,4141.38435362,4156.6193222,4188.96248032,728.573603413
off_to_on,4171.0783289,4149.28174124,4157.18429058,4140.87965956,4163.48867555,4156.15918941,4145.98609019,4147.62884742,4136.93705097,4143.53341538,4141.1353408,4155.56088726,4187.47766281,730.049146823
off_to_on,4170.02155366,4147.69266719,4156.17535084,4140.79895862,4163.32971153,4155.99667977,4145.57152122,4147.13259872,4136.93635077,4142.79982179,4140.99329567,4154.78100954,4186.15577334,728.858654571
off_to_on,4169.22256836,4146.43407614,4155.51307007,4140.72024459,4163.37729218,4156.15960548,4145.54904713,4146.98479737,4136.93689301,4142.41338479,4140.94918501,4154.26528212,4184.99570771,725.187744269
off_to_on,4168.66577308,4145.48984556,4155.17615977,4140.64617889,4163.6185121,4156.61593078,4145.88519033,4147.15476853,4136.93861155,4142.34334305,4140.99097668,4153.99096769,4183.99122935,719.307874857
off_to_on,4168.32952308,4144.83564935,4155.13483948,4140.57923788,4164.03557697,4157.32715424,4146.53863177,4147.60415786,4136.94140155,4142.55016649,4141.10422955,4153.92830044,4183.13169326,711.561047964
off_to_on,4168.18743675,4144.44053073,4155.35240117,4140.52162004,4164.60654182,4158.24987654,4147.46200049,4148.28867365,4136.94512422,4142.98747094,4141.27277177,4154.04205539,4182.40293496,702.34178831
off_to_on,4168.2098655,4144.26871698,4155.78701197,4140.47516456,4165.30618824,4159.33751227,4148.60383584,4149.16001679,4136.94961262,4143.60417474,4141.4794411,4154.29332217,4181.78828528,692.07713326
off_to_on,4168.36546394,4144.28160086,4156.39368317,4140.44128426,4166.10700828,4160.54208129,4149.91064786,4150.16792305,4136.95467829,4144.34681218,4141.70685816,4154.64141203,4181.26966663,681.205442902
off_to_on,4168.62279489,4144.43980574,4157.12632597,4140.4209156,4166.98025846,4161.81601253,4151.32899803,4151.26223876,4136.96011854,4145.16191208,4141.93820232,4155.04582072,4180.82872263,670.154893258
off_to_on,4168.95190177,4144.70524705,4157.93981106,4140.41448739,4167.8970448,4163.11389341,4152.80752261,4152.39495025,4136.96572401,4145.99834714,4142.15795919,4155.46816749,4180.44793218,659.322533511
off_to_on,4169.32578288,4145.04310197,4158.79194941,4140.4219092,4168.82939836,4164.39410079,4154.29882381,4153.52209,4136.97128635,4146.80956088,4142.3526101,4155.87403089,4180.11165949,649.054771811
off_to_on,4169.72170626,4145.42360265,4159.6453148,4140.4425797,4169.75130131,4165.62025499,4155.76115979,4154.60544811,4136.97660566,4147.555584,4142.51123573,4156.2346065,4179.80709454,639.630103271
off_to_on,4170.12231037,4145.82357486,4160.46883559,4140.47541398,4170.63962576,4166.76244524,4157.15987335,4155.61402608,4136.98149737,4148.20476078,4142.62600971,4156.52811848,4179.52504311,631.244809493
off_to_on,4170.51644548,4146.22765463,4161.2390929,4140.51888877,4171.47495074,4167.79818455,4158.46851012,4156.52518111,4136.98579852,4148.73511815,4142.692562,4156.74092728,4179.26053232,624.002244507
off_to_on,4170.89972161,4146.62912863,4161.9412743,4140.57110322,4172.2422278,4168.71306281,4159.66958976,4157.32542217,4136.98937295,4149.13532518,4142.71019755,4156.8682882,4179.01320571,617.906181432
off_to_on,4171.27474156,4147.03036039,4162.56974658,4140.62985293,4172.93127146,4169.50107859,4160.7550081,4158.01083299,4136.99211554,4149.40520766,4142.68196126,4156.91472985,4178.78749094,612.858533011
off_to_on,4171.65101077,4147.44278171,4163.12822642,4140.69271406,4173.53705716,4170.16464247,4161.72606168,4158.58711156,4136.99395507,4149.55579997,4142.61454659,4156.89403681,4178.59253309,608.661583883
off_to_on,4172.04452836,4147.88644679,4163.62954372,4140.75713423,4174.05981646,4170.71425654,4162.59310084,4159.06922962,4136.99485584,4149.60893458,4142.51805089,4156.82883595,4178.44189523,605.024689879
off_to_on,4172.47707629,4148.38916441,4164.09500818,4140.82052685,4174.50492645,4171.16788592,4163.37483006,4159.48072902,4136.99481797,4149.59638599,4142.40558665,4156.74980112,4178.35303736,601.575217416
off_to_on,4172.9752346,4148.98524069,4164.55340467,4140.88036526,4174.88259775,4171.55004913,4164.09728693,4159.85268344,4136.99387627,4149.55860256,4142.29276274,4156.69450486,4178.34659288,597.87332144
off_to_on,4173.56916122,4149.71388064,4165.0396573,4140.93427352,4175.20737261,4171.8906633,4164.79254142,4160.22236537,4136.99209801,4149.54307378,4142.19705486,4156.70595921,4178.44546969,593.430000696
off_to_on,4174.2911834,4150.61731104,4165.59321413,4140.98011057,4175.49745173,4172.22368894,4165.49716642,4160.63166693,4136.9895794,4149.60239414,4142.13708857,4156.83089912,4178.67381007,587.727730877
off_to_on,4175.17425568,4151.7386989,4166.25621594,4141.0160451,4175.77387449,4172.58562553,4166.25053768,4161.12533154,4136.98644122,4149.79209522,4142.13186142,4157.11787192,4179.05584952,580.242865172
off_to_on,4176.25034435,4153.11994904,4167.07152038,4141.04061839,4176.05958293,4173.01391371,4167.09302669,4161.74905926,4136.98282358,4150.16832661,4142.19993363,4157.61520345,4179.61471901,570.468912659
off_to_on,4177.54880243,4154.79947021,4168.08065933,4141.05279313,4176.37840464,4173.54530308,4168.06415317,4162.54755333,4136.97888013,4150.78547116,4142.35861763,4158.36891652,4180.37123813,557.939761061
off_to_on,4179.09479976,4156.81000174,4169.3218099,4141.05198663,4176.75399276,4174.2142452,4169.20076552,4163.56257764,4136.97477189,4151.69378347,4142.62319771,4159.42067959,4181.34274791,542.251903683
off_to_on,4180.90787233,4159.17659157,4170.82786003,4141.03808728,4177.20876375,4175.05137104,4170.53531628,4164.83109545,4136.97066105,4152.93713992,4143.00620972,4160.80586324,4182.54203105,523.084761181
off_to_on,4183.00065027,4161.91481225,4172.62464587,4141.01145414,4177.76287421,4176.08210894,4172.09429677,4166.38355746,4136.96670481,4154.55098565,4143.51680945,4162.55177954,4183.97636574,500.21825614
off_to_on,4185.37781845,4165.02929337,4174.72943275,4140.97289967,4178.43327634,4177.32549429,4173.89688951,4168.24240319,4136.96304964,4156.56055789,4144.16025503,4164.67617341,4185.64675409,473.546899615
off_to_on,4188.03535458,4168.51263791,4177.14970196,4140.92365652,4179.23288952,4178.79321504,4175.95388921,4170.42083284,4136.95982602,4158.97945577,4144.93752481,4167.18602665,4187.54736106,443.089779873
off_to_on,4190.96007974,4172.34477628,4179.88229475,4140.86532991,4180.16992038,4180.48892807,4178.26693367,4172.92189775,4136.95714403,4161.80861425,4145.84508722,4170.07672449,4189.66519104,408.995999419
off_to_on,4194.12954464,4176.49279554,4182.91295128,4140.79983734,4181.24735878,4182.40787193,4180.82807419,4175.73794636,4136.95508978,4165.0357252,4146.8748335,4173.33162112,4191.98002071,371.545280785
off_to_on,4197.51226214,4180.91126362,4186.21626754,4140.72933816,4182.46266989,4184.53679119,4183.61970305,4178.8504499,4136.95372278,4168.63513219,4148.01417802,4176.92202659,4194.46459635,331.143647628
off_to_on,4201.06828332,4185.54304901,4189.75607718,4140.65615556,4183.80769551,4186.85417678,4186.61484242,4182.23021813,4136.95307453,4172.56820779,4149.24632507,4180.80762245,4197.08509422,288.314278103
off_to_on,4204.75010088,4190.32061703,4193.48624861,4140.582694,4185.26876952,4189.33081572,4189.77778581,4185.83800094,4136.95314808,4176.78420516,4150.55069463,4184.93729841,4199.80183233,243.683814661
off_to_on,4208.50385086,4195.16776447,4197.35187175,4140.51135521,4186.82704425,4191.93063248,4193.06507009,4189.6254572,4136.95391875,4181.22155772,4151.90349386,4189.25038689,4202.5702128,197.964591005
off_to_on,4212.27077166,4200.00173605,4201.29079325,4140.44445584,4188.45901672,4194.61179309,4196.42674376,4193.53645893,4136.95533587,4185.80958399,4153.27841545,4193.67825786,4205.34186523,151.933396095
off_to_on,4215.98886948,4204.73565033,4205.23544565,4140.38414969,4190.13723614,4197.32803303,4199.80788605,4197.50868583,4136.95732545,4190.47053926,4154.64743886,4198.1462224,4208.06595331,106.407530402
off_to_on,4219.59473119,4209.28114958,4209.11490487,4140.33235752,4191.83116718,4200.0301605,4203.15032171,4201.47545471,4136.95979371,4195.12194194,4155.98170649,4202.57568202,4210.69060096,62.2190160274
do_nothing,4223.02542022,4213.55117806,4212.8571017,4140.29070649,4193.50817741,4202.66768002,4206.39446924,4205.36771927,4136.96263117,4199.67909224,4157.25244367,4206.8864508,4213.164389,20.187895549
do_nothing,4226.22038762,4217.4627874,4216.39110742,4140.26048157,4195.13461286,4205.19047547,4209.48125494,4209.11616921,4136.96571737,4204.05769306,4158.43188954,4210.99917066,4215.43787104,-18.9044080896
do_nothing,4229.12332976,4220.93986517,4219.64941022,4140.24259027,4196.67692169,4207.55048975,4212.35402282,4212.6533541,4136.96892575,4208.17647938,4159.4942054,4214.83773625,4217.46505608,-54.3406981755
do_nothing,4231.68392626,4223.91568522,4222.57009991,4140.23754184,4198.10278472,4209.7033378,4214.96037106,4215.91575682,4136.97212869,4211.95976212,4160.41632793,4218.33164468,4219.20480659,-85.4916417442
do_nothing,4233.85939598,4226.33518429,4225.09888125,4140.24544135,4199.38221109,4211.60979249,4217.25384863,4218.84574398,4136.97520247,4215.33979597,4161.17873661,4221.41818851,4220.62210434,-111.836575027
do_nothing,4235.61581667,4228.1568801,4227.19084367,4140.26599844,4200.48855904,4213.23708845,4219.19545203,4221.39332612,4136.9780319,4218.25888814,4161.766108,4224.04441556,4221.68914099,-132.980718753
do_nothing,4236.92916279,4229.35435987,4228.81192489,4140.29854981,4201.399445,4214.55999736,4220.75487046,4223.51766877,4136.9805145,4220.67117552,4162.16783414,4226.1687888,4222.38619766,-148.668176486
do_nothing,4237.78602771,4229.91728499,4229.9400187,4140.34209393,4202.0975089,4215.56163858,4221.9114388,4225.18830584,4136.98256414,4222.54401118,4162.37838714,4227.7624908,4222.70228558,-158.790237465
do_nothing,4238.18400871,4229.85187607,4230.56569149,4140.3953357,4202.57100991,4216.23400115,4222.6547699,4226.38601897,4136.98411383,4223.85891661,4162.39751823,4228.81033079,4222.63552883,-163.388661158
do_nothing,4238.1317462,4229.18086199,4230.69248732,4140.45673854,4202.81423304,4216.57816513,4222.98505045,4227.10335974,4136.98511784,4224.61207265,4162.23028528,4229.31122725,4222.19327912,-162.653779603
do_nothing,4237.6486211,4227.9428961,4230.33681634,4140.52458102,4202.82769469,4216.60422145,4222.91299749,4227.34480399,4136.98555281,4224.81433871,4161.88690909,4229.27825349,4221.39196177,-156.917418427
do_nothing,4236.76412645,4226.19146089,4229.52743635,4140.59701543,4202.61814225,4216.33089989,4222.45948425,4227.12654076,4136.98541805,4224.49080664,4161.38246448,4228.7382489,4220.25666003,-146.640813813
do_nothing,4235.51693977,4223.9933003,4228.30455026,4140.6721257,4202.19834987,4215.78492334,4221.65485466,4226.47590942,4136.98473491,4223.6799108,4160.73641741,4227.73101205,4218.82045317,-132.397889372
do_nothing,4233.95373184,4221.42643334,4226.71855519,4140.74798252,4201.58671989,4215.00011461,4220.53795522,4225.43050944,4136.98354536,4222.43212974,4159.97202463,4226.30810473,4217.12352969,-114.854442478
do_nothing,4232.12775485,4218.57781594,4224.82848873,4140.82269383,4200.80670485,4214.01628871,4219.1549204,4224.03701617,4136.98190974,4220.80832634,4159.11561567,4224.53130626,4215.21210303,-94.74395727
do_nothing,4230.09725849,4215.54072813,4222.70022668,4140.89444919,4199.88607158,4212.8779694,4217.55775358,4222.34974364,4136.97990394,4218.87778329,4158.19578064,4222.47076727,4213.13716152,-72.8408996503
do_nothing,4227.92378637,4212.41197139,4220.40449313,4140.96155691,4198.85603286,4211.63297313,4215.80275014,4220.42900145,4136.97761599,4216.71599856,4157.24248978,4220.20291971,4210.95308864,-49.9324557881
do_nothing,4225.67040719,4209.28896623,4218.01474794,4141.02247357,4197.75027656,4210.33090669,4213.94881236,4218.33929747,4136.97514229,4214.40231211,4156.28617226,4217.80820676,4208.71619299,-26.7897501654
do_nothing,4223.39993533,4206.26684211,4215.60501883,4141.07582579,4196.60392473,4209.021627,4212.05570776,4216.14744166,4136.97258364,4212.01743927,4155.35678306,4215.36870151,4206.48319007,-4.13961779446
do_nothing,4221.17319454,4203.43561136,4213.24774553,4141.12042488,4195.45245685,4207.75371202,4210.18232302,4213.92060779,4136.9700412,4209.64098872,4154.48288726,4212.9656862,4204.30967997,17.3619986942
do_nothing,4219.04737539,4200.87751517,4211.01170133,4141.15527509,4194.33063221,4206.57299007,4208.38496504,4211.72441082,4136.96761251,4207.34904298,4153.6907903,4210.6772656,4202.24866549,37.1540049751
do_nothing,4217.07453404,4198.6646245,4208.96005429,4141.17957657,4193.27144595,4205.52117201,4206.71575848,4209.62105626,4136.96538781,4205.21187707,4153.00374204,4208.57608675,4200.34915478,54.7905318716
do_nothing,4215.3002742,4196.85677025,4207.14862517,4141.19272429,4192.3051521,4204.63462596,4205.22118588,4207.66761545,4136.96344671,4203.29188679,4152.44123982,4206.72723523,4198.65489072,69.956928696
do_nothing,4213.76264886,4195.49986728,4205.62439282,4141.19430418,4191.45838465,4203.94332866,4203.94081227,4205.914477,4136.96185539,4201.64179107,4152.0184532,4205.18637255,4197.20324616,82.4807304016
do_nothing,4212.49131029,4194.62468392,4204.42428977,4141.18408745,4190.75340416,4203.47002278,4202.90623011,4204.40401884,4136.9606644,4200.30316444,4151.74578876,4203.99817304,4196.02431924,92.3371452698
do_nothing,4211.50692969,4194.24609489,4203.57432158,4141.16202427,4190.20749364,4203.22960307,4202.1402544,4203.16953891,4136.95990712,4199.30534493,4151.62860939,4203.19510946,4195.14025734,99.6488179821
do_nothing,4210.82089823,4194.3628397,4203.08903281,4141.12823759,4189.83252183,4203.228749,4201.65639003,4202.23447431,4136.95959893,4198.66475056,4151.66711695,4202.79662597,4194.56483092,104.679841822
do_nothing,4210.43531329,4194.95779284,4202.9713321,4141.08301751,4189.63468697,4203.46581448,4201.45858589,4201.61193017,4136.95973714,4198.3846244,4151.85640232,4202.80872506,4194.30327087,107.824216392
do_nothing,4210.34324395,4195.99873532,4203.21267734,4141.02681657,4189.61444792,4203.93097824,4201.54128229,4201.30453024,4136.96030159,4198.45521397,4152.18666104,4203.22398117,4194.35237418,109.589164526
do_nothing,4210.52926192,4197.43960121,4203.7936109,4140.96024567,4189.76664314,4204.60665089,4201.88975014,4201.30459199,4136.96125595,4198.85437686,4152.64356754,4204.02198038,4194.70087448,110.57392367
do_nothing,4210.97021599,4199.22215775,4204.68462447,4140.8840703,4190.08079199,4205.46812671,4202.48071216,4201.59461943,4136.96254963,4199.54859071,4153.20879583,4205.17017121,4195.33006506,111.444804972
do_nothing,4211.63622117,4201.27806328,4205.84732262,4140.79920627,4190.54156644,4206.48446122,4203.28322814,4202.14809765,4136.96412013,4200.4943322,4153.86066923,4206.62509835,4196.21465351,112.907462106
do_nothing,4212.4918274,4203.53123509,4207.23584515,4140.70671428,4191.1294156,4207.61954859,4204.25981758,4202.93056319,4136.9658959,4201.63977753,4154.5749176,4208.33397826,4197.32381884,115.677425258
do_nothing,4213.49732776,4205.90044835,4208.79849979,4140.60779235,4191.8213199,4208.83336579,4205.3677852,4203.90091508,4136.9677994,4202.92676485,4155.32551627,4210.23656407,4198.62243466,120.450027387
do_nothing,4214.61016187,4208.30207976,4210.4795505,4140.50376576,4192.59164729,4210.08334421,4206.5607071,4205.01292294,4136.96975033,4204.29295009,4156.08557797,4212.26723715,4200.07241562,127.870877196
do_nothing,4215.7863676,4210.65290369,4212.22110133,4140.39607363,4193.41308024,4211.32582378,4207.79002966,4206.21688117,4136.97166892,4205.6740799,4156.8282671,4214.35725471,4201.63413966,138.508016576
do_nothing,4216.98203321,4212.87284696,4213.96501349,4140.28625212,4194.25757967,4212.51754052,4209.00672843,4207.46135307,4136.97347903,4207.00630169,4157.5277047,4216.43707702,4203.26789559,152.826840078
do_nothing,4218.15470248,4214.88760894,4215.65479208,4140.17591382,4195.09735131,4213.61709646,4210.16297162,4208.69494555,4136.97511112,4208.228429,4158.15983299,4218.43869467,4204.93530427,171.168750915
do_nothing,4219.26468807,4216.63105865,4217.23738091,4140.0667234,4195.90577951,4214.58636076,4211.21373149,4209.86805364,4136.9765048,4209.2840823,4158.70320998,4220.29787607,4206.60066273,193.734386245
do_nothing,4220.27625146,4218.04732761,4218.66480685,4139.96036948,4196.6582954,4215.39175226,4212.11828793,4210.93451485,4136.97761102,4210.12363004,4159.13970692,4221.95625756,4208.23216294,220.572071405
do_nothing,4221.15861331,4219.0925281,4219.89562046,4139.85853314,4197.33314835,4216.00535801,4212.84157119,4211.85311606,4136.97839364,4210.70586161,4159.45508522,4223.36320441,4209.80294167,251.571964754
do_nothing,4221.88676348,4219.73603911,4220.89608656,4139.76285367,4197.91205347,4216.40584725,4213.35529582,4212.58890037,4136.97883058,4210.99933425,4159.63943355,4224.47737868,4211.29192396,286.466138165
do_nothing,4222.44204729,4219.9613181,4221.64108722,4139.67489229,4198.38069269,4216.5791478,4213.63884469,4213.1142284,4136.9789143,4210.98334738,4159.68745099,4225.26796094,4212.68443043,324.834611513
do_nothing,4222.81251282,4219.76621363,4222.11471016,4139.59609508,4198.72905292,4216.51886089,4213.6798711,4213.40955776,4136.97865169,4210.6485126,4159.59856773,4225.71548554,4213.97252783,366.117133286
do_nothing,4222.9930129,4219.16277258,4222.31050736,4139.52775616,4198.95159182,4216.22640002,4213.47459752,4213.46391493,4136.97806339,4209.99690224,4159.37690067,4225.81226396,4215.1551123,409.630282313
do_nothing,4222.98506472,4218.17655408,4222.2314207,4139.47098253,4199.04722909,4215.71084979,4213.02780095,4213.27504617,4136.97718264,4209.04177578,4159.03104718,4225.56238587,4216.23772478,454.589264261
do_nothing,4222.79647862,4216.84548023,4221.8893835,4139.42666171,4199.0191685,4214.98855101,4212.35248687,4212.84924606,4136.97605358,4207.80689921,4158.573726,4224.9813039,4217.2321084,500.133598946
do_nothing,4222.44077564,4215.21826996,4221.30461777,4139.39543358,4198.8745626,4214.08242829,4211.46926563,4212.20087493,4136.97472918,4206.32548762,4158.02127928,4224.09502288,4218.15552703,545.355749124
do_nothing,4221.93642074,4213.35251719,4220.50465751,4139.37766736,4198.62403856,4213.02108634,4210.40545617,4211.35158768,4136.9732689,4204.63881533,4157.39305497,4222.93892905,4219.02987283,589.331633355
do_nothing,4221.30590443,4211.31248653,4219.52313747,4139.3734449,4198.28110863,4211.83770994,4209.19395254,4210.32930738,4136.9717361,4202.79455032,4156.71069257,4221.55630776,4219.88059857,631.151897338
do_nothing,4220.57471082,4209.16670953,4218.39839463,4139.38255098,4197.86149319,4210.56880992,4207.87189742,4209.16698606,4136.97019543,4200.84487932,4155.99733883,4219.99660861,4220.73551632,669.952792182
do_nothing,4219.77021304,4206.98547048,4217.17193559,4139.404471,4197.38238692,4209.25286346,4206.47921449,4207.90120287,4136.96871017,4198.84449733,4155.27682226,4218.31352578,4221.62350872,704.945526939
do_nothing,4218.92053816,4204.83827299,4215.88682678,4139.43839649,4196.86169991,4207.9288999,4205.05705594,4206.57065447,4136.9673397,4196.84853858,4154.57281611,4216.56296607,4222.57320135,735.443025049
do_nothing,4218.05344236,4202.79137659,4214.58606477,4139.48323848,4196.31730472,4206.63508355,4203.64622352,4205.21459527,4136.96613727,4194.91052651,4153.90801932,4214.80097901,4223.61164463,760.883115939
do_nothing,4217.19523381,4200.90548697,4213.31098229,4139.53764825,4195.7663184,4205.4073425,4202.28561964,4203.87128405,4136.96514791,4193.08041617,4153.30338318,4213.08172164,4224.76305195,780.847329718
do_nothing,4216.36977653,4199.23367428,4212.09974133,4139.60004535,4195.22444487,4204.27808718,4201.01078198,4202.57649084,4136.96440692,4191.40279649,4152.77740865,4211.45552611,4226.04763707,795.074631062
do_nothing,4215.59760283,4197.81958339,4210.98595911,4139.668652,4194.70539903,4203.27505643,4199.8525489,4201.36211293,4136.9639386,4189.9153103,4152.34553561,4209.96713138,4227.4805887,803.469620889
do_nothing,4214.89515712,4196.69598709,4209.99750645,4139.74153314,4194.22042918,4202.42032234,4198.83589662,4200.25494285,4136.96375562,4188.64733941,4152.01964122,4208.65413201,4229.07121412,806.104942295
do_nothing,4214.27418794,4195.88371988,4209.15551076,4139.81664133,4193.77794936,4201.72947893,4197.9789816,4199.27562434,4136.96385871,4187.61899025,4151.80765988,4207.54568731,4230.82227706,803.21784244
do_nothing,4213.74130005,4195.39101627,4208.47358897,4139.89186559,4193.38328842,4201.21103417,4197.2924138,4198.43782476,4136.96423699,4186.84040329,4151.71333295,4206.66152429,4232.72954796,795.201058088
do_nothing,4213.29767337,4195.21326362,4207.95732763,4139.96508283,4193.03855754,4200.86601928,4196.7787792,4197.74764549,4136.96486865,4186.31139804,4151.73609182,4206.01125759,4234.78157825,782.5884009
do_nothing,4212.93895072,4195.33316668,4207.60402037,4140.03421089,4192.74263382,4200.68782403,4196.43242184,4197.20328382,4136.96572207,4186.02145454,4151.87107409,4205.59404017,4236.95970401,766.035609833
do_nothing,4212.65529259,4195.72130907,4207.40266549,4140.09726165,4192.4912534,4200.66226115,4196.23948866,4196.79495311,4136.96675739,4185.95002259,4152.10926881,4205.39854893,4239.23827857,746.2972053
do_nothing,4212.43159348,4196.33708589,4207.33421957,4140.15239299,4192.27720476,4200.76785759,4196.17823312,4196.50506064,4136.96792827,4186.06714155,4152.43778383,4205.40330134,4241.58512789,724.200218609
do_nothing,4212.24785192,4197.12997264,4207.37209724,4140.19795823,4192.09061094,4200.97636483,4196.21956721,4196.30863646,4136.9691839,4186.3343464,4152.84022554,4205.577291,4243.96221773,700.615775502
do_nothing,4212.07968416,4198.04108782,4207.48290178,4140.23255197,4191.91928809,4201.25347562,4196.32784583,4196.1740009,4136.97047119,4186.70582973,4153.29717928,4205.88092321,4246.32651605,676.429579225
do_nothing,4211.89897024,4199.00500054,4207.62736685,4140.25505105,4191.74916778,4201.55972961,4196.46186216,4196.06365303,4136.97173694,4187.12982404,4153.7867767,4206.26722462,4248.63102951,652.512364493
do_nothing,4211.67461889,4199.9517296,4207.76148521,4140.26464956,4191.56476962,4201.85158541,4196.57602753,4195.93535721,4136.97293001,4187.55016417,4154.28533492,4206.68329449,4250.82598811,629.691380314
do_nothing,4211.37343578,4200.80887632,4207.83779563,4140.26088687,4191.34971108,4202.08263193,4196.62170459,4195.74339988,4136.97400331,4187.90798573,4154.76805035,4207.07195805,4252.86014762,608.723907633
do_nothing,4210.96107645,4201.50383046,4207.80679475,4140.24366784,4191.08724074,4202.20490761,4196.5486576,4195.43998358,4136.97491565,4188.14351186,4155.20972867,4207.37357616,4254.68217538,590.273728013
do_nothing,4210.4030621,4201.96598661,4207.61843626,4140.21327436,4190.76078123,4202.17029256,4196.30657981,4194.97672042,4136.97563323,4188.19787803,4155.5855313,4207.52795929,4256.24208117,574.891336522
do_nothing,4209.665833,4202.12890767,4207.22367617,4140.17036774,4190.35446776,4201.93193629,4195.84665447,4194.30618305,4136.97613087,4188.01494252,4155.87171718,4207.47632902,4257.49265198,562.998543499
do_nothing,4208.71781148,4201.93237292,4206.57602011,4140.1159811,4189.85366817,4201.44568165,4195.12310366,4193.3834672,4136.97639283,4187.54302969,4156.04635873,4207.16326661,4258.39084709,554.877943527
do_nothing,4207.53044401,4201.32425115,4205.63302748,4140.05150179,4189.24547068,4200.67144523,4194.09467798,4192.16771797,4136.97641323,4186.73655366,4156.09001047,4206.53858683,4258.89910959,550.667550742
do_nothing,4206.07919101,4200.26214381,4204.35772687,4139.97864337,4188.51912594,4199.57451445,4192.72604084,4190.62357107,4136.97619608,4185.55747306,4155.98631006,4205.55907579,4258.98655149,550.360711116
do_nothing,4204.34443275,4198.71474999,4202.71989937,4139.89940772,4187.66643107,4198.12672284,4190.98900321,4188.72246133,4136.97575491,4183.97653208,4155.72249318,4204.19003523,4258.62997287,553.811208104
do_nothing,4202.31226174,4196.66291326,4200.69718912,4139.81603779,4186.68204478,4196.30746714,4188.86356874,4186.44375452,4136.97511202,4181.97424936,4155.28980585,4202.40658102,4257.81468072,560.743282263
do_nothing,4199.97513407,4194.10031985,4198.27600513,4139.73096206,4185.56372434,4194.10453303,4186.33875482,4183.7756628,4136.97429738,4179.54162414,4154.68380141,4200.19465136,4256.53507895,570.766095135
do_nothing,4197.33235603,4191.03382773,4195.45218375,4139.64673209,4184.3124771,4191.51470054,4183.41316117,4180.71591062,4136.97334731,4176.68053713,4153.90451213,4197.55168889,4254.79500862,583.391995625
do_nothing,4194.39038571,4187.48341653,4192.23138726,4139.5659548,4182.93262094,4188.544105,4180.09526511,4177.27212469,4136.97230281,4173.40383242,4152.95648977,4194.48697107,4252.60782446,598.057807743
do_nothing,4191.16293427,4183.48175841,4188.6292212,4139.49122131,4181.43175003,4185.20833533,4176.4034299,4173.46192938,4136.97120787,4169.73507589,4151.84871261,4191.02157366,4249.99620206,614.148260367
do_nothing,4187.67085619,4179.07342067,4184.67106022,4139.42503433,4179.82060427,4181.53225805,4172.36562073,4169.31273741,4136.97010765,4165.7079949,4150.59436099,4187.18796342,4246.99167756,631.020621
do_nothing,4183.94182394,4174.31372082,4180.3915808,4139.36973625,4178.11284311,4177.5495632,4168.01883105,4164.86123526,4136.96904656,4161.36561386,4149.21046722,4183.0292277,4243.63393036,648.029572034
do_nothing,4180.00978863,4169.26726485,4175.83400731,4139.32743994,4176.32472736,4173.30203752,4163.40823071,4160.15257233,4136.9680666,4156.75910933,4147.71744977,4178.5979602,4239.96982689,664.551379706
do_nothing,4175.91423533,4164.00620891,4171.04908729,4139.2999644,4174.47471538,4168.83857956,4158.58605585,4155.23927323,4136.96720563,4151.94641767,4146.13854533,4173.95483384,4236.05225131,680.006455459
do_nothing,4171.69924858,4158.60829317,4166.09382053,4139.28877695,4172.58298301,4164.2139816,4153.61026955,4150.17990184,4136.96649599,4146.99063637,4144.49915565,4169.16690235,4231.93875567,693.879495371
do_nothing,4167.4124109,4153.1547041,4161.02997564,4139.29494384,4170.67087963,4159.48751231,4148.54303021,4145.03751535,4136.96596331,4141.95826722,4142.82612879,4164.30568238,4227.69006832,705.736498968
do_nothing,4163.10356436,4147.72782753,4155.92243611,4139.3190905,4168.76033545,4154.72134263,4143.4490127,4139.87795435,4136.96562557,4136.9173557,4141.14699665,4159.44507569,4223.36850449,715.238106515
do_nothing,4158.82347153,4142.40895933,4150.83742557,4139.36137279,4166.87323779,4149.97886435,4138.3936337,4134.76802288,4136.96549263,4131.93558483,4139.48919249,4154.6591979,4219.03632672,722.148845789
do_nothing,4154.62241819,4137.2760434,4145.84066791,4139.42145979,4165.03079634,4145.32295541,4133.44123818,4129.77361718,4136.96556589,4127.07838432,4137.87927273,4150.02018497,4214.75410556,726.342036549
do_nothing,4150.54880364,4132.40150675,4140.99554189,4139.49852876,4163.25291877,4140.81424896,4128.65330673,4124.9578661,4136.9658385,4122.40711594,4136.34216797,4145.59605041,4210.5791314,727.800256524
do_nothing,4146.64776694,4127.85025956,4136.36129189,4139.59127238,4161.55761855,4136.50946323,4124.08674415,4120.379346,4136.96629573,4117.97739372,4134.90048696,4141.44866631,4206.56392739,726.611425126
do_nothing,4142.95989717,4123.67792299,4131.99135511,4139.69791809,4159.96047631,4132.45984736,4119.79230745,4116.09043139,4136.96691578,4113.83759301,4133.57389575,4137.6319371,4202.75491018,722.960711425
do_nothing,4139.52007341,4119.92934024,4127.93186215,4139.81625942,4158.47417454,4128.70979449,4115.81322649,4112.13583769,4136.96767072,4110.02759562,4132.37859161,4134.19022893,4199.19124016,717.118620563
do_nothing,4136.35647634,4116.63741685,4124.22036221,4139.94369859,4157.1081231,4125.29566717,4112.18406355,4108.55140535,4136.96852781,4106.57780985,4131.32688798,4131.15710804,4195.90389645,709.425752903
do_nothing,4133.48980689,4113.82232498,4120.88481608,4140.07729977,4155.86818967,4122.24487261,4108.92984888,4105.36316558,4136.96945085,4103.50849437,4130.42692263,4128.55443034,4192.9150035,700.274856572
do_nothing,4130.93274029,4111.49109435,4117.94289076,4140.21385187,4154.75654593,4119.57521682,4106.06551922,4102.58671765,4136.97040172,4100.82940423,4129.68249714,4126.39181127,4190.23742748,690.090900351
do_nothing,4128.68963512,4109.63759966,4115.40157898,4140.34993998,4153.77163549,4117.29455678,4103.59567523,4100.22693587,4136.97134194,4098.53976637,4129.09305088,4124.66649135,4187.87465159,679.309974627
do_nothing,4126.7565083,4108.24294164,4113.25715584,4140.4820238,4152.90826594,4115.4007601,4101.51466261,4098.27801298,4136.97223421,4096.62858079,4128.65376848,4123.36359887,4185.82092995,668.357879176
do_nothing,4125.12127716,4107.27620649,4111.49547301,4140.60652192,4152.157822,4113.88197086,4099.80697057,4096.72383466,4136.97304385,4095.07523299,4128.35581504,4122.45679793,4184.06171163,657.629274716
do_nothing,4123.76426113,4106.69557701,4110.09257981,4140.71989998,4151.50859341,4112.71717048,4098.44793133,4095.53866925,4136.97374019,4093.85039354,4128.18668983,4121.90929696,4182.57431799,647.468258953
do_nothing,4122.65892658,4106.44975859,4109.01564983,4140.81876106,4150.9462064,4111.87701217,4097.40469393,4094.68814628,4136.97429766,4092.91717204,4128.1306853,4121.67518202,4181.32885021,638.151177128
do_nothing,4121.7728504,4106.47967438,4108.22418205,4140.89993635,4150.45414453,4111.32489956,4096.63743794,4094.13048855,4136.97469672,4092.23248531,4128.16943562,4121.70102831,4180.28929701,629.872393266
do_nothing,4121.06887088,4106.72037671,4107.6714368,4140.96057365,4150.01434129,4111.0182721,4096.10078448,4093.81795487,4136.97492454,4091.74859386,4128.28253615,4121.92773528,4179.41480817,622.733634351
do_nothing,4120.50638804,4107.10311589,4107.3060598,4140.99822167,4149.60782455,4110.91005438,4095.7453572,4093.6984446,4136.97497536,4091.4147563,4128.4482137,4122.29252362,4178.66109452,616.737379726
do_nothing,4120.04277101,4107.55750368,4107.07384146,4141.01090732,4149.21539119,4110.95022159,4095.51944145,4093.7172113,4136.97485057,4091.17894838,4128.64402614,4122.73102791,4177.98191224,611.784607624
do_nothing,4119.63482601,4108.01370586,4106.91955441,4140.99720348,4148.81828906,4111.0874304,4095.3706879,4093.81863035,4136.97455853,4090.98959183,4128.84756941,4123.17941573,4177.33058674,607.677036114
do_nothing,4119.2402765,4108.40459756,4106.78880926,4140.9562846,4148.39888305,4111.27066316,4095.2478057,4093.94796436,4136.9741141,4090.79723835,4129.03717002,4123.57646376,4176.66153028,604.123814005
do_nothing,4118.81920584,4108.66781583,4106.62986794,4140.88796774,4147.94128227,4111.45083325,4095.10219135,4094.05307087,4136.97353789,4090.55615524,4129.19254193,4123.86552272,4175.93170755,600.752435709
do_nothing,4118.33541351,4108.74764683,4106.39535479,4140.79273704,4147.4319065,4111.58230129,4094.88944157,4094.08599885,4136.97285536,4090.22576304,4129.29538792,4123.99630735,4175.10200517,597.123480175
do_nothing,4117.75763874,4108.59668997,4106.04380871,4140.67175003,4146.85997195,4111.62425451,4094.57070299,4094.00442451,4136.97209569,4089.77188044,4129.32992771,4123.92645345,4174.13846395,592.748614873
do_nothing,4117.06060913,4108.17724833,4105.54102479,4140.52682461,4146.21787876,4111.54190625,4094.11381706,4093.77288234,4136.97129055,4089.16773844,4129.28333739,4123.62279233,4173.01333753,587.111168079
do_nothing,4116.22587783,4107.46240294,4104.86114039,4140.36040643,4145.50148652,4111.30747855,4093.49422583,4093.36375409,4136.9704728,4088.39473333,4129.14608812,4123.06230249,4171.70594648,579.688462078
do_nothing,4115.24241971,4106.43673855,4103.98742926,4140.17551674,4144.71026736,4110.90093808,4092.69561201,4092.75798653,4136.96967514,4087.44289677,4128.91217501,4122.23270937,4170.20330363,569.975020967
do_nothing,4114.10696483,4105.09669928,4102.91277662,4139.97568199,4143.84733068,4110.31046394,4091.71025561,4091.94551762,4136.96892884,4086.31107014,4128.57923072,4121.13271599,4168.50049378,557.505722949
do_nothing,4112.82405621,4103.45056398,4101.63981902,4139.76484687,4142.91931789,4109.5326351,4090.53909849,4090.92540032,4136.96826251,4085.0067801,4128.14852226,4119.77185982,4166.60079863,541.877960211
do_nothing,4111.40582825,4101.51804291,4100.18074369,4139.54727338,4141.93616977,4108.57233443,4089.19151771,4089.70562293,4136.967701,4083.54582136,4127.62483262,4118.17000369,4164.51556588,522.771900085
do_nothing,4109.87151185,4099.32950954,4098.5567539,4139.32742912,4140.91077411,4107.44237589,4087.68481787,4088.30263505,4136.96726454,4081.95156238,4127.01623292,4116.35648108,4162.26382962,499.968008188
do_nothing,4108.24668235,4096.92489269,4096.79721844,4139.10986806,4139.85850522,4106.16287048,4086.0434621,4086.74059774,4136.96696799,4080.25399853,4126.33375377,4114.36892791,4159.87169697,473.361094961
do_nothing,4106.56227612,4094.35226614,4094.93853489,4138.89910762,4138.7966714,4104.76035546,4084.29806993,4085.05038586,4136.96682035,4078.48858593,4125.59096803,4112.25184366,4157.37152345,442.970277543
do_nothing,4104.85341073,4091.66618272,4093.02274688,4138.69950542,4137.74388999,4103.26671943,4082.48421856,4083.26837921,4136.96682454,4076.69489676,4124.80349964,4110.05493444,4154.80090664,408.944404189
do_nothing,4103.15805149,4088.92580927,4091.09596469,4138.51513962,4136.71941245,4101.71796265,4080.64109072,4081.43508631,4136.96697743,4074.91514339,4123.98847587,4107.83129751,4152.20153338,371.562662133
do_nothing,4101.51557341,4086.19292541,4089.20664611,4138.34969597,4135.74242398,4100.15283671,4078.81001797,4079.59365066,4136.96727002,4073.19262309,4123.16394151,4105.63551265,4149.61792016,331.230275274
do_nothing,4099.96527172,4083.52985359,4087.40379946,4138.20636481,4134.8313433,4098.61141137,4077.03297187,4077.78829287,4136.96768799,4071.57013824,4122.34825503,4103.5217079,4147.09608958,288.469387779
do_nothing,4098.54487641,4080.99739012,4085.73517334,4138.08775085,4134.00314849,4097.13361736,4075.35105678,4076.06274422,4136.9682123,4070.08844699,4121.55948647,4101.54166786,4144.68222686,243.905416309
do_nothing,4097.28912619,4078.65280628,4084.24549859,4137.99579819,4133.27275369,4095.7578145,4073.8030576,4074.45872634,4136.96882011,4068.78479847,4120.81483671,4099.74305055,4142.42136078,198.249329665
do_nothing,4096.22845477,4076.54798583,4082.97484518,4137.93173255,4132.65245973,4094.5194325,4072.42409262,4073.01452941,4136.96948572,4067.6916028,4120.13009651,4098.16777438,4140.35611172,152.276473307
do_nothing,4095.387838,4074.72776022,4081.95715284,4137.89602261,4132.15149874,4093.44972915,4071.24441732,4071.76373659,4136.97018164,4066.83528122,4119.51916204,4096.85062986,4138.52554649,106.802691237
do_nothing,4094.78584408,4073.22849493,4081.21898719,4137.88836182,4131.77568909,4092.57470605,4070.28841787,4070.73413608,4136.97087976,4066.23533415,4118.99362123,4095.81816134,4136.96417541,62.658603923
do_nothing,4094.433921,4072.07697144,4080.77856444,4137.90767167,4131.52721293,4091.91421685,4069.57382588,4069.94685429,4136.97155242,4065.90365673,4118.56242251,4095.0878533,4135.70112096,20.6629741169
do_nothing,4094.3359463,4071.28959836,4080.64507786,4137.95212711,4131.40452402,4091.48129616,4069.11117661,4069.41573494,4136.97217354,4065.84412197,4118.23163469,4094.66764389,4134.75948119,-18.4038701028
do_nothing,4094.48805418,4070.87197409,4080.8183478,4138.0192041,4131.40238882,4091.28173023,4068.90352445,4069.14697954,4136.97271959,4066.05244223,4118.00430337,4094.55577629,4134.1559037,-53.8255853538
do_nothing,4094.87874488,4070.8188112,4081.2888057,4138.10574888,4131.51205924,4091.31388261,4068.94642025,4069.1390554,4136.97317049,4066.5163102,4117.8804065,4094.74098692,4133.90037891,-84.9734029952
do_nothing,4095.48927059,4071.11422098,4082.03781068,4138.20806778,4131.72157095,4091.56877995,4069.22814676,4069.38286874,4136.97351034,4067.21581209,4117.85690855,4095.20301812,4133.99625355,-111.326898296
do_nothing,4096.29428246,4071.73234465,4083.03828577,4138.32203556,4132.01615667,4092.03045399,4069.73020069,4069.86219192,4136.97372793,4068.12409661,4117.92790979,4095.91343287,4134.44045828,-132.491182281
do_nothing,4097.26271369,4072.63830686,4084.25564974,4138.44321958,4132.37876017,4092.67652697,4070.42800222,4070.55432606,4136.97381714,4069.20827618,4118.08488466,4096.83669915,4135.22393619,-148.20989051
do_nothing,4098.35886532,4073.78945637,4085.64901026,4138.56701613,4132.7906326,4093.47901846,4071.29180568,4071.43097271,4136.97377702,4070.43052875,4118.31700028,4097.93150304,4136.3322522,-158.373490675
do_nothing,4099.54365424,4075.13684963,4087.17257479,4138.6887947,4133.23199011,4094.40534357,4072.2877779,4072.4592818,4136.97361176,4071.74936218,4118.61150399,4099.15224208,4137.74635788,-163.022586007
do_nothing,4100.77597678,4076.62692488,4088.77722751,4138.80404531,4133.6827087,4095.41946555,4073.37920478,4073.60303677,4136.97333044,4073.12099725,4118.95416645,4100.45064409,4139.44348059,-162.346049567
do_nothing,4102.01413742,4078.20330817,4090.412215,4138.90852394,4134.12303102,4096.48316111,4074.52778123,4074.8239332,4136.97294649,4074.50082085,4119.32976532,4101.77745275,4141.3981021,-156.673988708
do_nothing,4103.21728965,4079.80868841,4092.02687902,4138.99839051,4134.5342589,4097.55735306,4075.69493685,4076.08290433,4136.97247717,4075.84485834,4119.72259278,4103.08411928,4143.58298853,-146.465714833
do_nothing,4104.34683642,4081.38669778,4093.57237427,4139.07033474,4134.89940588,4098.60346379,4076.84314861,4077.34144526,4136.97194274,4077.11121361,4120.11697004,4104.32444037,4145.97023288,-132.293079902
do_nothing,4105.36773959,4082.88373414,4095.00330982,4139.12168469,4135.20378587,4099.58474263,4077.93719334,4078.56288905,4136.97136561,4078.26142709,4120.49775127,4105.45608595,4148.53227133,-114.81972656
do_nothing,4106.24969207,4084.25066629,4096.27925713,4139.15049412,4135.43551603,4100.4675217,4078.94529587,4079.71359037,4136.97076944,4079.26170503,4120.85080067,4106.44196518,4151.2428371,-94.7769663466
do_nothing,4106.96811225,4085.44436738,4097.36607276,4139.155605,4135.58591565,4101.22235728,4079.84013376,4080.76397669,4136.97017814,4080.08397881,4121.1634271,4107.25138611,4154.0778184,-72.9371386311
do_nothing,4107.50492698,4086.42902889,4098.2369914,4139.13668275,4135.64978637,4101.82501707,4080.59966539,4081.6894324,4136.96961494,4080.70675877,4121.42476257,4107.86097211,4157.01599136,-50.0854092888
do_nothing,4107.84911736,4087.17721511,4098.87345277,4139.0942224,4135.62556366,4102.25727883,4081.20775554,4082.47098788,4136.9691015,4081.11575468,4121.62607277,4108.25530688,4160.03960378,-26.9910429831
do_nothing,4107.99701049,4087.67062749,4099.26563628,4139.02952532,4135.51533424,4102.50751179,4081.65458023,4083.09579251,4136.96865704,4081.3042435,4121.76099034,4108.42729004,4163.13479165,-4.37922196273
do_nothing,4107.95230932,4087.90055804,4099.41268747,4138.94464697,4135.3247192,4102.57102051,4081.93680082,4083.55735935,4136.96829768,4081.2731738,4121.82566418,4108.3781953,4166.29181667,17.0955191375
do_nothing,4107.72586257,4087.86802152,4099.32263168,4138.84231754,4135.06262775,4102.45013937,4082.05750543,4083.85557729,4136.96803585,4081.031006,4121.81882126,4108.11743413,4169.50511999,36.8732210843
do_nothing,4107.33518546,4087.58356663,4099.01198119,4138.72583797,4134.7408908,4102.15407499,4082.02592347,4083.99649507,4136.96787985,4080.59329634,4121.74174018,4107.66203761,4172.77319416,54.5088585768
do_nothing,4106.80375052,4087.06677614,4098.50505198,4138.59895545,4134.37378824,4101.69850303,4081.85692639,4083.99188965,4136.96783365,4079.98204115,4121.59813883,4107.03587824,4176.0982813,69.6883249071
do_nothing,4106.16007484,4086.34547498,4097.83301584,4138.46572258,4133.97748674,4101.10493423,4081.57033484,4083.8586385,4136.96789679,4079.22480565,4121.39398103,4106.26866185,4179.48591141,82.2393994854
do_nothing,4105.4366368,4085.45467387,4097.03272156,4138.33034584,4133.56940826,4100.39987286,4081.19005814,4083.61792153,4136.96806451,4078.35366796,4121.13720982,4105.39472664,4182.94429959,92.1372440585
do_nothing,4104.66865989,4084.43528331,4096.14532607,4138.1970289,4133.16755122,4099.61379778,4080.74309833,4083.2942841,4136.96832803,4077.40401533,4120.83741692,4104.45169252,4186.48362556,99.5041813524
do_nothing,4103.89280572,4083.33263969,4095.21478243,4138.06981713,4132.78978809,4098.78000207,4080.2584555,4082.91459683,4136.96867494,4076.41323398,4120.50546005,4103.47900864,4190.11522241,104.603728605
do_nothing,4103.14582041,4082.19489039,4094.28623571,4137.9524491,4132.4531635,4097.93333219,4079.76597494,4082.50695113,4136.96908982,4075.4193376,4120.15304112,4102.5164495,4193.85070458,107.829081008
do_nothing,4102.4631794,4081.0712887,4093.4043804,4137.84822104,4132.17321711,4097.10887027,4079.29517842,4082.09953122,4136.96955489,4074.45958119,4119.7922598,4101.60261114,4197.7010665,109.686457353
do_nothing,4101.87777537,4080.01045182,4092.61183341,4137.75986933,4131.96335455,4096.34060567,4078.87412184,4081.71950294,4136.97005074,4073.56910647,4119.4351571,4100.77345762,4201.6757842,110.77392187
do_nothing,4101.41869139,4079.05863613,4091.94757612,4137.68947541,4131.83428799,4095.66014209,4078.52831942,4081.39195811,4136.97055718,4072.77966337,4119.09326416,4100.06096562,4205.78195151,111.756474293
do_nothing,4101.11009923,4078.25808396,4091.44551636,4137.63839668,4131.79356587,4095.09548614,4078.27977163,4081.13895008,4136.971054,4072.11844943,4118.77717084,4099.49191115,4210.02348178,113.338349177
do_nothing,4100.9703186,4077.64549467,4091.13321811,4137.60722588,4131.84520862,4094.66996088,4078.14612972,4080.97865258,4136.97152181,4071.60710466,4118.49612829,4099.08683794,4214.40040446,116.233579025
do_nothing,4101.01106895,4077.25066968,4091.03084186,4137.59578047,4131.98946374,4094.40128423,4078.14002513,4080.92466912,4136.97194275,4071.26089519,4118.25769842,4098.8592412,4218.90828346,121.135947771
do_nothing,4101.23693988,4077.09537727,4091.15033254,4137.60312214,4132.22269021,4094.30084682,4078.2685857,4080.98551511,4136.97230122,4071.08811257,4118.06746198,4098.81499391,4223.53778131,128.689488629
do_nothing,4101.64510014,4077.19247652,4091.49488488,4137.62760555,4132.53737766,4094.37321806,4078.5331546,4081.164289,4136.97258438,4071.0897097,4117.92879531,4098.95203473,4228.27438852,139.460663912
do_nothing,4102.22525809,4077.54533307,4092.05870735,4137.66695415,4132.9223016,4094.61590128,4078.92922042,4081.45854237,4136.97278266,4071.25918647,4117.84272351,4099.26032853,4233.09833331,153.91330437
do_nothing,4102.95987898,4078.14755055,4092.82709661,4137.71835963,4133.3628114,4095.0193504,4079.44655991,4081.86035228,4136.97289002,4071.58273081,4117.80785592,4099.72210194,4237.98468093,172.387282715
do_nothing,4103.8246562,4078.98303227,4093.77682435,4137.77860095,4133.84124311,4095.56725105,4080.06958751,4082.35659276,4136.97290416,4072.03961298,4117.82040674,4100.31234797,4242.90362605,195.081754419
do_nothing,4104.78922557,4080.02637695,4094.87682779,4137.84417792,4134.33744533,4096.23705885,4080.77789936,4082.92939616,4136.9728265,4072.60282271,4117.87430119,4100.99958594,4247.82097533,222.043625791
do_nothing,4105.81810353,4081.24360217,4096.08918545,4137.91145386,4134.82940214,4097.00077735,4081.54699331,4083.55678922,4136.97266204,4073.23993199,4117.96136467,4101.74685514,4252.69881061,253.161711449
do_nothing,4106.87182241,4082.59317763,4097.37034931,4137.97680164,4135.29393429,4097.82594902,4082.34914097,4084.21348367,4136.97241913,4073.91415835,4118.07158935,4102.51291336,4257.49631671,288.166826622
do_nothing,4107.90822869,4084.02733994,4098.67259561,4138.03674757,4135.70745643,4098.67682408,4083.15438259,4084.87179576,4136.97210902,4074.58559738,4118.19347047,4103.25360429,4262.17075151,326.637833034
do_nothing,4108.88390311,4085.4936499,4099.94564761,4138.08810754,4136.04676621,4099.51566534,4083.93161151,4085.50266508,4136.97174537,4075.21258679,4118.31440134,4103.9233511,4266.67852978,368.013430776
do_nothing,4109.75565627,4086.93674347,4101.13841637,4138.12811047,4136.2898389,4100.30414204,4084.64971115,4086.07673859,4136.97134369,4075.75315912,4118.42111463,4104.4767286,4270.97638723,411.609271353
do_nothing,4110.48204902,4088.30021953,4102.20079992,4138.1545044,4136.41660079,4101.00476187,4085.27870526,4086.5654835,4136.97092065,4076.16653693,4118.5001551,4104.87006237,4275.02258698,456.63976563
do_nothing,4111.02488444,4089.52860109,4103.08547764,4138.16564126,4136.40965405,4101.58228867,4085.790881,4086.94229014,4136.97049339,4076.41462141,4118.53836803,4105.0630014,4278.77812762,502.243782663
do_nothing,4111.35061793,4090.56930227,4103.74963551,4138.16053705,4136.25492742,4102.00509315,4086.16184455,4087.18352595,4136.97007888,4076.46342547,4118.52338673,4105.02001099,4282.207911,547.513289839
do_nothing,4111.43163376,4091.37453198,4104.1565593,4138.13890527,4135.94222871,4102.24638576,4086.37147069,4087.26950214,4136.96969321,4076.284403,4118.44410224,4104.71173432,4285.28182825,591.523876603
do_nothing,4111.24734011,4091.90306636,4104.27703684,4138.10116214,4135.46567853,4102.28528472,4086.40471119,4087.18531727,4136.96935099,4075.85562885,4118.29109901,4104.11617491,4287.97572452,633.366035698
do_nothing,4110.7850403,4092.12182534,4104.09051678,4138.04840378,4134.82400819,4102.10767723,4086.25223158,4086.92154571,4136.96906482,4075.16278811,4118.05704116,4103.2196575,4290.27220658,672.17604986
do_nothing,4110.04054514,4092.00719487,4103.58597936,4137.98235637,4134.02070958,4101.7068395,4085.91085211,4086.47474392,4136.96884478,4074.19993857,4117.73699535,4102.01753179,4292.16126183,707.165350673
do_nothing,4109.01849992,4091.54604426,4102.76248508,4137.90530141,4133.06402963,4101.08378985,4085.38377552,4085.84775379,4136.96869815,4072.97001667,4117.32867811,4100.51459144,4293.64066303,737.647278628
do_nothing,4107.73240924,4090.73639795,4101.62937787,4137.81997929,4131.96680751,4100.24735943,4084.68059194,4085.04978886,4136.96862915,4071.48506484,4116.83261771,4098.7251901,4294.71613964,763.060275021
do_nothing,4106.20435348,4089.58773279,4100.20613195,4137.72947515,4130.74615787,4099.21397545,4083.81705908,4084.09629688,4136.96863885,4069.76616663,4116.25222344,4096.67304608,4295.40130445,782.986673106
do_nothing,4104.46440195,4088.12088491,4098.52184421,4137.6370916,4129.42300904,4098.00716315,4082.81466367,4083.00859996,4136.96872516,4067.84308557,4115.59375792,4094.39073803,4295.71733192,797.166424134
do_nothing,4102.5497391,4086.36756433,4096.61438732,4137.54621344,4128.0215103,4096.65678391,4081.69997826,4081.81332164,4136.96888303,4065.75361318,4114.86621207,4091.91890451,4295.69239341,805.505286581
do_nothing,4100.50353141,4084.36948998,4094.52925163,4137.46016991,4126.56832745,4095.19803781,4080.50383517,4080.54161848,4136.96910469,4063.54264254,4114.08108502,4089.30517115,4295.36086327,808.077214865
do_nothing,4098.37357379,4082.17717248,4092.31811645,4137.38210014,4125.09185056,4093.67026865,4079.26034645,4079.22824164,4136.96938001,4061.26099349,4113.25207589,4086.60283911,4294.76231836,805.120899305
do_nothing,4096.21076282,4079.84838539,4090.03720162,4137.31482739,4123.62134128,4092.11561809,4078.00580521,4077.91046094,4136.96969696,4058.96402586,4112.39469682,4083.86937792,4293.94036155,797.030625231
do_nothing,4094.06745248,4077.44637825,4087.74545967,4137.26074729,4122.18604991,4090.57758163,4076.77750855,4076.62688967,4136.97004212,4056.71008548,4111.52582046,4081.16477302,4292.94130716,784.341827769
do_nothing,4091.99575262,4075.0378949,4085.50267514,4137.22173467,4120.81433367,4089.09952404,4075.61254587,4075.41625286,4136.97040123,4054.55883488,4110.6631774,4078.54978408,4291.81277203,767.711910292
do_nothing,4090.04583407,4072.69106838,4083.36754141,4137.19907248,4119.53280827,4087.72321328,4074.54659821,4074.31614476,4136.97075981,4052.56952511,4109.82482114,4076.08417353,4290.60222015,747.897062007
do_nothing,4088.26430429,4070.47326856,4081.39578652,4137.19340555,4118.36556338,4086.48743104,4073.61279425,4073.36182176,4136.97110369,4050.79926816,4109.02857958,4073.82496593,4289.35551137,725.725949142
do_nothing,4086.69271511,4068.44897997,4079.63841687,4137.20472072,4117.33347022,4085.4267133,4072.84066593,4072.58507615,4136.97141959,4049.30136862,4108.29151243,4071.82479738,4288.11550478,702.071259659
do_nothing,4085.36625881,4066.67778569,4078.14014285,4137.23235362,4116.45360548,4084.57026748,4072.25524244,4072.01323243,4136.97169564,4048.1237715,4107.6293936,4070.13041108,4286.92076559,677.82014809
do_nothing,4084.31270116,4065.21252807,4076.93804223,4137.2750216,4115.73881084,4083.94110345,4071.87631456,4071.66830256,4136.97192176,4047.30767784,4107.05623645,4068.7813491,4285.80442092,653.844653107
do_nothing,4083.55158998,4064.09770934,4076.06050769,4137.33088092,4115.19740163,4083.55540603,4071.71789383,4071.56632972,4136.97209011,4046.88637361,4106.58387809,4067.80888275,4284.79320402,630.973146991
