label,COUNTER,INTERPOLATED,AF3,F7,F3,FC5,T7,P7,O1,O2,P8,T8,FC6,F4,F8,AF4,RAW_CQ,GYROX,GYROY,MARKER,SYNC,TIME_STAMP_s,TIME_STAMP_ms,CQ_AF3,CQ_F7,CQ_F3,CQ_FC5,CQ_T7,CQ_P7,CQ_O1,CQ_O2,CQ_P8,CQ_T8,CQ_FC6,CQ_F4,CQ_F8,CQ_AF4,CQ_CMS,CQ_DRL
off_to_on,4111.90627788,4111.81970123,4139.00636337,4134.48912839,4103.55308939,4115.30990992,4128.25215026,4122.42465459,4136.21499665,4138.59026743,4087.47740917,4114.97413835,4092.21871665,-79.8192830875
off_to_on,4109.703073,4109.07537194,4138.69458165,4134.55272427,4100.71750178,4111.14802803,4122.5958933,4120.55135808,4136.18070792,4136.09860994,4079.51826681,4110.24992619,4086.46537878,-96.8149574164
off_to_on,4106.64025457,4105.26206367,4138.32390168,4134.63328017,4096.62927358,4105.21664593,4114.58781685,4117.90691878,4136.14174943,4132.34022239,4070.41367811,4103.61070217,4079.3034463,-110.238146751
off_to_on,4102.76845573,4100.44658651,4137.89898109,4134.72593993,4091.36299257,4097.63268815,4104.38725678,4114.53903155,4136.09863218,4127.40281299,4060.32785639,4095.18678356,4070.86972338,-119.87730444
off_to_on,4098.14637383,4094.70541121,4137.42398536,4134.82546862,4085.00466607,4088.52866763,4092.17438107,4110.50278974,4136.05197812,4121.38718475,4049.43081866,4085.12695379,4061.31172515,-125.623725778
off_to_on,4092.83704089,4088.1199426,4136.90228307,4134.92644071,4077.64627138,4078.04462709,4078.13920837,4105.85721996,4136.00251164,4114.40183948,4037.89098361,4073.58982045,4050.78014489,-127.476103407
off_to_on,4086.90429646,4080.77206606,4136.33620548,4135.02342791,4069.38062712,4066.32057749,4062.471272,4100.66197884,4135.95104785,4106.55777019,4025.86834645,4060.73562192,4039.42181809,-125.541027069
off_to_on,4080.40964548,4072.74019567,4135.72688497,4135.11118004,4060.29684952,4053.48981832,4045.35045677,4094.97438207,4135.89847775,4097.96368731,4013.50853802,4046.71889081,4027.37352288,-120.029358371
off_to_on,4073.40965832,4064.09602027,4135.07418282,4135.18479235,4050.47661959,4039.67346812,4026.93946231,4088.84691465,4135.84575038,4088.72189463,4000.93802706,4031.68232661,4014.75690662,-111.248563966
off_to_on,4065.95403699,4054.90210164,4134.37671186,4135.23985391,4039.99143796,4024.97646122,4007.3782507,4082.32534255,4135.79385244,4078.9249916,3988.26066419,4015.75215686,4001.67476414,-99.5912487976
off_to_on,4058.08443232,4045.21042969,4133.63195496,4135.27257263,4028.90098637,4009.48518232,3986.78072325,4075.44751116,4135.74378557,4068.65353199,3975.55569697,3999.03518032,3988.20881908,-85.5202909349
off_to_on,4049.83405378,4035.06198467,4132.83647423,4135.27987346,4017.25265152,3993.26681796,3965.23374742,4068.24287754,4135.69654221,4057.97471626,3962.87731091,3981.61759039,3974.41907837,-69.55112841
off_to_on,4041.2280688,4024.48730035,4131.98620167,4135.25946757,4005.08220193,3976.37040907,3942.79852588,4060.73278285,4135.65308051,4046.94213974,3950.2556744,3963.56557902,3960.34474633,-52.2318727394
off_to_on,4032.28474477,4013.50796661,4131.07679671,4135.2098916,3992.41554476,3958.82949609,3919.51417259,4052.93143064,4135.61429922,4035.59656388,3937.69939191,3944.92762443,3946.00660335,-34.1220173891
off_to_on,4023.01724669,4002.13895913,4130.10405284,4135.13051727,3979.27143112,3940.66616243,3895.40324216,4044.84749919,4135.58101334,4023.96762534,3925.199201,3925.73827718,3931.41067893,-15.7705710892
off_to_on,4013.43596801,3990.39163977,4129.06433255,4135.02153257,3965.66492737,3921.89620817,3870.47885401,4036.48628136,4135.55393131,4012.07635088,3912.73269003,3906.02318091,3916.55298388,2.30552548593
off_to_on,4003.5512443,3978.27723578,4127.95500804,4134.88389689,3951.61142909,3902.53512596,3844.7529681,4027.8522182,4135.53363443,3999.9383066,3900.26976622,3885.805001,3901.42501414,19.6418458636
off_to_on,3993.37627899,3965.81058137,4126.77488457,4134.71927319,3937.1309657,3882.60450948,3818.24530779,4018.9516712,4135.52055911,3987.56717973,3887.77857019,3865.10988922,3886.01970176,35.8449695497
off_to_on,3982.93009918,3953.01389082,4125.52458364,4134.5299409,3922.25252775,3862.13850149,3790.99239117,4009.79576556,4135.51498245,3974.97857126,3875.23151505,3843.9740861,3870.33746808,50.6082699016
off_to_on,3972.24035786,3939.92033128,4124.20686459,4134.31869368,3907.01814727,3841.18988639,3763.05612566,4000.40313321,4135.51701172,3962.1937692,3862.61112517,3822.45025719,3854.39203124,63.7243469985
off_to_on,3961.3458063,3926.57717255,4122.82686617,4134.08872644,3891.48647326,3819.83544893,3734.531441,3990.80238864,4135.52657795,3949.24327472,3849.91536246,3800.61317418,3838.21563402,75.0935804234
off_to_on,3950.29827701,3913.04831255,4121.3922524,4133.8435162,3875.73560911,3798.18025666,3705.55248217,3981.0341837,4135.54343422,3936.16986762,3837.16215496,3778.56438491,3821.86338813,84.7284240699
off_to_on,3939.16404184,3899.41600752,4119.91325169,4133.58670123,3859.86501437,3776.36057571,3676.29695242,3971.15270748,4135.56715863,3923.03102051,3824.39288199,3756.43556641,3805.41647459,92.7532277116
off_to_on,3928.02444016,3885.78167445,4118.4025827,4133.32196286,3843.99631873,3754.54519553,3646.98828478,3961.22652374,4135.59716232,3909.90050379,3811.67462072,3734.39031885,3788.98399596,99.3995435742
off_to_on,3916.97570754,3872.26567796,4116.87526532,4133.05291399,3828.27294811,3732.93501451,3617.89542355,3951.33866974,4135.63270223,3896.86906223,3799.10101784,3712.62423309,3772.7033402,104.997053937
off_to_on,3906.12797325,3859.00606183,4115.34832054,4132.78299777,3812.85852013,3711.76082196,3589.33011054,3941.58597526,4135.67289874,3884.04408956,3786.79171408,3691.36314636,3756.73898692,109.960429013
off_to_on,3895.60343448,3846.15623531,4113.84036763,4132.51539966,3797.93402507,3691.27929802,3561.64168875,3932.07759726,4135.71675758,3871.5482758,3774.89031614,3670.85958589,3741.27975893,114.772585914
off_to_on,3885.53375381,3833.88167323,4112.37113203,4132.25297492,3783.69386624,3671.76733775,3535.20955326,3922.93280276,4135.7631957,3859.51725223,3763.56097619,3651.38748521,3726.53459361,119.964964605
off_to_on,3876.05676253,3822.35573485,4110.96088131,4131.99819319,3770.34088808,3653.51488462,3510.43348918,3914.27806726,4135.81107023,3848.09630638,3752.98370107,3633.23533765,3712.72697611,126.095559719
off_to_on,3867.31258534,3811.75474757,4109.62980978,4131.75310099,3758.08056846,3636.81652922,3487.72223506,3906.24358792,4135.85920998,3837.43628316,3743.34856961,3616.69802483,3700.08823708,133.725541171
off_to_on,3859.43932923,3802.25253685,4108.39739507,4131.5193021,3747.11459195,3621.96218825,3467.48069452,3898.95933859,4135.90644819,3827.6888258,3734.84908535,3602.0676202,3688.8499698,143.395357515
off_to_on,3852.56850171,3794.01461166,4107.28175131,4131.29795562,3737.6340531,3609.22722531,3450.09628576,3892.55081566,4135.95165588,3819.00114159,3727.67493209,3589.62351917,3679.23586381,155.601243209
off_to_on,3846.82033851,3787.19223395,4106.29900437,4131.08979055,3729.8125599,3598.86240746,3435.9249665,3887.13464077,4135.99377446,3811.510501,3722.00442931,3579.62228375,3671.45328218,170.773043311
off_to_on,3842.29922905,3781.9166112,4105.46271373,4130.89513545,3723.79951859,3591.0841071,3425.2774979,3882.81419611,4136.0318466,3805.33869462,3717.9970027,3572.28761131,3665.68492589,189.254225021
off_to_on,3839.08942828,3778.29345111,4104.78336455,4130.71396136,3719.71388013,3586.06515866,3418.40651461,3879.67547095,4136.06504441,3800.58667957,3715.78598893,3567.80084153,3662.08093203,211.284866377
off_to_on,3837.25123611,3776.39810873,4104.26795072,4130.54593539,3717.63861587,3583.92676123,3415.49494781,3877.78329336,4136.09269387,3797.32964633,3715.47208541,3566.2924034,3660.75174022,236.988303041
off_to_on,3836.8178109,3776.27153731,4103.91966665,4130.39048263,3717.61616667,3584.73178498,3416.64630615,3877.17810963,4136.11429464,3795.61272723,3717.11773299,3567.83457605,3661.76203737,266.36197896
off_to_on,3837.79276198,3777.91722753,4103.73772159,4130.24685324,3719.64507624,3588.47978994,3421.87725645,3877.87345537,4136.12953469,3795.44754955,3720.74268523,3572.43589374,3665.12605312,299.272889147
off_to_on,3840.14863897,3781.29928507,4103.7172857,4130.1141919,3723.67797703,3595.10400478,3431.11286615,3879.85423842,4136.13829894,3796.80980981,3726.32097282,3580.03746894,3670.80443055,335.457828944
off_to_on,3843.82640307,3786.34175562,4103.84957203,4129.99160663,3729.6210482,3604.47044152,3444.18477417,3883.07592472,4136.1406718,3799.63801091,3733.77941829,3590.51143958,3678.70283965,374.528482375
off_to_on,3848.73592989,3792.92926107,4104.12205337,4129.87823405,3737.3350106,3616.37924312,3460.8324497,3887.4646854,4136.13693321,3803.83346256,3742.99779586,3603.66166923,3688.67243644,415.981199792
off_to_on,3854.75755505,3800.90896162,4104.51880764,4129.77329838,3746.6376662,3630.56827676,3480.70758291,3892.91852759,4136.12754836,3809.26159727,3753.81066716,3619.22674568,3700.5122017,459.21113743
off_to_on,3861.74463437,3810.09380885,4105.02098005,4129.67616151,3757.3079302,3646.71890032,3503.38153188,3899.30939425,4136.1131513,3815.75460355,3766.01085757,3636.88523661,3713.97312135,503.530265237
off_to_on,3869.52705208,3820.26700545,4105.60734638,4129.58636215,3769.09124679,3664.46374551,3528.35563153,3906.48618098,4136.09452313,3823.11532356,3779.35447347,3656.26307503,3728.76410017,548.188602678
off_to_on,3877.91557374,3831.18754124,4106.25495707,4129.5036424,3781.7062252,3683.39628213,3555.07405801,3914.27858203,4136.07256535,3831.12231047,3793.5672999,3676.94286456,3744.55943313,592.397920977
off_to_on,3886.70690753,3842.5966326,4106.93983924,4129.42796053,3794.85228405,3703.08185772,3582.93884074,3922.50164553,4136.04826953,3839.53588988,3808.35236458,3698.47481953,3761.00759767,635.357057242
off_to_on,3895.68930965,3854.22485719,4107.63773151,4129.35948974,3808.21805193,3723.06984767,3611.32652832,3930.96088925,4136.02268423,3848.1050253,3823.39840882,3720.38898986,3777.74107804,676.277924418
off_to_on,3904.64854748,3865.79974703,4108.32482491,4129.29860288,3821.49024097,3742.90650589,3639.60594716,3939.45780607,4135.99688034,3856.57475009,3838.38897058,3742.20836782,3794.38689072,714.411275105
off_to_on,3913.37401911,3877.05358326,4108.97848351,4129.24584411,3834.36269013,3762.14807631,3667.15644521,3947.79557188,4135.97191613,3864.69389963,3853.01176048,3763.4624361,3810.5774505,749.071287902
off_to_on,3921.66482018,3887.73112547,4109.57791864,4129.20188876,3846.5452658,3780.37371199,3693.38598942,3955.7847591,4135.9488029,3872.2228604,3866.96799898,3783.70069439,3825.96139953,779.658089854
off_to_on,3929.3355486,3897.59700769,4110.10479279,4129.16749349,3857.77231012,3797.19775138,3717.74848515,3963.24885717,4135.92847272,3878.94104743,3879.98138225,3802.50569688,3840.21401952,805.677405673
off_to_on,3936.22164572,3906.44254293,4110.54373174,4129.14343935,3867.8103412,3812.28092152,3739.75970893,3970.02940665,4135.91174895,3884.65383034,3891.80635692,3819.50514621,3853.0468592,826.756632268
off_to_on,3942.18408744,3914.09169751,4110.88272731,4129.13047044,3876.46473482,3825.34007391,3759.01129257,3975.99056653,4135.89932091,3889.19864976,3902.23540841,3834.38262018,3864.2162358,842.656771734
off_to_on,3947.11326151,3920.40602517,4111.11341733,4129.12923137,3883.58515245,3836.15610995,3775.18226451,3981.02295455,4135.89172317,3892.45009779,3911.10510359,3846.88655451,3873.53030912,853.27981024
off_to_on,3950.93189502,3925.28838715,4111.23123381,4129.14020652,3889.06952373,3844.57981615,3788.0477405,3985.04662569,4135.88932058,3894.32377596,3918.30067364,3856.83716531,3880.85447707,858.671297964
off_to_on,3953.59692907,3928.68532605,4111.23541578,4129.1636639,3892.86644215,3850.53540184,3797.48445509,3988.01308447,4135.89229915,3894.77878922,3923.75897451,3864.1310659,3886.11490046,859.01806177
off_to_on,3955.10027286,3930.58800763,4111.1288877,4129.19960654,3894.97588595,3854.02161036,3803.47293413,3989.90625999,4135.90066339,3893.818782,3927.46971854,3868.74341019,3889.30002878,854.641161033
off_to_on,3955.46840642,3931.03169155,4110.9180097,4129.24773356,3895.44823221,3855.11035497,3806.09622026,3990.74240732,4135.91423988,3891.49147196,3929.47492857,3870.72747595,3890.46006462,845.984369424
off_to_on,3954.76083729,3930.0937397,4110.61221011,4129.30741311,3894.38158672,3853.94291027,3805.53517616,3990.56893363,4135.93268714,3887.8866857,3929.8666237,3870.21168333,3889.70437176,833.598624927
off_to_on,3953.06745302,3927.89021731,4110.22351524,4129.37766856,3891.9175059,3850.72376816,3802.06050055,3989.46218244,4135.95551107,3883.13294932,3928.78280287,3867.39412461,3887.1968968,818.123032657
off_to_on,3950.50484592,3924.57118688,4109.76599476,4129.45717902,3888.23523914,3845.71234267,3796.02169933,3987.52424232,4135.98208549,3877.39273453,3926.40184819,3862.53476089,3883.14973912,800.263125307
off_to_on,3947.21172123,3920.31483935,4109.25514443,4129.54429431,3883.54466983,3839.2127817,3787.83335781,3984.87887943,4136.01167674,3870.85650719,3922.93552395,3855.94551953,3877.81506629,780.767178104
off_to_on,3943.3435329,3915.32064893,4108.70723007,4129.63706444,3878.078181,3831.56221285,3777.9591566,3981.66672357,4136.04347116,3863.73576946,3918.62079879,3847.97860116,3871.47563223,760.401435813
off_to_on,3939.06652128,3909.80177616,4108.13861806,4129.73328239,3872.08171419,3823.117813,3766.89416071,3978.0398662,4136.07660445,3856.25532649,3913.71076504,3839.01337392,3864.43420963,739.925138242
off_to_on,3934.55135256,3903.976976,4107.56511819,4129.830539,3865.80532515,3814.24314229,3755.14598346,3974.1560521,4136.11019124,3848.6450419,3908.46496799,3829.44229204,3857.00229458,720.066226902
off_to_on,3929.96657876,3898.06229146,4107.00136377,4129.92628777,3859.49356537,3805.29422003,3743.21547977,3970.1726651,4136.14335395,3841.13137044,3903.13948621,3819.65632025,3849.48847454,701.49857528
off_to_on,3925.47214825,3892.26282624,4106.46025253,4130.01791741,3853.37603162,3796.60583923,3731.57765381,3966.24071941,4136.17524943,3833.92896952,3897.97711987,3810.03037362,3842.18687148,684.821507451
off_to_on,3921.21319952,3886.76489261,4105.95246849,4130.10282917,3847.65842626,3788.4786167,3720.6634708,3962.49907169,4136.20509255,3827.23269272,3893.19804611,3800.90929084,3835.36607519,670.542259249
off_to_on,3917.31436503,3881.72882108,4105.48610181,4130.17851633,3842.51445883,3781.16725816,3710.84324135,3959.06906442,4136.23217597,3821.21025702,3888.99128812,3792.59484821,3829.25897079,659.061903097
off_to_on,3913.87479717,3877.2826991,4105.06637899,4130.24264264,3838.07889401,3774.87048032,3702.41219968,3956.04979868,4136.25588549,3815.99585345,3885.50731963,3785.33429113,3824.05383663,650.665112315
off_to_on,3910.9641064,3873.51727543,4104.69551166,4130.293117,3834.4420145,3769.72297914,3695.57882602,3953.51421404,4136.27571087,3811.68493787,3882.852088,3779.31081231,3819.88704744,645.513992785
off_to_on,3908.61937143,3870.48222875,4104.37266686,4130.32816138,3831.64572026,3765.78976439,3690.45637105,3951.50612658,4136.29125186,3808.33039811,3881.08269095,3774.63634137,3816.83766373,643.646068048
off_to_on,3906.84334587,3868.18395247,4104.09405781,4130.34636967,3829.68142965,3763.06309996,3687.05793094,3950.03834333,4136.30221979,3805.94024634,3880.2048845,3771.34693343,3814.92412405,644.97637398
off_to_on,3905.60394496,3866.58495647,4103.8531491,4130.34675485,3828.48988625,3761.46219913,3685.29529831,3949.09193479,4136.30843492,3804.4769343,3880.17253604,3769.40095577,3814.10318443,649.303499641
off_to_on,3904.83505176,3865.60493015,4103.64096663,4130.32878285,3827.9629078,3760.83572686,3684.98168197,3948.61670663,4136.30982019,3803.85833356,3880.88906781,3768.68017548,3814.27117129,656.319295511
off_to_on,3904.43863551,3865.1234527,4103.44649869,4130.29239133,3827.94704463,3760.96706055,3685.83824971,3948.53286993,4136.30639194,3803.96036609,3882.21086488,3768.99374937,3815.26753222,665.621858528
off_to_on,3904.28812752,3864.9842771,4103.25717168,4130.23799284,3828.24904502,3761.58215966,3687.50430901,3948.73386591,4136.29824843,3804.62121255,3883.95255,3770.08501403,3816.88058659,676.73130394
off_to_on,3904.23295348,3865.00105654,4103.0593814,4130.16646172,3828.64295754,3762.35979706,3689.55080571,3949.09025914,4136.28555684,3805.64696903,3885.89395806,3771.64087211,3818.85529695,689.107756087
off_to_on,3904.10407701,3864.96432778,4102.83905934,4130.07910532,3828.87863786,3762.94381396,3691.49669494,3949.45457293,4136.26853966,3806.81856957,3887.78857834,3773.30347435,3820.90280693,702.170936556
off_to_on,3903.72036999,3864.64951723,4102.58225234,4129.97762007,3828.69137222,3762.95698082,3692.82762809,3949.66690459,4136.24746124,3807.89974352,3889.37317514,3774.68380894,3822.71142292,715.320696149
off_to_on,3902.89559159,3863.82569444,4102.27569395,4129.86403399,3827.81228377,3762.01598063,3693.01630608,3949.56112716,4136.22261509,3808.64573628,3890.37824936,3775.37673437,3823.95865985,727.957824517
off_to_on,3901.44573184,3862.26476603,4101.90734667,4129.74063739,3825.97915375,3759.74698164,3691.54377821,3948.97146,4136.19431266,3808.8124902,3890.53896722,3774.97693156,3824.32392645,739.50447384
off_to_on,3899.19645848,3859.75078155,4101.46689542,4129.60990411,3822.9472678,3755.80123638,3687.92091973,3947.73917393,4136.16287383,3808.16596185,3889.60615877,3773.0952088,3823.50139578,749.423544869
off_to_on,3895.99039726,3856.08901371,4100.94617483,4129.47440612,3818.49989013,3749.87013348,3681.70930276,3945.71918794,4136.12861957,3806.49124207,3887.35697978,3769.37457085,3821.21259345,757.236403575
off_to_on,3891.69397837,3851.11447834,4100.33951591,4129.33672443,3812.45797538,3741.69913984,3672.54068559,3942.78631538,4136.09186683,3803.60114847,3883.60483681,3763.50546343,3817.21823988,762.538330432
off_to_on,3886.20359319,3844.69957571,4099.64400036,4129.19935939,3804.68875017,3731.1001032,3660.13438497,3938.84092661,4136.05292564,3799.34397466,3878.20819733,3755.23962621,3811.32890491,765.011160813
off_to_on,3879.4508273,3836.76056239,4098.85961487,4129.06464361,3795.11283225,3717.96143771,3644.31186325,3933.81381406,4136.01209835,3793.61010773,3871.07794251,3744.40203109,3803.41407182,764.43265842
off_to_on,3871.40656572,3827.26260174,4097.98930123,4128.93466024,3783.70960417,3702.25578626,3625.00795501,3927.67007165,4135.96968063,3786.33726288,3862.18297028,3730.90044534,3793.40926109,760.682272872
off_to_on,3862.08380414,3816.22318881,4097.0389021,4128.81116956,3770.52061777,3684.0448396,3602.27827235,3920.41183436,4135.92596411,3777.51413135,3851.55381572,3714.73223934,3781.32093072,753.743062584
off_to_on,3851.53904379,3803.71380069,4096.01700589,4128.69554627,3755.65087384,3663.48109128,3576.30246036,3912.07976235,4135.88124001,3767.18229252,3839.28412474,3695.9881525,3767.2289468,743.699708645
off_to_on,3839.87219653,3789.85968508,4094.93469767,4128.58872988,3739.26789601,3640.80641501,3547.3831191,3902.7531983,4135.83580356,3755.43630247,3825.52989198,3674.85283717,3751.28650272,730.73269769
off_to_on,3827.22497893,3774.83776454,4093.80522641,4128.49118991,3721.59859563,3616.34746424,3515.94036175,3892.54897263,4135.78995848,3742.42193652,3810.50645251,3651.60211362,3733.71745614,715.108904533
off_to_on,3813.77782777,3758.87270159,4092.64360113,4128.40290754,3702.92400402,3590.50800773,3482.50213393,3881.61887958,4135.74402142,3728.33262996,3794.48329717,3626.59698635,3714.81114454,697.168951468
off_to_on,3799.74542173,3742.23123482,4091.46613117,4128.32337429,3683.57202525,3563.75842586,3447.69057202,3870.14589429,4135.69832568,3713.40422623,3777.77685982,3600.27458842,3694.91483113,677.311853749
off_to_on,3785.37094477,3725.21495949,4090.289927,4128.25160829,3663.90843477,3536.62269615,3412.20482267,3858.33924671,4135.653224,3697.90820331,3760.74149943,3573.1363315,3674.42401836,655.977573704
off_to_on,3770.91927244,3708.15178245,4089.13237952,4128.18618747,3644.32641421,3509.66329002,3376.80087654,3846.42850957,4135.60909016,3682.14360468,3743.75896705,3545.73364134,3653.7709443,633.62819383
off_to_on,3756.66930277,3691.3863309,4088.01063571,4128.12529873,3625.23496764,3483.46448103,3342.26908161,3834.65689449,4135.56631911,3666.42794869,3727.2267064,3518.65174707,3633.41164379,610.728478103
off_to_on,3742.90568595,3675.26963415,4086.94108871,4128.06680135,3607.04660778,3458.61462733,3309.41009054,3823.27397961,4135.52532542,3651.08742833,3711.54538284,3492.49206582,3613.81201047,587.726617608
off_to_on,3729.91023135,3660.1484267,4085.93889945,4128.00830258,3590.16473053,3435.6880321,3279.01005934,3812.52811468,4135.48654001,3636.44673967,3697.10606956,3467.85377813,3595.43333446,565.035950289
off_to_on,3717.95328441,3646.3544374,4085.0175654,4127.9472428,3574.97111039,3415.22700628,3251.8159488,3802.65876237,4135.45040514,3622.81889192,3684.2775381,3445.31522302,3578.71781278,543.018405068
off_to_on,3707.28537014,3634.19403408,4084.18855017,4127.88098773,3561.81394881,3397.72475543,3228.5117842,3793.88903935,4135.41736761,3610.49535315,3673.39410389,3425.4157534,3564.0745347,521.970349528
off_to_on,3698.12939318,3623.93858315,4083.46098523,4127.8069247,3550.99689115,3383.60968815,3209.69670249,3786.41871526,4135.38787056,3599.73687415,3664.74446411,3408.63868087,3551.86643121,502.111420631
off_to_on,3690.67366697,3615.81586235,4082.84145252,4127.72256009,3542.76939645,3373.23169754,3195.86556078,3780.41791372,4135.36234402,3590.76530869,3658.5619358,3395.39590595,3542.39864736,483.576793841
off_to_on,3685.06601769,3610.00282972,4082.33385366,4127.62561471,3537.31879946,3366.85090124,3187.3927958,3776.02173671,4135.34119468,3583.75671208,3655.01645693,3386.01477367,3535.90874894,466.413202753
off_to_on,3681.40917163,3606.62000603,4081.93936882,4127.51411419,3534.76434626,3364.62924104,3184.52011419,3773.32600191,4135.32479525,3578.83595285,3654.20865279,3380.72761897,3532.55911138,450.578864947
off_to_on,3679.75758993,3605.72767129,4081.65650461,4127.38647115,3535.15341613,3366.62524312,3187.34846006,3772.38424414,4135.31347391,3576.0730157,3656.1661978,3379.66437236,3532.43176201,435.94730695
off_to_on,3680.11586313,3607.32401188,4081.48122779,4127.24155644,3538.46006511,3372.79212765,3195.83455523,3773.2060871,4135.30750433,3575.48111149,3660.8426193,3382.84848782,3535.52585881,422.314918649
off_to_on,3682.43872216,3611.34528498,4081.40717786,4127.07875674,3544.58594386,3382.97933662,3209.79214344,3775.75704251,4135.30709668,3577.01664295,3668.1186012,3390.19633598,3541.75789395,409.411912234
off_to_on,3686.63266365,3617.6679941,4081.42594923,4126.89801617,3553.36355699,3396.93742583,3228.89789998,3779.9597423,4135.31239022,3580.58100806,3677.80575209,3401.52008115,3550.96461127,396.916219039
off_to_on,3692.55912991,3626.11299728,4081.52743101,4126.69986011,3564.56174686,3414.32614578,3252.7017999,3785.69655781,4135.32344756,3586.02415741,3689.65271098,3416.53393519,3562.90852871,384.469735572
off_to_on,3700.03912763,3636.45139986,4081.70019085,4126.48539987,3577.89320542,3434.72542225,3280.64157667,3792.81351019,4135.3402511,3593.14976205,3703.35337649,3434.86356028,3577.28586245,371.696232491
off_to_on,3708.85911923,3648.41202057,4081.93188777,4126.25631742,3593.02374593,3457.64884489,3312.06075769,3801.12533027,4135.36270148,3601.72179423,3718.55696643,3456.0582811,3593.73656417,358.220171262
off_to_on,3718.7779758,3661.69016418,4082.20969846,4126.01483036,3609.58300521,3482.55918473,3346.22963621,3810.42148574,4135.39061816,3611.47227865,3734.87954728,3479.60566851,3611.85610805,343.685635617
off_to_on,3729.53474465,3675.95738916,4082.52074175,4125.7636377,3627.17619849,3508.88539217,3382.36843841,3820.47296037,4135.42374178,3622.10993504,3751.91661933,3504.94797522,3631.2086044,327.774579991
off_to_on,3740.85695673,3690.87192514,4082.85248621,4125.50584831,3645.39651372,3536.04047814,3419.67186969,3831.03954452,4135.46173814,3633.32940677,3769.25630554,3531.49984139,3651.34077221,310.223625083
off_to_on,3752.46918212,3706.089374,4083.1931272,4125.24489422,3663.83771315,3563.43965387,3457.33418081,3841.87738026,4135.50420342,3644.82075382,3786.49267016,3558.6666471,3671.79627596,290.838690177
off_to_on,3764.10153501,3721.27332094,4083.53192091,4124.98443185,3682.10650544,3590.51810055,3494.57388163,3852.74649681,4135.55067055,3656.2788842,3803.23868814,3585.86286974,3692.12992301,269.506840393
off_to_on,3775.49783334,3736.10548736,4083.85946492,4124.72823473,3699.83426354,3616.747758,3530.65724821,3863.41807519,4135.60061642,3667.41260389,3819.13839699,3612.52980906,3711.92122707,246.20484073
off_to_on,3786.42313312,3750.29507647,4084.16791682,4124.48008127,3716.68769005,3641.65256157,3564.91981813,3873.68119193,4135.65346993,3677.95298381,3833.87778984,3638.15207015,3730.78686992,221.004043046
off_to_on,3796.67038162,3763.58699439,4084.45114507,4124.24364153,3732.37807291,3664.82161704,3596.78514609,3883.34881332,4135.70862066,3687.66077073,3847.19405179,3662.27224472,3748.39163824,194.071381204
off_to_on,3806.06596784,3775.76867244,4084.70480869,4124.0223669,3746.66882756,3685.91988107,3625.78019544,3892.2628399,4135.76542793,3696.33260725,3858.8828015,3684.50330115,3764.45747094,165.666407537
off_to_on,3814.47398993,3786.6752696,4084.9263654,4123.81938638,3759.38108574,3704.69600852,3651.54686685,3900.29803771,4135.82323028,3703.80587238,3868.80307407,3704.53828108,3778.77032489,136.134463999
off_to_on,3821.79910741,3796.19309394,4085.11501012,4123.63741303,3770.39716297,3720.98713212,3673.84930777,3907.36473412,4135.88135508,3709.96200594,3876.8798687,3722.15700085,3791.18464825,105.896237401
off_to_on,3827.98789814,3804.26114804,4085.27154845,4123.47866389,3779.66181468,3734.72045266,3692.57680142,3913.41020239,4135.93912821,3714.72823711,3883.10418091,3737.22956665,3801.62533883,75.4340936905
off_to_on,3833.02869585,3810.87077238,4085.39821202,4123.34479615,3787.18127165,3745.91163475,3707.74219584,3918.41870758,4135.99588381,3718.07769589,3887.5305419,3749.71662988,3810.08715806,45.2757155254
off_to_on,3836.94994029,3816.06343122,4085.49842443,4123.23686161,3793.02012693,3754.66011993,3719.47599747,3922.41023603,4136.05097403,3720.02794587,3890.27219083,3759.66642976,3816.63166479,15.9756752666
off_to_on,3839.81712734,3819.92675441,4085.57652817,4123.15528121,3797.29622481,3761.1415816,3728.01641282,3925.43797957,4136.10377872,3720.63803375,3891.49410391,3767.20878929,3821.38182558,-11.9043422201
off_to_on,3841.72849858,3822.58901334,4085.63748435,4123.09983997,3800.17377528,3765.59785008,3733.69577065,3927.5846912,4136.15371501,3720.00420424,3891.40419301,3772.54634329,3824.5145437,-37.8158988627
off_to_on,3842.8096562,3824.21226662,4085.68655782,4123.06970248,3801.85498129,3768.3247273,3736.92388925,3928.95807057,4136.20024669,3718.25447569,3890.2430607,3775.94337941,3826.25142617,-61.2439525752
off_to_on,3843.20732799,3824.98445932,4085.72900059,4123.06344783,3802.57051882,3769.65818528,3738.16906307,3929.68537254,4136.24289323,3715.54231016,3888.27275544,3777.71275888,3826.84817126,-81.7260087991
off_to_on,3843.08253723,3825.11079629,4085.76974681,4123.07912254,3802.56924946,3769.95949809,3737.93742654,3929.9074595,4136.28123843,3712.0396403,3885.76500793,3778.20145208,3826.58300759,-98.8695190236
off_to_on,3842.60345226,3824.80473384,4085.81313157,4123.11430931,3802.10756932,3769.59989055,3736.75150632,3929.77253641,4136.31493845,3707.92953456,3882.98944528,3777.77526982,3825.74464653,-112.36683029
off_to_on,3841.93819883,3824.27894438,4085.862645,4123.16620897,3801.43880728,3768.94529771,3735.12879469,3929.42981701,4136.34372902,3703.39879179,3880.20227404,3776.8033944,3824.62022225,-122.00707655
off_to_on,3841.24791627,3823.73660463,4085.9207315,4123.23173259,3800.80307789,3768.34181674,3733.56116596,3929.02336862,4136.36743176,3698.63075983,3877.63589616,3775.64331346,3823.48368744,-127.684516006
off_to_on,3840.68032444,3823.36334067,4085.98864219,4123.30760042,3800.41797144,3768.10239748,3732.49591508,3928.68637314,4136.38595924,3693.79866896,3875.48987603,3774.62673458,3822.58510833,-129.402953427
off_to_on,3840.36404433,3823.32013208,4086.06634628,4123.39044408,3800.47042547,3768.49526222,3732.31912523,3928.53602265,4136.39931849,3689.05976004,3873.92361289,3774.04701116,3822.14126058,-127.276034097
off_to_on,3840.40388166,3823.7374355,4086.15250481,4123.47690824,3801.11007138,3769.73447037,3733.3419713,3928.66923991,4136.40761296,3684.55046319,3873.05099564,3774.14854193,3822.32787046,-121.523348325
off_to_on,3840.87724121,3824.71073551,4086.2445078,4123.56374817,3802.44428801,3771.9729546,3735.79044342,3929.15937968,4136.41104242,3680.38284396,3872.93722824,3775.11852093,3823.27377563,-112.462440414
off_to_on,3841.83179285,3826.29767137,4086.33857293,4123.64791974,3804.53512428,3775.29825371,3739.79883406,3930.05402497,4136.40990089,3676.64248058,3873.59791921,3777.08131556,3825.05719898,-100.496975981
off_to_on,3843.28445815,3828.51682399,4086.42990193,4123.72665889,3807.39817765,3779.73105931,3745.40717912,3931.37394757,4136.40457224,3673.38786957,3875.00043062,3780.09564154,3827.70424309,-86.1014827999
off_to_on,3845.22173374,3831.34818049,4086.51288803,4123.79754807,3811.00343765,3785.22658143,3752.56268511,3933.11325393,4136.39552363,3670.65138284,3877.06738585,3784.15459034,3831.18962243,-69.8032301116
off_to_on,3847.60131324,3834.73522764,4086.58136602,4123.85856773,3815.27802596,3791.6786273,3761.12501719,3935.24068972,4136.38329658,3668.44172136,3879.68214423,3789.18844983,3835.43956202,-52.1619359722
off_to_on,3850.35491858,3838.58856103,4086.62889447,4123.90813193,3820.11069062,3798.92618185,3770.87517124,3937.70202925,4136.36849593,3666.74773264,3882.69596896,3795.07014912,3840.33670566,-33.7480854188
off_to_on,3853.39220345,3842.79083863,4086.64905843,4123.94510725,3825.35784428,3806.76218227,3781.52751488,3940.4234325,4136.3517767,3665.54338693,3885.93654525,3801.62305565,3845.72679893,-15.1207029841
off_to_on,3856.60555062,3847.20285522,4086.63577966,4123.96881552,3830.85087752,3814.94409562,3792.7444609,3943.31561431,4136.33382913,3664.79364345,3889.21745176,3808.63076193,3851.4268439,3.19454966924
off_to_on,3859.87555055,3851.67047252,4086.58362164,4123.97902103,3836.40443091,3823.20584195,3804.15313729,3946.27863816,4136.31536217,3664.46088666,3892.34815212,3815.84842387,3857.23436717,20.7260866659
off_to_on,3863.07692414,3856.03210823,4086.48807616,4123.9759036,3841.82527502,3831.27055715,3815.36334464,3949.20712316,4136.29708562,3664.51157686,3895.14405569,3823.01515539,3862.93740194,37.0750957766
off_to_on,3866.08463704,3860.12646852,4086.34581921,4123.9600191,3846.92142779,3838.86366224,3825.98604689,3951.9956377,4136.2796914,3664.92274034,3897.43619893,3829.86694763,3868.32476117,51.9314656637
off_to_on,3868.7799481,3863.80020224,4086.15492521,4123.9322496,3851.5111332,3845.7257,3835.65162713,3954.54404734,4136.26383431,3665.68792428,3899.0801207,3836.14956652,3873.19617203,65.0862879365
off_to_on,3871.05614008,3866.91516221,4085.91502982,4123.89374527,3855.43133532,3851.62441494,3844.02715745,3956.76258872,4136.25011289,3666.82225916,3899.9635449,3841.63089033,3877.37185259,76.440408022
off_to_on,3872.82369636,3869.35497792,4085.62743407,4123.84586041,3858.54530571,3856.3655894,3850.83197894,3958.57645436,4136.23905102,3668.36630713,3900.0125406,3846.11217804,3880.70113877,86.0086486359
off_to_on,3874.01471245,3871.03067507,4085.29514446,4123.79008643,3860.74911957,3859.80220337,3855.85096352,3959.92969536,4136.23108086,3670.38842609,3899.19590014,3849.43780849,3883.06981213,93.919494761
off_to_on,3874.58636466,3871.88511844,4084.92284645,4123.72798407,3861.97672584,3861.84155836,3858.94492923,3960.78827895,4136.226528,3672.98544603,3897.52755567,3851.50309781,3884.40583468,100.410204805
off_to_on,3874.52329893,3871.89610465,4084.51681123,4123.66111776,3862.20341528,3862.45009132,3860.05780112,3961.14217412,4136.22559943,3676.28153232,3895.06694188,3852.25988559,3884.68326502,105.817492345
off_to_on,3873.83884811,3871.07798784,4084.08473868,4123.59099408,3861.44755746,3861.65570098,3859.22024619,3961.00638005,4136.2283748,3680.42519789,3891.91730205,3851.71967489,3883.92420586,110.564097706
off_to_on,3872.57503525,3869.48178211,4083.63554165,4123.51900674,3859.77054788,3859.54751076,3856.54965595,3960.42085675,4136.23480154,3685.58451829,3888.22202353,3849.95421409,3882.19871535,115.141731456
off_to_on,3870.80136957,3867.19374616,4083.17907934,4123.44638938,3857.27497896,3856.27309579,3852.24649944,3959.44936302,4136.24469416,3691.94069525,3884.15917217,3847.09351409,3879.62269753,120.091017757
off_to_on,3868.61249084,3864.33251635,4082.72584956,4123.37417766,3854.10111853,3852.03330278,3846.58721606,3958.17725233,4136.25773791,3699.68020144,3879.93447025,3843.32139865,3876.35386917,125.979188831
off_to_on,3866.12476306,3861.04491114,4082.2866511,4123.3031812,3850.42184605,3847.07488547,3839.91395482,3956.70831972,4136.27349681,3708.98581733,3875.77302564,3838.86878436,3872.58597613,133.376375669
off_to_on,3863.47195935,3857.50058071,4081.87222863,4123.23396601,3846.43625557,3841.68126249,3832.62159025,3955.16083123,4136.29142608,3720.02693536,3871.91016867,3834.00497546,3868.54150042,142.831400641
off_to_on,3860.80021462,3853.88571889,4081.49291314,4123.16684758,3842.36218469,3836.16177505,3825.14254862,3953.66289988,4136.3108884,3732.94955573,3868.5817862,3829.02733469,3864.4631559,154.84800386
off_to_on,3858.26244932,3850.39608875,4081.15827104,4123.10189453,3838.42796838,3830.83987635,3817.9300596,3952.34739735,4136.33117361,3747.86642794,3866.01455877,3824.2497522,3860.60451591,169.862426146
off_to_on,3856.01248712,3847.22963748,4080.87677458,4123.03894269,3834.86374326,3826.04072194,3811.44050439,3951.34660861,4136.35152107,3764.84780289,3864.41650615,3819.99037759,3857.2201468,188.223225647
off_to_on,3854.19909896,3844.57898952,4080.65550571,4122.97761902,3831.89264291,3822.07864879,3806.11556071,3950.7868456,4136.37114404,3783.91324953,3863.96823013,3816.55910542,3854.55563756,210.174124196
off_to_on,3852.96020681,3842.62410878,4080.499904,4122.9173744,3829.7222254,3819.24503062,3802.36484684,3950.78323715,4136.38925504,3805.0249595,3864.81521076,3814.2453094,3852.83791682,235.840568071
off_to_on,3852.41747238,3841.52541144,4080.41356784,4122.85752418,3828.53646245,3817.79697752,3800.5497411,3951.43490365,4136.40509155,3828.08291202,3867.06146548,3813.30630635,3852.26623362,265.22055042
off_to_on,3852.6714788,3841.41759046,4080.39811622,4122.79729461,3828.4885949,3817.94731116,3800.96900174,3952.82070893,4136.41794111,3852.92220348,3870.76482204,3813.95699824,3853.00414945,298.180083
off_to_on,3853.79768906,3842.40438356,4080.45311586,4122.73587326,3829.69512352,3819.8561935,3803.84673728,3954.99575807,4136.42716512,3879.31276288,3875.93398796,3816.36109124,3855.17284752,334.453528873
off_to_on,3855.84333332,3844.5544781,4080.5760766,4122.6724613,3832.23115863,3823.62472061,3809.32318241,3957.98877927,4136.4322207,3906.96158024,3882.52752528,3820.62422666,3858.84601221,373.64882405
off_to_on,3858.82534078,3847.89870219,4080.76251515,4122.60632505,3836.12729859,3829.29071492,3817.44862322,3961.8004933,4136.43267994,3935.51747358,3890.45476219,3826.78928246,3864.04647026,415.257431967
off_to_on,3862.72939093,3852.42860119,4081.00608516,4122.53684468,3841.36814777,3836.82686418,3828.18069247,3966.40303458,4136.42824599,3964.57831554,3899.57859589,3834.83401903,3870.74471665,458.668695586
off_to_on,3867.51011597,3858.09644589,4081.29876895,4122.46355758,3847.89252194,3846.14126505,3841.38512481,3971.74044728,4136.41876547,3993.70053736,3909.72006665,3844.67115133,3878.85937589,503.188084663
off_to_on,3873.09244232,3864.81666454,4081.63112433,4122.38619465,3855.59532522,3857.08033783,3856.83992904,3977.73023804,4136.40423682,4022.41063004,3920.66451458,3856.1508359,3888.25957502,548.058688281
off_to_on,3879.37401629,3872.46863681,4081.99257766,4122.3047079,3864.33101941,3869.43398941,3874.24280314,3984.26592588,4136.38481425,4050.21827427,3932.16906981,3869.06546893,3898.76913239,592.485181133
off_to_on,3886.22861812,3880.9007377,4082.3717528,4122.21928845,3873.91854764,3882.94281761,3893.22149529,3991.22049194,4136.36080713,4076.63065563,3943.97117718,3883.15660356,3910.17239773,635.659399008
off_to_on,3893.5104326,3889.93547351,4082.75682447,4122.13037432,3884.14752102,3897.30707513,3913.34670389,3998.4505975,4136.33267466,4101.16746412,3955.7978195,3898.12371644,3922.22151864,676.786597905
off_to_on,3901.05901369,3899.37551391,4083.13588371,4122.03864794,3894.78543226,3912.19704917,3934.14701867,4005.80141039,4136.30101609,4123.37603849,3967.37508121,3913.63448694,3934.64485768,715.111445953
off_to_on,3908.70475674,3909.01039383,4083.49730305,4121.94502354,3905.58562558,3927.26446538,3955.12533474,4013.1118586,4136.26655643,4142.84609974,3978.43768667,3929.33619997,3947.156245,749.942809034
off_to_on,3916.27467566,3918.62363771,4083.83008939,4121.85062486,3916.2957285,3942.1544926,3975.77612491,4020.22011566,4136.23012805,4159.22352318,3988.73815472,3944.86784756,3959.46472473,780.676437163
off_to_on,3923.59827368,3928.00004688,4084.12421299,4121.75675393,3926.66623884,3956.51790974,3995.60293231,4026.96911588,4136.19264872,4172.22262611,3998.0552314,3959.87248362,3971.28443952,806.814737363
off_to_on,3930.51329589,3936.93288899,4084.37090245,4121.66485211,3936.45895881,3970.02299666,4014.13544652,4033.21189857,4136.15509632,4181.63649594,4006.2012964,3974.0093836,3982.34429675,827.982928264
off_to_on,3936.87115893,3945.23073578,4084.5628964,4121.57645458,3945.45497871,3982.36672766,4030.94555073,4038.81658891,4136.11848126,4187.34495085,4013.02848198,3986.96557393,3992.39707269,843.941008017
off_to_on,3942.54186781,3952.72371266,4084.69464471,4121.49313984,3953.46193297,3993.28487758,4045.66177374,4043.67083841,4136.08381712,4189.31980824,4018.43329662,3998.46632524,4001.22763526,854.591123092
off_to_on,3947.41825107,3959.26894806,4084.76245361,4121.41647609,3960.3202812,4002.56069507,4057.9816469,4047.68556986,4136.05209054,4187.62723234,4022.35960478,4008.28424641,4008.66000219,859.980095016
off_to_on,3951.41937237,3964.75504246,4084.76457111,4121.34796606,3965.90840535,4010.03185382,4067.6815484,4050.79789833,4136.02423138,4182.42703787,4024.79987886,4016.24667209,4014.56299691,860.297040196
off_to_on,3954.49300835,3969.10541499,4084.70121117,4121.28899258,3970.14635892,4015.59545856,4074.62371496,4052.97313145,4136.00108398,4173.96893715,4025.79470492,4022.24110193,4018.85431834,855.866198026
off_to_on,3956.6171179,3972.28042737,4084.57451708,4121.24076656,3972.9981547,4019.21095543,4078.76020782,4054.20578686,4135.98338082,4162.58582988,4025.43059011,4026.21852346,4021.50290059,847.135256116
off_to_on,3957.80026557,3974.27823041,4084.38846635,4121.20427933,3974.47253159,4020.90087451,4080.13373403,4054.51960118,4135.97171918,4148.6843433,4023.83618199,4028.19452936,4022.5295023,834.6596218
off_to_on,3958.0810003,3975.13432482,4084.14872115,4121.18026118,3974.62219589,4020.74941058,4078.87533924,4053.9665418,4135.96654185,4132.73293128,4021.17706772,4028.24822094,4022.00553031,819.083232066
off_to_on,3957.52622793,3974.91987401,4083.86243017,4121.16914751,3973.54158713,4018.8989257,4075.19910095,4052.6248689,4135.96812235,4115.24793065,4017.64937068,4026.51896907,4020.05016564,801.116614545
off_to_on,3956.22865168,3973.73885046,4083.5379892,4121.17105397,3971.36326982,4015.54452986,4069.39405737,4050.59632844,4135.97655502,4096.77804776,4013.472403,4023.2011799,4016.82592037,781.513004275
off_to_on,3954.30338672,3971.72413751,4083.18476905,4121.1857617,3968.25309975,4010.92696203,4061.81370276,4048.0025875,4135.99175037,4077.88780575,4008.8806623,4018.53728146,4012.53280766,761.043381335
off_to_on,3951.88388266,3969.03274295,4082.81282039,4121.2127131,3964.40435454,4005.32405136,4052.86346239,4044.98104895,4136.01343576,4059.14052087,4004.11547901,4012.80920709,4007.40135421,740.471322791
off_to_on,3949.11730981,3965.84030897,4082.4325659,4121.25101862,3960.03105128,3999.04108348,4042.98662492,4041.68020226,4136.04116128,4041.08139205,3999.41662546,4006.32869937,4001.68472058,720.528557768
off_to_on,3946.15958023,3962.3351225,4082.05449008,4121.2994742,3955.36069803,3992.40042887,4032.64925439,4038.2546812,4136.07431088,4024.22128176,3995.01419029,3999.42679188,3995.65021984,701.892073381
off_to_on,3943.17018286,3958.7118417,4081.68883702,4121.35658918,3950.62673943,3985.73080673,4022.32462702,4034.86020485,4136.1121183,4009.0217381,3991.12100183,3992.44284544,3989.5705379,685.163540501
off_to_on,3940.30701307,3955.16515705,4081.34532541,4121.42062391,3946.06096052,3979.35656065,4012.4777401,4031.64857846,4136.15368754,3995.88175948,3987.92585413,3985.71352011,3983.71496069,670.85171679
off_to_on,3937.7213718,3951.88360141,4081.0328897,4121.48963611,3941.88610681,3973.58731103,4003.55042329,4028.76292381,4136.19801703,3985.12673747,3985.58775199,3979.56205671,3978.34090421,659.358349767
off_to_on,3935.5532987,3949.04371183,4080.75945443,4121.56153511,3938.30896464,3968.70832665,3995.94754764,4026.33329633,4136.24402709,3976.99993229,3984.23134771,3974.28822131,3973.68602566,650.967955732
off_to_on,3933.92738747,3946.80472802,4080.53174801,4121.63414248,3935.51412345,3964.97192364,3990.02477713,4024.47282944,4136.2905896,3971.65674325,3983.94369467,3970.15923474,3969.96116618,645.841700539
off_to_on,3932.94921073,3945.30398868,4080.35516015,4121.70525793,3933.658612,3962.590156,3986.07824171,4023.27452426,4136.3365592,3969.16193451,3984.77239225,3967.40196743,3967.3443406,644.01546468
off_to_on,3932.70245697,3944.65315791,4080.23364587,4121.77272854,3932.86756562,3961.72900955,3984.33643357,4022.80877765,4136.380805,3969.48987069,3986.72514452,3966.19662855,3965.97594716,645.402043775
off_to_on,3933.24685446,3944.93538166,4080.16967715,4121.83451991,3933.23104096,3962.50425289,3984.95454152,4023.12171301,4136.42224198,3972.52770927,3989.77070452,3966.67212127,3965.95532306,649.797314934
off_to_on,3934.61692788,3946.20343959,4080.16424165,4121.88878681,3934.80205279,3964.97903706,3988.0113478,4024.23434881,4136.45986116,3978.08139319,3993.84112804,3968.90317433,3967.33872241,656.890083446
off_to_on,3936.82160378,3948.4789225,4080.21688697,4121.93394108,3937.59586284,3969.16327275,3993.50871932,4026.1426099,4136.49275777,3985.88419034,3998.83521842,3972.90929732,3970.13874217,666.275212322
off_to_on,3939.84465155,3951.75243011,4080.32580708,4121.96871443,3941.59050774,3975.01475221,4001.37363559,4028.81815756,4136.52015647,3995.60744104,4004.62300622,3978.65554408,3974.32517257,677.46953793
off_to_on,3943.64591926,3955.9847503,4080.48796677,4121.99221343,3946.72851059,3982.4419241,4011.46260923,4032.20998688,4136.541433,4006.87310155,4011.05107738,3986.05500761,3979.82720002,689.929997758
off_to_on,3948.16329724,3961.10894841,4080.69925848,4122.00396424,3952.91968176,3991.30817532,4023.56827594,4036.24671471,4136.55613144,4019.26761518,4017.9485388,3994.97291308,3986.53684661,703.07334347
off_to_on,3953.31532038,3967.033267,4080.95468491,4122.00394485,3960.04487992,4001.43742617,4037.42786069,4040.83945963,4136.56397667,4032.35660347,4025.1333946,4005.23212412,3994.31349068,716.296781562
off_to_on,3959.0043007,3973.64471245,4081.24855992,4121.99260265,3967.96057525,4012.62080598,4052.73317017,4045.88519739,4136.56488146,4045.69985007,4032.41909834,4016.61983561,4002.98928115,728.998872385
off_to_on,3965.11986786,3980.81318589,4081.57471966,4121.97085583,3976.50403468,4024.62414692,4069.14171871,4051.27046242,4136.55894786,4058.86605018,4039.62104786,4028.89519256,4012.3752338,740.600021786
off_to_on,3971.54278514,3988.39600333,4081.92673603,4121.94007759,3985.49893369,4037.19601441,4086.28856882,4056.87525807,4136.54646284,4071.44681792,4046.56279895,4041.79755222,4022.26778176,750.561912422
off_to_on,3978.14890379,3996.2426418,4082.29812466,4121.90206284,3994.76119168,4050.07598409,4103.7984562,4062.57703564,4136.52788824,4083.06948128,4053.08179123,4055.05509335,4032.45554477,758.405242534
off_to_on,3984.81311825,4004.19954669,4082.68254003,4121.8589779,4004.10482699,4063.00287727,4121.29777402,4068.25460418,4136.50384512,4093.40824779,4059.03440258,4068.39347345,4042.72608168,763.725174525
off_to_on,3991.41318897,4012.11483834,4083.07395131,4121.8132941,4013.34763374,4075.72267746,4138.42600939,4073.79184005,4136.47509327,4102.19339067,4064.30017654,4081.54424121,4052.87239809,766.2039529
off_to_on,3997.83330795,4019.84276385,4083.46679292,4121.76770731,4022.31649466,4087.99587061,4154.84625578,4079.08107556,4136.44250639,4109.21818318,4068.78509905,4094.25272654,4062.69899549,765.620235235
off_to_on,4003.96729424,4027.24775331,4083.85608533,4121.72504558,4030.85216201,4099.60397835,4170.25446824,4084.0260603,4136.40704379,4114.34339418,4072.42383556,4106.28515505,4072.0272694,761.854789697
off_to_on,4009.72132279,4034.20795693,4084.23752248,4121.68816814,4038.81336198,4110.35508895,4184.38718214,4088.54440664,4136.36971985,4117.4992493,4075.1808778,4117.43476689,4080.70009222,754.892343172
off_to_on,4015.01610945,4040.61816203,4084.60752402,4121.65985937,4046.08010683,4120.08823237,4197.02748069,4092.56945181,4136.33157198,4118.6848554,4077.05058899,4127.52676159,4088.58545046,744.819509067
off_to_on,4019.78849691,4046.39201404,4084.9632518,4121.64272182,4052.55613188,4128.67649323,4208.0090685,4096.05149215,4136.29362845,4117.96517865,4078.05617717,4136.42193823,4095.57904534,731.818876431
off_to_on,4023.99241078,4051.46349431,4085.30259171,4121.63907271,4058.17041,4136.0288069,4217.21838536,4098.95837012,4136.256877,4115.46575413,4078.24766552,4144.01895362,4101.60580734,716.159495013
off_to_on,4027.59917989,4055.78763677,4085.62410348,4121.65084827,4062.8777329,4142.09043601,4224.59477134,4101.2754196,4136.22223538,4111.365385,4077.69896504,4150.25517556,4106.62031906,698.18413703
off_to_on,4030.59723924,4059.34049486,4085.92694224,4121.67952038,4066.65838443,4146.84217562,4230.12876949,4103.00479938,4136.19052467,4105.88715807,4076.50418617,4155.10616357,4110.60618264,678.293848922
off_to_on,4032.99125782,4062.11839872,4086.21075702,4121.72602917,4069.51696501,4150.29838268,4233.85872112,4104.16426699,4136.16244653,4099.28815809,4074.77335222,4158.58386109,4113.57440817,656.930419079
off_to_on,4034.80075347,4064.13656795,4086.47557221,4121.79073499,4071.4804563,4152.50396715,4235.86586905,4104.78546476,4136.13856493,4091.84830291,4072.62769562,4160.73363057,4115.56093495,634.557475086
off_to_on,4036.05827485,4065.42716739,4086.72165882,4121.87339205,4072.5956406,4153.53051622,4236.26823435,4104.91180627,4136.119293,4083.85874444,4070.19472947,4161.63030236,4116.62342669,611.640982394
off_to_on,4036.80724328,4066.03691067,4086.94940275,4121.9731452,4072.9260087,4153.47174854,4235.21356802,4104.59606299,4136.10488558,4075.61028574,4067.60328915,4161.37343923,4116.83750368,588.62994271
off_to_on,4037.0995559,4066.02432799,4087.15917718,4122.0885501,4072.54830253,4152.43851114,4232.87170215,4103.89775891,4136.09543741,4067.38225146,4064.97873376,4160.08203909,4116.29258937,565.938083399
off_to_on,4036.9930561,4065.45682196,4087.35122601,4122.21761617,4071.54884562,4150.55353854,4229.42663364,4102.88048339,4136.090887,4059.43222053,4062.43848393,4157.88890975,4115.08755464,543.927289028
off_to_on,4036.5489763,4064.40763625,4087.5255643,4122.35787052,4070.01981375,4147.94619048,4225.06866735,4101.60923094,4136.09102596,4051.98698512,4060.08805311,4154.93495029,4113.32634202,522.893454392
off_to_on,4035.82945369,4062.9528581,4087.68190098,4122.50644003,4068.05559158,4144.74737305,4219.98692648,4100.1478702,4136.09551313,4045.23504319,4058.01770384,4151.36356498,4111.11374248,503.055337982
off_to_on,4034.8952103,4061.16856707,4087.81958758,4122.66014809,4065.74934847,4141.08482768,4214.36250506,4098.55683422,4136.10389297,4039.32086386,4056.2998305,4147.31541754,4108.55148204,484.546870083
off_to_on,4033.80347664,4059.12822933,4087.93759564,4122.81562205,4063.18994898,4137.07894585,4208.36249625,4096.89111043,4136.11561741,4034.34108996,4054.98713757,4142.92370812,4105.73475372,467.413225832
off_to_on,4032.60622386,4056.90042123,4088.03452393,4122.96940685,4060.45929334,4132.83923704,4202.13508077,4095.19859288,4136.13007013,4030.3427625,4054.11164905,4138.31012468,4102.74930521,451.610816664
off_to_on,4031.34875378,4054.5469484,4088.10863533,4123.11808054,4057.63016069,4128.46154416,4195.80580799,4093.51884224,4136.14659235,4027.32357243,4053.68455196,4133.58158589,4099.66916494,437.011190286
off_to_on,4030.06867979,4052.12140765,4088.15792146,4123.25836752,4054.76460484,4124.02606728,4189.47514728,4091.88228095,4136.164509,4025.23406694,4053.69684582,4128.82785652,4096.55506021,423.408666525
off_to_on,4028.79531559,4049.66822014,4088.18019251,4123.38724533,4051.91292879,4119.59622234,4183.21733377,4090.30983306,4136.18315427,4023.9816653,4054.12074194,4124.12007888,4093.45355146,410.531380842
off_to_on,4027.54947231,4047.22214468,4088.17318777,4123.50204163,4049.11324113,4115.21832843,4177.08048049,4088.81300041,4136.20189548,4023.43627423,4054.91173089,4119.51022737,4090.39687815,398.055265604
off_to_on,4026.34364942,4044.80826188,4088.13470221,4123.60051809,4046.39157528,4110.92208551,4171.0878808,4087.39435062,4136.22015428,4023.43723803,4056.01121598,4115.03145785,4087.40348416,385.620377154
off_to_on,4025.18259067,4042.44240203,4088.06272337,4123.68093871,4043.76253187,4106.72177557,4165.2403819,4086.04837733,4136.23742422,4023.80131517,4057.3495943,4110.69929026,4084.47916579,372.848879321
off_to_on,4024.06416339,4040.13197382,4087.95557237,4123.74212046,4041.23038638,4102.61809505,4159.51967358,4084.7626805,4136.25328421,4024.33134269,4058.8496554,4106.51353382,4081.61876324,359.363925377
off_to_on,4022.9805094,4037.87713677,4087.81204285,4123.78346493,4038.79058896,4098.60050598,4153.89230674,4083.51940418,4136.26740709,4024.82523279,4060.43016071,4102.46083799,4078.80829759,344.808643104
off_to_on,4021.91940678,4035.67224913,4087.63153113,4123.80497028,4036.4315714,4094.64997742,4148.31423522,4082.29686174,4136.27956332,4025.0849429,4062.00946553,4098.51773256,4076.02744129,328.864423274
off_to_on,4020.86577621,4033.50751404,4087.41415144,4123.80722339,4034.13676799,4090.74197907,4142.73566081,4081.0712733,4136.28961966,4024.92507089,4063.50904743,4094.65400547,4073.25220026,311.26774028
off_to_on,4019.8032617,4031.37074171,4087.16083036,4123.791373,4031.88675273,4086.84958388,4137.10595746,4079.81853866,4136.29753325,4024.18075051,4064.85681297,4090.83625876,4070.45768113,291.824793781
off_to_on,4018.71581493,4029.2491434,4086.87337545,4123.75908472,4029.66139502,4082.94653816,4131.37845501,4078.51597008,4136.30334138,4022.71455766,4065.99006605,4087.03148113,4067.62081763,270.423349318
off_to_on,4017.58921427,4027.13107484,4086.55451414,4123.71247968,4027.44193937,4079.01016422,4125.51487611,4077.14391289,4136.30714796,4020.42218275,4066.85803664,4083.21047981,4064.72293564,247.041270211
off_to_on,4016.41245445,4025.00765168,4086.20790006,4123.65405895,4025.21292179,4075.02397304,4119.48924107,4075.68718931,4136.30910727,4017.23667878,4067.42388752,4079.3510249,4061.75204624,221.751367842
off_to_on,4015.17895018,4022.8741679,4085.83808585,4123.58661606,4022.96384584,4070.97988099,4113.29108374,4074.13630929,4136.30940619,4013.1311538,4067.6661369,4075.4405748,4058.70477042,194.722347097
off_to_on,4013.88750602,4020.7312585,4085.45046233,4123.51314085,4020.69055408,4066.879945,4106.92785414,4072.48840345,4136.308246,4008.11983945,4067.57945711,4071.47847169,4055.58781598,166.21578212
off_to_on,4012.54301558,4018.58575994,4085.05116569,4123.43671805,4018.39624505,4062.73755267,4100.42642026,4070.74784509,4136.30582477,4002.25753107,4067.17483192,4067.4775189,4052.41894693,136.579218096
off_to_on,4011.15686477,4016.4512357,4084.64695574,4123.36042413,4016.0921019,4058.5780278,4093.83361945,4068.92654121,4136.30232139,3995.63745645,4066.4790778,4063.46487819,4049.22740661,106.235651152
off_to_on,4009.74702574,4014.34814845,4084.245069,4123.28722652,4013.79751477,4054.43863584,4087.21584866,4067.04388522,4136.29788221,3988.38768845,4065.53375643,4059.48225241,4046.05377794,75.6697841608
off_to_on,4008.33784057,4012.30367523,4083.853052,4123.21988852,4011.53989535,4050.36799813,4080.65772136,4065.12637781,4136.2926108,3980.66626908,4064.39352693,4055.5853477,4042.94928684,45.4115856334
off_to_on,4006.95950607,4010.35117653,4083.47858046,4123.1608834,4009.35409836,4046.42494713,4074.25985526,4063.20693427,4136.28656154,3972.655257,4063.12400577,4051.84263851,4039.97457686,16.017786694
off_to_on,4005.64728267,4008.52934448,4083.12927067,4123.11232075,4007.2814796,4042.67687652,4068.13588832,4061.32390933,4136.27973708,3964.55394651,4061.79921946,4048.33348642,4037.19800452,-11.9479667276
off_to_on,4004.44046179,4006.88106828,4082.81248976,4123.07588737,4005.36863495,4039.19766042,4062.40885017,4059.51988063,4136.27209002,3956.57153197,4060.49874967,4045.14569106,4034.69352421,-37.9355359098
off_to_on,4003.38113581,4005.45206715,4082.53517109,4123.052805,4003.66587686,4036.06523272,4057.20704077,4057.84024149,4136.26352841,3948.91950678,4059.30468155,4042.37257473,4032.53824928,-61.4284911842
off_to_on,4002.51282275,4004.28935071,4082.30364153,4123.04380608,4002.22551571,4033.35893125,4052.65958743,4056.33166069,4136.25392496,3941.80409051,4058.29847336,4040.10972251,4030.8097892,-81.9633042812
off_to_on,4001.87900309,4003.43957341,4082.12346607,4123.04912857,4001.10002006,4031.15671943,4048.89186268,4055.04047149,4136.24312922,3935.41897013,4057.55786828,4038.45151348,4029.58347223,-99.1467744333
off_to_on,4001.52162814,4002.9473527,4081.99931529,4123.06852965,4000.34013338,4029.53240133,4046.02094943,4054.01105407,4136.23098205,3929.93862243,4057.15396676,4037.48758584,4028.92956655,-112.670991311
off_to_on,4001.47965886,4002.85362013,4081.93485954,4123.10131757,3999.99302399,4028.55294202,4044.15133417,4053.2842742,4136.2173316,3925.51245575,4057.14856982,4037.2993783,4028.91061079,-122.325225229
off_to_on,4001.7876904,4003.19407075,4081.93269275,4123.14640002,4000.1005403,4028.27599736,4043.37099534,4052.89603712,4136.20204973,3922.25997033,4057.59189143,4037.95688355,4029.57895792,-128.004248882
off_to_on,4002.47471264,4003.99776973,4081.99428772,4123.20234669,4000.6976364,4028.74774413,4043.74803376,4052.87600915,4136.18504805,3920.26709178,4058.52072141,4039.51573694,4030.97462509,-129.712730284
off_to_on,4003.56304973,4005.28596703,4082.11998298,4123.267463,4001.8110231,4030.00108613,4045.32796511,4053.24655138,4136.16629265,3919.58378193,4059.95710135,4042.01474728,4033.12352777,-127.565484793
off_to_on,4005.06751367,4007.07116128,4082.30900068,4123.33987156,4003.45808897,4032.05429434,4048.13176528,4054.02190017,4136.14581648,3920.22297952,4061.90755497,4045.47395739,4036.03616029,-121.783526789
off_to_on,4006.994798,4009.35644407,4082.55949336,4123.41759762,4005.64612446,4034.91012122,4052.15472762,4055.20761898,4136.12372876,3922.16087077,4064.36289296,4049.89330098,4039.70676743,-112.686016954
off_to_on,4009.34312853,4012.13514516,4082.86861695,4123.49865469,4008.37187058,4038.55541176,4057.36616038,4056.80033565,4136.10022052,3925.33844051,4067.2985913,4055.25190011,4044.11303375,-100.67836137
off_to_on,4012.10217867,4015.3907883,4083.23262632,4123.5811266,4011.62140308,4042.96121734,4063.709923,4058.78776954,4136.07556603,3929.66420836,4070.67572169,4061.50802532,4049.2162995,-86.2368803108
off_to_on,4015.25324871,4019.09735706,4083.64698938,4123.66324261,4015.37035188,4048.08340225,4071.10577232,4061.14904281,4136.05011982,3935.01801427,4074.44239382,4068.59971832,4054.96229425,-69.8906146008
off_to_on,4018.76969938,4023.21985946,4084.10651531,4123.7434426,4019.58444529,4053.86371784,4079.45146405,4063.8552612,4136.02430926,3941.2556836,4078.53565161,4076.44605558,4061.28236289,-52.2009621646
off_to_on,4022.61762298,4027.71517095,4084.60549262,4123.82043011,4024.2203581,4060.23130466,4088.62553156,4066.87034107,4135.99862322,3948.21437531,4082.88375054,4084.94901133,4068.09514267,-33.7399305612
off_to_on,4026.75672793,4032.53312674,4085.13783264,4123.89321152,4029.2268334,4067.1045697,4098.49064325,4070.15205165,4135.97359706,3955.71839838,4087.40873046,4093.99585965,4075.30863665,-15.067851815
off_to_on,4031.1414065,4037.61782653,4085.69721434,4123.96112034,4034.54603945,4074.39337456,4108.89742229,4073.65323523,4135.9497947,3963.58527121,4092.02918902,4103.46203906,4082.82261663,3.28856720826
off_to_on,4035.7219501,4042.90910889,4086.27722673,4124.02382617,4040.11511559,4082.00146118,4119.68859901,4077.32316272,4135.92778845,3971.63179712,4096.66315458,4113.21438886,4090.5312791,20.8569924919
off_to_on,4040.44587244,4048.3441467,4086.8715053,4124.08132865,4045.86785599,4089.82903534,4130.7033575,4081.10897845,4135.9081375,3979.6799358,4101.23095491,4123.11465452,4098.32606976,37.2381814985
off_to_on,4045.25929776,4053.85911195,4087.47385972,4124.13393688,4051.73647558,4097.77542363,4141.78173334,4084.9571861,4135.89136588,3987.56226491,4105.65797822,4133.02315119,4106.09858723,52.1219163172
off_to_on,4050.1083698,4059.39085547,4088.0783899,4124.18223605,4057.65340076,4105.7417185,4152.76891955,4088.81512655,4135.87794091,3995.12684769,4109.87722694,4142.80246825,4113.74347305,65.2994965325
off_to_on,4054.94063662,4064.87854712,4088.67958858,4124.2270429,4063.55302652,4113.63332656,4163.5193417,4092.63239947,4135.86825296,4002.24134953,4113.83157153,4152.32109643,4121.16119579,76.672266255
off_to_on,4059.70636765,4070.26522271,4089.27242846,4124.26935261,4069.37338297,4121.36233849,4173.90037124,4096.36218258,4135.86259741,4008.79627903,4117.47562195,4161.45686023,4128.26063953,86.2558002003
off_to_on,4064.35976107,4075.49918717,4089.85243255,4124.31027956,4075.05765736,4128.8496452,4183.79555854,4099.96240593,4135.86115968,4014.70726425,4120.77714752,4170.10004416,4134.9614133,94.1795394552
off_to_on,4068.86000342,4080.53522801,4090.4157267,4124.35099513,4080.55552246,4136.02673258,4193.10728376,4103.39674399,4135.86400377,4019.91631261,4123.71799205,4178.1561111,4141.19580677,100.681843872
off_to_on,4073.17214827,4085.33559928,4090.95907399,4124.39266513,4085.82422886,4142.8370989,4201.75874353,4106.63539465,4135.87106532,4024.39204157,4126.29444938,4185.54792411,4146.91032939,106.100608164
off_to_on,4077.26778681,4089.87074446,4091.47989083,4124.43639,4090.82942733,4149.23725114,4209.69521491,4109.65562184,4135.88214931,4028.12890608,4128.51708511,4192.21740116,4152.06678437,110.859763952
off_to_on,4081.12549105,4094.1197362,4091.97624549,4124.48315025,4095.54569732,4155.19725243,4216.88456374,4112.44204734,4135.89693307,4031.14548651,4130.41001154,4198.12655283,4156.64284581,115.452153025
off_to_on,4084.73101853,4098.07042146,4092.44684014,4124.53375959,4099.95676856,4160.70080861,4223.31699237,4114.98668689,4135.91497447,4033.48193597,4132.00964497,4203.25787629,4160.6321257,120.419403018
off_to_on,4088.07727651,4101.71927206,4092.89097769,4124.58882769,4104.05543434,4165.74489939,4229.00405013,4117.28873533,4135.93572529,4035.19671725,4133.36299546,4207.61410371,4164.04373673,126.329559831
off_to_on,4091.16405249,4105.07095183,4093.30851541,4124.64873413,4107.8431668,4170.33897628,4233.97695818,4119.35411518,4135.95854941,4036.36278566,4134.5255579,4211.21732713,4166.90137587,133.753324816
off_to_on,4093.99752669,4108.1376224,4093.69980735,4124.71361429,4111.32945516,4174.50376556,4238.28432659,4121.19481205,4135.98274515,4037.06339269,4135.55888937,4214.10754458,4169.24197087,143.239804902
off_to_on,4096.58958997,4110.93801908,4094.06563804,4124.78335777,4114.53089831,4178.26972929,4241.98936368,4122.82802814,4136.00757098,4037.38769763,4136.52796894,4216.34069156,4171.11394705,155.292709555
off_to_on,4098.95699782,4113.49633665,4094.40714987,4124.8576188,4117.47009212,4181.67524946,4245.16669535,4124.27519125,4136.03227361,4037.42637702,4137.49844395,4217.98623929,4172.57518397,170.347918862
off_to_on,4101.12039685,4115.84097174,4094.72576692,4124.93583807,4120.17435895,4184.76461078,4247.8989238,4125.56086181,4136.05611742,4037.26741756,4138.53386972,4219.12445346,4173.69074121,188.753300624
off_to_on,4103.10326446,4118.0031731,4095.02311765,4125.01727425,4122.6743726,4187.58586427,4250.27306185,4126.71158295,4136.07841377,4036.99226579,4139.69304928,4219.84341772,4174.53043892,210.751572721
off_to_on,4104.9308051,4120.01565417,4095.30095895,4125.10104355,4125.00273485,4190.18865729,4252.37698013,4127.75471987,4136.09854893,4036.67248866,4141.02757455,4220.23593105,4175.16638235,236.46689489
off_to_on,4106.62884682,4121.91122254,4095.56110385,4125.18616495,4127.19256055,4192.62211565,4254.29600064,4128.71733399,4136.11600934,4036.3670738,4142.57966225,4220.3963901,4175.6705195,265.895736029
off_to_on,4108.2227812,4123.72147902,4095.80535497,4125.27160879,4129.27612643,4194.93285966,4256.10976098,4129.62513427,4136.13040276,4036.12046795,4144.38036569,4220.4177641,4176.1123168,298.902402855
off_to_on,4109.73658614,4125.47563468,4096.03544551,4125.35634636,4131.28363499,4197.16322912,4257.88946109,4130.50154442,4136.14147434,4035.96141764,4146.44822884,4220.38876286,4176.55663111,335.219439302
off_to_on,4111.19196713,4127.19948831,4096.25298938,4125.43939804,4133.24213874,4199.34978292,4259.69558697,4131.3669187,4136.14911678,4035.90263932,4148.78843133,4220.39128698,4177.06184543,374.452921911
off_to_on,4112.60764629,4128.91459913,4096.45944162,4125.51987794,4135.17466274,4201.52212601,4261.57618606,4132.23793191,4136.15337396,4035.94130908,4151.39245373,4220.49823526,4177.67832335,416.09249201
off_to_on,4113.99882177,4130.63768026,4096.65606982,4125.59703293,4137.09955385,4203.70210226,4263.56574515,4133.12716157,4136.1544379,4036.06032523,4154.23827091,4220.77172765,4178.44722259,459.525786254
off_to_on,4115.37681196,4132.38022904,4096.84393698,4125.67027428,4139.03007488,4205.90337478,4265.68469585,4134.04287122,4136.15263917,4036.2302633,4157.29105976,4221.26178387,4179.39969255,504.056759755
off_to_on,4116.74889051,4134.14839902,4097.02389559,4125.73920066,4140.97425014,4208.13139757,4267.93954492,4134.98899498,4136.14843112,4036.41191333,4160.50438563,4222.00547846,4180.55646465,548.927248721
off_to_on,4118.11830954,4135.94310787,4097.19659247,4125.80361115,4142.93495726,4210.38376433,4270.32359923,4135.96531428,4136.14236879,4036.55926471,4163.82181239,4223.0265737,4181.92782786,593.340998063
off_to_on,4119.48449965,4137.76036459,4097.36248344,4125.86350789,4144.91024812,4212.6509027,4272.81822863,4136.96780938,4136.13508331,4036.62278588,4167.17886291,4224.33561255,4183.51396643,636.489286773
off_to_on,4120.8434278,4139.59178924,4097.52185645,4125.91908796,4146.89387124,4214.91706647,4275.39458656,4137.98916029,4136.12725314,4036.55283568,4170.50524362,4225.93043641,4185.30562252,677.577223299
off_to_on,4122.18808745,4141.42529102,4097.67486152,4125.97072507,4148.87595956,4217.1615659,4278.01568968,4139.01936616,4136.11957321,4036.30303963,4173.72723724,4227.79707797,4187.2850352,715.849758489
off_to_on,4123.50909084,4143.2458644,4097.82154556,4126.01894184,4150.84384096,4219.36016703,4280.63874436,4140.04644739,4136.11272349,4035.83346951,4176.77016384,4229.91096835,4189.42709907,750.616475882
off_to_on,4124.79533001,4145.03646035,4097.96188988,4126.06437444,4152.78292593,4221.48658614,4283.21760141,4141.05719282,4136.10733816,4035.11347582,4179.56081122,4232.23839031,4191.7006807,781.274266075
off_to_on,4126.03467214,4146.77888822,4098.09584846,4126.10773131,4154.67762536,4223.51400435,4285.70522016,4142.03791413,4136.10397677,4034.12404177,4182.02974097,4234.73810575,4194.07003013,807.327071131
off_to_on,4127.21465483,4148.45470589,4098.2233848,4126.14974874,4156.51225307,4225.41653026,4288.05602899,4142.97517135,4136.10309874,4032.85955063,4184.11338646,4237.36308529,4196.49622558,828.401995267
off_to_on,4128.32314963,4150.04605838,4098.34450556,4126.19114531,4158.27187137,4227.1705448,4290.22808118,4143.85643676,4136.10504213,4031.32888703,4185.75587191,4240.06227081,4198.9385942,844.261214917
off_to_on,4129.34896521,4151.53643064,4098.45928943,4126.23257815,4159.94304348,4228.7558719,4292.18492051,4144.67066963,4136.1100078,4029.55582312,4186.9104978,4242.78230736,4201.35605789,854.809277876
off_to_on,4130.28236674,4152.91128693,4098.56790972,4126.27460304,4161.51446401,4230.15673036,4293.89709035,4145.40878007,4136.11804948,4027.57867338,4187.54085614,4245.46918924,4203.70836194,860.095551171
off_to_on,4131.11549418,4154.15857656,4098.67064986,4126.31764062,4162.97744662,4231.36243549,4295.34324024,4146.06396728,4136.12907033,4025.4492337,4187.62155791,4248.06977522,4205.95715374,860.311755771
off_to_on,4131.84266815,4155.26909468,4098.76791084,4126.3619504,4164.32625672,4232.3678325,4296.51080513,4146.63192448,4136.14282598,4023.23105228,4187.13857505,4250.53313926,4208.06689023,855.784706547
off_to_on,4132.4605787,4156.23669451,4098.86021055,4126.40761399,4165.55828516,4233.1734573,4297.39625305,4147.11090985,4136.15893415,4020.99710839,4186.08921651,4252.81173469,4210.00556254,846.964549618
off_to_on,4132.96835828,4157.05835517,4098.94817508,4126.45452832,4166.67406663,4233.78543314,4298.00491612,4147.5016896,4136.17689014,4018.82700059,4184.48177375,4254.86236052,4211.74523688,834.40894958
off_to_on,4133.36754566,4157.73411596,4099.03252259,4126.5024093,4167.67715405,4234.21512316,4298.35043741,4147.80736513,4136.19608789,4016.80376671,4182.33488317,4256.64692864,4213.26241878,818.763821967
off_to_on,4133.66195236,4158.26689378,4099.11404085,4126.55080565,4168.57386643,4234.47856978,4298.45388226,4148.03310132,4136.21584549,4015.01047282,4179.67666165,4258.13303942,4214.53825562,800.741326457
off_to_on,4133.85744763,4158.66220516,4099.19355981,4126.59912225,4169.37293335,4234.5957608,4298.34257578,4148.18577727,4136.23543428,4013.52671788,4176.54367711,4259.29438092,4215.55859789,781.095928089
off_to_on,4133.96168076,4158.9278181,4099.27192103,4126.64665196,4170.08506328,4234.58976872,4298.04873884,4148.27358366,4136.25411017,4012.42520334,4172.97981716,4260.11097272,4216.31394438,760.599393646
off_to_on,4133.98376188,4159.07336068,4099.34994619,4126.69261407,4170.7224656,4234.48581399,4297.60800144,4148.30559274,4136.27114606,4011.76851341,4169.03511748,4260.5692792,4216.79929827,740.015618189
off_to_on,4133.93392247,4159.10991395,4099.428407,4126.73619781,4171.29835628,4234.31030417,4297.05787448,4148.29132707,4136.28586378,4011.60624194,4164.76460587,4260.66221801,4217.01396181,720.076171395
off_to_on,4133.82317653,4159.04961457,4099.50799904,4126.77660826,4171.82647658,4234.08989933,4296.43625891,4148.24035176,4136.29766437,4011.97258628,4160.22720948,4260.38908819,4216.96129487,701.457411621
off_to_on,4133.66300091,4158.90528988,4099.5893219,4126.81311268,4172.32065057,4233.85064963,4295.7800648,4148.1619125,4136.30605509,4012.88450805,4155.48476215,4259.75543857,4216.64845918,684.759936119
off_to_on,4133.46505085,4158.69014358,4099.67286738,4126.84508456,4172.79440355,4233.6172446,4295.12400333,4148.06463735,4136.31067234,4014.3405369,4150.60113604,4258.77289217,4216.08616523,670.491023598
off_to_on,4133.24092303,4158.41750528,4099.7590173,4126.87204325,4173.26065804,4233.41240537,4294.49960169,4147.95631598,4136.3112992,4016.32026647,4145.6415089,4257.45893719,4215.28843352,659.050590029
off_to_on,4133.00197498,4158.10065228,4099.84805115,4126.89368687,4173.73151839,4233.25644206,4293.93447759,4147.84376484,4136.30787701,4018.78456489,4140.67176604,4255.83669004,4214.27237685,650.721031156
off_to_on,4132.75920553,4157.75270665,4099.94016368,4126.90991703,4174.21814977,4233.16698919,4293.45189541,4147.7327816,4136.30051073,4021.67649454,4135.75802491,4253.9346327,4213.05800623,645.661175066
off_to_on,4132.52319794,4157.38660628,4100.03549153,4126.92085358,4174.73075186,4233.15892277,4293.07061253,4147.62818794,4136.28946769,4024.92290976,4130.96626165,4251.78632343,4211.66805936,643.904424525
off_to_on,4132.30412303,4157.015144,4100.13414787,4126.92683893,4175.27862273,4233.24445423,4292.80501057,4147.53395484,4136.27517024,4028.43667704,4126.36201199,4249.43007834,4210.12784744,645.361037513
off_to_on,4132.11179701,4156.65106493,4100.23626305,4126.92843127,4175.87030358,4233.43338748,4292.66549285,4147.45340083,4136.25818243,4032.11943951,4122.01011407,4246.90861911,4208.46511346,649.824373957
off_to_on,4131.95578496,4156.30720808,4100.34202957,4126.92638678,4176.51379091,4233.73351781,4292.65911658,4147.38944981,4136.2391915,4035.86482814,4117.97445785,4244.26868045,4206.709892,656.980820918
off_to_on,4131.84553851,4155.99667554,4100.45174852,4126.92163152,4177.21679835,4234.15114348,4292.79041637,4147.34493154,4136.21898467,4039.56200596,4114.31770533,4241.56056956,4204.89435826,666.422996693
off_to_on,4131.7905534,4155.73300997,4100.56587507,4126.91522391,4177.9870472,4234.69165479,4293.06236579,4147.32290549,4136.19842209,4043.09941924,4111.1009471,4238.83766842,4203.05265232,677.665735139
off_to_on,4131.80053093,4155.53035966,4100.68506002,4126.90830947,4178.83256193,4235.36015981,4293.47741581,4147.32698667,4136.17840686,4046.3686222,4108.38326559,4236.15586939,4201.22066364,690.16427436
off_to_on,4131.88552586,4155.40361022,4100.8101846,4126.90206981,4179.76194522,4236.16210291,4294.03854374,4147.36165111,4136.15985298,4049.26803861,4106.22118087,4233.5729342,4199.43576042,703.334021204
off_to_on,4132.05606256,4155.3684618,4100.94238594,4126.89766844,4180.78460632,4237.1038304,4294.75024331,4147.43249873,4136.1436524,4051.70652544,4104.66796323,4231.14776714,4197.73644903,716.571232379
off_to_on,4132.32320178,4155.44143242,4101.08307051,4126.89619602,4181.91091724,4238.19305824,4295.61938698,4147.5464522,4136.13064222,4053.60660996,4103.7728058,4228.93959379,4196.16195014,729.273941738
off_to_on,4132.69854173,4155.6397704,4101.23391363,4126.89861771,4183.15227365,4239.43920033,4296.65589496,4147.71187286,4136.12157307,4054.90728267,4103.57986029,4227.00703975,4194.75168067,740.86246707
off_to_on,4133.19414015,4155.98126291,4101.396843,4126.9057253,4184.52104156,4240.85352161,4297.87315286,4147.93857763,4136.11707987,4055.56624371,4104.12715066,4225.40710758,4193.54463473,750.798842972
off_to_on,4133.82234794,4156.48393319,4101.57400539,4126.91809627,4186.03037641,4242.44908868,4299.28813092,4148.23774571,4136.11765578,4055.5615197,4105.44538989,4224.19405604,4192.57866259,758.604547467
off_to_on,4134.59554967,4157.16562507,4101.76771596,4126.93606203,4187.69390805,4244.24050124,4300.92117282,4148.62170875,4136.12363044,4054.89239094,4107.55673685,4223.41819349,4191.88965301,763.875925072
off_to_on,4135.5258121,4158.04348092,4101.98039093,4126.95968667,4189.525293,4246.24339964,4302.79544007,4149.10362494,4136.13515313,4053.57959415,4110.47354004,4223.12460542,4191.51063286,766.296766586
off_to_on,4136.62444785,4159.13332638,4102.21446515,4126.98875767,4191.53764347,4248.47375726,4304.93601833,4149.69704361,4136.15218168,4051.66479273,4114.19712425,4223.35184548,4191.47080541,765.647590426
off_to_on,4137.90150752,4160.44898262,4102.47229697,4127.02278886,4193.7428511,4250.94698032,4307.36871271,4150.41537392,4136.17447772,4049.20933388,4118.71668224,4224.13062784,4191.79455706,761.811280533
off_to_on,4139.36521959,4162.00153318,4102.75606385,4127.0610358,4196.15083174,4253.67685113,4310.11857908,4151.27127748,4136.20160863,4046.29233774,4124.00833741,4225.48256633,4192.50046891,754.774866735
off_to_on,4141.02140264,4163.79857835,4103.06765258,4127.10252285,4198.76872449,4256.6743629,4313.20825603,4152.27601012,4136.23295643,4043.00818835,4130.03444384,4227.41901199,4193.60037517,744.627378756
off_to_on,4142.87287851,4165.84351386,4103.40854881,4127.14608082,4201.600084,4259.946504,4316.65617692,4153.43874244,4136.26773348,4039.46351751,4136.74318684,4229.94004411,4195.09851417,731.553857827
off_to_on,4144.91891768,4168.13487294,4103.7797306,4127.19039366,4204.64410883,4263.49505609,4320.47475215,4154.76589182,4136.30500456,4035.77379054,4144.06854064,4233.03367134,4196.99081909,715.825762999
off_to_on,4147.15474891,4170.6657707,4104.18157109,4127.23405211,4207.89494926,4267.31547338,4324.66861718,4156.26049951,4136.34371464,4032.05961627,4151.93062896,4236.67529621,4199.26439391,697.788155448
off_to_on,4149.57116394,4173.4234868,4104.61375505,4127.27561217,4211.34113713,4271.39590907,4329.2330426,4157.9216863,4136.3827214,4028.44291203,4160.23651974,4240.82749056,4201.89721515,677.844176568
off_to_on,4152.15424531,4176.38921783,4105.07521388,4127.31365583,4214.96517547,4275.71645021,4334.15259703,4159.74421713,4136.42083142,4025.0430574,4168.88146698,4245.4401189,4204.85809222,656.43744823
off_to_on,4154.88524026,4179.53802299,4105.56408288,4127.34685165,4218.74332001,4280.24861311,4339.40014335,4161.71820112,4136.4568389,4021.97316823,4177.75059209,4250.450834,4208.10690864,634.033110964
off_to_on,4157.74059764,4182.83897894,4106.07768397,4127.37401283,4222.6455758,4284.95514002,4344.93623369,4163.82894728,4136.48956553,4019.33661515,4186.72097548,4255.78595358,4211.59515401,611.098273931
off_to_on,4160.69217766,4186.25554977,4106.61253584,4127.39415025,4226.63592299,4289.79012397,4350.70895062,4166.05698938,4136.51790004,4017.22389944,4195.66410855,4261.36171156,4215.26674428,588.082676583
off_to_on,4163.7076367,4189.74616915,4107.16439269,4127.40651864,4230.67277545,4294.69947358,4356.65422213,4168.37828614,4136.54083631,4015.70998454,4204.44863806,4267.0858615,4219.05911516,565.400354524
off_to_on,4166.75098175,4193.26502236,4107.72831134,4127.41065376,4234.70966587,4299.62171497,4362.69661717,4170.76459542,4136.55750837,4014.85216394,4212.94331972,4272.85959549,4222.90456213,543.413061495
off_to_on,4169.78328178,4196.76300728,4108.2987456,4127.40639912,4238.6961409,4304.48911316,4368.75060807,4173.18401391,4136.56722124,4014.68852647,4221.02008634,4278.5797277,4226.73178948,522.416127125
off_to_on,4172.76351638,4200.18884569,4108.86966553,4127.39392118,4242.57884118,4309.22908181,4374.72226667,4175.60166697,4136.56947631,4015.23705894,4228.5571288,4284.14108041,4230.46762199,502.627329257
off_to_on,4175.6495361,4203.49030966,4109.43469811,4127.37371222,4246.30273311,4313.76583852,4380.51134308,4177.980527,4136.56399053,4016.49540351,4235.44188472,4289.43900064,4234.03882517,484.179234383
off_to_on,4178.39910401,4206.61552298,4109.98728506,4127.34658081,4249.81245324,4318.02225234,4386.01366073,4180.28233398,4136.55070824,4018.44126556,4241.57383134,4294.37192896,4237.373975,467.115315428
off_to_on,4180.97098417,4209.51429422,4110.52085243,4127.31363018,4253.05372129,4321.92182242,4391.12374863,4182.46858698,4136.52980545,4021.03344581,4246.8669847,4298.84393896,4240.40531565,451.389998782
off_to_on,4183.32604043,4212.13943668,4111.02898659,4127.27622531,4255.97477492,4325.390721,4395.73762309,4184.50157359,4136.50168594,4024.21345087,4251.25201693,4302.76716517,4243.07054293,436.872628856
off_to_on,4185.42830782,4214.44803084,4111.50561031,4127.23595004,4258.52777835,4328.35983131,4399.75562526,4186.34540176,4136.46696933,4027.90761784,4254.67791678,4306.06404002,4245.31445401,423.355175273
off_to_on,4187.24599931,4216.40258665,4111.94515313,4127.19455588,4260.67015742,4330.76671059,4403.08521894,4187.96699916,4136.42647138,4032.02967344,4257.11313517,4308.66926651,4247.09040746,410.563352121
off_to_on,4188.75241276,4217.97206675,4112.34271003,4127.15390446,4262.36581623,4332.55741134,4405.64365419,4189.33704589,4136.38117733,4036.48363528,4258.5461768,4310.53146155,4248.36154506,398.170676774
off_to_on,4189.92670598,4219.13273697,4112.6941831,4127.11590579,4263.58619506,4333.68809952,4407.3604072,4190.43080913,4136.33220904,4041.16695433,4258.98562021,4311.61441726,4249.10173525,385.814873706
off_to_on,4190.75451313,4219.86881702,4112.99640129,4127.08245475,4264.3111351,4334.12641628,4408.17931563,4191.22885204,4136.28078734,4045.9737924,4258.45957052,4311.89794157,4249.2962088,373.115931399
off_to_on,4191.22838147,4220.17291211,4113.24721443,4127.05536821,4264.52952329,4333.85253999,4408.06034077,4191.71759461,4136.22819102,4050.79832742,4257.01457156,4311.37825575,4248.9418697,359.695051871
off_to_on,4191.34801428,4220.046215,4113.44555823,4127.03632522,4264.23969869,4332.85991683,4406.98090287,4191.8897099,4136.17571396,4055.53798191,4254.71402424,4310.06794321,4248.04727654,345.193695305
off_to_on,4191.12031315,4219.49847608,4113.59148848,4127.02681231,4263.44961069,4331.15564053,4404.93675203,4191.74434556,4136.12462239,4060.09647591,4251.63617631,4307.99546024,4246.63230244,329.291918112
off_to_on,4190.55921997,4218.54774787,4113.6861833,4127.02807602,4262.17672776,4328.76047422,4401.94235458,4191.2871671,4136.07611385,4064.38661428,4247.87176353,4305.20423486,4244.72749264,311.725231609
off_to_on,4189.68536605,4217.21991704,4113.73191352,4127.04108399,4260.44770342,4325.70851899,4398.03079103,4190.53022565,4136.03127963,4068.33272887,4243.52139239,4301.7513924,4242.37314902,292.299269006
off_to_on,4188.52554168,4215.54804345,4113.7319823,4127.06649601,4258.29781295,4322.04654452,4393.25317673,4189.49165824,4135.99107203,4071.87270878,4238.69276033,4297.7061573,4239.61817766,270.901637947
off_to_on,4187.11200511,4213.57153032,4113.69063601,4127.10464574,4255.77018089,4317.83300592,4387.67762989,4188.1952336,4135.95627776,4074.95956554,4233.4978109,4293.14798799,4236.51874174,247.510450659
off_to_on,4185.48165371,4211.33515326,4113.61294913,4127.1555337,4252.91482377,4313.13677867,4381.38782203,4186.66976002,4135.92749817,4077.56249548,4228.04991816,4288.16450728,4233.13676473,222.199159064
off_to_on,4183.67508417,4208.88797833,4113.50468682,4127.21883137,4249.7875367,4308.03564952,4374.48115591,4184.94837509,4135.90513701,4079.66741735,4222.46118856,4282.84929358,4229.53833161,195.137472313
off_to_on,4181.73557029,4206.28220093,4113.37214935,4127.29389612,4246.4486553,4302.61460585,4367.0666229,4183.06773953,4135.88939572,4081.27697976,4216.83995911,4277.29959887,4225.79203548,166.588293009
off_to_on,4179.7079891,4203.57193776,4113.22200309,4127.37979599,4242.961726,4296.96396981,4359.26239826,4181.06715875,4135.88027645,4082.41004953,4211.2885592,4271.61405825,4221.96731668,136.900769387
off_to_on,4177.63772659,4200.81200399,4113.06110325,4127.47534333,4239.39211932,4291.17742591,4351.19323709,4178.98765708,4135.87759216,4083.10070761,4205.90138987,4265.89045295,4218.13283958,106.499717357
off_to_on,4175.56959412,4198.05670714,4112.89631363,4127.57913547,4235.80562076,4285.34999236,4342.98773755,4176.87102973,4135.88098344,4083.39679444,4200.76335996,4260.2235845,4214.35494928,75.8718123245
off_to_on,4173.54678616,4195.35868761,4112.73432877,4127.68960095,4232.2670336,4279.57598656,4334.77553976,4174.75889748,4135.88994114,4083.3580599,4195.94870355,4254.70331204,4210.69624704,45.5490802573
off_to_on,4171.60990737,4192.76783377,4112.58150399,4127.80504908,4228.83882654,4273.94703388,4326.6845296,4172.69178793,4135.90383367,4083.05398442,4191.5201881,4249.41279761,4207.2143185,16.0903253936
do_nothing,4169.79609493,4190.3302966,4112.44369811,4127.92372125,4225.57985713,4268.55016684,4318.83811571,4170.70826591,4135.92193794,4082.56134712,4187.52870811,4244.42699661,4203.96064326,-11.9387858744
do_nothing,4168.13825814,4188.08762594,4112.32613366,4128.04384169,4222.54419983,4263.46605897,4311.35264571,4168.84413353,4135.94347244,4081.96162369,4184.01324613,4239.81142141,4200.97970868,-37.9862120293
do_nothing,4166.66445348,4186.07604613,4112.23327842,4128.16366627,4219.78010474,4258.76743416,4304.33502337,4167.13171807,4135.96763118,4081.33830019,4181.00117075,4235.62119748,4198.30834397,-61.5337978305
do_nothing,4165.39740894,4184.32588521,4112.16875142,4128.28152737,4217.32911017,4254.517688,4297.88058343,4165.59926331,4135.99361689,4080.77419025,4178.50883115,4231.90042146,4195.97528363,-82.1165188506
do_nothing,4164.3542069,4182.86116664,4112.13525574,4128.39587376,4215.22532833,4250.7697521,4292.07127326,4164.27043662,4136.02067225,4080.34884054,4176.54239953,4228.68182197,4194.00096231,-99.3399508448
do_nothing,4163.54612952,4181.69936829,4112.13453949,4128.50530415,4213.49491908,4247.56522554,4286.97418196,4163.16396082,4136.04810777,4080.13610444,4175.09890673,4225.98671467,4192.39753577,-112.895265885
do_nothing,4162.97866568,4180.85134797,4112.1673855,4128.60859378,4212.15576115,4244.93378987,4282.64044738,4162.2933761,4136.07532528,4080.2019564,4174.16741281,4223.8252355,4191.16911599,-122.57114499
do_nothing,4162.65167325,4180.32143045,4112.23362936,4128.70471369,4211.21732497,4242.89291551,4279.10456054,4161.66693339,4136.10183615,4080.60260922,4173.73025352,4222.19682862,4190.31220221,-128.262111213
do_nothing,4162.55968557,4180.10764599,4112.33220457,4128.79284258,4210.68074481,4241.4478591,4276.38407543,4161.287617,4136.1272737,4081.38298509,4173.76430516,4221.09095953,4189.81628406,-129.972922962
do_nothing,4162.6923468,4180.2021063,4112.4612128,4128.87237187,4210.53908269,4240.59194317,4274.47972136,4161.15329053,4136.15139946,4082.57557817,4174.24221411,4220.48801887,4189.66458825,-127.818815851
do_nothing,4163.03495748,4180.59150062,4112.61801652,4128.94290453,4210.77777129,4240.30710219,4273.37590404,4161.25695728,4136.17410332,4084.1997328,4175.13354364,4220.3603789,4189.83493681,-122.021534381
do_nothing,4163.56910902,4181.25769206,4112.79935033,4129.00424873,4211.37521883,4240.56467308,4273.04157211,4161.58712326,4136.1953977,4086.26134812,4176.40579857,4220.67356268,4190.30068298,-112.901250414
do_nothing,4164.27338435,4182.17839293,4113.00144721,4129.05640722,4212.3035559,4241.32640334,4273.4314182,4162.12824933,4136.21540639,4088.75300653,4178.02529813,4221.38748658,4191.03169078,-100.864625922
do_nothing,4165.12410171,4183.32789777,4113.22017494,4129.09956359,4213.52950196,4242.54564654,4274.48737715,4162.86127769,4136.2343484,4091.65451141,4179.95787883,4222.45773886,4191.99532621,-86.3894391939
do_nothing,4166.09607854,4184.67785325,4113.45117817,4129.13406613,4215.01532826,4244.16871281,4276.14038041,4163.76421706,4136.25251778,4094.9338084,4182.1694208,4223.83686044,4193.15743113,-70.0063437905
do_nothing,4167.16339395,4186.19804521,4113.69002164,4129.16041015,4216.71989302,4246.13634066,4278.31232228,4164.81277141,4136.27026008,4098.54825406,4184.62620272,4225.47559882,4194.4832549,-52.2784541882
do_nothing,4168.30012936,4187.85718426,4113.9323303,4129.17921935,4218.59972452,4248.38525572,4280.91819113,4165.98099673,4136.2879465,4102.4461868,4187.29510089,4227.32411004,4195.93832319,-33.7795452384
do_nothing,4169.48106916,4189.62367281,4114.1739224,4129.1912268,4220.61012723,4250.84978148,4283.86831618,4167.24197109,4136.30594694,4106.56874642,4190.14365656,4229.33308825,4197.48922743,-15.0717130453
do_nothing,4170.68234512,4191.4663378,4114.41093216,4129.19725578,4222.70628657,4253.46346646,4287.07067788,4168.56846341,4136.32460307,4110.85188216,4193.14004178,4231.45480606,4199.1043222,3.31662824352
do_nothing,4171.88201069,4193.35511478,4114.63991888,4129.19820093,4224.84434767,4256.16069254,4290.43322787,4169.9335867,4136.34420293,4115.22848384,4196.25295826,4233.64405255,4200.7543217,20.9115461417
do_nothing,4173.06053393,4195.26167091,4114.85796007,4129.19500966,4226.98244472,4258.87822873,4293.86616364,4171.31142229,4136.36495802,4119.63056802,4199.4515048,4235.85895896,4202.41279001,37.3123577199
do_nothing,4174.20119981,4197.15995562,4115.06272679,4129.18866422,4229.08165744,4261.55669513,4297.28410244,4172.67760178,4136.38698435,4123.99144958,4202.70504695,4238.0617042,4204.05652239,52.207608123
do_nothing,4175.29041526,4199.02666925,4115.25253986,4129.18016442,4231.10687234,4264.14190217,4300.60810019,4174.00983425,4136.41028809,4128.24782981,4205.98311821,4240.21909359,4205.665817,65.3876038168
do_nothing,4176.31791181,4200.84164057,4115.42640619,4129.17051119,4233.02752691,4266.58603063,4303.76746208,4175.28836673,4136.43475684,4132.34173423,4209.25537502,4242.30300429,4207.22463731,76.752973984
do_nothing,4177.27684299,4202.5881053,4115.58403468,4129.16069121,4234.81821613,4268.84861988,4306.70129401,4176.49636661,4136.46015684,4136.22223737,4212.49161963,4244.29069051,4208.72066584,86.3188840056
do_nothing,4178.16377519,4204.25287893,4115.72583115,4129.15166259,4236.45914301,4270.89733416,4309.3597483,4177.6202154,4136.4861363,4139.84691802,4215.66189674,4246.16494179,4210.14525035,94.2146908233
do_nothing,4178.97857297,4205.82641886,4115.85287229,4129.14434187,4237.93639777,4272.70848116,4311.70492261,4178.64970499,4136.5122349,4143.18299707,4218.73666194,4247.91408848,4211.49324474,100.679006419
do_nothing,4179.72418194,4207.30277331,4115.9668588,4129.13959215,4239.24205431,4274.26726284,4313.71137954,4179.57812919,4136.53789896,4146.20812069,4221.68701367,4249.53185085,4212.76274854,106.050315956
do_nothing,4180.40631482,4208.67941733,4116.07004824,4129.13821256,4240.37407754,4275.56774525,4315.36626442,4180.40226625,4136.5625019,4148.91076423,4224.48497531,4251.0170315,4213.95475129,110.753472507
do_nothing,4181.03304863,4209.95697917,4116.16516893,4129.14092865,4241.33604076,4276.61254278,4316.66901113,4181.12225118,4136.58536899,4151.29024545,4227.10381021,4252.37305444,4215.07269045,115.282553492
do_nothing,4181.61434378,4211.13886367,4116.25531674,4129.14838387,4242.13665867,4277.41222165,4317.63063883,4181.74134009,4136.60580562,4153.35634969,4229.5183504,4253.60735867,4216.12193398,120.180710186
do_nothing,4182.16149838,4212.23078297,4116.34383704,4129.16113164,4242.78914852,4277.98443783,4318.27265718,4182.26557269,4136.62312775,4155.12858314,4231.70531879,4254.73065857,4217.10920113,126.017765018
do_nothing,4182.68655366,4213.24020829,4116.43419487,4129.17962804,4243.31043863,4278.35283505,4318.62561153,4182.70334244,4136.63669349,4156.63508343,4233.64362514,4255.75608867,4218.04193761,133.366405357
do_nothing,4183.20166902,4214.17576033,4116.52983696,4129.20422474,4243.72025024,4278.54573829,4318.72731448,4183.06488754,4136.6459342,4157.91122918,4235.31461825,4256.69825513,4218.92766321,142.777882913
do_nothing,4183.71848666,4215.04655907,4116.63404964,4129.23516228,4244.04008433,4278.59468791,4318.62082415,4183.36171944,4136.65038381,4158.99800114,4236.70228061,4257.57222231,4219.77331314,154.75815383
do_nothing,4184.24750813,4215.86155669,4116.74981719,4129.27256367,4244.29215013,4278.53286702,4318.3522425,4183.60600875,4136.64970498,4159.94015757,4237.79335715,4258.39246791,4220.58459647,169.745385238
do_nothing,4184.79750551,4216.62887991,4116.87968585,4129.31642852,4244.49827548,4278.39348144,4317.96841782,4183.80995139,4136.64371069,4160.78429413,4238.57741629,4259.17184524,4221.36539735,188.089707793
do_nothing,4185.37499053,4217.35520911,4117.02563826,4129.36662811,4244.6788415,4278.20815512,4317.51464212,4183.98513964,4136.63238032,4161.57686348,4239.04684797,4259.92059463,4222.11724562,210.03601227
do_nothing,4185.98376434,4218.04522193,4117.18898378,4129.42290171,4244.85178388,4278.00540564,4317.03243638,4184.14196363,4136.61586924,4162.36223213,4239.19680944,4260.64544752,4222.83888335,235.710476299
do_nothing,4186.62456846,4218.70112805,4117.37026918,4129.48485451,4245.03170197,4277.80926224,4316.55751458,4184.28906846,4136.5945114,4163.18085029,4239.02513394,4261.34886614,4223.52595189,265.111369333
do_nothing,4187.29485492,4219.32231941,4117.56921411,4129.55195776,4245.22911304,4277.63808469,4316.11801139,4184.43289019,4136.56881455,4164.06760626,4238.53222059,4262.02845905,4224.17082085,298.104523649
do_nothing,4187.98868968,4219.90515624,4117.78467486,4129.62355158,4245.44988433,4277.50363426,4315.7330488,4184.5772919,4136.53944822,4165.05042931,4237.72092445,4262.67660748,4224.76257599,334.423682669
do_nothing,4188.69679837,4220.44290439,4118.01463933,4129.69885099,4245.69486914,4277.4104388,4315.41170498,4184.7233168,4136.5072246,4166.14919493,4236.5964654,4263.28033083,4225.28717681,373.675753589
do_nothing,4189.40675829,4220.92583301,4118.2562549,4129.77695576,4245.95976547,4277.35548293,4315.15243315,4184.86907137,4136.47307288,4167.37497414,4235.1663715,4263.8214101,4225.72778778,415.350806656
do_nothing,4190.10333445,4221.34147469,4118.50589002,4129.85686441,4246.23520725,4277.32824127,4314.94296147,4185.00974642,4136.43800818,4168.72965462,4233.44046848,4264.27677768,4226.06527933,458.836483957
do_nothing,4190.76895144,4221.67504297,4118.75922875,4129.93749255,4246.5070885,4277.31105872,4314.76068536,4185.13777828,4136.40309606,4170.2059467,4231.43092162,4264.61917027,4226.27888648,503.436312847
do_nothing,4191.38428706,4221.90999482,4119.01139648,4130.01769549,4246.75711126,4277.27986711,4314.57354376,4185.24314651,4136.36941419,4171.78777205,4229.15233036,4264.81803008,4226.34700562,548.391271539
do_nothing,4191.92896826,4222.02871906,4119.25711357,4130.09629476,4246.96353808,4277.20521276,4314.34134983,4185.31379859,4136.33801283,4173.45101758,4226.62187011,4264.84062804,4226.24810304,592.903832493
do_nothing,4192.38234502,4222.01332602,4119.49087231,4130.17210781,4247.10212085,4277.05355572,4314.01752691,4185.33618635,4136.30987581,4175.16462307,4223.85946953,4264.65337199,4225.96170227,636.163616162
do_nothing,4192.72431363,4221.84650767,4119.70713187,4130.24398002,4247.14716911,4276.78878844,4313.5511819,4185.29589366,4136.28588358,4176.89195717,4220.88800605,4264.22325262,4225.46941249,677.373726684
do_nothing,4192.93615737,4221.51243314,4119.90052423,4130.31081767,4247.07271419,4276.37391084,4312.88943204,4185.17833008,4136.2667801,4178.5924248,4217.73349647,4263.51937065,4224.75595467,715.776815996
do_nothing,4193.00137014,4220.99764056,4120.0660638,4130.37162064,4246.8537197,4275.77278986,4311.97988738,4184.96946105,4136.25314465,4180.2232392,4214.42525537,4262.51448125,4223.81013921,750.679934771
do_nothing,4192.90642799,4220.29188407,4120.19935226,4130.42551323,4246.46728598,4274.95192641,4310.77318175,4184.65654296,4136.24536988,4181.74128486,4210.99599102,4261.18648659,4222.62574697,781.477275078
do_nothing,4192.64147448,4219.38889572,4120.29677032,4130.47177178,4245.89379584,4273.88215161,4309.22544182,4184.2288297,4136.24364693,4183.10499468,4207.48180859,4259.51980743,4221.20226772,807.669988731
do_nothing,4192.20088932,4218.28702495,4120.35564831,4130.50984777,4245.11795169,4272.54017795,4307.30058611,4183.67821914,4136.24795798,4184.27616528,4203.92209416,4257.50656827,4219.54545538,828.882375261
do_nothing,4191.58371472,4216.98972407,4120.37440813,4130.53938533,4244.12966001,4270.90993861,4304.97235505,4182.99981001,4136.25807674,4185.22163901,4200.35925832,4255.1475388,4217.66766748,844.873870217
do_nothing,4190.79391999,4215.50585511,4120.35267054,4130.56023236,4242.92472623,4268.98365897,4302.22598605,4182.19234457,4136.27357648,4185.91478819,4196.83832654,4252.45278526,4215.58796633,855.546421056
do_nothing,4189.84049186,4213.84980112,4120.29132283,4130.57244464,4241.50533235,4266.76261694,4299.05946425,4181.25851711,4136.29384551,4186.33674628,4193.40637133,4249.44199741,4213.33197001,860.947007806
do_nothing,4188.73734517,4212.04137368,4120.19254347,4130.5762829,4239.88027859,4264.25756261,4295.48429765,4180.20513449,4136.31810924,4186.47734139,4190.11179027,4246.14447025,4210.93145171,861.265244293
do_nothing,4187.50305535,4210.10551604,4120.05978229,4130.5722027,4238.06498017,4261.48878151,4291.52578496,4179.04312064,4136.34545798,4186.33569923,4187.00344188,4242.59873297,4208.42369633,856.826176222
do_nothing,4186.16042132,4208.07180979,4119.89769585,4130.56083778,4236.0812194,4258.48579929,4287.22276375,4177.78736306,4136.37487946,4185.92049498,4184.1296591,4238.85183135,4205.85063261,848.078566363
do_nothing,4184.73587286,4205.97379976,4119.71203972,4130.54297741,4233.95666189,4255.28673826,4282.62684523,4176.4564049,4136.40529473,4185.24984652,4181.53716668,4234.95828254,4203.25776746,835.579117822
do_nothing,4183.25874184,4203.84815809,4119.50952081,4130.51953886,4231.7241534,4251.9373475,4277.80115983,4175.07199192,4136.43559622,4184.35085406,4179.26993392,4230.97873285,4200.69295624,819.973229576
do_nothing,4181.76042072,4201.7337138,4119.29761413,4130.49153636,4229.42082068,4248.48973892,4272.8186545,4173.6584883,4136.46468636,4183.25880327,4177.36799888,4226.97835964,4198.20504855,801.972999086
do_nothing,4180.27343525,4199.67037821,4119.08434966,4130.46004804,4227.08700611,4245.00087148,4267.75999856,4172.24218008,4136.49151549,4182.01606114,4175.86630255,4223.02506688,4195.84245331,782.333278991
do_nothing,4178.83046105,4197.69800004,4118.87807593,4130.42618246,4224.76507114,4241.53083416,4262.71116865,4170.85048943,4136.51511771,4180.67070401,4174.79357329,4219.1875312,4193.6516695,761.826655233
do_nothing,4177.4633157,4195.85518639,4118.68720749,4130.39104628,4222.49810811,4238.14098565,4257.7607953,4169.51112593,4136.53464313,4179.27492646,4174.1713023,4215.53316037,4191.67583089,741.218242257
do_nothing,4176.20195937,4194.17812759,4118.5199641,4130.35571451,4220.32860344,4234.89201396,4252.99736194,4168.25120406,4136.54938575,4177.88328747,4174.0128492,4212.12603029,4189.95331282,721.241186034
do_nothing,4175.07353702,4192.69946414,4118.38410964,4130.32120458,4218.29709657,4231.84198231,4248.50635291,4167.09635734,4136.55880563,4176.55085583,4174.32271496,4209.02486803,4188.51644825,702.573724208
do_nothing,4174.10149447,4191.44723381,4118.28669925,4130.28845507,4216.44087991,4229.04442838,4244.36744876,4166.06988019,4136.56254499,4175.33131999,4175.09601496,4206.28114913,4187.39039796,685.818573468
do_nothing,4173.30479828,4190.44393434,4118.2338431,4130.2583097,4214.79278337,4226.54658311,4240.65186684,4165.19192761,4136.56043754,4174.27512944,4176.31817996,4203.93737469,4186.59221581,671.485302087
do_nothing,4172.69728681,4189.70573473,4118.23049497,4130.23150665,4213.3800851,4224.38777096,4237.41994091,4164.47880163,4136.55251117,4173.42773289,4177.96490569,4202.02558996,4186.13014427,659.976210542
do_nothing,4172.28717522,4189.24186297,4118.28027336,4130.20867303,4212.2235858,4222.59804858,4234.71902618,4163.94235043,4136.53898389,4172.82797551,4180.00236293,4200.56619898,4186.0031689,651.576095813
do_nothing,4172.07673253,4189.05419319,4118.38532167,4130.19032401,4211.33687917,4221.19713012,4232.58180541,4163.58950262,4136.52025355,4172.50671122,4182.38767015,4199.56712118,4186.20085151,646.446125077
do_nothing,4172.06214334,4189.13704851,4118.54621287,4130.17686588,4210.72584461,4220.19363838,4231.02505802,4163.42195419,4136.49688173,4172.48567824,4185.06962039,4199.02332512,4186.70345322,644.621901073
do_nothing,4172.23356051,4189.47722955,4118.76190255,4130.1686021,4210.38838157,4219.58470969,4230.04893879,4163.43602096,4136.46957267,4172.77667675,4187.98964467,4198.91676268,4187.48234899,646.015670262
do_nothing,4172.57534901,4190.05427127,4119.02973254,4130.1657415,4210.3143966,4219.35596881,4229.6367959,4163.62266328,4136.43914791,4173.38107715,4191.08298628,4199.21671389,4188.50072595,650.422504552
do_nothing,4173.06651468,4190.84092375,4119.34548562,4130.16840741,4210.48604647,4219.48187761,4229.75553985,4163.96768413,4136.40651767,4174.28967568,4194.28005321,4199.8805393,4189.71454844,657.530171498
do_nothing,4173.68130579,4191.80384542,4119.70349062,4130.17664678,4210.8782316,4219.92644902,4230.35655562,4164.45209598,4136.37265003,4175.48290294,4197.50791085,4200.85482241,4191.07376409,666.932295712
do_nothing,4174.38996945,4192.90449052,4120.09677496,4130.19043843,4211.45932628,4220.64430553,4231.37713197,4165.05264567,4136.33853896,4176.93137809,4200.69187296,4202.07687173,4192.52371649,678.144314455
do_nothing,4175.15964025,4194.10016631,4120.51726063,4130.20969966,4212.19212362,4221.58204978,4232.7423627,4165.74248168,4136.30517243,4178.59679048,4203.75714672,4203.47653898,4194.00672324,690.621652455
do_nothing,4175.95533397,4195.34523027,4120.95599788,4130.2342906,4213.03496645,4222.67990433,4234.36745849,4166.4919427,4136.27350174,4180.43307938,4206.6304871,4204.97829962,4195.46377195,703.779487441
do_nothing,4176.74101627,4196.59239308,4121.40342947,4130.26401618,4213.94302868,4223.87356809,4236.16039299,4167.26944285,4136.24441306,4182.38787257,4209.24181694,4206.50353257,4196.83628299,717.01344651
do_nothing,4177.48071327,4197.79408953,4121.8496773,4130.29862562,4214.8697066,4225.09622937,4238.02479579,4168.04242531,4136.21870212,4184.40413674,4211.52577155,4207.97292933,4198.0678847,729.720561496
do_nothing,4178.13962982,4198.90387677,4122.28484232,4130.33780957,4215.76807554,4226.28067012,4239.86299638,4168.77835392,4136.19705289,4186.42198509,4213.4231303,4209.30895731,4199.10614622,741.319814854
do_nothing,4178.68524061,4199.87781781,4122.69930807,4130.38119543,4216.59236465,4227.36139244,4241.5791183,4169.44571099,4136.18002078,4188.38058284,4214.88210157,4210.43829892,4199.90421257,751.271620532
do_nothing,4179.08831952,4200.67580749,4123.08403795,4130.42834147,4217.29940202,4228.27669787,4243.08212055,4170.01496903,4136.16802074,4190.22008695,4215.85943181,4211.29418667,4200.42228851,759.095605349
do_nothing,4179.32387445,4201.26279879,4123.43085628,4130.47873055,4217.84998225,4228.97065106,4244.28868417,4170.4595047,4136.16132051,4191.8835549,4216.32131408,4211.81855553,4200.62892061,764.386091592
do_nothing,4179.37195702,4201.60988959,4123.73270381,4130.53176459,4218.2101111,4229.39486228,4245.12584564,4170.75642472,4136.16003907,4193.3187576,4216.24407604,4211.96393768,4200.50203186,766.824739309
do_nothing,4179.21832012,4201.69523337,4123.98385897,4130.58676075,4218.35208477,4229.51002853,4245.53328574,4170.88727557,4136.16414995,4194.47983394,4215.61463283,4211.69503146,4200.02966998,766.189891553
do_nothing,4178.85490064,4201.5047424,4124.18011732,4130.64295033,4218.25536657,4229.28718004,4245.46519283,4170.83861272,4136.17348901,4195.32873001,4214.43069604,4210.98988587,4199.2104392,762.362276222
do_nothing,4178.28010992,4201.03255783,4124.31892279,4130.69948133,4217.90723003,4228.70858819,4244.89163408,4170.60240936,4136.18776614,4195.8363732,4212.70073662,4209.84065418,4198.05359528,755.326849167
do_nothing,4177.49892091,4200.28126873,4124.39944602,4130.75542511,4217.30314538,4227.76830271,4243.79938546,4170.17629018,4136.2065802,4195.98354171,4210.44370648,4208.25388489,4196.5787952,745.170708651
do_nothing,4176.52274772,4199.26187021,4124.42260665,4130.80978746,4216.44689541,4226.4722989,4242.1921918,4169.56358194,4136.22943642,4195.76140084,4207.68853058,4206.25033458,4194.8155049,732.077164122
do_nothing,4175.3691205,4197.99345944,4124.39103838,4130.86152413,4215.3504164,4224.83822978,4240.09044934,4168.7731793,4136.25576559,4195.17169058,4204.47338762,4203.86430491,4192.80208117,716.31619543
do_nothing,4174.06116592,4196.50267738,4124.30899764,4130.90956063,4214.03336949,4222.89479227,4237.53032527,4167.81923053,4136.28494411,4194.22656138,4200.84480316,4201.14252381,4190.58455578,698.23168485
do_nothing,4172.6269101,4194.82291297,4124.18221884,4130.9528159,4212.52245788,4220.68073025,4234.5623493,4166.72065487,4136.3163142,4192.94806853,4196.85658321,4198.14260852,4188.21516206,678.225936801
do_nothing,4171.09842703,4192.99329493,4124.01772103,4130.99022925,4210.8505142,4218.24351089,4231.2495326,4165.50050862,4136.34920334,4191.36734783,4192.56862006,4194.93116457,4185.75065416,656.742112737
do_nothing,4169.51086118,4191.05750385,4123.82357263,4131.02079021,4209.05539071,4215.63772193,4227.66508688,4164.18522333,4136.38294239,4189.52350716,4188.04560476,4191.58158907,4183.25047847,634.245296094
do_nothing,4167.90135728,4189.06244385,4123.60862256,4131.04357023,4207.17869244,4212.92324837,4223.88983183,4162.80374381,4136.41688175,4187.46227831,4183.35568125,4188.17165868,4180.77486294,611.202960324
do_nothing,4166.30793328,4187.05681793,4123.38220703,4131.0577557,4205.26439868,4210.16329444,4220.00939014,4161.38659747,4136.45040516,4185.23448182,4178.56907726,4184.78099042,4178.3828935,588.065639144
do_nothing,4164.76833456,4185.08965405,4123.15384263,4131.0626811,4203.35742221,4207.42232168,4216.11127547,4159.96492858,4136.48294108,4182.89436264,4173.75674449,4181.48846764,4176.13064703,565.248590885
do_nothing,4163.31890693,4183.2088304,4122.9329162,4131.05786149,4201.5021565,4204.76397496,4212.28197955,4158.56953153,4136.51397131,4180.49785729,4168.98903683,4178.36972315,4174.06944719,543.115208332
do_nothing,4161.99352438,4181.45964634,4122.72838241,4131.04302336,4199.74105986,4202.24906553,4208.60415968,4157.22991583,4136.54303701,4178.10085276,4164.33445048,4175.49476598,4172.24430225,521.962853439
do_nothing,4160.82260352,4179.88348207,4122.54847925,4131.01813269,4198.11332101,4199.93367368,4205.15401805,4155.97343236,4136.56974225,4175.75749421,4159.85844348,4172.92582858,4170.69257438,502.011695632
do_nothing,4159.83223152,4178.51658474,4122.40047041,4130.98341932,4196.65364465,4197.86742471,4201.99895078,4154.8244862,4136.59375502,4173.51859319,4155.62234627,4170.71549833,4169.4429176,483.397007494
do_nothing,4159.04342907,4177.38901165,4122.29042271,4130.93939614,4195.39118879,4196.09198215,4199.19552913,4153.80385621,4136.61480631,4171.43018073,4151.68236932,4168.9051824,4168.51450832,466.165227584
do_nothing,4158.47156326,4176.52375482,4122.22302444,4130.88687208,4194.34867805,4194.63979203,4196.78785869,4152.92813641,4136.63268736,4169.53224218,4148.0887099,4167.52393917,4167.91657938,450.273943182
do_nothing,4158.12592016,4175.93606375,4122.20144941,4130.82695746,4193.54171005,4193.53310156,4194.80634555,4152.20930857,4136.64724562,4167.85766123,4144.88475719,4166.58769402,4167.64825574,435.595782424
do_nothing,4158.00944062,4175.63297649,4122.22726936,4130.76106058,4192.97826497,4192.78326612,4193.26688252,4151.65445058,4136.65837974,4166.43139263,4142.10639346,4166.09884247,4167.69867855,421.926042529
do_nothing,4158.11861822,4175.6130631,4122.30041587,4130.69087453,4192.65842178,4192.39034912,4192.17045362,4151.2655802,4136.66603408,4165.26987426,4139.78138995,4166.04623086,4168.04739543,408.993725351
do_nothing,4158.44355435,4175.8663805,4122.41919143,4130.61835355,4192.57427926,4192.34301186,4191.50314407,4151.03963038,4136.67019315,4164.38068284,4137.92889814,4166.40549455,4168.66498812,396.475509938
do_nothing,4158.96816208,4176.37463372,4122.58032783,4130.54567846,4192.71007584,4192.61868438,4191.23653434,4150.96854947,4136.67087632,4163.76243165,4136.55904107,4167.13972656,4169.51390517,384.01206986
do_nothing,4159.67050922,4177.11153561,4122.77908918,4130.47521113,4193.04249858,4193.18400395,4191.32845044,4151.03951751,4136.66813322,4163.40490383,4135.67261326,4168.20044428,4170.54946539,371.22604591
do_nothing,4160.52328844,4178.04335406,4123.00941524,4130.40943862,4193.54116944,4193.99550381,4191.72403755,4151.23526849,4136.66203998,4163.28941085,4135.26090119,4169.52881804,4171.72099723,357.74091629
do_nothing,4161.49440177,4179.12963279,4123.26410025,4130.35090779,4194.16929402,4195.00053107,4192.35711888,4151.53450723,4136.65269662,4163.38936155,4135.30563813,4171.0571223,4172.97307906,343.199969324
do_nothing,4162.54764474,4180.32406924,4123.53500121,4130.30215204,4194.88445597,4196.13836968,4193.15179778,4151.91240809,4136.64022555,4163.67102369,4135.77910836,4172.71036842,4174.24684641,327.284579497
do_nothing,4163.64347481,4181.5755302,4123.81326919,4130.26561211,4195.63953834,4197.34154125,4194.0242584,4152.34118272,4136.62477114,4164.09445648,4136.6444151,4174.40807629,4175.48133368,309.731016257
do_nothing,4164.7398476,4182.82918337,4124.08959653,4130.24355321,4196.3837514,4198.53725492,4194.88471856,4152.79070296,4136.60650041,4164.61458976,4137.8559251,4176.06614209,4176.61482003,290.345075251
do_nothing,4165.79310368,4184.02772073,4124.35447272,4130.23798146,4197.06374525,4199.64897538,4195.63948897,4153.22916539,4136.58560451,4165.18242233,4139.35990014,4177.59875932,4177.58615156,269.013910827
do_nothing,4166.75888835,4185.11264746,4124.59844164,4130.25056225,4197.62478423,4200.5980772,4196.1930925,4153.62378355,4136.56230077,4165.74630957,4141.0953211,4178.92035055,4178.33601411,245.714563016
do_nothing,4167.59308612,4186.02560802,4124.81235291,4130.28254405,4198.01195933,4201.30555242,4196.45039857,4153.94149373,4136.53683507,4166.25330771,4142.99490478,4179.94746811,4178.80813354,220.518806986
do_nothing,4168.25275132,4186.70971961,4124.98760061,4130.33469079,4198.17141337,4201.69373697,4196.31872821,4154.14966027,4136.50948423,4166.65054025,4144.9863068,4180.60062339,4178.95038211,193.594102499
do_nothing,4168.69701555,4187.11088235,4125.11634306,4130.40722609,4198.05155321,4201.68802087,4195.70988703,4154.21676582,4136.48055785,4166.88655076,4146.99349666,4180.80600582,4178.71577228,165.200579184
do_nothing,4168.88795307,4187.17903482,4125.1916979,4130.49979249,4197.60422231,4201.21850605,4194.54208484,4154.11307285,4136.45039948,4166.91260595,4148.93828323,4180.49705549,4178.06332133,135.684153801
do_nothing,4168.7913847,4186.86932475,4125.20790785,4130.61142819,4196.78580723,4200.22157601,4192.74170361,4153.81124261,4136.41938656,4166.68391405,4150.74196173,4179.61585653,4176.95877331,105.46603179
do_nothing,4168.37760253,4186.14316574,4125.16047304,4130.74056344,4195.55825235,4198.64134235,4190.24487813,4153.28689931,4136.38792885,4166.16072534,4152.32704631,4178.11432228,4175.37516752,75.0289908904
do_nothing,4167.62199882,4184.96915329,4125.04624737,4130.88503772,4193.88995888,4196.43093566,4186.99885847,4152.51912829,4136.35646514,4165.30928536,4153.61904668,4175.95514812,4173.29324632,44.9009736892
do_nothing,4166.50558517,4183.32381696,4124.86349693,4131.04213852,4191.75654661,4193.55361109,4182.96312751,4151.49089856,4136.32545809,4164.10261581,4154.54824221,4173.11251372,4170.70169865,15.6366235214
do_nothing,4165.01539054,4181.19218917,4124.61192023,4131.20866116,4189.14146003,4189.98364343,4178.1102533,4150.189402,4136.29538713,4162.52110366,4155.05140421,4169.57252294,4167.59723988,-12.2025199927
do_nothing,4163.14473038,4178.56817667,4124.29263066,4131.38098866,4186.03640438,4185.70699085,4172.42646198,4148.60630357,4136.26673951,4160.55288583,4155.07341566,4165.33337702,4163.98453306,-38.0683962967
do_nothing,4160.89334214,4175.45472555,4123.90810302,4131.55518983,4182.44160151,4180.72171306,4165.91192511,4146.73789901,4136.23999976,4158.19402371,4154.56873847,4160.4052846,4159.8759611,-61.4465770744
do_nothing,4158.26738617,4171.86377694,4123.46208689,4131.72713273,4178.36586044,4175.03813506,4158.58076265,4144.58517923,4136.21563784,4155.44846947,4153.50268052,4154.81011947,4155.29126352,-81.8754094219
do_nothing,4155.27931413,4167.81601564,4122.95949046,4131.89261017,4173.82646233,4168.67875496,4150.46077026,4142.15380265,4136.19409636,4152.32783255,4151.8524184,4148.58084371,4150.25705426,-98.9633939178
do_nothing,4151.94761036,4163.34041984,4122.40623915,4132.04747308,4168.84886463,4161.6779005,4141.59288598,4139.45397892,4136.17577742,4148.85096124,4149.60773639,4141.76071937,4144.80623942,-112.404102432
do_nothing,4148.29641441,4158.47362485,4121.80911401,4132.18776722,4163.46623389,4154.08114551,4132.03041681,4136.50026919,4136.16102944,4145.0433595,4146.77144898,4134.40233664,4138.9773543,-121.988027921
do_nothing,4144.35503576,4153.25911923,4121.17557482,4132.30986828,4157.7188211,4145.9445027,4121.83805039,4133.31130998,4136.15013472,4140.93646327,4143.3594822,4126.56648974,4132.81384,-127.610872247
do_nothing,4140.15737395,4147.74629603,4120.51357335,4132.41061033,4151.65319727,4137.33341483,4111.09068111,4129.90946858,4136.14329797,4136.56680418,4139.40059894,4118.32093455,4126.3632789,-129.277913308
do_nothing,4135.74125926,4141.98938587,4119.83136212,4132.48740257,4145.32137,4128.32156987,4099.87208271,4126.32043948,4136.14063665,4131.97509061,4134.93576543,4109.73906341,4119.67660793,-127.104240646
do_nothing,4131.14773029,4136.04630177,4119.13730373,4132.53832961,4138.77980406,4118.98956958,4088.27346145,4122.57279181,4136.14217317,4127.20523701,4130.01716799,4100.89853219,4112.80732669,-121.310800916
do_nothing,4126.42026588,4129.97742744,4118.43968596,4132.56223085,4132.08837054,4109.42348297,4076.39192413,4118.69747835,4136.14782979,4122.30337217,4124.70690253,4091.87987351,4105.81071519,-112.216349311
do_nothing,4121.60398856,4123.84438137,4117.74654717,4132.55875537,4125.30924917,4099.71331704,4064.32889465,4114.72731653,4136.15742612,4117.31685507,4119.07537083,4082.7651267,4098.74307305,-100.22556268
do_nothing,4116.74485697,4117.70878816,4117.06551598,4132.52838954,4118.50580801,4089.95143731,4052.18851027,4110.69645147,4136.17067986,4112.29332409,4113.19942908,4073.63651063,4091.66098823,-85.8137311238
do_nothing,4111.88886306,4111.63108718,4116.4036689,4132.47245553,4111.74148338,4080.23096918,4040.07602493,4106.63981028,4136.18721063,4107.27980131,4107.16034263,4064.57516089,4084.6206399,-69.5085943574
do_nothing,4107.08124907,4105.66940533,4115.76740835,4132.39308006,4105.07868117,4070.64420965,4028.09624329,4102.59255565,4136.20654715,4102.32186924,4101.04160891,4055.65994766,4077.67713735,-51.8700131796
do_nothing,4102.36575776,4099.87851785,4115.16236316,4132.29313374,4098.57771899,4061.28107711,4016.35200506,4098.58954635,4136.2281376,4097.46293279,4094.92671566,4046.9663861,4070.88389461,-33.4682587049
do_nothing,4097.78392779,4094.3089174,4114.5933127,4132.17614237,4092.29582667,4052.22762516,4004.94273581,4094.66481131,4136.25136303,4092.74357502,4088.89690544,4038.56564722,4064.29203943,-14.861761621
do_nothing,4093.37444509,4089.00600816,4114.06413508,4132.04617314,4086.28622137,4043.56464547,3993.96307886,4090.85104391,4136.27555348,4088.20101154,4083.02901859,4030.52367445,4057.9498555,3.42480973299
do_nothing,4089.1725601,4084.00943813,4113.57777953,4131.90769894,4080.59727243,4035.36638356,3983.50162145,4087.17912335,4136.30000636,4083.86864521,4077.3934862,4022.90040916,4051.90225758,20.9212802135
do_nothing,4085.20957988,4079.35257982,4113.13626195,4131.76544585,4075.27177026,4027.69939052,3973.63972844,4083.67766969,4136.32400655,4079.77572056,4072.0525412,4015.74912803,4046.19030135,37.2306837731
do_nothing,4081.51244365,4075.06216627,4112.74068271,4131.62422879,4070.3463125,4020.62153246,3964.45049643,4080.37263997,4136.3468473,4075.94707598,4067.0587104,4009.11589524,4040.85073172,52.0452100546
do_nothing,4078.10338918,4071.15808583,4112.39126482,4131.48878169,4065.85081901,4014.18117678,3955.99784056,4077.28697228,4136.36785143,4072.40298998,4062.45364175,4003.03913279,4035.91557611,65.1587274636
do_nothing,4074.99971595,4067.65333605,4112.08741052,4131.36358826,4061.80818479,4008.41657115,3948.33572528,4074.44028469,4136.38639182,4069.15911734,4058.26731086,3997.54931274,4031.41179063,76.4753559571
do_nothing,4072.21364938,4064.55413269,4111.82777377,4131.25271985,4058.23407714,4003.3554269,3941.50754883,4071.84863519,4136.40191053,4066.22650983,4054.51763761,3992.66877428,4027.36096854,86.0137114128
do_nothing,4069.75230799,4061.86016644,4111.61034598,4131.15968666,4055.13687982,3999.01471371,3935.54568966,4069.52434773,4136.41393599,4063.61171509,4051.21052851,3988.41166794,4023.77912019,93.9066076262
do_nothing,4067.61777287,4059.56499547,4111.43255192,4131.08730781,4052.51778339,3995.40066756,3930.47122081,4067.47590813,4136.42209758,4061.31694635,4048.34034416,3984.78402655,4020.67653239,100.396176969
do_nothing,4065.80725606,4057.65655831,4111.29135255,4131.03760565,4050.37101728,3992.50900852,3926.293796,4065.70793193,4136.42613717,4059.34031435,4045.89077362,3981.7839603,4018.0577134,105.824549783
do_nothing,4064.31336164,4056.11778756,4111.18335141,4131.01172816,4048.68421475,3990.32535892,3923.01170758,4064.22120412,4136.42591729,4057.67611165,4043.83608026,3979.40196978,4015.92142629,110.620407092
do_nothing,4063.12442964,4054.92730123,4111.10490109,4131.00990295,4047.43889733,3988.82584511,3920.6121116,4063.01278812,4136.42142557,4056.31513811,4042.14266645,3977.62136597,4014.26080924,115.281884199
do_nothing,4062.22494975,4054.06014495,4111.05220635,4131.03142479,4046.6110603,3987.97785898,3919.07140918,4062.07619836,4136.41277536,4055.24505444,4040.77088895,3976.41878162,4013.06357635,120.356449152
do_nothing,4061.59602874,4053.48855612,4111.02142093,4131.07467763,4046.17183639,3987.74094894,3918.35576766,4061.40162845,4136.40020248,4054.45074995,4039.67704429,3975.76475335,4012.31228802,126.41850407
do_nothing,4061.21589388,4053.1827209,4111.00873524,4131.1371905,4046.08821283,3988.06780656,3918.42176156,4060.97622482,4136.38405823,4053.91471075,4038.81543553,3975.62435236,4011.9846775,134.045552382
do_nothing,4061.06041535,4053.11149739,4111.0104529,4131.21572587,4046.32377704,3988.9053155,3919.2171134,4060.78439534,4136.36479864,4053.61737614,4038.14042943,3975.95784245,4012.05402008,143.793837032
do_nothing,4061.1036325,4053.24308353,4111.0230547,4131.30639722,4046.8394694,3990.19563301,3920.68151765,4060.80814324,4136.34297041,4053.53747493,4037.60841648,3976.72134858,4012.48953451,156.17438269
do_nothing,4061.31827257,4053.54561457,4111.04324923,4131.40481202,4047.59432606,3991.87728051,3922.74753742,4061.02741808,4136.31919366,4053.65233724,4037.17959415,3977.8675262,4013.25681029,171.630367689
do_nothing,4061.67625434,4053.98768288,4111.06801036,4131.50623492,4048.54620087,3993.88622717,3925.34157041,4061.42047819,4136.29414195,4053.93818248,4036.81950622,3979.3462291,4014.31826041,190.516707414
do_nothing,4062.14917322,4054.53877981,4111.0946023,4131.60576524,4049.65246051,3996.15695761,3928.38488802,4061.96426148,4136.2685201,4054.37038808,4036.50028521,3981.10518072,4015.633604,213.082651707
do_nothing,4062.70876735,4055.16966583,4111.12059367,4131.69852235,4050.87065227,3998.62352102,3931.79475719,4062.63476357,4136.24304048,4054.92374751,4036.20156127,3983.09065974,4017.16038727,239.458089093
do_nothing,4063.32736689,4055.85267998,4111.14386259,4131.77983166,4052.1591471,4001.22056405,3935.48565773,4063.40742468,4136.21839857,4055.57272784,4035.91101714,3985.24821396,4018.85455329,269.644114466
do_nothing,4063.97832955,4056.56200254,4111.16259487,4131.84540417,4053.47776326,4003.88435191,3939.370608,4064.25752689,4136.19524851,4056.29173843,4035.62458481,3987.52341693,4020.67107118,303.508258101
do_nothing,4064.63646562,4057.27388629,4111.17527741,4131.89150256,4054.78837618,4006.55378313,3943.36260756,4065.16060417,4136.17417964,4057.05542164,4035.34629372,3989.86268005,4022.5646325,340.784598516
do_nothing,4065.2784545,4057.96687068,4111.18068906,4131.91508716,4056.05551933,4009.17140032,3947.37619761,4066.09286589,4136.1556949,4057.8389745,4035.08779358,3992.21412717,4024.49041851,381.078798126
do_nothing,4065.8832527,4058.62199125,4111.17789062,4131.91393629,4057.24697764,4011.68439562,3951.32912925,4067.03163299,4136.14019187,4058.61850728,4034.86758526,3994.52853254,4026.40493581,423.877915969
do_nothing,4066.43249031,4059.22299278,4111.16621542,4131.88673601,4058.33437191,4014.04560286,3955.14411735,4067.95578315,4136.12794747,4059.37144094,4034.71000272,3996.76031411,4028.26691112,468.564671712
do_nothing,4066.91085017,4059.75655042,4111.14526158,4131.83313605,4059.29372728,4016.21446242,3958.75064538,4068.84619876,4136.11910685,4060.07694064,4034.64399545,3998.86856524,4030.03822858,514.435666464
do_nothing,4067.30642065,4060.21249765,4111.11488635,4131.75376949,4060.10601487,4018.15793807,3962.08677499,4069.68620847,4136.11367724,4060.71637783,4034.70176585,4000.81809885,4031.68488564,560.72291668
do_nothing,4067.61101068,4060.58405476,4111.07520254,4131.65023561,4060.75765069,4019.85135882,3965.1009039,4070.46201043,4136.11152713,4061.27380821,4034.91731788,4002.58046962,4033.17793703,606.617933444
do_nothing,4067.82041324,4060.86804683,4111.02657656,4131.52504642,4061.2409326,4021.27915434,3967.7534074,4071.16306304,4136.11239093,4061.73644856,4035.32497351,4004.13493295,4034.49439113,651.297483787
do_nothing,4067.93460252,4061.06509611,4110.96962697,4131.381539,4061.55439306,4022.43544872,3970.01809338,4071.78242716,4136.11587906,4062.0951314,4035.95791119,4005.46929491,4035.61801942,693.950106942
do_nothing,4067.95784944,4061.17977111,4110.9052225,4131.22375689,4061.70304415,4023.32447628,3971.88339861,4072.31704276,4136.12149307,4062.34471427,4036.84677693,4006.58060505,4036.54003874,733.802430492
do_nothing,4067.89874127,4061.22067325,4110.83447809,4131.05630501,4061.69849129,4023.96078396,3973.3532557,4072.76792312,4136.12864512,4062.48441902,4038.01841384,4007.4756449,4037.25962733,770.144340152
do_nothing,4067.77009251,4061.20044188,4110.75874742,4130.88418361,4061.55889384,4024.36918788,3974.4475656,4073.14025044,4136.13668105,4062.51807642,4039.49474907,4008.17116782,4037.78423825,802.352100424
do_nothing,4067.58873695,4061.13565901,4110.67961075,4130.71260741,4061.30875335,4024.58445683,3975.20221972,4073.44335898,4136.14490613,4062.45425322,4041.29187011,4008.69385125,4038.12967917,829.908599787
do_nothing,4067.37519361,4061.04663702,4110.59885656,4130.54681679,4060.9785141,4024.65070172,3975.66862698,4073.69059401,4136.15261249,4062.3062405,4043.41931263,4009.07992988,4038.31993291,852.42000166
do_nothing,4067.15320274,4060.95707461,4110.51845594,4130.39188789,4060.60396507,4024.62045675,3975.91271497,4073.89903818,4136.15910733,4062.09188535,4045.87957216,4009.37448675,4038.38670069,869.628217196
do_nothing,4066.94913097,4060.89356968,4110.44052872,4130.25254904,4060.22543694,4024.55344596,3976.01338862,4074.08909977,4136.16374081,4061.83325184,4048.66784095,4009.63038929,4038.36865705,881.418770926
do_nothing,4066.7912488,4060.88498113,4110.36730067,4130.13301013,4059.8867929,4024.51503647,3976.06044522,4074.28396127,4136.16593263,4061.55610098,4051.77196032,4009.90686775,4038.3104139,887.823799536
do_nothing,4066.70888607,4060.96163597,4110.30105091,4130.03681142,4059.63421769,4024.57438799,3976.15196034,4074.50888994,4136.16519617,4061.28918473,4055.17256842,4010.26774427,4038.26119869,889.020102517
do_nothing,4066.7314756,4061.1543827,4110.24404939,4129.9666973,4059.51481504,4024.80231805,3976.39117649,4074.79041659,4136.16115939,4061.0633541,4058.84341429,4010.77933173,4038.27326042,885.322344347
do_nothing,4066.88749887,4061.49349814,4110.19848423,4129.92451957,4059.57503176,4025.26891309,3976.8829449,4075.1553929,4136.15358143,4060.91048852,4062.75180252,4011.50803457,4038.40002671,877.171682974
do_nothing,4067.20335353,4062.00746251,4110.16637942,4129.9111735,4059.85893621,4026.04093032,3977.72979358,4075.62994365,4136.1423645,4060.86226196,4066.85912992,4012.51769849,4038.69404683,865.120261935
do_nothing,4067.70216945,4062.72162794,4110.14950399,4129.92656883,4060.40639046,4027.17905121,3979.02771932,4076.23833677,4136.12756016,4060.94877211,4071.12147675,4013.86677416,4039.20477006,849.812149054
do_nothing,4068.40260757,4063.65681727,4110.14927493,4129.96963628,4061.25116846,4028.7350661,3980.8618289,4077.00180197,4136.10937008,4061.19707075,4075.49022035,4015.60538014,4039.97622476,831.961428136
do_nothing,4069.31768392,4064.82790266,4110.16665667,4130.03836923,4062.41908502,4030.74908709,3983.30198107,4077.93733665,4136.08814081,4061.62964604,4079.91264791,4017.77237004,4041.04467958,812.328245345
do_nothing,4070.45366772,4066.2424243,4110.20206163,4130.12989858,4063.9262115,4033.24690175,3986.39860301,4079.05654523,4136.06435307,4062.26291868,4084.33255523,4020.3925261,4042.43638243,791.693675903
do_nothing,4071.80910719,4067.89931882,4110.25525657,4130.24059807,4065.77726175,4036.23759078,3990.17887041,4080.3645636,4136.0386057,4063.10582243,4088.69082973,4023.47401318,4044.16548246,770.834308648
do_nothing,4073.37403901,4069.78783128,4110.3252806,4130.36621591,4067.96423555,4039.71153749,3994.64344605,4081.85912368,4136.01159528,4064.15854465,4092.92602551,4027.00623219,4046.23224499,750.497444519
