label,COUNTER,INTERPOLATED,AF3,F7,F3,FC5,T7,P7,O1,O2,P8,T8,FC6,F4,F8,AF4,RAW_CQ,GYROX,GYROY,MARKER,SYNC,TIME_STAMP_s,TIME_STAMP_ms,CQ_AF3,CQ_F7,CQ_F3,CQ_FC5,CQ_T7,CQ_P7,CQ_O1,CQ_O2,CQ_P8,CQ_T8,CQ_FC6,CQ_F4,CQ_F8,CQ_AF4,CQ_CMS,CQ_DRL
off_to_on,4142.37503021,4141.83990118,4143.82133071,4137.26736341,4143.21084679,4137.80199422,4134.94093144,4138.38975459,4137.05210217,4131.37606251,4117.09083061,4132.63992245,4141.53801669,653.195100877
off_to_on,4141.91130917,4141.80395464,4143.33817143,4137.17072019,4142.78233248,4137.91769457,4135.3783947,4138.80340235,4137.04600787,4131.97733332,4117.32995534,4132.72904839,4142.10516124,640.658704821
off_to_on,4141.40609602,4141.76173802,4142.81278622,4137.07562704,4142.36503584,4138.04287245,4135.79676454,4139.14527791,4137.05198644,4132.47755558,4117.59497964,4132.76984363,4142.66882919,631.215137991
off_to_on,4140.86735685,4141.70838616,4142.24929119,4136.9837292,4141.96522465,4138.17462532,4136.18708193,4139.40585671,4137.07030528,4132.8654974,4117.88151097,4132.75963588,4143.22238973,625.070325875
off_to_on,4140.3029367,4141.63791185,4141.65209555,4136.89649509,4141.58829789,4138.30869332,4136.54010002,4139.57688525,4137.10081448,4133.13161859,4118.1841661,4132.69576827,4143.75809641,622.303742745
off_to_on,4139.72011066,4141.54323331,4141.02561971,4136.81518075,4141.23856009,4138.43944937,4136.84633374,4139.65146122,4137.14294955,4133.26818333,4118.49662532,4132.57542649,4144.26708894,622.870268508
off_to_on,4139.12519388,4141.41627299,4140.37403432,4136.74080206,4140.91903878,4138.55995622,4137.09613906,4139.62408631,4137.19574868,4133.26936874,4118.81172627,4132.39553122,4144.73947504,626.60636727
off_to_on,4138.52322608,4141.24812607,4139.70103174,4136.67411548,4140.63135246,4138.66208893,4137.27982152,4139.49069113,4137.25788403,4133.13136475,4119.12159578,4132.15270041,4145.16449088,633.240233348
off_to_on,4137.91774171,4141.02929397,4139.00964001,4136.61560746,4140.37563483,4138.73671888,4137.38777242,4139.24863224,4137.32770594,4132.85245959,4119.41781675,4131.84328188,4145.53073518,642.405407228
off_to_on,4137.31063198,4140.7499744,4138.30208656,4136.56549242,4140.15051818,4138.77395191,4137.41063019,4138.89666253,4137.40329853,4132.43310453,4119.6916255,4131.46345222,4145.82646791,653.657252087
off_to_on,4136.7021,4140.40039612,4137.57971623,4136.52371915,4139.95317682,4138.76341188,4137.33946354,4138.43487716,4137.4825444,4131.87595068,4119.9341339,4131.0093736,4146.03996081,666.491599933
off_to_on,4136.09070555,4139.97118281,4136.84296515,4136.48998488,4139.77942856,4138.69455852,4137.16597208,4137.86463867,4137.56319622,4131.18585051,4120.13656911,4130.47739636,4146.15988372,680.364821505
off_to_on,4135.47349209,4139.45372867,4136.09138893,4136.46375616,4139.62389027,4138.5570283,4136.88269819,4137.1884846,4137.64295243,4130.36981677,4120.29052293,4129.86429238,4146.17570781,694.714547436
off_to_on,4134.84618597,4138.84056747,4135.32374148,4136.44429561,4139.48018126,4138.34098585,4136.48324325,4136.41002162,4137.71953422,4129.43693246,4120.38820176,4129.16750298,4146.07810612,708.980273542
off_to_on,4134.20345548,4138.12571727,4134.53809892,4136.43069309,4139.3411662,4138.03747331,4135.96248016,4135.53380952,4137.79076107,4128.39820762,4120.42266809,4128.38538503,4145.85933222,722.623119016
off_to_on,4133.53921573,4137.3049846,4133.73202152,4136.42190003,4139.19922801,4137.63874474,4135.31675402,4134.56523857,4137.85462198,4127.26638125,4120.38806477,4127.5174399,4145.51355958,735.144066967
off_to_on,4132.84696385,4136.37621376,4132.90274545,4136.41676571,4139.0465595,4137.13857273,4134.54406379,4133.51040411,4137.90934006,4126.05566985,4120.27981395,4126.56451133,4145.03716663,746.100096429
off_to_on,4132.12012787,4135.33946913,4132.04739498,4136.41407442,4138.87546203,4136.53251556,4133.64421841,4132.37598302,4137.95342818,4124.78146707,4120.09478351,4125.52894003,4144.4289551,755.117708494
off_to_on,4131.35241269,4134.1971409,4131.1632047,4136.41258257,4138.67863906,4135.81813449,4132.61896239,4131.16911693,4137.98573398,4123.46000106,4119.83141495,4124.41466474,4143.69029192,761.903449247
off_to_on,4130.53812719,4132.95396791,4130.24774101,4136.41105487,4138.44947305,4134.99515291,4131.47206611,4129.89730688,4138.0054729,4122.10795852,4119.48980793,4123.22726189,4142.82516768,766.251133629
off_to_on,4129.67247863,4131.6169748,4129.29911166,4136.40829917,4138.18227472,4134.06555109,4130.20937639,4128.56832289,4138.01224828,4120.74208543,4119.07175774,4121.97391892,4141.84016775,768.045578003
off_to_on,4128.75182299,4130.19532499,4128.31615276,4136.40319896,4137.8724953,4133.03359248,4128.83882318,4127.19013021,4138.0060584,4119.3787763,4118.58074378,4120.66334013,4140.74435596,767.262759631
off_to_on,4127.77386306,4128.70009523,4127.2985835,4136.39474303,4137.51689386,4131.90577991,4127.37037892,4125.77083206,4137.98729028,4118.03366489,4118.02186849,4119.30558735,4139.54907457,763.966440225
off_to_on,4126.73778841,4127.14398123,4126.24711988,4136.3820517,4137.11365365,4130.69074229,4125.81596797,4124.31862674,4137.95670102,4116.72123039,4117.40174802,4117.91186147,4138.26766826,758.301415356
off_to_on,4125.6443545,4125.54094672,4125.16354093,4136.36439886,4136.66244374,4129.39905552,4124.18932485,4122.84177591,4137.91538757,4115.45443293,4116.72835785,4116.4942334,4136.91514329,750.483676048
off_to_on,4124.49590018,4123.90583037,4124.05070259,4136.34122955,4136.16442451,4128.04300408,4122.50580113,4121.34857974,4137.86474627,4114.24439163,4116.01083772,4115.0653352,4135.50777545,740.787887269
off_to_on,4123.29630571,4122.25392612,4122.91249689,4136.31217285,4135.62219822,4126.6362928,4120.78212279,4119.84735483,4137.8064238,4113.10011659,4115.25926187,4113.63802326,4134.0626816,729.532694366
off_to_on,4122.05089626,4120.60055351,4121.75375698,4136.27704986,4135.03970828,4125.19372065,4119.0361017,4118.34641072,4137.74226141,4112.02830453,4114.48438116,4112.22502682,4132.59737111,717.064457351
off_to_on,4120.76629913,4118.96063554,4120.58011177,4136.23587682,4134.42209319,4123.7308302,4117.28630754,4116.85402205,4137.67423441,4111.03320575,4113.69734473,4110.83859659,4131.12929399,703.740079856
off_to_on,4119.45026574,4117.34830246,4119.3977972,4136.18886338,4133.77550274,4122.2635468,4115.55170872,4115.37839377,4137.60438899,4110.11656878,4112.90940984,4109.49016962,4129.67540346,689.909640782
off_to_on,4118.11147113,4115.77653938,4118.21343402,4136.13640619,4133.10688553,4120.8078213,4113.85129292,4113.92761789,4137.53477834,4109.27766766,4112.13164928,4108.19006726,4128.25175089,675.899549825
off_to_on,4116.7593044,4114.2568941,4117.03378425,4136.07907782,4132.4237572,4119.37928851,4112.20367927,4112.50962092,4137.46740014,4108.51341474,4111.37466614,4106.94724261,4126.87313007,661.996931902
off_to_on,4115.40366271,4112.7992585,4115.86549964,4136.01761163,4131.73395942,4117.99295241,4110.62673456,4111.13210184,4137.40413717,4107.8185591,4110.64832572,4105.76909195,4125.55278557,648.435900116
off_to_on,4114.05475983,4111.41173226,4114.71487541,4135.9528829,4131.0454194,4116.66290748,4109.13720581,4109.80246137,4137.34670273,4107.18596714,4109.96151375,4104.66134079,4124.30219614,635.386303833
off_to_on,4112.72295812,4110.10057293,4113.58762224,4135.88588683,4130.36591944,4115.40210391,4107.75038087,4108.5277242,4137.29659244,4106.60697742,4109.32192857,4103.62801092,4123.13093961,622.945440264
off_to_on,4111.41862996,4108.87023139,4112.48866792,4135.81771405,4129.70288524,4114.22216228,4106.47978683,4107.31445647,4137.25504359,4106.07181749,4108.73591352,4102.6714699,4122.0466403,611.133098575
off_to_on,4110.15205144,4107.72346698,4111.42199835,4135.74952404,4129.06320014,4113.13324019,4105.33693379,4106.16868066,4137.22300308,4105.57006676,4108.20833381,4101.79255955,4121.05499547,599.890169711
off_to_on,4108.93332832,4106.66153248,4110.39054552,4135.68251691,4128.45305107,4112.14395,4104.33110969,4105.09579059,4137.20110471,4105.09114654,4107.74250027,4100.99079613,4120.1598733,589.080908432
off_to_on,4107.77235038,4105.68441611,4109.39612765,4135.61790425,4127.87780934,4111.26132353,4103.46922931,4104.10046858,4137.18965616,4104.62481737,4107.34014088,4100.2646309,4119.36347188,578.498782476
off_to_on,4106.67876794,4104.79112467,4108.43944344,4135.55687937,4127.34194806,4110.49081754,4102.75573974,4103.18660742,4137.18863591,4104.16166345,4107.00141936,4099.61175675,4118.66652702,567.875693744
off_to_on,4105.66198165,4103.97999033,4107.5201194,4135.50058776,4126.84899566,4109.83635268,4102.19258283,4102.35723944,4137.19770007,4103.69354446,4106.72499902,4099.02944433,4118.06855503,556.894214029
off_to_on,4104.73113553,4103.24898267,4106.63680512,4135.45009852,4126.40152393,4109.30037851,4101.77921418,4101.61447571,4137.21619857,4103.21399662,4106.50814858,4098.51488888,4117.5681156,545.202349234
off_to_on,4103.89510356,4102.59600776,4105.78730876,4135.4063775,4126.00116753,4108.88395773,4101.51267671,4100.95945817,4137.2432005,4102.71856619,4106.34688531,4098.06554872,4117.16307958,532.430236567
off_to_on,4103.16246028,4102.01917758,4104.96876218,4135.37026299,4125.64867134,4108.58686303,4101.38772519,4100.39232758,4137.27752757,4102.20506114,4106.23614997,4097.67945639,4116.85088657,518.208093533
off_to_on,4102.54142776,4101.51703508,4104.17780413,4135.34244462,4125.34396097,4108.4076801,4101.39699637,4099.9122093,4137.31779487,4101.6737098,4106.1700065,4097.35548461,4116.62877815,502.184679297
off_to_on,4102.03979204,4101.08872275,4103.41076857,4135.32344586,4125.08623105,4108.34391025,4101.53121787,4099.51721814,4137.36245774,4101.12721872,4106.14185924,4097.09355136,4116.49399454,484.045500748
off_to_on,4101.6647842,4100.73408572,4102.66386623,4135.31361054,4124.87404552,4108.39206681,4101.7794481,4099.20448254,4137.40986323,4100.57072616,4106.14467997,4096.894751,4116.44392505,463.529998522
off_to_on,4101.42292324,4100.45370357,4101.93334806,4135.31309369,4124.70544389,4108.54776041,4102.12933925,4098.97018813,4137.45830476,4100.01165241,4106.17123786,4096.76140201,4116.47620557,440.446982447
off_to_on,4101.31982149,4100.24884898,4101.21564196,4135.32185669,4124.57804791,4108.8057707,4102.56741658,4098.80964057,4137.50607812,4099.45945202,4106.21432558,4096.69700582,4116.58875979,414.687649967
off_to_on,4101.35995702,4100.12137536,4100.50745657,4135.33966701,4124.48916387,4109.160104,4103.07936813,4098.71734796,4137.55153724,4098.92527715,4106.26697581,4096.70611552,4116.77978377,386.235612588
off_to_on,4101.54642145,4100.07353941,4099.80584889,4135.36610232,4124.43587664,4109.60403859,4103.65034028,4098.68712266,4137.59314764,4098.4215645,4106.3226626,4096.794118,4117.04767626,355.173470613
off_to_on,4101.88065481,4100.1077684,4099.10825559,4135.40055892,4124.41513264,4110.1301606,4104.26523482,4098.71220194,4137.62953593,4097.96156098,4106.37548265,4096.96693748,4117.39092021,321.685610771
off_to_on,4102.36218136,4100.22638485,4098.41249057,4135.4422642,4124.42380994,4110.73039443,4104.90900341,4098.78538564,4137.65953351,4097.55880569,4106.42031176,4097.23067283,4117.8079231,286.057049357
off_to_on,4102.98836098,4100.43130364,4097.71671335,4135.49029292,4124.45877448,4111.39603198,4105.56693515,4098.89918797,4137.68221304,4097.22658781,4106.45293269,4097.59118441,4118.29682664,248.668299333
off_to_on,4103.75417119,4100.72371838,4097.0193751,4135.54358693,4124.51692246,4112.11776534,4106.22493384,4099.04600003,4137.69691632,4096.97740116,4106.47013125,4098.05364937,4118.85529808,209.986397121
off_to_on,4104.65203429,4101.10379386,4096.31915013,4135.60097808,4124.59520944,4112.88572783,4106.86978157,4099.21825891,4137.70327274,4096.82241675,4106.46975896,4098.62210574,4119.48031683,170.552377338
off_to_on,4105.67170335,4101.57038127,4095.61486142,4135.66121379,4124.69066759,4113.68954818,4107.48938533,4099.40861874,4137.70120755,4096.77099336,4106.45076122,4099.29900641,4120.16797018,130.965625358
off_to_on,4106.80021957,4102.1207715,4094.90540881,4135.72298494,4124.80041299,4114.51842242,4108.07300244,4099.61011858,4137.69093985,4096.83024433,4106.41317103,4100.08480345,4120.91327143,91.8656626551
off_to_on,4108.02195213,4102.75049996,4094.18970829,4135.78495513,4124.92164525,4115.36120655,4108.61144,4099.81634117,4137.67297012,4097.00467593,4106.3580688,4100.97758273,4121.71001253,53.9120235138
off_to_on,4109.31872885,4103.45321421,4093.46664984,4135.84579075,4125.05164172,4116.20653177,4109.09722218,4100.02155674,4137.64805794,4097.29590983,4106.28750952,4101.97276705,4122.55066158,17.7629596925
off_to_on,4110.67006297,4104.22061337,4092.73507999,4135.90419063,4125.18774888,4117.04294144,4109.52471953,4100.22084571,4137.61719038,4097.70249961,4106.20441921,4103.06290444,4123.42631433,-15.9462409435
off_to_on,4112.05347694,4105.04246522,4091.99381372,4135.95891463,4125.32737286,4117.85904727,4109.89023444,4100.41019554,4137.58154248,4098.21984839,4106.11246365,4104.23755572,4124.32670647,-46.6245169562
off_to_on,4113.44491951,4105.90670358,4091.24167776,4136.00881027,4125.46797143,4118.6437003,4110.19203839,4100.58656767,4137.54243096,4098.8402318,4106.01589325,4105.4832916,4125.24029138,-73.7450845616
off_to_on,4114.81926788,4106.79960513,4090.47758506,4136.05283658,4125.6070496,4119.38617201,4110.43035775,4100.74793199,4137.50126317,4099.55292673,4105.91936873,4106.78380527,4126.15438484,-96.863527877
off_to_on,4116.15090208,4107.70604089,4089.70063782,4136.09008474,4125.74216093,4120.07634011,4110.60730627,4100.89326789,4137.45948295,4100.34444273,4105.82777319,4108.120141,4127.05537509,-115.633248346
off_to_on,4117.41433559,4108.60979501,4088.91025406,4136.11979478,4125.87091677,4120.70487437,4110.72676361,4101.02253159,4137.41851575,4101.19884884,4105.74601614,4109.47103419,4127.92899299,-129.817684269
off_to_on,4118.58488321,4109.49394061,4088.1063112,4136.1413679,4125.99100504,4121.26341739,4110.79420127,4101.13659091,4137.37971501,4102.09818503,4105.67883584,4110.81335368,4128.76063451,-139.298816649
off_to_on,4119.63934476,4110.34126135,4087.28929865,4136.15437415,4126.10021946,4121.74475534,4110.8164587,4101.23712932,4137.34431206,4103.02294521,4105.6306063,4112.12263346,4129.53572516,-144.081594524
off_to_on,4120.55668137,4111.13470523,4086.4604706,4136.15855534,4126.1964993,4122.14297314,4110.80147572,4101.3265223,4137.31337156,4103.95261639,4105.60515533,4113.37367729,4130.24011451,-144.294043644
off_to_on,4121.31865939,4111.85785603,4085.62198942,4136.1538234,4126.27797843,4122.45358827,4110.75798948,4101.4076902,4137.28775421,4104.86625757,4105.6056002,4114.5412173,4130.86048754,-140.182970796
off_to_on,4121.91043688,4112.49540642,4084.77704955,4136.14025465,4126.34304132,4122.67365779,4110.69520627,4101.483933,4137.26808837,4105.74310057,4105.63420676,4115.60060484,4131.38477801,-132.105341859
off_to_on,4122.32106832,4113.03361538,4083.92997233,4136.11808063,4126.39038327,4122.80185373,4110.62245962,4101.55875314,4137.25475148,4106.56315385,4105.69227721,4116.52850997,4131.80256823,-120.515585528
off_to_on,4122.54390577,4113.46073279,4083.08626232,4136.08767611,4126.41907109,4122.83850336,4110.54886608,4101.63567342,4137.24786217,4107.30778972,4105.78007025,4117.30360474,4132.10545861,-105.9492414
off_to_on,4122.57687851,4113.76737475,4082.25261765,4136.04954509,4126.42860064,4122.78559165,4110.48298967,4101.71805717,4137.24728303,4107.96029521,4105.89675632,4117.9072056,4132.28739092,-89.0035193238
off_to_on,4122.42263804,4113.94683532,4081.43688889,4136.00430521,4126.41894783,4122.64672507,4110.43252618,4101.80893798,4137.25263375,4108.50636819,4106.04040907,4118.3238521,4132.3449103,-70.3154637413
off_to_on,4122.08856028,4113.99532275,4080.64798359,4135.95267149,4126.39060962,4122.42705716,4110.40401727,4101.91086596,4137.26331386,4108.93454252,4106.20803341,4118.54180151,4132.27735333,-50.5385215538
off_to_on,4121.58660234,4113.91211136,4079.89571649,4135.89543954,4126.34463235,4122.13317766,4110.40260477,4102.02577705,4137.27853379,4109.23652887,4106.39562971,4118.55342266,4132.0869525,-30.3183887827
off_to_on,4120.9330157,4113.69960281,4079.19060784,4135.83346915,4126.28262462,4121.7729682,4110.43183421,4102.1548911,4137.29735282,4109.40746095,4106.59829239,4118.35547571,4131.77885017,-10.2690521017
off_to_on,4120.14792267,4113.36329306,4078.54363469,4135.76766838,4126.20675265,4121.35542886,4110.49351578,4102.29864334,4137.31872206,4109.44603971,4106.81034057,4117.94926824,4131.36101853,9.05005618322
off_to_on,4119.25476801,4112.91164449,4077.965942,4135.69897873,4126.11971635,4120.89048044,4110.5876489,4102.45665221,4137.34153072,4109.3545708,4107.02547701,4117.34068228,4130.84408535,27.154904505
off_to_on,4118.27966213,4112.35586592,4077.46852249,4135.62836153,4126.02470515,4120.38874815,4110.71241427,4102.62772503,4137.36465365,4109.1388934,4107.23697083,4116.5400703,4130.24106841,43.654892248
off_to_on,4117.25063728,4111.70960702,4077.06187587,4135.55678584,4125.92533323,4119.86133274,4110.86423461,4102.8099006,4137.38699836,4108.80820152,4107.43785812,4115.56202343,4129.56702585,58.2673474345
off_to_on,4116.19684141,4110.98857778,4076.75565986,4135.48521774,4125.82555468,4119.31957414,4111.03790261,4103.00052641,4137.40754943,4108.37476295,4107.62115429,4114.42501922,4128.83863347,70.8279059175
off_to_on,4115.14769712,4110.21010702,4076.55834629,4135.41461122,4125.72955977,4118.7748128,4111.22677233,4103.19636648,4137.4254087,4107.85354487,4107.78007177,4113.15096108,4128.07370411,81.2963392087
off_to_on,4114.13205408,4109.39265643,4076.47689643,4135.34590049,4125.64165418,4118.23815262,4111.42300828,4103.39373526,4137.43982957,4107.26175973,4107.90823651,4111.7646256,4127.29066747,89.7575688097
off_to_on,4113.17736331,4108.55530777,4076.51646901,4135.27999356,4125.56612365,4117.72022991,4111.61788476,4103.58865248,4137.45024413,4106.61834806,4107.99989733,4110.29303639,4126.50803063,96.4177886763
off_to_on,4112.30890076,4107.71724176,4076.68017388,4135.21776691,4125.50708729,4117.23099296,4111.80212656,4103.77701386,4137.45628189,4105.94341759,4108.05012204,4108.76478591,4125.7438403,101.595806466
off_to_on,4111.54906655,4106.8972263,4076.96888285,4135.16006078,4125.46834384,4116.77949782,4111.96628032,4103.95477194,4137.45777976,4105.25765896,4108.05497457,4107.209327,4125.01516749,105.709899196
off_to_on,4110.91678393,4106.11313187,4077.3811072,4135.1076745,4125.4532158,4116.37372568,4112.1011038,4104.118121,4137.45478258,4104.5817584,4108.01166754,4105.65625684,4124.33763393,109.260653207
off_to_on,4110.42701914,4105.38149023,4077.91294959,4135.06136143,4125.46439731,4116.02042734,4112.19795894,4104.26367928,4137.44753469,4103.93582723,4107.91868507,4104.13461536,4123.7249975,112.810416854
off_to_on,4110.09043919,4104.71711125,4078.55813508,4135.02182262,4125.5038117,4115.7249988,4112.24919331,4104.38866154,4137.4364628,4103.33886676,4107.77587143,4102.67221987,4123.18881198,116.960130112
off_to_on,4109.91321878,4104.13276981,4079.30812314,4134.98969914,4125.57248511,4115.491391,4112.24849505,4104.49103511,4137.42215116,4102.80828576,4107.5844821,4101.29505528,4122.7381729,122.324400953
off_to_on,4109.89700186,4103.63897129,4080.1522989,4134.96556261,4125.67044198,4115.32205622,4112.19120776,4104.56965352,4137.40531015,4102.35948536,4107.34719482,4100.02673692,4122.37955759,129.505770252
off_to_on,4110.0390161,4103.24379966,4081.07823812,4134.949904,4125.7966283,4115.21793306,4112.07459332,4104.62436286,4137.38673983,4102.00552293,4107.06807924,4098.88805904,4122.1167631,139.069144085
off_to_on,4110.33233284,4102.95284804,4082.0720371,4134.94312091,4125.94886782,4115.17847189,4111.89803296,4104.65607717,4137.36729008,4101.75686241,4106.7525248,4097.89663739,4121.95094034,151.517372268
off_to_on,4110.76625911,4102.76922759,4083.11869531,4134.94550357,4126.12385547,4115.20170202,4111.66315848,4104.66682003,4137.34781914,4101.62121439,4106.40712726,4097.06665051,4121.88071822,167.268913005
off_to_on,4111.32684333,4102.69364799,4084.20253657,4134.95722014,4126.31719125,4115.2843407,4111.37390776,4104.65973034,4137.32915236,4101.60346477,4106.03953557,4096.40868012,4121.90240756,186.638447457
off_to_on,4111.9974722,4102.72456011,4085.3076524,4134.97830204,4126.52345635,4115.42194169,4111.03650054,4104.63903036,4137.31204306,4101.7056871,4105.65826154,4095.92964775,4122.01027127,209.821199865
off_to_on,4112.75953257,4102.85835038,4086.41835059,4135.00863022,4126.73633121,4115.60907908,4110.65933274,4104.60995494,4137.29713708,4101.92723104,4105.2724563,4095.63284187,4122.19684547,236.881581971
off_to_on,4113.59310935,4103.08957469,4087.51959129,4135.04792361,4126.94875371,4115.83955921,4110.25279012,4104.57864117,4137.28494268,4102.26487696,4104.8916589,4095.51802711,4122.45329499,267.746618356
off_to_on,4114.47768975,4103.41121896,4088.59739373,4135.09573095,4127.15311348,4116.10665182,4109.82898436,4104.55197938,4137.27580696,4102.71304543,4104.52552346,4095.5816249,4122.76978619,302.204428848
off_to_on,4115.39284424,4103.81497322,4089.63919754,4135.15142723,4127.3414771,4116.40333098,4109.40141794,4104.53742727,4137.26989978,4103.2640495,4104.18353282,4095.81695347,4123.13586043,339.907854236
off_to_on,4116.31885716,4104.29150682,4090.63416492,4135.2142157,4127.50583714,4116.72251591,4108.98458666,4104.54279137,4137.26720598,4103.9083772,4103.87470713,4096.21451427,4123.54079234,380.383118899
off_to_on,4117.23728379,4104.83073422,4091.5734127,4135.28313605,4127.63837744,4117.05730308,4108.5935318,4104.57598115,4137.26752597,4104.63499259,4103.60731679,4096.76231296,4123.97391907,423.043234112
off_to_on,4118.13141582,4105.42206358,4092.45016684,4135.35707896,4127.73174584,4117.40118158,4108.24335615,4104.64474352,4137.27048471,4105.4316445,4103.38860924,4097.44620416,4124.42492945,467.205666716
off_to_on,4118.98664284,4106.05462353,4093.25983583,4135.43480679,4127.77932496,4117.74822476,4107.94872069,4104.75638647,4137.27554875,4106.28517475,4103.22455961,4098.25025212,4124.88410578,512.1136383
off_to_on,4119.79070353,4106.71746635,4094.00000341,4135.51498005,4127.77549126,4118.09325212,4107.72333994,4104.91750238,4137.28205028,4107.18181979,4103.11965521,4099.15710118,4125.34251484,556.96028541
off_to_on,4120.53382569,4107.39974819,4094.67034457,4135.59618889,4127.71585232,4118.43195623,4107.57949562,4105.13370229,4137.28921744,4108.10750233,4103.07672331,4100.14835234,4125.7921484,600.914804824
off_to_on,4121.20875978,4108.0908886,4095.27247221,4135.67698869,4127.5974527,4118.76099163,4107.52758852,4105.40937332,4137.29620925,4109.04811143,4103.09681104,4101.20494323,4126.22601662,643.149634161
off_to_on,4121.81071538,4108.78071268,4095.80972444,4135.75593897,4127.41893977,4119.07802444,4107.57574845,4105.74747152,4137.30215387,4109.98977063,4103.17912464,4102.30752954,4126.6381998,682.867681642
off_to_on,4122.33721482,4109.45957993,4096.28690488,4135.83164411,4127.18068202,4119.38174374,4107.72952023,4106.14936161,4137.3061884,4110.9190942,4103.32103281,4103.43686578,4127.02386518,719.328620222
off_to_on,4122.78788093,4110.11850422,4096.70999008,4135.90279474,4126.88483416,4119.6718374,4107.99164044,4106.61471301,4137.30749856,4111.82343102,4103.51813655,4104.5741835,4127.37925613,751.873298397
off_to_on,4123.16417817,4110.7492689,4097.08581881,4135.96820801,4126.53534528,4119.948936,4108.36191508,4107.14145898,4137.30535652,4112.69109548,4103.7644048,4105.7015642,4127.70166101,779.945391857
off_to_on,4123.46912618,4111.34454063,4097.42177865,4136.0268654,4126.13790789,4120.21452928,4108.83720355,4107.72582216,4137.29915537,4113.51158415,4104.05237215,4106.80230379,4127.98936885,803.109525612
off_to_on,4123.70700369,4111.89798387,4097.7255038,4136.07794624,4125.69984815,4120.47085926,4109.41151029,4108.3624071,4137.28843858,4114.2757765,4104.37339251,4107.86126408,4128.24161778,821.065230521
off_to_on,4123.88305784,4112.40437569,4098.00459693,4136.12085572,4125.22995897,4120.72079478,4110.07618118,4109.04435724,4137.27292345,4114.97611708,4104.7179396,4108.86520499,4128.45854106,833.656254007
off_to_on,4124.00323154,4112.85971804,4098.26638506,4136.15524606,4124.73828031,4120.96769243,4110.82019824,4109.76357126,4137.25251734,4115.60677541,4105.07594343,4109.80308901,4128.64111326,840.87491673
off_to_on,4124.07391764,4113.26134261,4098.51771705,4136.18102985,4124.2358328,4121.21524972,4111.63056201,4110.51097135,4137.22732612,4116.1637785,4105.4371495,4110.66634753,4128.79109685,842.861390462
off_to_on,4124.10174628,4113.60800135,4098.76480743,4136.19838486,4123.73431285,4121.46735693,4112.4927479,4111.27681361,4137.19765451,4116.64511019,4105.79148664,4111.44909772,4128.91098788,839.897959473
off_to_on,4124.09340869,4113.89993563,4099.01312874,4136.20774987,4123.24575914,4121.72795378,4113.39121978,4112.05102899,4137.16399812,4117.050771,4106.12942838,4112.14829906,4129.00395785,832.398509692
off_to_on,4124.05551779,4114.13891705,4099.26735232,4136.20981117,4122.78220158,4122.00089653,4114.30998191,4112.82358198,4137.12702777,4117.3827931,4106.44233324,4112.76383989,4129.073789,820.893660304
off_to_on,4123.9945035,4114.32825334,4099.53133489,4136.20547991,4122.35530415,4122.28983939,4115.23314904,4113.58483314,4137.08756643,4117.64520595,4106.72275027,4113.2985467,4129.12479997,806.012107087
off_to_on,4123.91653777,4114.47275367,4099.80814597,4136.19586037,4121.97601333,4122.59813205,4116.14551372,4114.32589134,4137.04655994,4117.84394952,4106.96467755,4113.75811064,4129.16175948,788.458879238
off_to_on,4123.82748226,4114.57864799,4100.10012925,4136.18220997,4121.65422332,4122.92873393,4117.03308915,4115.03894148,4137.00504263,4117.98673357,4107.1637638,4114.15092782,4129.18978585,768.991315176
off_to_on,4123.73285094,4114.65345634,4100.40898901,4136.16589189,4121.39846882,4123.28414408,4117.88360654,4115.71753403,4136.96409911,4118.08284233,4107.31744482,4114.48785204,4129.2142305,748.393634843
off_to_on,4123.63777988,4114.70580595,4100.73589236,4136.14832174,4121.21565527,4123.66634607,4118.68694636,4116.35682355,4136.92482391,4118.14288594,4107.42500959,4114.7818614,4129.24054444,727.451025947
off_to_on,4123.54699788,4114.74519716,4101.08157786,4136.13091006,4121.11083574,4124.07676695,4119.4354855,4116.95374494,4136.88828052,4118.17850156,4107.48759315,4115.04764379,4129.27412834,706.924167685
off_to_on,4123.46479399,4114.78172277,4101.44646222,4136.11500264,4121.0870419,4124.51624967,4120.12434455,4117.50711829,4136.85546139,4118.20201012,4107.50809694,4115.30111061,4129.32016857,687.525086036
off_to_on,4123.39497957,4114.82574949,4101.83073818,4136.10182109,4121.14517545,4124.98503836,4120.7515238,4118.01767584,4136.8272506,4118.22603712,4107.49103978,4115.55885228,4129.38346423,669.895172214
off_to_on,4123.34084479,4114.88757291,4102.23445811,4136.0924063,4121.2839636,4125.4827753,4121.31792076,4118.48800772,4136.8043905,4118.26310884,4107.44234655,4115.83755294,4129.46825187,654.586105616
off_to_on,4123.30511099,4114.97705959,4102.65759916,4136.08756719,4121.49998049,4126.00850836,4121.82722747,4118.92242675,4136.78745377,4118.32523718,4107.36908368,4116.15338384,4129.57803619,642.044308275
off_to_on,4123.28988132,4115.10329059,4103.10010749,4136.08783758,4121.78773406,4126.56070734,4122.28571104,4119.32675585,4136.77682187,4118.42350754,4107.27915318,4116.52139682,4129.71543543,632.599420617
off_to_on,4123.29659376,4115.27422087,4103.56192028,4136.09344335,4122.1398157,4127.13728816,4122.70188573,4119.70804509,4136.77267069,4118.56768414,4107.18095791,4116.95493901,4129.88204948,626.457131501
off_to_on,4123.3259813,4115.49636866,4104.04296591,4136.10428178,4122.54710854,4127.73564421,4123.08608907,4120.07422839,4136.77496404,4118.76584637,4107.08305188,4117.4651096,4130.07835815,623.69652536
off_to_on,4123.37804504,4115.7745484,4104.54314483,4136.11991466,4122.9990481,4128.35268469,4123.44997834,4120.43373241,4136.78345501,4119.02406911,4106.99378889,4118.06027864,4130.30365533,624.271933002
off_to_on,4123.45204579,4116.11165973,4105.06229444,4136.13957591,4123.48392753,4128.98487939,4123.80596708,4120.79505261,4136.79769528,4119.3461587,4106.92098308,4118.74568657,4130.55602374,628.019096895
off_to_on,4123.54651959,4116.50854356,4105.60014329,4136.16219398,4123.98923826,4129.62830963,4124.16662389,4121.16631375,4136.81705187,4119.73345526,4106.87159373,4119.52314137,4130.83235346,634.66529665
off_to_on,4123.65932074,4116.96391349,4106.15626008,4136.18642877,4124.50203541,4130.27872439,4124.54405832,4121.55483354,4136.84073065,4120.1847111,4106.85144631,4120.39082739,4131.12840597,643.842938454
off_to_on,4123.7876941,4117.47436777,4106.73000316,4136.21072203,4125.00931648,4130.93160118,4124.94931932,4121.9667097,4136.86780571,4120.69605285,4106.86500008,4121.3432364,4131.4389238,655.106001128
off_to_on,4123.92837639,4118.0344828,4107.32047575,4136.23335978,4125.49840147,4131.58221161,4125.39183241,4122.40645055,4136.89725336,4121.26103276,4106.91517101,4122.37122686,4131.75778324,667.948650512
off_to_on,4124.07772409,4118.63698538,4107.9264911,4136.25254439,4125.95730259,4132.2256919,4125.8789002,4122.87666795,4136.92798944,4121.87077113,4107.00321658,4123.46221256,4132.07818566,681.82527959
off_to_on,4124.23186359,4119.27299687,4108.54655104,4136.26647386,4126.37507194,4132.85711859,4126.41528826,4123.37784899,4136.95890849,4122.51418793,4107.12868629,4124.60047661,4132.39288015,696.17120605
off_to_on,4124.38685779,4119.93233946,4109.17883979,4136.27342479,4126.74211652,4133.47158917,4127.00291462,4123.90821835,4136.98892325,4123.1783173,4107.28943869,4125.7676014,4132.69440827,710.423265178
off_to_on,4124.53888137,4120.60389127,4109.8212341,4136.27183558,4127.0504706,4134.06430612,4127.64065623,4124.46369893,4137.01700293,4123.848695,4107.48172334,4126.9430005,4132.97536027,724.039572465
off_to_on,4124.6843952,4121.27597522,4110.47132913,4136.26038621,4127.29401702,4134.63066245,4128.32428114,4125.03797343,4137.04220892,4124.50980512,4107.70032302,4128.10453396,4133.2286311,736.517790742
off_to_on,4124.82030979,4121.93676437,4111.12647819,4136.2380706,4127.46865025,4135.16632612,4129.04651046,4125.62264527,4137.06372662,4125.14557014,4107.93874985,4129.22918526,4133.44766467,747.41131567
off_to_on,4124.94412742,4122.57468623,4111.78384367,4136.20425831,4127.57237635,4135.66732094,4129.79720955,4126.2074936,4137.08089235,4125.73986679,4108.18948689,4130.29377571,4133.62667552,756.342885442
off_to_on,4125.05405461,4123.17880854,4112.4404555,4136.1587422,4127.60534694,4136.13010215,4130.56370292,4126.78081375,4137.09321473,4126.27704923,4108.44426568,4131.27569076,4133.76083807,763.015218783
off_to_on,4125.1490785,4123.73919067,4113.09327378,4136.10176957,4127.5698267,4136.55162574,4131.3312023,4127.32983115,4137.10038979,4126.74246078,4108.69436898,4132.15359324,4133.84643613,767.218384487
off_to_on,4125.22900415,4124.24718736,4113.73925235,4136.03405477,4127.47009629,4136.92941049,4132.0833317,4127.84117348,4137.10230962,4127.12291649,4108.93094721,4132.90809924,4133.88096724,768.833706951
off_to_on,4125.29445182,4124.69569468,4114.37540043,4135.95677201,4127.31229445,4137.26159156,4132.80272884,4128.30138254,4137.09906459,4127.40713989,4109.14533684,4133.52239533,4133.86319932,767.834120125
off_to_on,4125.3468156,4125.07933088,4114.99884054,4135.87152799,4127.10420489,4137.5469637,4133.47169814,4128.69744547,4137.09093895,4127.58613962,4109.32936903,4133.98277811,4133.7931797,764.280999111
off_to_on,4125.38818624,4125.39454864,4115.60686079,4135.78031494,4126.8549952,4137.78501151,4134.0728887,4129.01732358,4137.07840032,4127.65351407,4109.47565729,4134.27910058,4133.67219918,758.317621381
off_to_on,4125.42124224,4125.63967744,4116.1969603,4135.68544524,4126.5749163,4137.97592451,4134.58996972,4129.25045778,4137.06208324,4127.60567523,4109.57785465,4134.40511304,4133.50271578,750.159532917
off_to_on,4125.44911431,4125.81489767,4116.76688672,4135.58947012,4126.27497241,4138.12059524,4135.0082769,4129.3882306,4137.0427675,4127.44198551,4109.63087146,4134.35868959,4133.28824432,740.082212232
off_to_on,4125.47522936,4125.92215049,4117.31466506,4135.49508508,4125.96657207,4138.2205999,4135.31540442,4129.42436681,4137.02135171,4127.1648045,4109.63104738,4134.1419343,4133.03321877,728.406531538
off_to_on,4125.5031411,4125.9649897,4117.8386175,4135.40502574,4125.66117198,4138.27816241,4135.50171993,4129.35525738,4136.99882312,4126.77944446,4109.57627229,4133.76116473,4132.74283447,715.482603813
off_to_on,4125.53635457,4125.94838405,4118.33737439,4135.32195809,4125.36992519,4138.29610305,4135.56078219,4129.18019331,4136.97622432,4126.29403641,4109.46605296,4133.22677384,4132.4228775,701.67267272
off_to_on,4125.57815211,4125.87848046,4118.80987741,4135.24836754,4125.1033451,4138.27777351,4135.48964496,4128.90149921,4136.95461796,4125.71931121,4109.30152419,4132.55297504,4132.0795484,687.333745376
off_to_on,4125.6314278,4125.76233959,4119.25537586,4135.18645162,4124.87099599,4138.2269799,4135.28903497,4128.52455912,4136.93505057,4125.06830253,4109.08540538,4131.7574385,4131.71928729,672.800683548
off_to_on,4125.69853623,4125.60765565,4119.67341741,4135.13802109,4124.68121941,4138.14789539,4134.9633965,4128.05773112,4136.91851645,4124.35598165,4108.82190501,4130.86082984,4131.34860667,658.370455429
off_to_on,4125.78116088,4125.42247177,4120.06383429,4135.10441421,4124.54090449,4138.0449639,4134.52080031,4127.512151,4136.90592293,4123.59883562,4108.51657785,4129.88626457,4130.97393756,644.288207877
off_to_on,4125.88020635,4125.21490159,4120.42672565,4135.08642834,4124.4553085,4137.92279659,4133.97271919,4126.90142945,4136.89805802,4122.81440213,4108.17614045,4128.85869342,4130.60149265,630.735749054
off_to_on,4125.99571852,4124.99286657,4120.76243701,4135.0842726,4124.42793222,4137.78606293,4133.33367677,4126.24125132,4136.89556162,4122.02077504,4107.80825227,4127.8042355,4130.23714928,617.82293644
off_to_on,4126.12683637,4124.76385829,4121.07153753,4135.09754395,4124.46045291,4137.63937856,4132.6207802,4125.54888869,4136.8989011,4121.23609549,4107.42127003,4126.74947815,4129.8863537,605.582348765
off_to_on,4126.27177908,4124.53473432,4121.35479654,4135.12522833,4124.55271549,4137.4871922,4131.85315173,4124.84264359,4136.90835236,4120.47804434,4107.02398392,4125.72076427,4129.55404796,593.967487259
off_to_on,4126.42787076,4124.31155578,4121.61316074,4135.16572727,4124.70278056,4137.33367364,4131.05127902,4124.14123885,4136.92398677,4119.76335219,4106.62534462,4124.74348964,4129.24462057,582.854607108
off_to_on,4126.59160364,4124.09947248,4121.84773339,4135.21690921,4124.90702588,4137.18260517,4130.23630825,4123.46317915,4136.9456648,4119.10734346,4106.23419034,4123.84143254,4128.96188144,572.048130107
off_to_on,4126.75873863,4123.90265925,4122.05975612,4135.27618392,4125.16029641,4137.03727833,4129.429308,4122.82610636,4136.97303629,4118.52352963,4105.8589827,4123.0361372,4128.70906037,561.2894404
off_to_on,4126.92443935,4123.72430324,4122.25059323,4135.34059716,4125.45609622,4136.90039845,4128.65053409,4122.24617494,4137.00554781,4118.02326489,4105.50755993,4122.34636939,4128.4888267,550.268723161
off_to_on,4127.0834348,4123.56663864,4122.4217177,4135.40694202,4125.78681481,4136.77399938,4127.91872511,4121.73747298,4137.04245672,4117.6154744,4105.18691439,4121.78765933,4128.30332558,538.639376999
off_to_on,4127.2302042,4123.43102289,4122.57469774,4135.47188266,4126.14397938,4136.65937106,4127.2504573,4121.31151279,4137.08285183,4117.30646241,4104.90300038,4121.3719438,4128.15422555,526.034420198
off_to_on,4127.35917724,4123.31804667,4122.71118311,4135.53208531,4126.51852402,4136.55700285,4126.65958435,4120.97681267,4137.12568024,4117.09980414,4104.6605768,4121.10731588,4128.04277117,512.084223367
off_to_on,4127.46494242,4123.22766913,4122.83289056,4135.58435141,4126.90106686,4136.46654526,4126.15678415,4120.73858756,4137.16977957,4116.99632267,4104.46308808,4120.99788791,4127.96983547,496.434840293
off_to_on,4127.54245546,4123.15936935,4122.94158828,4135.62574735,4127.28218575,4136.38679284,4125.74923084,4120.59856244,4137.21391483,4116.99414885,4104.31258555,4121.04376984,4127.93596686,478.766177469
off_to_on,4127.58723908,4123.11230431,4123.03907926,4135.65372574,4127.652684,4136.31569016,4125.44040557,4120.55491747,4137.25681874,4117.08885935,4104.2096904,4121.24116122,4127.94142649,458.809242282
off_to_on,4127.59556516,4123.0854633,4123.12718345,4135.66623327,4128.00383813,4136.25036297,4125.23005419,4120.60236914,4137.29723405,4117.27368523,4104.15359832,4121.58255093,4127.98621217,436.361740273
off_to_on,4127.56461118,4123.07780905,4123.20771864,4135.66180085,4128.32762117,4136.18717641,4125.11429376,4120.73238625,4137.33395654,4117.53978067,4104.1421248,4122.05701492,4128.07006585,411.30135214
off_to_on,4127.49258402,4123.08839666,4123.28248023,4135.63961267,4128.61689642,4136.12182249,4125.08586375,4120.93353407,4137.36587692,4117.87654009,4104.17178914,4122.65059936,4128.19246294,383.596108849
off_to_on,4127.37880678,4123.11646398,4123.35322043,4135.59955114,4128.86557837,4136.04943857,4125.13451128,4121.19193473,4137.39202009,4118.2719506,4104.23793419,4123.34677452,4128.35258317,353.311394788
off_to_on,4127.22376628,4123.16148956,4123.42162802,4135.54221589,4129.06875889,4135.96475778,4125.24749426,4121.49182655,4137.4115804,4118.71296743,4104.33487838,4124.12694427,4128.5492654,320.613240012
off_to_on,4127.02912111,4123.22321789,4123.48931019,4135.46891585,4129.22279792,4135.86229017,4125.41018142,4121.81620128,4137.42395119,4119.18590052,4104.45609572,4124.97099622,4128.78095103,285.767707839
off_to_on,4126.79767159,4123.30165369,4123.55777817,4135.38163412,4129.32537912,4135.73653133,4125.60672458,4122.14749488,4137.42874774,4119.67680219,4104.59441964,4125.85787779,4129.04562277,249.136337716
off_to_on,4126.53329427,4123.39702955,4123.62843801,4135.28296693,4129.3755313,4135.58219307,4125.82077588,4122.46830562,4137.42582247,4120.1718468,4104.7422657,4126.76618382,4129.34074671,211.167759057
off_to_on,4126.24084466,4123.50975201,4123.70258751,4135.17603815,4129.37361756,4135.39444919,4126.03622099,4122.7621121,4137.41527179,4120.65769436,4104.89186807,4127.67474096,4129.66322556,172.3857436
off_to_on,4125.92603314,4123.6403322,4123.78141959,4135.06439253,4129.32129451,4135.16918825,4126.23789914,4123.01396384,4137.39743428,4121.12183076,4105.03552375,4128.56317446,4130.00937006,133.374105458
off_to_on,4125.59527969,4123.78930774,4123.86603235,4134.95187107,4129.22144452,4134.90326432,4126.41228053,4123.21111768,4137.37288008,4121.55287778,4105.16583811,4129.41244339,4130.37489443,94.7589840671
off_to_on,4125.25555439,4123.95716301,4123.95744557,4134.8424729,4129.07808432,4134.59473533,4126.54807304,4123.343595,4137.34239198,4121.94086698,4105.27596455,4130.20533128,4130.75494041,57.1891504183
off_to_on,4124.91421019,4124.14425533,4124.05662351,4134.74020861,4128.89625334,4134.24307775,4126.63673243,4123.40463748,4137.30693869,4122.27747278,4105.359831,4130.92688148,4131.14413319,21.3150573792
off_to_on,4124.5788148,4124.35075413,4124.16450367,4134.64895032,4128.68188494,4133.84936592,4126.67285443,4123.39104286,4137.26764139,4122.55620165,4105.41234588,4131.56476806,4131.53667151,-12.2325927578
off_to_on,4124.25698764,4124.57659927,4124.28203064,4134.57228429,4128.44166377,4133.41640456,4126.65443297,4123.30336743,4137.22573466,4122.77253585,4105.42957698,4132.1095954,4131.92645254,-42.8639680137
off_to_on,4123.95624642,4124.82148268,4124.41019376,4134.5133715,4128.18287196,4132.9488047,4126.58297495,4123.14598702,4137.18252333,4122.92403118,4105.40889689,4132.55512101,4132.30723015,-70.0501268285
off_to_on,4123.68386712,4125.08485479,4124.55006629,4134.47482198,4127.91322664,4132.45299469,4126.46346836,4122.92701415,4137.13933682,4123.0103684,4105.34908976,4132.89839679,4132.67280224,-93.3411903573
off_to_on,4123.44675971,4125.36595488,4124.7028432,4134.45858786,4127.64071151,4131.93716131,4126.30420609,4122.65807405,4137.09748265,4123.03335758,4105.25041435,4133.13982508,4133.01722012,-112.381984514
off_to_on,4123.2513615,4125.66386223,4124.8698742,4134.46587956,4127.3734051,4131.41111853,4126.11647265,4122.35394649,4137.05820099,4122.99689424,4105.11461965,4133.28312662,4133.33501039,-126.924556133
off_to_on,4123.10354877,4125.97756314,4125.05268868,4134.49710901,4127.11930841,4130.8861049,4125.9141058,4122.03208512,4137.02262199,4122.9068659,4104.94491003,4133.33521933,4133.62139847,-136.837069274
off_to_on,4123.00856677,4126.30602845,4125.25300917,4134.55186225,4126.88617508,4130.37451288,4125.71294904,4121.71202941,4136.99172749,4122.77100845,4104.74585892,4133.30600924,4133.87252211,-142.108701362
off_to_on,4122.9709766,4126.64829485,4125.47275076,4134.62890339,4126.68134633,4129.88955643,4125.53021534,4121.4147284,4136.96631871,4122.59871313,4104.52327147,4133.20809713,4134.08562376,-142.850286728
off_to_on,4122.99461662,4127.00354335,4125.71400393,4134.72620987,4126.51159343,4129.44488584,4125.38378628,4121.16179908,4136.9469911,4122.40078614,4104.28399913,4133.05640704,4134.25921103,-139.290601143
off_to_on,4123.08257518,4127.3711677,4125.97899929,4134.8410386,4126.38297002,4129.05416195,4125.29147383,4120.97474506,4136.93411721,4122.18916497,4104.03571117,4132.86774487,4134.39317569,-131.768344927
off_to_on,4123.23717158,4127.75082596,4126.27005336,4134.97002028,4126.30067674,4128.73060435,4125.27027387,4120.87416315,4136.92783813,4121.97659639,4103.78663031,4132.66029705,4134.4888624,-120.720055065
off_to_on,4123.45994243,4128.14246968,4126.58949586,4135.10927869,4126.2689412,4128.486531,4125.33564078,4120.87896637,4136.92806373,4121.77628276,4103.54524114,4132.45308138,4134.54908063,-106.664343319
off_to_on,4123.75163208,4128.54634633,4126.93958014,4135.25457017,4126.29091635,4128.33290738,4125.5008117,4121.00565143,4136.93448143,4121.60150467,4103.3199817,4132.26536396,4134.57805526,-90.1830062782
off_to_on,4124.11218584,4128.96297345,4127.32237982,4135.40143772,4126.36860034,4128.2789238,4125.77620765,4121.26763728,4136.94657311,4121.46522916,4103.11892934,4132.11605845,4134.58131466,-71.8996816877
off_to_on,4124.54074591,4129.39308463,4127.7396757,4135.54537363,4126.5027807,4128.33161803,4126.16893574,4121.67469926,4136.96363931,4121.37971469,4102.94949278,4132.02312525,4134.56551839,-52.4568324269
off_to_on,4125.03564948,4129.83754964,4128.19283779,4135.68198415,4126.69300494,4128.49555869,4126.68241364,4122.23251994,4136.9848298,4121.35612456,4102.81812272,4132.00298915,4134.53822977,-32.4919190709
off_to_on,4125.5944287,4130.29727219,4128.68270766,4135.80714989,4126.93757913,4128.77260206,4127.31613272,4122.94237434,4137.0091794,4121.40416068,4102.73005274,4132.06999317,4134.50764115,-12.6136660478
off_to_on,4126.21381243,4130.77306962,4129.20948609,4135.91717547,4127.23359524,4129.16173288,4128.06557089,4123.80096235,4137.03564752,4121.53172915,4102.6890818,4132.2359054,4134.48226145,6.62066736717
off_to_on,4126.88973043,4131.26554015,4129.77263146,4136.00892259,4127.57698745,4129.65899678,4128.92225988,4124.80039627,4137.06316,4121.74464815,4102.69740771,4132.50949396,4134.47057716,24.7261293298
off_to_on,4127.61732174,4131.7749241,4130.37077361,4136.07992101,4127.96261705,4130.25752944,4129.87400544,4125.92834571,4137.09065151,4122.0464079,4102.75551923,4132.89618383,4134.48069936,41.308212622
off_to_on,4128.3909497,4132.30096711,4131.00164859,4136.12845285,4128.38438466,4130.94768412,4130.90525245,4127.16833607,4137.1171068,4122.43799127,4102.86215188,4133.39780748,4134.52001063,56.0775654393
off_to_on,4129.2042266,4132.84279407,4131.6620586,4136.1536066,4128.83536789,4131.71725539,4131.99758134,4128.50019134,4137.14159914,4122.91776264,4103.01431014,4134.01245954,4134.59482662,68.8606809141
off_to_on,4130.05005095,4133.39880239,4132.34786158,4136.1552988,4129.30798139,4132.55179296,4133.13031735,4129.90060675,4137.16332444,4123.48143142,4103.2073559,4134.73446265,4134.71008715,79.6061200228
off_to_on,4130.92065965,4133.9665825,4133.05399311,4136.13426249,4129.7941555,4133.43499572,4134.28122976,4131.3438323,4137.18162965,4124.12209434,4103.43516078,4135.55444872,4134.86909143,88.3859901632
off_to_on,4131.80769734,4134.54287183,4133.77452234,4136.09200324,4130.28552897,4134.34917322,4135.42729518,4132.80244435,4137.19603437,4124.83035845,4103.6903169,4136.4595553,4135.0732899,95.3925829866
off_to_on,4132.70230481,4135.12354647,4134.5027421,4136.03072492,4130.77365104,4135.27575962,4136.54549547,4134.24817968,4137.20624487,4125.59454364,4103.964399,4137.43373308,4135.32214314,100.930262311
off_to_on,4133.59522829,4135.70365295,4135.23129182,4135.95322857,4131.25018786,4136.19586346,4137.61361981,4135.65280351,4137.21215994,4126.40096065,4104.2482678,4138.45815622,4135.61305523,105.4028769
off_to_on,4134.4769512,4136.27748109,4135.952311,4135.86278913,4131.70712846,4137.09083562,4138.61103891,4136.98898193,4137.21386861,4127.23425792,4104.5324034,4139.51172451,4135.94138631,109.297146976
off_to_on,4135.33784874,4136.83867758,4136.65761975,4135.76301544,4132.13698524,4137.94283651,4139.51942063,4138.2311282,4137.21163987,4128.0778282,4104.80725571,4140.57164379,4136.300546,113.162632463
off_to_on,4136.16836446,4137.38039817,4137.33892179,4135.65769982,4132.53298364,4138.73538256,4140.32335826,4139.35619349,4137.20590486,4128.91426453,4105.0635987,4141.61406868,4136.6821668,117.589028138
off_to_on,4136.959205,4137.89549493,4137.98802409,4135.55066407,4132.88923575,4139.45385211,4141.01088638,4140.34437449,4137.19723265,4129.72585305,4105.29287479,4142.61479002,4137.0763535,123.181638636
off_to_on,4137.7015477,4138.37673211,4138.59706585,4135.44560857,4133.20089214,4140.08593159,4141.57386431,4141.17971366,4137.18630043,4130.49508871,4105.48751647,4143.54994657,4137.472001,130.535960887
off_to_on,4138.38725346,4138.81702199,4139.15874851,4135.34597126,4133.46426678,4140.62198512,4142.00821296,4141.85057159,4137.1738597,4131.20519793,4105.64123287,4144.39673875,4137.85716953,140.212341937
off_to_on,4139.00907668,4139.20967025,4139.66655804,4135.25480249,4133.67693024,4141.0553335,4142.31399689,4142.34995587,4137.1606999,4131.84065057,4105.74925026,4145.13412083,4138.21950287,152.71168378
off_to_on,4139.56086375,4139.54861937,4140.11497047,4135.17466087,4133.83776724,4141.3824325,4142.49534937,4142.67569543,4137.14761099,4132.38764274,4105.80849715,4145.74344784,4138.54667287,168.453131668
off_to_on,4140.03773224,4139.82867901,4140.49963281,4135.10753407,4133.94699563,4141.60294415,4142.56024396,4142.83045445,4137.13534674,4132.83453224,4105.81772649,4146.20905531,4138.82683218,187.754610316
off_to_on,4140.43622285,4140.04573323,4140.81751187,4135.05478711,4134.00614503,4141.71969879,4142.52012179,4142.82158502,4137.12459015,4133.1722098,4105.77757009,4146.51875244,4139.04905759,210.816968142
off_to_on,4140.75441698,4140.19691546,4141.06700515,4135.01713948,4134.01799435,4141.73854892,4142.38938889,4142.66082325,4137.11592261,4133.39439237,4105.69052289,4146.66421374,4139.20376673,237.712356502
off_to_on,4140.9920129,4140.28074383,4141.24800886,4134.99467085,4133.98646926,4141.66811952,4142.18480376,4142.36383907,4137.10979791,4133.4978276,4105.56085781,4146.64125757,4139.2830925,268.377312008
off_to_on,4141.15035476,4140.29721043,4141.36193972,4134.98685388,4133.91650157,4141.51946318,4141.92477961,4141.94965579,4137.10652234,4133.48240238,4105.39447455,4146.45000442,4139.28120084,302.610832452
off_to_on,4141.23241009,4140.24781972,4141.4117084,4134.99261172,4133.81385458,4141.30563241,4141.62863037,4141.43996043,4137.10624151,4133.35115146,4105.19868822,4146.09491092,4139.19453888,340.077549141
off_to_on,4141.24269436,4140.13557322,4141.40164452,4135.01039621,4133.68492005,4141.04118497,4141.31579147,4140.85833018,4137.10893446,4133.11016496,4104.98196542,4145.58467916,4139.0220029,380.31590743
off_to_on,4141.18714307,4139.96489975,4141.33737451,4135.03828275,4133.53649357,4140.74164105,4141.00504758,4140.22940301,4137.1144153,4132.76839683,4104.75361757,4144.93204453,4138.76501752,422.751078202
off_to_on,4141.07293485,4139.74153288,4141.22565596,4135.07407646,4133.37553663,4140.42291275,4140.71379787,4139.57802186,4137.12234201,4132.33737937,4104.52346173,4144.15344855,4138.4275215,466.712144115
off_to_on,4140.90827077,4139.47233962,4141.07417343,4135.11542466,4133.20893398,4140.10072697,4140.45738656,4138.92838211,4137.13223233,4131.83085215,4104.30146111,4143.26860657,4138.01585882,511.45294421
off_to_on,4140.70211646,4139.16510655,4140.89130231,4135.15993051,4133.04325544,4139.79006255,4140.24852333,4138.30321179,4137.14348561,4131.26431681,4104.09735784,4142.29998289,4137.53857803,556.175824555
off_to_on,4140.46391556,4138.82829129,4140.68584861,4135.20526274,4132.88453104,4139.50462226,4140.09681403,4137.72301281,4137.15540991,4130.65453195,4103.92031165,4141.27218837,4137.00614664,600.057434101
off_to_on,4140.20328408,4138.47074873,4140.46677344,4135.24925719,4132.73804837,4139.25635897,4140.00841825,4137.20538994,4137.16725317,4130.01896459,4103.77855796,4140.2113169,4136.43059084,642.275628613
off_to_on,4139.92969735,4138.10144254,4140.2429119,4135.29000614,4132.60818017,4139.05507413,4139.98584579,4136.76449138,4137.17823688,4129.37521638,4103.67909885,4139.14423903,4135.82507367,682.036506124
off_to_on,4139.65218198,4137.72915334,4140.02269662,4135.32593209,4132.49824923,4138.90810375,4140.02789848,4136.41058089,4137.18759112,4128.74044359,4103.62743856,4138.09787173,4135.2034275,718.600595407
off_to_on,4139.37902592,4137.36219542,4139.81389609,4135.3558435,4132.41043609,4138.82010385,4140.12975807,4136.14975649,4137.1945892,4128.13079094,4103.62737408,4137.09844493,4134.57965897,751.307252588
off_to_on,4139.1175191,4137.0081542,4139.62337803,4135.37897063,4132.34573339,4138.79294276,4140.28321523,4135.98382497,4137.19858068,4127.56085961,4103.68084869,4136.17078646,4133.96744645,779.596389235
off_to_on,4138.87373576,4136.67365618,4139.45690695,4135.39498087,4132.30394836,4138.82570387,4140.47702937,4135.91033577,4137.19902129,4127.04322998,4103.78787428,4135.33764768,4133.37965152,803.02675733
off_to_on,4138.65236774,4136.36418159,4139.31898397,4135.4039735,4132.28375314,4138.91479755,4140.69740451,4135.922772,4137.19549849,4126.58805866,4103.94652577,4134.61909167,4132.82786593,821.290147514
off_to_on,4138.45661543,4136.08392837,4139.21273524,4135.40645481,4132.28278046,4139.05417757,4140.92856242,4136.01089086,4137.1877518,4126.20276695,4104.15300813,4134.03196413,4132.32201423,834.22100994
off_to_on,4138.2881409,4135.83573291,4139.139853,4135.40329562,4132.29776043,4139.23565331,4141.15339035,4136.16120027,4137.17568684,4125.89183451,4104.40179388,4133.58946422,4131.87002918,841.801176601
off_to_on,4138.1470853,4135.62105081,4139.1005917,4135.39567322,4132.32469265,4139.44928583,4141.35413787,4136.35755385,4137.15938273,4125.65670734,4104.68582605,4133.30082919,4131.47761375,844.159545509
off_to_on,4138.03215055,4135.43999786,4139.09381892,4135.38500105,4132.35904643,4139.68385242,4141.51313493,4136.58184109,4137.13909239,4125.49582468,4104.99677874,4133.1711427,4131.14809897,841.566772898
off_to_on,4137.94074246,4135.29144956,4139.11711914,4135.37284922,4132.39598094,4139.92736149,4141.61350265,4136.81474663,4137.11523572,4125.40476469,4105.32536564,4133.20127298,4130.88240315,834.425200827
off_to_on,4137.86917005,4135.17319493,4139.16694641,4135.36085955,4132.43057626,4140.16759762,4141.63982976,4137.03654911,4137.08838602,4125.37650454,4105.66168464,4133.38794356,4130.67909379,823.254417997
off_to_on,4137.81289281,4135.08213851,4139.23882004,4135.35065914,4132.45806578,4140.39267487,4141.5787902,4137.22792986,4137.05925008,4125.40178699,4105.99558638,4133.72393508,4130.53454984,808.673006817
off_to_on,4137.76680499,4135.01454153,4139.32755542,4135.34377616,4132.47406059,4140.59157607,4141.41968112,4137.37076132,4137.0286428,4125.4695809,4106.31705314,4134.19841258,4130.44321746,791.377163506
off_to_on,4137.72554404,4134.96629099,4139.42752069,4135.34156182,4132.47475642,4140.75465672,4141.15486477,4137.44884659,4136.99745728,4125.56761918,4106.61657463,4134.79736771,4130.39794797,772.116983522
off_to_on,4137.68380894,4134.93318291,4139.53290819,4135.34512189,4132.45711489,4140.87409327,4140.78010107,4137.44858335,4136.96663163,4125.68299299,4106.88550692,4135.50415987,4130.39040192,751.671278909
off_to_on,4137.63667402,4134.91120464,4139.63800913,4135.35526085,4132.41901156,4140.94425852,4140.29476136,4137.35952767,4136.93711389,4125.80277699,4107.1164009,4136.30013613,4130.41149907,730.821836791
off_to_on,4137.57988391,4134.89680085,4139.73747942,4135.37244101,4132.35934452,4140.96200879,4139.70191659,4137.17483611,4136.9098264,4125.91465806,4107.30328747,4137.16530562,4130.45189154,710.328037225
off_to_on,4137.51011602,4134.88710852,4139.82658527,4135.39675832,4132.27809899,4140.9268709,4139.00829659,4136.89156861,4136.88563136,4126.00753869,4107.44190825,4138.07904239,4130.50243634,690.902722285
off_to_on,4137.42519818,4134.88014804,4139.90141801,4135.42793578,4132.1763648,4140.84111976,4138.22412127,4136.51083933,4136.86529878,4126.07208754,4107.52988252,4139.02078983,4130.55464398,673.190148829
off_to_on,4137.32427047,4134.87495994,4139.95906922,4135.46533448,4132.05630576,4140.70974175,4137.36280926,4136.0378093,4136.84947848,4126.10121204,4107.56680359,4139.97074001,4130.60108212,657.746770412
off_to_on,4137.20788254,4134.87167921,4139.99775919,4135.50798154,4131.9210817,4140.54028315,4136.44057451,4135.48152113,4136.83867714,4126.09043142,4107.55426098,4140.9104629,4130.63571553,645.025482679
off_to_on,4137.07802083,4134.87154264,4140.01691342,4135.55461361,4131.77472627,4140.34258804,4135.47592599,4134.85458291,4136.83324139,4126.03813283,4107.49578727,4141.82346211,4130.65416694,635.363832733
off_to_on,4136.93806328,4134.87682728,4140.01718472,4135.60373362,4131.6219855,4140.12843506,4134.48908895,4134.17271443,4136.83334766,4125.94569745,4107.39673136,4142.69563676,4130.65388688,628.976538945
off_to_on,4136.79266302,4134.89072215,4140.00041998,4135.65367803,4131.46812387,4139.91108702,4133.5013687,4133.4541738,4136.83899886,4125.81748889,4107.26406258,4143.51563322,4130.6342248,625.952499557
off_to_on,4136.64756583,4134.91713889,4139.96957389,4135.70269143,4131.31870625,4139.70477162,4132.53447959,4132.71908655,4136.85002795,4125.66070245,4107.10611233,4144.27507525,4130.59639881,626.256292597
off_to_on,4136.50936964,4134.96047095,4139.92857365,4135.7490048,4131.17936497,4139.52411405,4131.60986251,4131.98870265,4136.86610791,4125.48507977,4106.93226287,4144.9686672,4130.54336727,629.733993219
off_to_on,4136.38523633,4135.0253138,4139.8821411,4135.79091407,4131.05556191,4139.38354452,4130.74801471,4131.2846095,4136.88676746,4125.30250088,4106.75259489,4145.59417058,4130.4796106,636.122967731
off_to_on,4136.28256858,4135.11616147,4139.83558048,4135.82685542,4130.95235553,4139.29670463,4129.96785535,4130.62793035,4136.91141172,4125.12647048,4106.57750746,4146.15225958,4130.41083717,645.065159612
off_to_on,4136.20866567,4135.23709551,4139.79454084,4135.85547422,4130.87418297,4139.27587713,4129.28614848,4130.03853818,4136.93934659,4124.97152077,4106.41732533,4146.64626536,4130.34362979,656.123269683
off_to_on,4136.17037339,4135.39148287,4139.76476346,4135.87568487,4130.8246663,4139.33146329,4128.71700295,4129.53431468,4136.96980587,4124.85255571,4106.2819086,4147.08182253,4130.28505207,668.799149482
off_to_on,4136.17374419,4135.58169912,4139.75182477,4135.88671906,4130.8064519,4139.47153063,4128.27146528,4129.13048162,4137.00197979,4124.78416444,4106.18027989,4147.46643467,4130.2422347,682.553670168
off_to_on,4136.22372382,4135.80889249,4139.76088607,4135.88816051,4130.82109012,4139.70145107,4127.95721779,4128.83902931,4137.03504377,4124.7799329,4106.12028318,4147.80897905,4130.22196239,696.827300819
off_to_on,4136.3238801,4136.0728028,4139.79646103,4135.87996471,4130.86896103,4140.02364587,4127.7783904,4128.66826243,4137.06818629,4124.85178354,4106.1082869,4148.11917318,4130.2302822,711.060633451
off_to_on,4136.47618732,4136.37164689,4139.86221147,4135.86246273,4130.9492501,4140.43744879,4127.73549022,4128.62247906,4137.10063474,4125.00937225,4106.14894259,4148.40702771,4130.27215262,724.714126029
off_to_on,4136.68087684,4136.70207868,4139.96078042,4135.83634904,4131.05997525,4140.93909389,4127.82544939,4128.70179346,4137.13167832,4125.25957,4106.24500774,4148.68231006,4130.35115057,737.286393297
off_to_on,4136.93636093,4137.05922754,4140.09366983,4135.80265379,4131.19806445,4141.52182902,4128.04178756,4128.90210848,4137.16068733,4125.60605282,4106.39723915,4148.95404207,4130.46925022,748.330452681
off_to_on,4137.23923355,4137.43681433,4140.26116782,4135.76270096,4131.35948099,4142.17615085,4128.37488221,4129.21523826,4137.18712819,4126.04901961,4106.60436028,4149.23005263,4130.62668331,757.467423734
off_to_on,4137.58434867,4137.82734054,4140.46232809,4135.71805414,4131.53939116,4142.89015203,4128.81233564,4129.62917681,4137.21057382,4126.58505094,4106.8631032,4149.51660282,4130.82188601,764.3972774
off_to_on,4137.96497382,4138.22234242,4140.69500211,4135.67045237,4131.73236737,4143.64996618,4129.33942449,4130.12850287,4137.23070943,4127.20711612,4107.16832269,4149.81809787,4131.0515333,768.906330638
off_to_on,4138.37301399,4138.61269968,4140.95592203,4135.62173903,4131.93261798,4144.44029185,4129.93961475,4130.69490643,4137.24733348,4127.90472964,4107.51317796,4150.13689591,4131.31065775,770.871283746
off_to_on,4138.79929784,4138.98898627,4141.24083085,4135.57378673,4132.1342338,4145.24497299,4130.59512378,4131.30781778,4137.26035437,4128.66425199,4107.88937466,4150.47322002,4131.59284662,770.259706576
off_to_on,4139.23391546,4139.34184907,4141.54465372,4135.52842169,4132.33144055,4146.04761081,4131.28751008,4131.94511646,4137.26978309,4129.46932428,4108.28745841,4150.82517514,4131.89050823,767.126997831
off_to_on,4139.66659337,4139.66239861,4141.86170261,4135.48735074,4132.51884606,4146.8321806,4131.99827095,4132.5838945,4137.27572253,4130.3014205,4108.69714909,4151.18886685,4132.19519558,761.609965754
off_to_on,4140.08709056,4139.94259434,4142.18590446,4135.45209413,4132.69167112,4147.5836275,4132.70942745,4133.20124606,4137.27835406,4131.14049541,4109.10770359,4151.5586132,4132.49797217,753.917303283
off_to_on,4140.4855976,4140.17560644,4142.51104157,4135.42392682,4132.84595414,4148.28841642,4133.40407629,4133.77505479,4137.2779222,4131.96570121,4109.50829373,4151.92723618,4132.78980253,744.317349819
off_to_on,4140.85312084,4140.35613652,4142.83099273,4135.40383065,4132.97872045,4148.9350141,4134.06688875,4134.28474947,4137.2747182,4132.75614249,4109.8883849,4152.28641543,4133.06194799,733.123639397
off_to_on,4141.18183463,4140.48068155,4143.13996322,4135.39245915,4133.08810938,4149.51428362,4134.6845383,4134.7119998,4137.26906326,4133.49163673,4110.23810128,4152.6270843,4133.30634829,720.678825663
off_to_on,4141.46538561,4140.54772759,4143.43269335,4135.39011618,4133.17345332,4150.0197754,4135.24604098,4135.04132568,4137.26129225,4134.15344783,4110.5485634,4152.93984756,4133.5159706,707.337643096
off_to_on,4141.69913548,4140.55786333,4143.70463582,4135.39674928,4133.23530532,4150.44790222,4135.74299634,4135.26059684,4137.25173864,4134.7249617,4110.81218545,4153.21539997,4133.68510965,693.449607611
off_to_on,4141.88033026,4140.51380656,4143.95209445,4135.41195756,4133.27541314,4150.79799039,4136.16972111,4135.36140387,4137.24072112,4135.19227632,4111.0229212,4153.44492588,4133.80962575,679.342175447
off_to_on,4142.00818716,4140.42034002,4144.17231814,4135.43501403,4133.29664015,4151.07220405,4136.52327316,4135.33928733,4137.22853262,4135.54468264,4111.17644931,4153.62046155,4133.88711046,665.30506579
off_to_on,4142.08389324,4140.28415606,4144.36354631,4135.46490103,4133.30283541,4151.2753455,4136.80336807,4135.19381774,4137.21543185,4135.7750172,4111.27029138,4153.73520421,4133.91697255,651.576409916
off_to_on,4142.1105144,4140.11361377,4144.5250042,4135.50035716,4133.29865761,4151.41453996,4137.01219528,4134.92852531,4137.20163779,4135.87987283,4111.30385849,4153.78375474,4133.90044031,638.331319044
off_to_on,4142.09281762,4139.91841552,4144.65684898,4135.53993369,4133.28935997,4151.49881898,4137.15414372,4134.55068414,4137.18732704,4135.85965916,4111.27842445,4153.76228434,4133.84047952,625.6733672
off_to_on,4142.03701422,4139.70921447,4144.7600702,4135.58205757,4133.28054444,4151.53862111,4137.23544985,4134.07096092,4137.172634,4135.71851152,4111.19702708,4153.66862032,4133.74163002,613.629367935
off_to_on,4141.9504357,4139.49716798,4144.83635076,4135.62509836,4133.27789559,4151.54523207,4137.26378355,4133.50294308,4137.15765371,4135.464053,4111.06430154,4153.50225009,4133.60976804,602.147689387
off_to_on,4141.84115735,4139.29345549,4144.88789664,4135.66743586,4133.28690481,4151.530189,4137.24778917,4132.86256604,4137.14244691,4135.10702162,4110.88625276,4153.2642473,4133.45180513,591.10020648
off_to_on,4141.71758672,4139.10878127,4144.91724547,4135.70752567,4133.31259665,4151.50467454,4137.1966016,4132.16746303,4137.12704698,4134.66078052,4110.66997713,4152.95712797,4133.27533847,580.287838023
off_to_on,4141.58803593,4138.95288402,4144.92706498,4135.74396006,4133.35926861,4151.47892739,4137.11935822,4131.43626459,4137.11146825,4134.140734,4110.42334564,4152.58464786,4133.0882693,569.449466303
off_to_on,4141.46029785,4138.83407507,4144.9199526,4135.77552158,4133.43025611,4151.46169548,4137.0247285,4130.68787688,4137.09571505,4133.56367644,4110.15466281,4152.151555,4132.89840837,558.273893939
off_to_on,4141.34124648,4138.7588266,4144.89824788,4135.80122774,4133.52773357,4151.45975704,4136.92048291,4129.94076921,4137.07979101,4132.94710322,4109.87231647,4151.6633135,4132.71308744,546.414363044
off_to_on,4141.23648177,4138.73142975,4144.86386836,4135.82036486,4133.65256139,4151.47753252,4136.81312106,4129.21230067,4137.06370796,4132.30851455,4109.5844342,4151.12581597,4132.5387959,533.505050832
off_to_on,4141.15003764,4138.75374057,4144.81817897,4135.83251035,4133.80418743,4151.51680695,4136.70757718,4128.51811382,4137.04749404,4131.66474306,4109.2985614,4150.54510283,4132.38086126,519.178868214
off_to_on,4141.08416908,4138.82502853,4144.76190295,4135.8375428,4133.98060909,4151.57657788,4136.60701748,4127.87161986,4137.03120037,4131.031335,4109.02137571,4149.92710594,4132.24319061,503.085827572
off_to_on,4141.03923037,4138.94193822,4144.69508033,4135.83563989,4134.1783997,4151.65303875,4136.51274,4127.28359539,4137.01490605,4130.42201235,4108.75845008,4149.27743227,4132.12808794,484.911215198
off_to_on,4141.01365187,4139.09856956,4144.61707703,4135.82726496,4134.39279985,4151.7397013,4136.42418271,4126.76190543,4136.99872111,4129.84823856,4108.51407524,4148.60120023,4132.03615866,464.392804411
off_to_on,4141.00401774,4139.28667599,4144.52664476,4135.81314299,4134.61787149,4151.82765487,4136.33903977,4126.31136191,4136.98278728,4129.31890542,4108.2911487,4147.90293713,4131.96630786,441.336377039
off_to_on,4141.00524237,4139.49597478,4144.42202932,4135.79422743,4134.84670988,4151.90595343,4136.25347991,4125.93372051,4136.96727648,4128.84015185,4108.0911348,4147.18654219,4131.91583369,415.628882703
off_to_on,4141.0108388,4139.71455802,4144.30112211,4135.77165942,4135.07170559,4151.96211528,4136.16245544,4125.62781287,4136.9523871,4128.41531885,4107.91409621,4146.45531546,4131.88061221,387.248654643
off_to_on,4141.01326793,4139.92938891,4144.16164756,4135.74672111,4135.28484673,4151.98271409,4136.06008472,4125.38980447,4136.93833825,4128.04503874,4107.75879432,4145.71204923,4131.85536549,356.272214143
off_to_on,4141.0043539,4140.12686399,4144.0013776,4135.72078484,4135.47804927,4151.95403461,4135.94008727,4125.21356334,4136.92536221,4127.72745066,4107.6228524,4144.95917542,4131.83400068,322.877328413
off_to_on,4140.97574709,4140.29341892,4143.81836232,4135.69526021,4135.64350181,4151.86276247,4135.79624758,4125.0911193,4136.91369552,4127.45852943,4107.50297303,4144.19895946,4131.81000496,287.3421337
off_to_on,4140.91941369,4140.41615333,4143.61116535,4135.67154098,4135.77400997,4151.69667575,4135.62288334,4125.01319,4136.90356902,4127.23251062,4107.39519903,4143.43372859,4131.7768786,250.040290511
off_to_on,4140.82812902,4140.48344844,4143.3790912,4135.65095376,4135.86332524,4151.44530583,4135.41529372,4124.96974798,4136.89519741,4127.04239041,4107.29520525,4142.66611991,4131.72858613,211.432294972
off_to_on,4140.69595093,4140.48555065,4143.12239227,4135.63471015,4135.90644345,4151.10053699,4135.17016521,4124.95060146,4136.88876886,4126.8804757,4107.19860744,4141.89933171,4131.66000398,172.053223092
off_to_on,4140.51865045,4140.41509489,4142.84244308,4135.62386403,4135.89985925,4150.65711706,4134.88591411,4124.94596193,4136.88443505,4126.73895711,4107.10127342,4141.13736003,4131.56734181,132.49732711
off_to_on,4140.29407857,4140.2675433,4142.5418708,4135.61927507,4135.84176429,4150.11305523,4134.56294759,4124.94697194,4136.88230232,4126.61047608,4106.99962115,4140.3852026,4131.44851487,93.400029319
off_to_on,4140.0224507,4140.04151772,4142.22463301,4135.62157951,4135.73217936,4149.46988756,4134.20382822,4124.94616865,4136.8824242,4126.48865754,4106.89088902,4139.64901347,4131.30344604,55.4179639012
off_to_on,4139.7065333,4139.73900855,4141.89603558,4135.63116886,4135.57301301,4148.73279571,4133.8133316,4124.93786169,4136.88479587,4126.36858103,4106.77336454,4138.93619349,4131.13427863,19.2077971876
off_to_on,4139.35172084,4139.36544696,4141.56268621,4135.64817714,4135.36804272,4147.91057064,4133.39839188,4124.91840816,4136.8893507,4126.24716659,4106.64655959,4138.25540484,4130.9454845,-14.5953918149
off_to_on,4138.96599489,4138.92963233,4141.23238196,4135.67247672,4135.1228177,4147.01541998,4132.96793573,4124.88637305,4136.89595923,4126.12345498,4106.51132283,4137.61650077,4130.74385624,-45.3993677022
off_to_on,4138.5597619,4138.44351258,4140.91393122,4135.70368308,4134.84448655,4146.06262544,4132.53261076,4124.84256905,4136.90443063,4125.9987669,4106.36988281,4137.03036522,4130.53837638,-72.674838993
off_to_on,4138.14557125,4137.92182102,4140.61691419,4135.74116796,4134.54155632,4145.07006403,4132.10441944,4124.78997534,4136.91451662,4125.87673057,4106.22581811,4136.50866141,4130.33996215,-95.9736503182
off_to_on,4137.73772122,4137.38158023,4140.35138817,4135.78408059,4134.22359262,4144.05761344,4131.69627435,4124.7335413,4136.92591781,4125.76317376,4106.08395441,4136.06349394,4130.16109038,-114.944382053
off_to_on,4137.35176584,4136.8414905,4140.12754809,4135.83137628,4133.9008735,4143.04646724,4131.32149491,4124.67988635,4136.93829223,4125.66588342,4105.95019174,4135.70699485,4130.0153139,-129.344761832
off_to_on,4137.00394096,4136.32122644,4139.9553546,4135.88185127,4133.58401169,4142.05838948,4130.99326879,4124.63691207,4136.95126569,4125.59424326,4105.83126859,4135.45084983,4129.9166876,-139.05039601
off_to_on,4136.71053154,4135.84067034,4139.84414497,4135.9341829,4133.28356106,4141.11494006,4130.72410346,4124.61334712,4136.96444367,4125.55876643,4105.73447294,4135.30578564,4129.87912811,-144.059444785
off_to_on,4136.4872049,4135.41911361,4139.80224246,4135.98697354,4133.00962394,4140.23670341,4130.52529339,4124.61824786,4136.97742425,4125.57054585,4105.66731278,4135.2810423,4129.91573536,-144.49299446
off_to_on,4136.34833698,4135.07445951,4139.83658106,4136.03879697,4132.7714755,4139.44255176,4130.40642805,4124.66048,4136.98981152,4125.64064877,4105.63716087,4135.3838555,4130.03810739,-140.591028384
off_to_on,4136.3063597,4134.82246,4139.95236159,4136.08824561,4132.57722056,4138.74897352,4130.37496305,4124.74820656,4137.00122912,4125.77948456,4105.65088945,4135.61897456,4130.25568042,-132.704063969
off_to_on,4136.37115824,4134.67601957,4140.1527554,4136.13397694,4132.43349707,4138.16949421,4130.43587378,4124.88840695,4137.01133312,4125.99617592,4105.71451165,4135.98824073,4130.57512646,-121.280697533
off_to_on,4136.54954695,4134.64459666,4140.43867028,4136.17475759,4132.34523815,4137.71421376,4130.59140697,4125.08645007,4137.01982397,4126.29796422,4105.83284564,4136.49024919,4130.99983928,-106.851466331
off_to_on,4136.84485034,4134.7337312,4140.80859194,4136.20950364,4132.31550238,4137.38947945,4130.84094135,4125.34574127,4137.02645693,4126.68967883,4106.00921748,4137.12011654,4131.52953706,-90.0095864157
off_to_on,4137.25661298,4134.9447222,4141.2585121,4136.2373158,4132.34537869,4137.19770766,4131.18096482,4125.66746034,4137.03105059,4127.17329879,4106.24521694,4137.86937205,4132.16000645,-71.3892532394
off_to_on,4137.78045637,4135.27447365,4141.7819509,4136.25750832,4132.43396931,4137.13736155,4131.60517152,4126.05040374,4137.03349307,4127.74763251,4106.54051955,4138.72598723,4132.88300769,-51.6422984176
off_to_on,4138.40809543,4135.71551988,4142.37007739,4136.26963076,4132.57845036,4137.20308512,4132.10467797,4126.49094042,4137.03374581,4128.408136,4106.89278504,4139.67455198,4133.6863537,-31.414074782
off_to_on,4139.12751988,4136.25623314,4143.01192767,4136.27348197,4132.77420696,4137.38598734,4132.66835247,4126.98308542,4137.03184468,4129.14688446,4107.29763972,4140.69659923,4134.55416853,-11.3194847848
off_to_on,4139.92333869,4136.88120809,4143.6947153,4136.2691159,4133.01503606,4137.67406392,4133.28324607,4127.51868987,4137.02789829,4129.9527041,4107.74874625,4141.77107241,4135.46732146,8.07992799336
off_to_on,4140.77727832,4137.57180999,4144.40422467,4136.25683909,4133.29340781,4138.05273839,4133.93510759,4128.08773951,4137.0220838,4130.81146335,4108.23796021,4142.87492312,4136.40402503,26.2969357255
off_to_on,4141.66881858,4138.30686663,4145.12527398,4136.23719994,4133.60077381,4138.5054988,4134.6089596,4128.678748,4137.01464014,4131.70651451,4108.75556878,4143.98381999,4137.34057669,42.9368088543
off_to_on,4142.57594275,4139.06347796,4145.84223139,4136.21097031,4133.92790885,4139.0146024,4135.28970856,4129.27922617,4137.00585904,4132.61926966,4109.29060277,4145.07294393,4138.25221735,57.7120009467
off_to_on,4143.47597294,4139.8179124,4146.53956483,4136.17912014,4134.26527143,4139.56181715,4135.96276058,4129.87620472,4136.9960742,4133.52988855,4109.83121043,4146.11784044,4139.11407381,70.4527416181
off_to_on,4144.34645611,4140.54655411,4147.20240421,4136.14278613,4134.6033679,4140.1291678,4136.61461421,4130.4567858,4136.98564892,4134.4180503,4110.36507827,4147.09529559,4139.90214793,81.1130953307
off_to_on,4145.1660629,4141.22686272,4147.81709279,4136.10323587,4134.93310536,4140.69965424,4137.2334037,4131.00869795,4136.97496284,4135.26377654,4110.87988234,4147.98419954,4140.59431154,89.7722140128
off_to_on,4145.91545952,4141.83830487,4148.37170471,4136.0618286,4135.24611907,4141.2579117,4137.80936872,4131.52082947,4136.96439808,4136.04827021,4111.36375148,4148.76636037,4141.17126433,96.6306950593
off_to_on,4146.57811358,4142.36321751,4148.8565057,4136.01997423,4135.53506179,4141.79078545,4138.33522987,4131.9837161,4136.95432552,4136.75473167,4111.80572364,4149.42723097,4141.61741151,102.002145548
off_to_on,4147.1409969,4142.78756495,4149.26433642,4135.97909172,4135.79384442,4142.2877964,4138.80645309,4132.38996075,4136.94509152,4137.36911374,4112.19617558,4149.9565145,4141.92162018,106.300239145
off_to_on,4147.59515276,4143.1015563,4149.59090072,4135.9405683,4136.01781945,4142.74147894,4139.22139072,4132.73456575,4136.93700579,4137.88077911,4112.52720765,4150.34861842,4142.07781756,110.021727484
off_to_on,4147.93610024,4143.30009581,4149.83494472,4135.90572032,4136.20390147,4143.14757777,4139.58129247,4133.01516164,4136.93033067,4138.28302761,4112.79296682,4150.60293345,4142.08540089,113.726027722
off_to_on,4148.16405553,4143.38304561,4149.99831757,4135.87575682,4136.35062134,4143.50509633,4139.89018591,4133.23212166,4136.92527232,4138.57346695,4112.98989379,4150.7239218,4141.94943699,118.012145383
off_to_on,4148.28395717,4143.35528842,4150.08590923,4135.85174661,4136.45811385,4143.81619603,4140.1546326,4133.38855666,4136.92197411,4138.75420775,4113.11688346,4150.7210066,4141.68063866,123.493799061
off_to_on,4148.30529115,4143.22658543,4150.10546601,4135.83458945,4136.52804112,4144.08595293,4140.38337195,4133.49019097,4136.9205124,4138.83187144,4113.17535138,4150.60826353,4141.29511442,130.773687438
off_to_on,4148.24172042,4143.0112334,4150.06728953,4135.82499225,4136.56345724,4144.3219851,4140.58687003,4133.54512522,4136.92089487,4138.81740752,4113.16920259,4150.40392343,4140.81389771,140.417878093
off_to_on,4148.11053279,4142.72753333,4149.9838302,4135.82345047,4136.56862194,4144.53397092,4140.77679468,4133.56349711,4136.92306148,4138.7257249,4113.10470307,4150.12970308,4140.26227043,152.931299552
off_to_on,4147.93192936,4142.39709117,4149.86919082,4135.83023531,4136.54877343,4144.73308312,4140.96544108,4133.55705542,4136.9268878,4138.57514988,4112.99025745,4149.80998912,4139.66890463,168.73528074
off_to_on,4147.7281828,4142.0439785,4149.73856025,4135.84538689,4136.50987186,4144.93136658,4141.16513383,4133.53866581,4136.93219086,4138.38673122,4112.83610051,4149.47090662,4139.06485378,188.148007562
off_to_on,4147.52270044,4141.69378705,4149.60759976,4135.86871337,4136.45832542,4145.14108962,4141.38763286,4133.52177022,4136.93873698,4138.18341977,4112.65391336,4149.1393093,4138.48243165,211.368659444
off_to_on,4147.33903102,4141.3726153,4149.49180731,4135.89979627,4136.40071159,4145.37409896,4141.64357066,4133.51982343,4136.94625138,4137.98915588,4112.45637872,4148.84173166,4137.95402193,238.465852785
off_to_on,4147.19985624,4141.10602798,4149.40588533,4135.93800185,4136.34350547,4145.64120787,4141.94194718,4133.54573159,4136.95442923,4137.82790183,4112.25669241,4148.60334459,4137.51086446,269.370856728
off_to_on,4147.12600956,4140.91802993,4149.36313806,4135.98249843,4136.29282656,4145.95164523,4142.28970683,4133.61131748,4136.96294757,4137.7226587,4112.06805015,4148.44695576,4137.18186514,303.875866485
off_to_on,4147.13556416,4140.830095,4149.37492305,4136.03227937,4136.25421438,4146.31259011,4142.69141729,4133.72683534,4136.97147772,4137.69450797,4111.90313009,4148.39209427,4136.99247554,341.637429369
off_to_on,4147.24302982,4140.86028897,4149.45017974,4136.0861912,4136.23244154,4146.72881262,4143.14906484,4133.90055559,4136.97969776,4137.76171716,4111.77359174,4148.45421601,4136.96368624,382.184925607
off_to_on,4147.45869439,4141.02252137,4149.59505505,4136.142966,4136.23137116,4147.20243606,4143.66197395,4134.13843561,4136.98730441,4137.93894703,4111.68961136,4148.64406214,4137.1111737,424.933815267
off_to_on,4147.78813912,4141.32595671,4149.81264206,4136.20125711,4136.25386276,4147.73282967,4144.2268525,4134.4438883,4136.99402409,4138.23659402,4111.65947269,4148.96719783,4137.44463538,469.203182426
off_to_on,4148.23194898,4141.77460822,4150.10284269,4136.25967717,4136.30172841,4148.316634,4144.83795742,4134.81765565,4136.99962263,4138.66029674,4111.68922988,4149.42375084,4137.9673404,514.236946773
off_to_on,4148.78562999,4142.36712996,4150.46236031,4136.31683729,4136.37573813,4148.94791484,4145.48737004,4135.25779005,4137.00391327,4139.21062818,4111.78245611,4150.00836173,4138.67591463,559.227976632
off_to_on,4149.43973673,4143.09681369,4150.88482206,4136.37138612,4136.47567142,4149.61843569,4146.16536618,4135.75974186,4137.00676281,4139.88298769,4111.94008822,4150.71034798,4139.56036926,603.344229141
off_to_on,4150.18020448,4143.9517895,4151.36102539,4136.42204776,4136.60040975,4150.31803425,4146.86086183,4136.31654756,4137.00809548,4140.66769802,4112.16037341,4151.51407576,4140.60437225,645.755967843
off_to_on,4150.98887265,4144.91542061,4151.87929865,4136.46765717,4136.74806339,4151.03508403,4147.56191293,4136.91910892,4137.0078947,4141.55030419,4112.43891994,4152.3995249,4141.78575269,685.663069722
off_to_on,4151.84417893,4145.96687656,4152.42596059,4136.50719209,4136.91612452,4151.75701873,4148.25624508,4137.5565499,4137.00620248,4142.51206282,4112.76884931,4153.34302548,4143.07721916,722.321433472
off_to_on,4152.72199608,4147.08186196,4152.98586046,4136.53980039,4137.10163761,4152.47089406,4148.93178817,4138.2166348,4137.00311661,4143.53060261,4113.14104338,4154.31813821,4144.44726545,755.067536397
off_to_on,4153.59657725,4148.23347304,4153.54297629,4136.56482213,4137.30137758,4153.16396026,4149.57719108,4138.88622913,4136.99878577,4144.58073023,4113.54447621,4155.29664512,4145.86123,783.340257886
off_to_on,4154.4415705,4149.39314853,4154.0810472,4136.58180557,4137.51202592,4153.82421824,4150.18229294,4139.55178348,4136.99340291,4145.63534967,4113.96661747,4156.24961223,4147.28246959,806.699191912
off_to_on,4155.23105981,4150.53167795,4154.58421327,4136.59051688,4137.73033572,4154.44093405,4150.73852925,4140.19982026,4136.98719692,4146.66645843,4114.39389145,4157.1484821,4148.67360288,824.838804597
off_to_on,4155.94058908,4151.62022755,4155.03763645,4136.59094306,4137.95327742,4155.00508839,4151.23925464,4140.81740343,4136.98042318,4147.64618014,4114.8121737,4157.96615204,4149.99777662,837.597948329
off_to_on,4156.5481265,4152.63134357,4155.42807662,4136.5832882,4138.17815843,4155.50974214,4151.67996753,4141.39257265,4136.97335334,4148.54779131,4115.20730611,4158.67799343,4151.21990587,844.96441592
off_to_on,4157.03493034,4153.53989432,4155.74439921,4136.56796294,4138.40271182,4155.9503027,4152.05842668,4141.91472505,4136.96626455,4149.34670007,4115.56560991,4159.26277023,4152.30784093,847.074402038
off_to_on,4157.38628219,4154.32391604,4155.9779943,4136.54556766,4138.62515087,4156.32468085,4152.37465517,4142.37493066,4136.95942883,4150.02133727,4115.87437677,4159.70341948,4153.23341761,844.20692689
off_to_on,4157.59205965,4154.96533239,4156.12309143,4136.51686974,4138.84418822,4156.63333231,4152.63083356,4142.76617109,4136.95310281,4150.55392507,4116.12231902,4159.98766319,4153.97335288,836.773459935
off_to_on,4157.64712773,4155.45052355,4156.17695901,4136.48277575,4139.05902027,4156.87918323,4152.83109056,4143.08349544,4136.94751822,4150.93109417,4116.29996227,4160.10842888,4154.50995584,825.303153022
off_to_on,4157.5515352,4155.77072664,4156.13998222,4136.44429973,4139.26927934,4157.06744425,4152.98120551,4143.32409174,4136.94287361,4151.14432847,4116.39996672,4160.06406464,4154.83163157,810.424248331
off_to_on,4157.31051055,4155.9222561,4156.01561822,4136.40252869,4139.47495758,4157.20532276,4153.0882418,4143.48727651,4136.93932747,4151.1902231,4116.41736692,4159.85834275,4154.93316466,792.842360494
off_to_on,4156.93426006,4155.90653947,4155.81023256,4136.35858686,4139.67630912,4157.30164908,4153.16013357,4143.57440862,4136.93699301,4151.07054964,4116.34972311,4159.5002549,4154.81577714,773.316437528
off_to_on,4156.43757926,4155.72997121,4155.53282553,4136.31359994,4139.87373756,4157.3664367,4153.20524929,4143.58873589,4136.93593486,4150.79212999,4116.19718117,4159.00361023,4154.48696471,752.633278904
off_to_on,4155.83929632,4155.40359478,4155.19466195,4136.26866068,4140.06767763,4157.4104001,4153.23195538,4143.53518517,4136.93616758,4150.36652765,4115.9624411,4158.38645606,4153.96012327,731.581530537
do_nothing,4155.16157222,4154.94262989,4154.80882154,4136.22479689,4140.25847935,4157.44445484,4153.24820205,4143.42010754,4136.93765625,4149.80957296,4115.65063782,4157.67034837,4153.25398584,710.926084014
do_nothing,4154.42908727,4154.36586791,4154.38969017,4136.18294313,4140.44630291,4157.47922421,4153.26115134,4143.25099172,4136.94031885,4149.14074518,4115.2691408,4156.87950548,4152.39189702,691.383779221
do_nothing,4153.66814735,4153.69496282,4153.95241416,4136.14391698,4140.63103135,4157.52457526,4153.27686483,4143.03615905,4136.94403046,4148.38244015,4114.82728223,4156.03988274,4151.40095759,673.601248039
do_nothing,4152.90574494,4152.95364787,4153.51234038,4136.10840103,4140.81220697,4157.58920453,4153.3000658,4142.78445415,4136.94862894,4147.55915586,4114.33602562,4155.17820787,4150.31107534,658.135647582
do_nothing,4152.16861109,4152.16690958,4153.08446488,4136.07693117,4140.98899556,4157.68029129,4153.33398631,4142.50494439,4136.95392202,4146.69662999,4113.80758815,4154.321017,4149.15395956,645.438918015
do_nothing,4151.48229442,4151.36015047,4152.68291145,4136.04989186,4141.16018153,4157.80323271,4153.38030545,4142.20664045,4136.95969527,4145.82096359,4113.25503127,4153.49372896,4147.96209638,635.846063778
do_nothing,4150.87030159,4150.55837134,4152.32045976,4136.02751806,4141.324195,4157.96147166,4153.43918004,4141.89824839,4136.96572086,4144.95776334,4112.69183386,4152.719793,4146.76774078,629.567800786
do_nothing,4150.35333104,4149.78540204,4152.00814045,4136.0099038,4141.47917049,4158.15642364,4153.50936437,4141.5879608,4136.97176655,4144.13133277,4112.13146262,4152.01994044,4145.60195879,626.687741908
do_nothing,4149.94862734,4149.06320697,4151.75491116,4135.9970163,4141.62303495,4158.38750447,4153.58841081,4141.2832926,4136.97760471,4143.36393972,4111.58695326,4151.41156631,4144.49375042,627.164115398
do_nothing,4149.66947751,4148.41128727,4151.56742407,4135.98871503,4141.75362117,4158.65225528,4153.67293897,4140.99096344,4136.98302094,4142.67518315,4111.07051592,4150.90826068,4143.46927933,630.835833097
do_nothing,4149.52486393,4147.84619664,4151.44989062,4135.98477424,4141.86880086,4158.94655663,4153.75895812,4140.71682662,4136.98782195,4142.08147796,4110.59317653,4150.51950275,4142.55123061,637.432557528
do_nothing,4149.51928145,4147.38118163,4151.40404517,4135.98490791,4141.96663031,4159.26491952,4153.84222431,4140.465842,4136.99184252,4141.59567085,4110.16446506,4150.25052272,4141.75831169,646.588272532
do_nothing,4149.65271962,4147.0259514,4151.4292044,4135.98879543,4142.04550075,4159.60083738,4153.91861272,4140.24208833,4136.99495119,4141.22679411,4109.7921592,4150.10232878,4141.10490512,657.857749127
do_nothing,4149.92080498,4146.78657656,4151.5224158,4135.99610675,4142.10428485,4159.9471808,4153.98448362,4140.04880868,4136.99705446,4140.97995823,4109.48209023,4150.07188976,4140.600876,670.735215416
do_nothing,4150.31509282,4146.66551244,4151.67868512,4136.00652538,4142.14247088,4160.29661425,4154.03702087,4139.88848101,4136.99809953,4140.85637893,4109.23801558,4150.15245786,4140.25153102,684.674483336
do_nothing,4150.82349298,4146.66173869,4151.89127048,4136.01976809,4142.1602762,4160.64201338,4154.07452255,4139.76290492,4136.99807533,4140.85353001,4109.06156021,4150.33401219,4140.05772181,699.109757323
do_nothing,4151.43081029,4146.77100408,4152.15202887,4136.0356003,4142.15873252,4160.97686116,4154.09662648,4139.67329554,4136.99701196,4140.96541028,4108.95222721,4150.60380083,4140.01608157,713.476354434
do_nothing,4152.11937604,4146.98616247,4152.45179952,4136.05384648,4142.13973629,4161.29560235,4154.10445678,4139.62037581,4136.99497852,4141.18290996,4108.90747564,4150.94695658,4140.11938056,727.230600693
do_nothing,4152.86974431,4147.29758333,4152.78080766,4136.07439541,4142.10605894,4161.59393839,4154.10068265,4139.60445974,4136.99207952,4141.49425999,4108.92286204,4151.34716037,4140.35698319,739.868228448
do_nothing,4153.66142523,4147.69361784,4153.12907205,4136.09720046,4142.06131378,4161.8690483,4154.089484,4139.6255202,4136.98844996,4141.88554519,4108.99223973,4151.78732468,4140.7153868,750.940678834
do_nothing,4154.47362694,4148.16110046,4153.48679979,4136.12227535,4142.0098782,4162.11972557,4154.07642332,4139.68323659,4136.98424939,4142.34126095,4109.10800831,4152.25026975,4141.17882001,760.068806551
do_nothing,4155.28597902,4148.68586575,4153.8447535,4136.14968605,4141.95677221,4162.34642572,4154.06822684,4139.77701886,4136.97965522,4142.84489222,4109.26140392,4152.71936653,4141.72987761,766.953584043
do_nothing,4156.07921203,4149.25326119,4154.19457752,4136.17953943,4141.90749669,4162.55122257,4154.07248206,4139.90600646,4136.97485549,4143.37949383,4109.44281976,4153.17912324,4142.35016882,771.383503501
do_nothing,4156.83576983,4149.84863825,4154.52907216,4136.21196941,4141.86783642,4162.73767536,4154.09726293,4140.06904237,4136.97004169,4143.9282524,4109.64214525,4153.61569535,4143.02095644,773.238478835
do_nothing,4157.54033399,4150.45780575,4154.84240716,4136.24712127,4141.84363478,4162.91061139,4154.15069803,4140.26462451,4136.96540179,4144.47501137,4109.84911222,4154.01730321,4143.7237662,772.490160443
do_nothing,4158.1802426,4151.06743111,4155.13026802,4136.28513483,4141.84054833,4163.07583269,4154.24050082,4140.49083893,4136.96111405,4145.00474346,4110.05363611,4154.374545,4144.44094668,769.198694972
do_nothing,4158.74578929,4151.66537703,4155.38993073,4136.32612716,4141.86379095,4163.23975841,4154.37348353,4140.74528079,4136.95734187,4145.50395612,4110.24614104,4154.68059616,4145.15616249,763.506087486
do_nothing,4159.23039299,4152.24096325,4155.62026331,4136.37017556,4141.91787785,4163.40901829,4154.55507794,4141.02497014,4136.95422985,4145.96101822,4110.41785772,4154.93129064,4145.854805,755.626448791
do_nothing,4159.63063425,4152.7851464,4155.82165499,4136.41730112,4142.00638061,4163.59001547,4154.78888627,4141.32626958,4136.95190138,4146.36639836,4110.56108456,4155.12508273,4146.52430809,745.833529946
do_nothing,4159.94615954,4153.29061422,4155.99587693,4136.4674536,4142.13170442,4163.7884793,4155.07628379,4141.64481071,4136.95045759,4146.71280845,4110.66940342,4155.26289327,4147.15436005,734.446053341
do_nothing,4160.17946068,4153.75179524,4156.1458812,4136.52049769,4142.29489821,4164.00902961,4155.41609257,4141.97543526,4136.94997775,4146.99524977,4110.73784336,4155.34784872,4147.73700764,721.811439636
do_nothing,4160.33554163,4154.16478871,4156.27554787,4136.57620129,4142.49550688,4164.25477338,4155.80434291,4142.31215631,4136.95052083,4147.21096347,4110.76298794,4155.38492674,4148.26665352,708.288597878
do_nothing,4160.42148883,4154.52722327,4156.38939178,4136.63422615,4142.73147358,4164.52695303,4156.23413565,4142.64814441,4136.95212804,4147.35929146,4110.74302397,4155.38052569,4148.73995295,694.230488393
do_nothing,4160.44596522,4154.83805534,4156.49224244,4136.69412149,4142.9990976,4164.82466265,4156.69561543,4142.97574337,4136.95482621,4147.4414577,4110.67773193,4155.34197888,4149.15562,679.967182204
do_nothing,4160.41865076,4155.09732012,4156.58891146,4136.75532105,4143.2930517,4165.14464566,4157.17606067,4143.28651935,4136.95863152,4147.46028249,4110.56842058,4155.2770359,4149.51415631,665.790125496
do_nothing,4160.34965464,4155.30584902,4156.68386198,4136.81714417,4143.60646022,4165.48118407,4157.66009134,4143.57134594,4136.96355349,4147.41984457,4110.41780972,4155.19333426,4149.81751777,651.938273084
do_nothing,4160.24892531,4155.46496846,4156.78089495,4136.87880111,4143.93103709,4165.82608578,4158.12998961,4143.82052554,4136.96959894,4147.32510693,4110.22986706,4155.09788429,4150.06873595,638.586682338
do_nothing,4160.1256844,4155.57619515,4156.88286584,4136.93940289,4144.25728059,4166.16877239,4158.56612324,4144.02394539,4136.97677559,4147.18152323,4110.00960576,4154.99658934,4150.27151245,625.838061379
do_nothing,4159.98790867,4155.64094261,4156.99144443,4136.9979756,4144.57471898,4166.49646549,4158.94745694,4144.17126421,4136.98509497,4146.99464205,4109.76285067,4154.89382179,4150.42980461,613.717646155
do_nothing,4159.84188104,4155.66025283,4157.10692798,4137.05347917,4144.87219953,4166.79446544,4159.25213369,4144.25212442,4136.99457472,4146.76972579,4109.49598178,4154.79207227,4150.54742099,602.171645301
do_nothing,4159.69182819,4155.6345652,4157.22811586,4137.10483018,4145.13821117,4167.04651347,4159.45810645,4144.25638379,4137.00523963,4146.51140068,4109.21566451,4154.69168666,4150.62764437,591.069344786
do_nothing,4159.53965829,4155.56353274,4157.35225122,4137.15092846,4145.36123031,4167.2352256,4159.54379932,4144.17436065,4137.01712168,4146.22335287,4108.92857645,4154.5907017,4150.67289896,580.208812473
do_nothing,4159.38480922,4155.44589415,4157.47503279,4137.19068664,4145.53007857,4167.3425857,4159.48877733,4143.99708707,4137.0302588,4145.90808397,4108.64114113,4154.48478651,4150.68447667,569.325992121
do_nothing,4159.22421393,4155.2794077,4157.59069765,4137.22306221,4145.63428087,4167.35048385,4159.27440424,4143.7165645,4137.0446924,4145.56673701,4108.35927845,4154.3672939,4150.66233542,558.106833329
do_nothing,4159.05238614,4155.06085165,4157.69217354,4137.24709103,4145.66441274,4167.24128523,4158.88446849,4143.32601633,4137.06046388,4145.19900121,4108.08818153,4154.2294219,4150.60497975,546.201974529
do_nothing,4158.86162509,4154.7860935,4157.77129718,4137.26192136,4145.61242579,4166.99841362,4158.30575881,4142.82013101,4137.07761022,4144.80310108,4107.83212818,4154.06048236,4150.50943113,533.24338573
do_nothing,4158.64233332,4154.45022798,4157.81909215,4137.26684734,4145.47194086,4166.60693184,4157.52857214,4142.19528946,4137.09615897,4144.37587193,4107.59433403,4153.8482701,4150.37129149,518.862291075
do_nothing,4158.38343564,4154.04778012,4157.82609755,4137.26134047,4145.2384991,4166.05410067,4156.54713843,4141.44976954,4137.11612293,4143.91292048,4107.37685293,4153.5795214,4150.18489937,502.707632043
do_nothing,4158.07288313,4153.57296662,4157.78273589,4137.24507784,4144.90976228,4165.32989723,4155.35994898,4140.5839213,4137.13749486,4143.40886477,4107.18052809,4153.24044651,4149.94357345,484.464302816
do_nothing,4157.69822153,4153.02000464,4157.67970615,4137.21796588,4144.48565519,4164.4274751,4153.96997787,4139.60030649,4137.16024253,4142.85764341,4107.00499563,4152.81731659,4149.63993297,463.870391368
do_nothing,4157.24720083,4152.38345465,4157.50838684,4137.18015834,4143.96844488,4163.34355013,4152.38478825,4138.50379631,4137.18430441,4142.25287994,4106.84874,4152.29708148,4149.26628024,440.732693114
do_nothing,4156.70840133,4151.65858162,4157.26123262,4137.13206759,4143.36275357,4162.07869799,4150.61651791,4137.3016214,4137.2095864,4141.58828454,4106.70919853,4151.66799315,4148.81502711,414.939827313
do_nothing,4156.07185044,4150.84171807,4156.93214792,4137.07436821,4142.67550425,4160.63755193,4148.68174095,4136.00336805,4137.2359598,4140.85807342,4106.58291055,4150.92020824,4148.27914459,386.472377257
do_nothing,4155.32960441,4149.93061229,4156.51682193,4137.00799254,4141.91579956,4159.02889061,4146.60120489,4134.62091525,4137.26326081,4140.05738525,4106.46570468,4150.04634409,4147.65261459,355.409590066
do_nothing,4154.47626981,4148.92474532,4156.01300982,4136.93411757,4141.09473676,4157.26560871,4144.39944599,4133.16830824,4137.29129172,4139.18267434,4106.35291637,4149.04196385,4146.93086244,321.932305903
do_nothing,4153.50944096,4147.82560149,4155.42074722,4136.85414361,4140.22516283,4155.36456521,4142.10428964,4131.66156683,4137.31982395,4138.23206175,4106.23962711,4147.90596866,4146.11114974,286.321934364
do_nothing,4152.43003277,4146.63687844,4154.742487,4136.76966501,4139.3213757,4153.34630866,4139.7462472,4130.11842938,4137.34860277,4137.20562718,4106.12091528,4146.64087811,4145.19290912,248.955451688
do_nothing,4151.2424924,4145.36462496,4153.98315074,4136.68243393,4138.39877942,4151.23468301,4137.35782517,4128.55803719,4137.37735382,4136.10562751,4105.99210872,4145.25298432,4144.1780042,210.296549914
do_nothing,4149.95487915,4144.01729778,4153.15009041,4136.59431839,4137.47350248,4149.05632274,4134.97276621,4127.00056609,4137.40579107,4134.93663066,4105.84902845,4143.75237,4143.07090169,170.883222118
do_nothing,4148.57880726,4142.60573165,4152.25296011,4136.50725575,4136.56199015,4146.84005037,4132.62524366,4125.46681463,4137.43362599,4133.70555708,4105.68821342,4142.15278663,4141.8787456,131.312209941
do_nothing,4147.12925237,4141.14302084,4151.30350101,4136.4232032,4135.68058229,4144.6161934,4130.34903255,4123.97775916,4137.46057755,4132.4216252,4105.50711642,4140.4713947,4140.611328,92.2208654583
do_nothing,4145.6242273,4139.64431365,4150.31524646,4136.34408646,4134.84508902,4142.41584058,4128.17668121,4122.55408732,4137.48638269,4131.09620127,4105.30426297,4138.72837405,4139.28095528,54.2670837514
do_nothing,4144.08433713,4138.12652458,4149.30315722,4136.27174841,4134.07037629,4140.27006022,4126.13870786,4121.21572239,4137.51080668,4129.74255878,4105.07936644,4136.9464177,4137.90221327,18.1080414271
do_nothing,4142.53222829,4136.60797212,4148.28319912,4136.20789893,4133.36997363,4138.20910472,4124.26284657,4119.98135215,4137.53365298,4128.37555606,4104.83339491,4135.15012698,4136.49163887,-15.6214734261
do_nothing,4140.99194963,4135.10795201,4147.27187773,4136.15406762,4132.75571555,4136.261627,4122.57336557,4118.867976,4137.55477206,4127.01124428,4104.56858735,4133.3653292,4135.06730896,-46.330334636
do_nothing,4139.4882477,4133.64625868,4146.28574604,4136.11156062,4132.23742772,4134.45393439,4121.09047847,4117.89048441,4137.57406881,4125.66642028,4104.28841841,4131.61834184,4133.64836054,-73.4911610688
do_nothing,4138.04582063,4132.24266919,4145.34090207,4136.08142268,4131.82266765,4132.80930477,4119.82986585,4117.06128391,4137.59150805,4124.35814072,4103.99751304,4129.93520868,4132.25445786,-96.6584578947
do_nothing,4136.68855718,4130.91640635,4144.45249413,4136.06440568,4131.51652849,4131.34738774,4118.80232067,4116.38997923,4137.60711785,4123.10321508,4103.70151342,4128.34093469,4130.90522451,-115.48413358
do_nothing,4135.43878757,4129.68559848,4143.63425078,4136.06094428,4131.3215123,4130.08371034,4118.01352724,4115.88312266,4137.62099042,4121.91769639,4103.40690235,4126.85874606,4129.61965975,-129.729800397
do_nothing,4134.31657186,4128.56675418,4142.89805205,4136.07113967,4131.237477,4129.02930305,4117.46397964,4115.54403854,4137.63328048,4120.8163887,4103.12078871,4125.50940105,4128.41555914,-139.275371111
do_nothing,4133.33904977,4127.57426982,4142.25355638,4136.09475206,4131.26165851,4128.19045756,4117.14904184,4115.37272919,4137.64420095,4119.81238951,4102.85066216,4124.31057498,4127.30895973,-144.123581133
do_nothing,4132.51987343,4126.71998648,4141.70789587,4136.13120255,4131.38876708,4127.56862372,4117.05914786,4115.36586627,4137.65401622,4118.91668376,4102.60412548,4123.27633931,4126.31362889,-144.400196024
do_nothing,4131.8687422,4126.01281138,4141.26544996,4136.17958456,4131.6111546,4127.16044849,4117.18013632,4115.51686964,4137.66303302,4118.13780315,4102.38861377,4122.41675087,4125.44061421,-140.349812667
do_nothing,4131.39105561,4125.45841675,4140.92770489,4136.23868495,4131.9190475,4126.95795503,4117.49370848,4115.81607246,4137.67158933,4117.48156106,4102.21111028,4121.73756274,4124.69786935,-132.327328538
do_nothing,4131.08769742,4125.05902748,4140.69320377,4136.3070143,4132.30083778,4126.94885547,4117.97799454,4116.25096848,4137.68004166,4116.95087082,4102.07786899,4121.24006431,4124.0899685,-120.785328025
do_nothing,4130.95496004,4124.81330691,4140.55758935,4136.3828458,4132.74342334,4127.11698579,4118.6082092,4116.80653471,4137.68875121,4116.54565258,4101.99415395,4120.92105486,4123.61792028,-106.25780266
do_nothing,4130.98461343,4124.7163478,4140.51373899,4136.46426163,4133.23258671,4127.44284732,4119.35737441,4117.46562012,4137.69806941,4116.26283214,4101.96400557,4120.7729517,4123.27908954,-89.3407715984
do_nothing,4131.16411829,4124.7597728,4140.55198814,4136.54920584,4133.75340057,4127.90423569,4120.19708657,4118.20939002,4137.70832339,4116.09643355,4101.9900434,4120.78403084,4123.06723357,-70.6704964243
do_nothing,4131.47697746,4124.93194534,4140.66043619,4136.63554203,4134.29064706,4128.47693573,4121.09830496,4119.0178145,4137.71980213,4116.03776502,4102.07331458,4120.93879514,4122.97265602,-50.9000892861
do_nothing,4131.90321578,4125.21828749,4140.82532508,4136.72111415,4134.82923786,4129.13545944,4122.03213913,4119.87018891,4137.73274359,4116.0756946,4102.21319525,4121.21846061,4122.98247793,-30.6753895771
do_nothing,4132.41997408,4125.60169771,4141.03147902,4136.80380814,4135.3546223,4129.8538036,4122.97061369,4120.74567343,4137.74732367,4116.19700887,4102.40735081,4121.60154763,4123.08102094,-10.6110244192
do_nothing,4133.00220008,4126.06305707,4141.2627913,4136.88161238,4135.85317134,4130.60620335,4123.88738905,4121.6238372,4137.76364723,4116.38684371,4102.65175794,4122.06456032,4123.25029309,8.7324299164
do_nothing,4133.62341587,4126.58180948,4141.50274265,4136.95267453,4136.31252636,4131.36785752,4124.75841717,4122.48519076,4137.78174178,4116.62917303,4102.94078908,4122.58273337,4123.47056353,26.8693022195
do_nothing,4134.25653926,4127.13659868,4141.73493467,4137.01535265,4136.72190315,4132.11560265,4125.56251188,4123.31168943,4137.80155391,4116.90733921,4103.26735727,4123.13082374,4123.7210093,43.4068804916
do_nothing,4134.87473399,4127.70594225,4141.94362153,4137.06825886,4137.07234265,4132.82851328,4126.28181611,4124.08719003,4137.82294874,4117.20460694,4103.62311726,4123.68392256,4123.98041469,58.0599512715
do_nothing,4135.45226235,4128.2689212,4142.11422288,4137.1102939,4137.35690215,4133.48840978,4126.90215129,4124.79784496,4137.84571224,4117.50472215,4103.99871658,4124.21826172,4124.22790158,70.6612392723
do_nothing,4135.96531278,4128.80586232,4142.23380142,4137.14067182,4137.57078234,4134.08025839,4127.41323974,4125.43242033,4137.8695563,4117.79245676,4104.38408877,4124.71198908,4124.4436675,81.1673148219
do_nothing,4136.39277554,4129.29898963,4142.2914897,4137.15893398,4137.71138793,4134.59245344,4127.8087954,4125.98252792,4137.89412617,4118.05412043,4104.76877923,4125.14588617,4124.6097063,89.6597064158
do_nothing,4136.71694072,4129.73302178,4142.27885182,4137.16495226,4137.77832187,4135.01697592,4128.08648334,4126.44276424,4137.91901006,4118.2780207,4105.14229293,4125.50400327,4124.71048571,96.3411384502
do_nothing,4136.92409525,4130.09569317,4142.19016834,4137.15892173,4137.77331512,4135.34942816,4128.24775314,4126.81075258,4137.94375024,4118.45485408,4105.49445183,4125.77418851,4124.73355579,101.527002145
do_nothing,4137.00499804,4130.37817907,4142.02263466,4137.14134325,4137.70009607,4135.58894831,4128.29755558,4127.08708751,4137.96785528,4118.57801289,4105.81574942,4125.94849091,4124.67006403,105.632351578
do_nothing,4136.95521589,4130.57540793,4141.77646645,4137.11299719,4137.56420531,4135.73801285,4128.24395686,4127.27518449,4137.99081299,4118.64379542,4106.09768944,4126.02342124,4124.51515519,109.154890049
do_nothing,4136.77530662,4130.68624784,4141.45490837,4137.07490952,4137.37276297,4135.80213886,4128.09766886,4127.38104155,4138.01210347,4118.65151132,4106.33309608,4126.00005981,4124.26823805,112.654569737
do_nothing,4136.4708403,4130.71355849,4141.06414573,4137.02831208,4137.13419757,4135.78950069,4127.8715181,4127.4129238,4138.03121192,4118.6034779,4106.51638418,4125.88400556,4123.93310563,116.730562806
do_nothing,4136.0522549,4130.66410411,4140.61312145,4136.97459879,4136.857946,4135.71047889,4127.57987762,4127.38098513,4138.04764083,4118.50490696,4106.64377849,4125.6851662,4123.51790014,121.996467431
do_nothing,4135.53454811,4130.54832805,4140.11326403,4136.91527952,4136.55413535,4135.57716055,4127.23808668,4127.29684345,4138.06092118,4118.36368542,4106.71347309,4125.41739465,4123.03491874,129.05468412
do_nothing,4134.93681304,4130.37999412,4139.57813467,4136.85193323,4136.23325781,4135.40281174,4126.86188105,4127.17312699,4138.07062252,4118.19005634,4106.72572339,4125.09798199,4122.50026207,138.470935069
do_nothing,4134.28163167,4130.17570578,4139.02300484,4136.78616186,4135.90584916,4135.20134204,4126.46685448,4127.02300872,4138.07636158,4117.99621045,4106.68286544,4124.74702278,4121.93333298,150.749899959
do_nothing,4133.59434524,4129.95431872,4138.46437781,4136.71954601,4135.58218156,4134.98678083,4126.06796854,4126.85974547,4138.07780945,4117.7958022,4106.58926016,4124.38667375,4121.35619999,166.312903435
do_nothing,4132.90222513,4129.73626746,4137.91946979,4136.65360364,4135.27197956,4134.77278296,4125.67912511,4126.69623711,4138.07469732,4117.60340801,4106.45116287,4124.04033177,4120.79284581,185.478514683
do_nothing,4132.23357105,4129.54282909,4137.40566741,4136.58975262,4134.98416759,4134.57217993,4125.31281287,4126.54462014,4138.06682062,4117.43394735,4106.27652191,4123.73176071,4120.26832688,208.446812716
do_nothing,4131.61676599,4129.3953501,4136.93997895,4136.5292782,4134.72665543,4134.39659038,4124.97983567,4126.41590847,4138.0540418,4117.30208908,4106.07471285,4123.4841992,4119.80787389,235.287935692
do_nothing,4131.07931877,4129.31446263,4136.53849667,4136.47330577,4134.5061665,4134.25610103,4124.68912768,4126.31969242,4138.03629181,4117.22166622,4105.85621747,4123.31948228,4119.43596572,265.935372089
do_nothing,4130.6469267,4129.31931726,4136.21588713,4136.42277944,4134.32811255,4134.159026,4124.44765648,4126.26390447,4138.01357041,4117.20512165,4105.6322585,4123.25720979,4119.17541086,300.184272787
do_nothing,4130.34259079,4129.42685904,4135.98492558,4136.37844646,4134.19651631,4134.11174862,4124.26041167,4126.25465765,4137.98594535,4117.26300636,4105.41440284,4123.3139935,4119.04647064,337.694874864
do_nothing,4130.18581501,4129.65117276,4135.85608938,4136.34084723,4134.11398247,4134.11864622,4124.13047316,4126.29615899,4137.95355076,4117.40355003,4105.21414737,4123.50281216,4119.06605802,378.000936762
do_nothing,4130.19191857,4130.00292109,4135.83722344,4136.31031075,4134.08171519,4134.18209425,4124.05914991,4126.3906978,4137.91658475,4117.63232139,4105.04250213,4123.83250044,4119.24704371,420.522895995
do_nothing,4130.37148583,4130.48889658,4135.93328871,4136.28695505,4134.09957901,4134.30254329,4124.04617803,4126.53870558,4137.87530629,4117.95199307,4104.90958634,4124.30739252,4119.59769818,464.585282484
do_nothing,4130.72997343,4131.11170368,4136.14620141,4136.27069224,4134.16619841,4134.47866025,4124.08996532,4126.73888217,4137.83003165,4118.36222104,4104.82425229,4124.92713438,4120.1212931,509.437761874
do_nothing,4131.26748806,4131.86958236,4136.47476774,4136.26123768,4134.27909007,4134.7075236,4124.18786869,4126.98838052,4137.78113026,4118.85964387,4104.7937515,4125.68667183,4120.81587919,554.279048917
do_nothing,4131.9787422,4132.75637923,4136.91471527,4136.25812275,4134.43482108,4134.98486187,4124.33648988,4127.28304051,4137.72902026,4119.43800158,4104.82345561,4126.57641328,4121.67425048,598.282824533
do_nothing,4132.85318856,4133.76166703,4137.4588191,4136.26071071,4134.62918604,4135.30532323,4124.53197444,4127.61766026,4137.67416346,4120.08836788,4104.91664281,4127.58255937,4122.68409712,640.624715998
do_nothing,4133.87532781,4134.87100838,4138.09711739,4136.26821509,4134.8573951,4135.66276315,4124.77029875,4127.98629178,4137.6170601,4120.79948497,4105.07435775,4128.68758484,4123.82834151,680.509362509
do_nothing,4135.02517768,4136.06635495,4138.81720852,4136.27972019,4135.11426555,4136.05053622,4125.04753083,4128.38254692,4137.55824301,4121.55818621,4105.29535047,4129.87085288,4125.08564612,717.196588666
do_nothing,4136.27888567,4137.32656904,4139.6046193,4136.29420337,4135.39440915,4136.46177859,4125.36005252,4128.79989927,4137.49827141,4122.34988884,4105.57609719,4131.10933746,4126.43107444,750.025744011
do_nothing,4137.60946261,4138.62804981,4140.44323161,4136.31055913,4135.69240829,4136.88966837,4125.70473363,4129.23196854,4137.43772427,4123.15913684,4105.91090273,4132.37842581,4127.83688154,778.437336944
do_nothing,4138.98761002,4139.9454431,4141.31575287,4136.32762488,4136.00297501,4137.32765376,4126.07905164,4129.67277583,4137.37719313,4123.97017223,4106.29208181,4133.65277039,4129.27340477,801.99119488
do_nothing,4140.38261209,4141.25240988,4142.20421477,4136.3442085,4136.32108801,4137.76964194,4126.48115403,4130.11695986,4137.31727447,4124.76751196,4106.710213,4134.90715776,4130.71002114,820.380514773
do_nothing,4141.76326159,4142.52242689,4143.09048383,4136.35911759,4136.64210464,4138.21014473,4126.90986317,4130.559947,4137.25856167,4125.53650692,4107.15445636,4136.11736158,4132.11613414,833.441321881
do_nothing,4143.09878922,4143.72959208,4143.95676765,4136.37119022,4136.96184587,4138.6443805,4127.36462674,4130.99807018,4137.20163652,4126.26386067,4107.61292328,4137.26094795,4133.46215163,841.15702461
do_nothing,4144.35976716,4144.84940828,4144.78610163,4136.37932679,4137.27665417,4139.06833382,4127.84541887,4131.42863439,4137.14706045,4126.93808756,4108.07308499,4138.31800453,4134.72041713,843.657934758
do_nothing,4145.51895929,4145.85952024,4145.56280224,4136.3825226,4137.58342495,4139.47877658,4128.35260045,4131.84992906,4137.09536559,4127.54989367,4108.52220539,4139.27176924,4135.86605949,841.215807898
do_nothing,4146.55209311,4146.7403822,4146.27287412,4136.37990025,4137.87961338,4139.87325537,4128.88674869,4132.26119021,4137.04704573,4128.092468,4108.94778321,4140.10913924,4136.8777306,834.233639015
do_nothing,4147.43853122,4147.47583554,4146.90436009,4136.37074132,4138.16321877,4140.25005072,4129.44846778,4132.66251756,4137.00254752,4128.56167534,4109.33798829,4140.82104557,4137.73820505,823.23111784
do_nothing,4148.16182338,4148.05357825,4147.44762453,4136.354516,4138.43274929,4140.6081142,4130.03819244,4133.05475303,4136.96226192,4128.9561456,4109.68207684,4141.40268316,4138.43482143,808.826302141
do_nothing,4148.71012404,4148.46551107,4147.89556222,4136.33090953,4138.68717019,4140.94698884,4130.65599536,4133.43932815,4136.92651635,4129.27725745,4109.9707709,4141.85359031,4138.95975006,791.71419938
do_nothing,4149.07646405,4148.70794858,4148.24372695,4136.29984401,4138.92583872,4141.26671809,4131.30140756,4133.81808765,4136.89556762,4129.52901695,4110.1965878,4142.17757594,4139.31007819,772.643050867
do_nothing,4149.2588698,4148.78168804,4148.49037644,4136.26149412,4139.1484293,4141.56774736,4131.97325913,4134.19309685,4136.86959609,4129.71783521,4110.35410695,4142.38249797,4139.4877106,752.389185122
do_nothing,4149.26032701,4148.69193317,4148.63643247,4136.21629545,4139.35485257,4141.8508217,4132.66954571,4134.56643969,4136.84870118,4129.85221283,4110.44016324,4142.47990074,4139.49909065,731.731347933
do_nothing,4149.0885909,4148.44807535,4148.68535804,4136.16494442,4139.54517153,4142.11688241,4133.38732542,4134.940015,4136.83289874,4129.94234295,4110.45395921,4142.48452466,4139.35475432,711.425424008
do_nothing,4148.75584872,4148.06333913,4148.64295578,4136.108389,4139.71951845,4142.36696529,4134.12265025,4135.31533874,4136.82212031,4129.99964834,4110.39709119,4142.41370524,4139.0687369,692.180437225
do_nothing,4148.27824505,4147.55430374,4148.51709465,4136.04781005,4139.87801569,4142.60210342,4134.87053521,4135.69336035,4136.81621472,4130.0362712,4110.27348838,4142.28668292,4138.65785793,674.636655879
do_nothing,4147.67528466,4146.9403162,4148.31737384,4135.98459339,4140.02070354,4142.82323727,4135.6249679,4136.07430155,4136.81495189,4130.06453577,4110.08926682,4142.12384761,4138.14091493,659.34654129
do_nothing,4146.96913219,4146.24281527,4148.05473555,4135.92029303,4140.1474783,4143.0311356,4136.37895951,4136.45752492,4136.81802914,4130.0964048,4109.85250384,4141.94594435,4137.53781959,646.75916645
do_nothing,4146.18383143,4145.48458924,4147.74103956,4135.85658675,4140.25804308,4143.22633004,4137.12463665,4136.84143867,4136.82507971,4130.14295063,4109.57294077,4141.77326811,4136.86871252,637.20859707
do_nothing,4145.34447045,4144.68899296,4147.38861495,4135.79522506,4140.35187374,4143.40906571,4137.85337192,4137.22344209,4136.8356836,4130.21386147,4109.26162524,4141.62487651,4136.15309346,630.906573492
do_nothing,4144.47632042,4143.87915169,4147.00980476,4135.73797522,4140.42820158,4143.57926928,4138.55594994,4137.59991486,4136.84938012,4130.31700201,4108.93050606,4141.517849,4135.40900355,627.939664047
do_nothing,4143.60397739,4143.07718013,4146.61652049,4135.68656228,4140.48601379,4143.73653484,4139.22276468,4137.96625173,4136.86568218,4130.45804609,4108.5919961,4141.46661978,4134.65229433,628.27088555
do_nothing,4142.75053567,4142.3034444,4146.21982271,4135.64260921,4140.52407213,4143.88012759,4139.84404373,4138.31694284,4136.88409143,4130.64019633,4108.25852001,4141.48240887,4133.89601438,631.745611226
do_nothing,4141.93682161,4141.57589333,4145.82954314,4135.60757838,4140.54094966,4144.00900498,4140.41009427,4138.64569866,4136.904114,4130.86400257,4107.94206424,4141.57277223,4133.14993936,638.101420936
do_nothing,4141.18071426,4140.90948275,4145.45396205,4135.58271669,4140.53508496,4144.12185485,4140.91156438,4138.94561696,4136.92527588,4131.12728648,4107.65374652,4141.74128691,4132.42026419,646.981405937
do_nothing,4140.49657696,4140.31571306,4145.09955232,4135.5690064,4140.50485242,4144.21714985,4141.33971236,4139.20938726,4136.94713734,4131.4251753,4107.4034209,4141.98738214,4131.70946884,657.95032878
do_nothing,4139.89481984,4139.80229627,4144.77079893,4135.56712377,4140.44864647,4144.29321666,4141.68667539,4139.42952565,4136.96930563,4131.75024281,4107.19933249,4142.30632159,4131.01636079,670.512957318
do_nothing,4139.38160821,4139.37296411,4144.47009973,4135.57740685,4140.36497672,4144.34831771,4141.94572813,4139.59863142,4136.99144535,4132.09275157,4107.04783395,4142.68933666,4130.33629001,684.133836741
do_nothing,4138.95872634,4139.0274238,4144.1977501,4135.59983411,4140.25256993,4144.38074229,4142.11152214,4139.70965512,4137.01328597,4132.44098672,4106.9531733,4143.12390538,4129.66152483,698.257736669
do_nothing,4138.62360046,4138.76146282,4143.95201106,4135.63401499,4140.11047429,4144.38890307,4142.18029723,4139.75616733,4137.03462607,4132.78166869,4106.91736025,4143.59416644,4128.98177119,712.330015264
do_nothing,4138.3694794,4138.56719821,4143.72925725,4135.67919305,4139.93816097,4144.37143402,4142.15005697,4139.73261722,4137.05533434,4133.10042956,4106.94011522,4144.08145337,4128.28481153,725.816177555
do_nothing,4138.18576654,4138.43346116,4143.52419842,4135.73426241,4139.73561807,4144.32728561,4142.02070122,4139.63457056,4137.07534713,4133.38233586,4107.01890276,4144.56492996,4127.55723577,738.219964685
do_nothing,4138.05849224,4138.34630288,4143.33016557,4135.79779709,4139.50343208,4144.25581295,4141.79410904,4139.45891747,4137.09466297,4133.61243885,4107.14904758,4145.0223052,4126.78523282,749.099389194
do_nothing,4137.97091185,4138.28960371,4143.13945122,4135.86809273,4139.24285235,4144.15685186,4141.47416599,4139.20404055,4137.11333421,4133.7763326,4107.32392858,4145.43060407,4125.95540942,758.080223224
do_nothing,4137.90421028,4138.24576463,4142.9436914,4135.94321914,4138.95583469,4144.03077799,4141.06673072,4138.86993564,4137.13145633,4133.86070015,4107.53524307,4145.76696923,4125.0556025,764.866544758
do_nothing,4137.83828992,4138.19645743,4142.73427612,4136.02108212,4138.64506079,4143.87854427,4140.57953819,4138.45827853,4137.14915546,4133.85382938,4107.77333111,4146.00946934,4124.07565232,769.248046368
do_nothing,4137.7526161,4138.12340818,4142.50277395,4136.09949212,4138.31393116,4143.70169343,4140.02204023,4137.97243459,4137.16657456,4133.74608221,4108.02754787,4146.13788964,4123.00810617,771.103912486
do_nothing,4137.62709114,4138.00918729,4142.24135613,4136.17623753,4137.96653059,4143.50234475,4139.40518824,4137.41741092,4137.18385906,4133.53030352,4108.28667043,4146.13448225,4121.84882525,770.403179436
do_nothing,4137.4429275,4137.83797847,4141.94320534,4136.24915987,4137.607566,4143.28315638,4138.74116621,4136.79975417,4137.20114252,4133.20215842,4108.5393245,4145.98465416,4120.59747126,767.201609324
do_nothing,4137.18348951,4137.59629867,4141.60289417,4136.31622865,4137.24227843,4143.04726655,4138.04308471,4136.12739944,4137.21853298,4132.76038827,4108.77441537,4145.67757208,4119.25785278,761.635231547
do_nothing,4136.83507404,4137.27364243,4141.21671941,4136.37561287,4136.87633143,4142.79821807,4137.32464717,4135.40947723,4137.23610061,4132.20697813,4108.98154715,4145.20666486,4117.83811591,753.910828494
do_nothing,4136.38760179,4136.86302563,4140.78297891,4136.42574697,4136.51567972,4142.53987077,4136.5998001,4134.65608591,4137.2538673,4131.54722965,4109.15141435,4144.57000651,4116.3507691,744.293759059
do_nothing,4135.83519271,4136.36140739,4140.30217982,4136.4653885,4136.16642254,4142.27630626,4135.88237847,4133.87803811,4137.27179856,4130.78973651,4109.27615104,4143.77056549,4114.81253754,733.093618843
do_nothing,4135.17660196,4135.76997216,4139.77716879,4136.49366525,4135.83464672,4142.01172873,4135.18575771,4133.08658934,4137.28979821,4129.94626138,4109.34962401,4142.81630983,4113.24404914,720.648324305
do_nothing,4134.41549613,4135.09425847,4139.2131769,4136.51010984,4135.52626499,4141.75036538,4134.52252347,4132.2931579,4137.30770613,4129.03151697,4109.36765931,4141.72016074,4111.66935994,707.307274873
do_nothing,4133.56055396,4134.34412511,4138.61777507,4136.51468008,4135.24685508,4141.49636934,4133.90417009,4131.50904516,4137.32529917,4128.06285546,4109.32819335,4140.49979179,4110.11533286,693.414288675
do_nothing,4132.62538161,4133.53355103,4138.00073799,4136.50776401,4135.00150528,4141.2537285,4133.34083734,4130.74516524,4137.34229532,4127.05987323,4109.23134331,4139.17727398,4108.61088843,679.291021557
do_nothing,4131.62823889,4132.68027062,4137.37381853,4136.49016891,4134.79467162,4141.02618316,4132.84109306,4130.01179205,4137.35836093,4126.04393949,4109.07939384,4137.77857217,4107.18615101,665.22156421
do_nothing,4130.59158016,4131.80525287,4136.75043732,4136.46309455,4134.63005157,4140.81715536,4132.41176667,4129.31833046,4137.37312084,4125.03765956,4108.87670033,4136.33290303,4105.87151768,651.438868633
do_nothing,4129.54142047,4130.93203908,4136.14529619,4136.42809116,4134.51047833,4140.62969169,4132.05783634,4128.67311652,4137.38617098,4124.06428555,4108.62951186,4134.87196968,4104.69668074,638.113584089
do_nothing,4128.50654416,4130.08595989,4135.57392677,4136.38700372,4134.43783889,4140.46642038,4131.78237083,4128.08325055,4137.39709295,4123.14708958,4108.34572025,4133.42909324,4103.68963688,625.345786964
do_nothing,4127.51757931,4129.29325758,4135.05218858,4136.3419046,4134.41301814,4140.32952143,4131.58652537,4127.5544656,4137.40547006,4122.30871628,4108.03454449,4132.03826545,4102.87571787,613.159972032
do_nothing,4126.60596686,4128.5801436,4134.59573287,4136.29501694,4134.43587029,4140.22070784,4131.46958983,4127.09103348,4137.41090424,4121.57053319,4107.70616308,4130.73314964,4102.27667743,601.503539454
do_nothing,4125.80285829,4127.97182456,4134.21945015,4136.24863205,4134.50521826,4140.14121481,4131.42908568,4126.69570936,4137.41303302,4120.95199806,4107.37130867,4129.5460601,4101.90986745,590.248867709
do_nothing,4125.1379798,4127.49153148,4133.93692059,4136.20502359,4134.61888068,4140.09179372,4131.46090673,4126.36971568,4137.41154596,4120.470062,4107.0408415,4128.50695102,4101.78753374,579.198913594
do_nothing,4124.63850425,4127.15958837,4133.75988676,4136.166362,4134.77372574,4140.07270762,4131.55949652,4126.11276439,4137.40619989,4120.1386266,4106.72531829,4127.6424474,4101.91625728,568.096132619
do_nothing,4124.32797287,4126.99255581,4133.69776855,4136.13463213,4134.96575006,4140.08372531,4131.71805379,4125.92311577,4137.39683227,4119.96807203,4106.43457357,4126.97494996,4102.29656208,556.634372785
do_nothing,4124.22530865,4127.00248362,4133.75723914,4136.11155705,4135.19018021,4140.12411155,4131.92875642,4125.79767063,4137.38337202,4119.96487192,4106.17732959,4126.52184573,4102.92270587,544.473267658
do_nothing,4124.34396028,4127.1963035,4133.94187912,4136.09853068,4135.4415935,4140.19261197,4132.18299436,4125.73209214,4137.36584755,4120.13130913,4105.96084976,4126.29485328,4103.78266365,531.254546421
do_nothing,4124.69121115,4127.5753878,4134.25192357,4136.0965615,4135.71405417,4140.28743185,4132.47160342,4125.72095347,4137.34439137,4120.46530442,4105.79064923,4126.29952833,4104.85830848,516.619593473
do_nothing,4125.26768252,4128.13529402,4134.6841134,4136.10622929,4136.00126068,4140.40621019,4132.78509334,4125.75790761,4137.31924117,4120.96036727,4105.67027352,4126.53495024,4106.12578682,500.227532148
do_nothing,4126.06705309,4128.86570813,4135.23165864,4136.12765641,4136.29669968,4140.54599115,4133.11386514,4125.83587572,4137.2907372,4121.60567415,4105.60115428,4126.99360414,4107.55607912,481.773078387
do_nothing,4127.07601042,4129.75059215,4135.88431739,4136.16049451,4136.5938026,4140.70319691,4133.44841379,4125.94725002,4137.259316,4122.38627572,4105.58254751,4127.66146687,4109.1157296,461.003412321
do_nothing,4128.27444122,4130.76853438,4136.62859021,4136.20392726,4136.88610058,4140.87360641,4133.77951282,4126.08410697,4137.22550057,4123.28343021,4105.61155691,4128.5182988,4110.76772357,437.73334852
do_nothing,4129.63585953,4131.89329361,4137.44802573,4136.25668912,4137.16737399,4141.05234464,4134.09837815,4126.23842555,4137.18988738,4124.27505605,4105.68324132,4129.53813699,4112.47248548,411.85814799
do_nothing,4131.1280625,4133.0945217,4138.3236297,4136.31709966,4137.43179268,4141.23388664,4134.39680904,4126.40230572,4137.15313057,4125.33629346,4105.79080245,4130.68997898,4114.18896728,383.363404328
do_nothing,4132.71399498,4134.33864207,4139.23436597,4136.38311248,4137.67404345,4141.4120803,4134.6673055,4126.56818216,4137.11592381,4126.44016073,4105.92584581,4131.9386399,4115.87579349,352.331549302
do_nothing,4134.35279585,4135.58985557,4140.15773456,4136.45237747,4137.88944158,4141.5801914,4134.90316282,4126.72902886,4137.07898062,4127.55828776,4106.07870514,4133.24575906,4117.49242713,318.944654809
do_nothing,4136.00099162,4136.81123927,4141.07040877,4136.52231441,4138.07402385,4141.73097464,4135.09854489,4126.87855034,4137.04301362,4128.66170535,4106.23881811,4134.5709258,4119.00031887,283.483353574
do_nothing,4137.61379718,4137.96589951,4141.94891064,4136.59019572,4138.22462158,4141.85677357,4135.24853823,4127.01135531,4137.00871358,4129.72166569,4106.3951387,4135.87288858,4120.36400131,246.32185407
do_nothing,4139.14647905,4139.01813773,4142.77030213,4136.65323541,4138.33891238,4141.94965132,4135.3491884,4127.12310812,4136.97672894,4130.71046668,4106.53656977,4137.1108069,4121.55209081,207.919179939
do_nothing,4140.55573396,4139.93458697,4143.51286853,4136.70868103,4138.41545052,4142.00155165,4135.39752004,4127.21065333,4136.94764654,4131.60225167,4106.65239852,4138.24550345,4122.5381625,168.806914361
do_nothing,4141.80103478,4140.68527802,4144.1567705,4136.75390523,4138.45367562,4142.00448761,4135.3915419,4127.2721091,4136.92197421,4132.373757,4106.73271745,4139.2406734,4123.30146867,129.573869453
do_nothing,4142.8458967,4141.24459769,4144.68464253,4136.78649364,4138.45389989,4141.95075274,4135.33023866,4127.30692603,4136.90012587,4133.00498205,4106.76881441,4140.06400986,4123.82747757,90.8482241949
do_nothing,4143.65901987,4141.592106,4145.08211759,4136.80432592,4138.41727463,4141.83314857,4135.21355206,4127.3159097,4136.88240967,4133.47976018,4106.75351745,4140.68820798,4124.10821667,53.2777768058
do_nothing,4144.21526922,4141.71318496,4145.33826054,4136.80564745,4138.34573686,4141.6452214,4135.04235411,4127.30120671,4136.86901949,4133.78621287,4106.68148211,4141.09181453,4124.1424124,17.5090347597
do_nothing,4144.49645875,4141.59949808,4145.44589621,4136.7891293,4138.24193818,4141.38150078,4134.81841511,4127.2662549,4136.86003024,4133.91707335,4106.54941142,4141.25989492,4123.93542512,-15.8340851825
do_nothing,4144.49191538,4141.24924668,4145.40182199,4136.75391476,4138.10915817,4141.03773232,4134.54436793,4127.21569909,4136.85539695,4133.86986994,4106.35620126,4141.18449519,4123.49898517,-46.1711554264
do_nothing,4144.19880498,4140.66721643,4145.20689867,4136.699651,4137.95120576,4140.61109677,4134.22366865,4127.1552733,4136.85495785,4133.64696356,4106.10300616,4140.86488336,4122.85074159,-72.9849546196
do_nothing,4143.62221188,4139.86461517,4144.8660172,4136.626505,4137.77231189,4140.10040683,4133.86055215,4127.09165046,4136.85844125,4133.25543814,4105.79322316,4140.30756161,4122.01364148,-95.8392650721
do_nothing,4142.77497068,4138.85870976,4144.38794344,4136.53516357,4137.57701704,4139.50627303,4133.45998059,4127.03226069,4136.86547601,4132.7068479,4105.43239439,4139.52604854,4121.01516284,-114.394080448
