label,COUNTER,INTERPOLATED,AF3,F7,F3,FC5,T7,P7,O1,O2,P8,T8,FC6,F4,F8,AF4,RAW_CQ,GYROX,GYROY,MARKER,SYNC,TIME_STAMP_s,TIME_STAMP_ms,CQ_AF3,CQ_F7,CQ_F3,CQ_FC5,CQ_T7,CQ_P7,CQ_O1,CQ_O2,CQ_P8,CQ_T8,CQ_FC6,CQ_F4,CQ_F8,CQ_AF4,CQ_CMS,CQ_DRL
off_to_on,4.09973309082,3.29190312264,3.56902591356,0.68461955627,2.05218787929,6.34822571197,11.350342105,7.97179220899,-0.00352202683368,8.37270949139,3.77439393299,7.53430055666,5.92229334952,-28.0755548895
off_to_on,3.16497525998,2.6513360649,1.8435227025,-0.856511264411,3.11949424377,5.40450687524,10.8008082066,6.79541425729,-0.00435147898796,6.10057583993,1.25629080644,3.74822330867,2.18982717699,-27.6357496624
off_to_on,0.630221580445,0.524881472463,-0.309409461607,-1.5385681546,2.53284211891,-0.621196047022,0.707450237267,1.64000878676,-0.0223051785515,-0.311478520877,-1.61011839523,-2.4752336803,-1.80969852328,21.333674104
off_to_on,-1.25420467894,-2.19768578462,-1.53240932617,-1.02689365428,0.172432983064,-4.06411412616,-7.69300818047,-2.95210050214,-0.0382664867143,-3.96464014945,-2.31342263585,-4.57005894291,-2.08788398069,46.5817115567
off_to_on,-1.43535930386,-3.1073190137,-1.64389888887,0.0477965692444,-2.5839649683,-1.84750072843,-7.56819372234,-4.74210899139,-0.0207438548112,-3.13647984235,-0.958703749242,-1.28135753258,-0.0697600490632,-19.3513235595
off_to_on,-0.238069589895,-0.597914923273,-0.653382268557,0.808456385401,-3.36338786488,1.09325089003,-1.61655578206,-3.34721713369,0.0158073183449,-0.740090855008,1.10032213273,3.10091350118,1.02533031736,-100.237589452
off_to_on,0.779555421478,2.91617704313,0.837844062282,0.762683009791,-1.26596108113,0.242877571576,3.96684495195,0.420207237814,0.0293769530733,0.87821507993,2.3898457694,3.71850286759,0.337971997645,-50.7730424276
off_to_on,0.351424740936,3.07081825748,1.54994652808,0.0838334154681,1.72896654866,-1.62383347706,5.45319979154,3.71909740132,0.0154717418596,1.52690489559,1.52881691669,-0.0657626826441,-0.949246732806,121.237206773
off_to_on,-0.734314748509,-0.548539646573,1.00954208488,-0.466873601191,2.73546419393,0.225288407276,2.42413489542,3.14604931841,0.0078251918358,1.17774759506,-1.44101502183,-4.29357717261,-1.73566831467,212.419882601
off_to_on,-0.674315994034,-3.3698079541,0.143930056495,-0.19517400514,1.11000883594,3.89176848506,-2.68431455102,-1.09437814593,0.0166871459262,-0.34972792934,-3.83566448159,-4.57085807295,-1.43233937146,65.3551603391
off_to_on,0.43322495577,-2.00826123944,-0.417884259527,0.629111298358,-1.15843834699,3.15661365073,-5.43040954734,-4.39634349404,0.0118318639224,-1.8631047983,-2.59174498677,-0.592243331428,0.263436552855,-204.849400969
off_to_on,0.540948561132,1.14473711576,-1.29975105822,0.836864575091,-1.98663959006,-2.6417464524,-3.09801281131,-2.96276445053,-0.0230996140464,-1.5186790298,1.63733220963,3.75908142351,2.56027016533,-307.063165369
off_to_on,-0.904642878324,1.73320809158,-2.49377728515,-0.210360579939,-1.11896904227,-6.6473606402,1.8538773583,1.60856445767,-0.055742203799,0.478792134449,4.51650737688,4.70645505069,3.35238649143,-101.869438764
off_to_on,-1.56046106896,-0.230366499877,-2.07203454569,-1.50783891822,0.498970491414,-3.66144659171,4.48382994213,4.64260404008,-0.0412005581878,1.82431763663,3.08768610111,2.14584456403,1.24316903746,221.35469822
off_to_on,0.360634317059,-0.989734204409,1.17471399579,-1.41381685988,1.9614534399,3.09673898553,3.32821664963,3.88222785145,0.0251308532452,1.30518344165,-0.789857488519,-1.22419287346,-2.34575214516,334.255628798
off_to_on,2.9350407512,0.877442538408,4.71121284399,0.22386130893,2.36897623438,6.67071154238,0.95858712837,0.702932750374,0.0930759595454,0.288702366911,-3.14004093137,-3.04793174621,-4.13725185754,125.744948231
off_to_on,2.82864240661,2.47604877769,4.41379640477,1.69359439741,0.793819147038,4.58593784679,-0.864819177834,-2.7601843018,0.0830442250471,0.22069788769,-2.5249298019,-2.72236145948,-2.33508916062,-175.578052579
off_to_on,-0.19011353781,1.20815452659,-0.0788474601475,1.47527281333,-2.29646740789,-0.211857182751,-2.76040788654,-4.96686669772,-0.0445083221293,0.313783651761,-0.572780127483,-0.857670347863,1.44653055507,-262.098490233
off_to_on,-3.05933425384,-1.58830010536,-4.39972438533,0.0243992841234,-4.17839539905,-4.07391819724,-4.151651975,-4.22364280129,-0.197981060949,-0.885012075838,0.894194624625,1.13829645226,3.73026274628,-92.2566481174
off_to_on,-3.32608979106,-3.00496758599,-4.59896783078,-1.01318087164,-2.27154955821,-5.20848696551,-2.61481285009,0.0386329468677,-0.174856130482,-2.72251649945,1.3871112688,1.55403002034,2.50523774055,95.3544400266
off_to_on,-1.37930757951,-2.32941795313,-1.43660809355,-0.866014253641,2.24810889858,-3.20550257342,1.43455834121,4.73432982354,0.111386583593,-2.91157409579,1.01684150634,0.11622830342,-0.896225713646,105.273721004
off_to_on,1.01983852274,-0.684925510271,1.49756325327,-0.200526643401,4.84620931772,0.660561768736,3.57817067279,5.07035886147,0.414537248964,-0.531202926852,0.109919865887,-1.02075661789,-3.11837207697,11.2213453063
off_to_on,2.53260855327,1.31893338509,2.29388067676,0.130743622366,2.69243935847,3.28318209813,1.72219495873,0.583784468859,0.328463748652,2.70915222446,-0.470674386651,0.242474984262,-2.11608616173,-6.12646469053
off_to_on,2.40812622529,3.33207291605,1.78143586882,0.0841195967271,-1.76317194932,2.75166086567,-0.170106743304,-3.34375460087,-0.201559254496,4.30446909182,-0.095734189405,2.57615196475,0.813131809375,57.2545403992
off_to_on,0.709633462503,3.76344338062,1.19098088136,0.0541247486994,-3.65721964499,1.1429050497,1.56323941618,-2.15028220033,-0.663063017736,3.2490438002,0.502600486386,2.45977186176,2.58568361322,51.2895446322
off_to_on,-1.06797842145,1.16504006831,0.666151243013,0.171394139402,-1.53005069628,1.5061890031,3.55215506145,1.80742069365,-0.487314171651,0.461924738065,0.151863677658,-0.766051729891,1.75824090964,-59.7214130141
off_to_on,-1.17036342943,-2.89949016708,-0.0860089601787,0.297782604197,1.39375238042,2.53142895549,0.263977931009,2.61077018638,0.233064119581,-2.35341051741,-0.822238068764,-3.51978437392,-0.280300508816,-125.138277894
off_to_on,0.0118843913144,-4.64806191594,-1.07643027327,0.329996116879,1.72669747764,-0.0353692894379,-6.33322133651,-1.08270446244,0.761757310619,-3.98338928874,-1.03321119522,-2.932645259,-1.53020805556,-46.685309114
off_to_on,0.233112531326,-2.43887820476,-2.04920683003,0.210679337234,-0.107821818433,-5.92922705041,-8.15351516611,-4.57783374002,0.548269181288,-4.08754710949,-0.334778077448,-0.726174968209,-1.62727193755,64.8128667843
off_to_on,-1.22238219556,1.2452201197,-2.35910173956,-0.112107695685,-1.30739895631,-8.46379546484,-2.23184558569,-3.67073439129,-0.141318517843,-2.57623087145,0.0797316971168,0.151816757758,-1.20895201166,66.829789387
off_to_on,-2.18068654521,2.90560415117,-1.15856851034,-0.517743531303,-0.667373188263,-2.89057600966,5.18177204403,0.555767359707,-0.581491512143,0.766429787005,0.0498700797586,0.538163700013,-0.237199351263,-0.615327226686
off_to_on,-0.77133538668,1.81726825585,1.28961370184,-0.702550626184,0.493316071877,6.17896466057,7.34139837403,4.23530171165,-0.438003136538,5.08895136629,0.789171252367,2.98372612668,1.52114877269,-7.81211506104
off_to_on,1.69867021018,-0.0801753859551,2.99016685742,-0.477656194277,0.84993949921,9.57038840503,4.65965400608,5.18308762048,-0.0320262304407,7.25710994058,2.11754474619,5.71686666356,2.851296407,40.2993483751
off_to_on,2.74239126707,-0.896149180868,2.30730321398,0.0887416268759,0.731644951314,4.65458055528,1.13995129322,3.40328875297,0.192777658268,4.02920950823,1.70545173083,3.54759214406,1.83055084185,28.6975608385
off_to_on,2.11705968351,-0.355094639917,0.319927067746,0.798599676037,0.831133138048,-2.23249833016,-1.96215418797,-0.401061410465,0.181603596042,-3.27628586866,-1.26138809909,-3.89917068472,-1.3061636172,-53.0480448377
off_to_on,1.11140075349,0.568284522608,-0.625432859485,1.26553139598,0.630527972053,-4.59793780806,-4.93031631055,-4.54698484276,0.145428041809,-8.21907764669,-3.6966074117,-9.27894238353,-3.54012548373,-83.8950689806
off_to_on,-0.355261580974,0.630395232581,-0.477094150399,0.852205130905,-0.737843772786,-3.03316413344,-5.77802886766,-6.13181309615,0.156881674212,-5.84956681958,-2.3475518253,-6.12051815786,-2.35185444866,-14.5710606226
off_to_on,-2.98189478672,-0.542370316549,-1.26046548189,-0.630285549098,-2.55534993274,-1.85589501296,-2.65258244183,-3.59231723696,0.0946645662957,1.03247470722,1.37393900204,2.48459532049,1.16457875579,51.570552689
off_to_on,-4.8809436946,-1.70749113993,-2.94047129572,-2.02614006054,-2.68958246282,-1.93425673011,1.89226780603,0.99868715921,-0.0857311150787,5.04258867288,3.09937962167,7.64440496046,3.43793427738,32.1904350561
off_to_on,-2.73680582221,-1.19564537307,-2.46562322223,-1.59457563515,-0.150228790455,-0.62955077105,3.68323513348,4.0607280557,-0.242166283064,3.27639264173,1.44244621853,5.51217439886,2.25460599372,-9.37685416424
off_to_on,2.75509985394,0.608236537652,1.30437440675,0.680864082231,3.13575427071,2.40425448472,2.7967977138,4.36777313865,-0.237671217622,-0.126012446791,-0.759735740563,0.260655636519,-1.22847607697,8.4251821118
off_to_on,5.92804425858,1.29349949041,4.4344180713,2.39491074474,3.90475226569,3.78105310296,2.2485790934,3.04481714379,-0.100249950122,-0.89628106129,-1.1718899275,-2.99724709728,-3.82522207544,41.9919145375
off_to_on,3.04264253891,0.00217873499079,2.81899381368,1.44417832627,1.12308804933,1.86422680519,2.01967239802,0.756041167329,0.0583420633094,-0.0476185114157,-0.698644534525,-3.50313589302,-3.00853237106,10.2031350153
off_to_on,-2.21130652033,-0.687923731601,-1.4124325424,-1.06525993575,-2.51630424612,-0.0245377869476,-0.347349566709,-2.33855329844,0.175430586271,-0.23227800697,-0.570772195752,-2.37631195179,1.07282592607,-53.3430580645
off_to_on,-3.31005581282,1.39501049108,-2.40919659105,-2.04248581859,-3.3028007156,1.17206183832,-3.57282901621,-4.27476931309,0.227383922903,-0.568922297597,0.0911488694846,0.26006350568,5.20317208848,-54.0712486492
off_to_on,0.27660517128,3.63089154677,0.749333616659,-0.472910549678,-0.695495636281,2.35385023114,-3.24675901895,-2.56615675384,0.176711089509,0.846901879138,1.7514726005,3.12255849821,5.22135316518,3.2793729861
off_to_on,2.60624259553,1.46031521306,2.39087122384,1.33364739255,1.98228444346,-1.70616647468,0.170695534915,1.25989246433,0.0196031883432,1.83963246517,2.1362663027,2.73368139032,0.0502227432429,28.6394398292
off_to_on,-0.157379914166,-4.32753776787,-1.17207901305,1.07466791469,1.52694611667,-8.7404037886,0.541746735311,2.07304976611,-0.154265501863,-1.09228356538,-0.584165591778,-1.64159988161,-6.18698886892,2.22357138097
off_to_on,-4.36109818619,-7.00675195572,-5.46908471815,-0.497517133545,-1.19564138519,-9.1395421971,-3.55784002395,-1.57686921731,-0.228540764435,-5.55902165014,-3.85636190248,-4.78596106573,-7.47324886733,-3.68037204704
off_to_on,-4.00663624624,-2.48724655085,-3.81065851002,-1.04539060149,-2.40014497678,1.08480017138,-4.22986820555,-3.86223123974,-0.175983154951,-4.64600502792,-3.33266011969,-1.76158134032,-2.14004825232,34.3112246486
off_to_on,1.16590810472,4.63584590229,2.97497066698,-0.0736523945384,-0.279087987924,12.0758140204,3.97211054005,0.712588188087,-0.0586198949004,2.88241027306,1.01862655913,4.26464228467,4.98151404711,44.2315479454
off_to_on,5.54635556357,6.69030162627,7.16315479974,0.754490988593,2.70256328302,11.0153831607,12.7518686736,8.11685437676,0.0631365935572,8.95193978194,4.50744421592,5.50090946241,7.44775677401,-11.0053749917
off_to_on,4.77922058924,2.60400780374,4.20544738462,0.349417268176,3.03873459508,-0.534705642042,9.19718023728,8.4435715081,0.161502783462,6.23386031816,3.75396706697,0.512477294729,3.73540157199,-59.4381249628
off_to_on,0.405135328178,-1.79230895514,-1.87850276765,-0.431837616776,0.501950558443,-7.83904256327,-5.44613912614,-0.870802639542,0.199801216871,-1.98082969497,0.340835688155,-3.78509362167,-1.84337461537,-34.6485832339
off_to_on,-2.96608179217,-2.3450490928,-4.44045256247,-0.427588629285,-2.02627745486,-3.17506628813,-15.3333181956,-10.4973321598,0.137947888077,-6.48614117284,-2.33481211941,-2.45505208892,-4.28486674266,17.9116744106
off_to_on,-3.11069049999,-1.14570037588,-2.34891848146,0.171602334702,-2.40601449878,3.34161919872,-10.1441971236,-10.3659939587,-0.00167028072107,-4.31378999444,-3.15825692509,0.663723593004,-2.85502196339,21.42153988
off_to_on,-1.6213720259,-1.54871763652,0.17037303451,0.47061650968,-1.32748327523,-0.774833410444,2.48548097064,-1.62733290368,-0.129084868738,-0.833673822962,-2.75893346044,-0.0948650946907,-0.694571321585,-9.09378791143
off_to_on,-0.850224122276,-2.60227344062,-0.0108807399952,0.233343628122,-0.433482778338,-10.4006380513,8.76396651158,6.12108090915,-0.174079849907,-0.384207228007,-1.20808800935,-3.03995779719,-0.363183382978,-6.95087085045
off_to_on,-0.881436357913,-1.25887920333,-1.44829084171,-0.157409719249,0.0913065811527,-8.86556428864,6.02320896246,7.01518489204,-0.142303896488,-0.607785585077,1.44581463552,-2.2006749857,-0.849891157666,26.180116873
off_to_on,0.0573096489383,2.19029165348,-0.938831966341,-0.463555701854,1.07885014079,6.96546327837,1.7584333437,3.71884638351,-0.0700085384899,2.00826315053,3.60351145876,2.84194399145,0.508362246513,30.3793838402
off_to_on,2.66292912959,4.23639454912,2.17382912417,-0.576356919935,2.37246929777,19.3209716889,0.328406019659,0.890774584768,0.0278687616297,5.55691872197,3.36049268178,6.13352576553,3.67908662073,-3.08210700315
off_to_on,4.80337371422,3.01560067863,5.12011835738,-0.212267718756,2.54669614314,12.3483900667,-0.849818724722,-0.890287968714,0.131731290486,5.29452484644,0.95451247878,4.09576724798,4.98427746368,-21.7119473687
off_to_on,3.44819203856,0.242107505995,4.43228871119,0.614104178816,0.726165035972,-6.48593291912,-3.16509485085,-2.90327035484,0.18337726332,0.501756283517,-1.60797966386,-0.341567372214,1.58821196799,-9.49651051916
off_to_on,-1.47157158816,-1.77397115251,-0.484736438812,1.12383249876,-2.05154473887,-16.4482634862,-3.42261984245,-4.08736250321,0.132990824177,-4.68766780727,-2.91500332957,-3.38007857364,-3.99432989639,-8.52873522819
off_to_on,-5.98156518172,-2.65371462089,-6.07202907175,0.559778753926,-3.62641341557,-9.96348284017,-0.55994257579,-2.62088874854,0.00849610294548,-6.44075166894,-2.76859230752,-5.02461070116,-6.04933093719,-28.5491811615
off_to_on,-5.82868851434,-2.8920659759,-7.41174284425,-0.669527258285,-2.68479980616,1.24772522702,1.09214569568,0.205447583702,-0.103760258948,-4.47448285654,-1.22784650746,-5.79288860307,-2.65350364147,-18.7721884785
off_to_on,-1.10936530728,-2.21311277602,-3.09431432691,-1.3191769833,0.0826667643819,5.1276514191,-1.02462135078,1.31856683335,-0.144681601064,-0.607835150053,1.13185310683,-3.39470592255,1.83273947777,35.6576233994
off_to_on,3.84365026655,-0.137826557922,3.14865316724,-0.780207699765,2.5733442342,3.32133527795,-2.47757146767,0.616926691661,-0.119042774511,3.30273649927,2.53791811239,3.22461512515,2.69630832352,64.7406992493
off_to_on,5.16092724878,2.73194439449,6.40582773479,0.346131131171,3.02473174488,2.96233188832,1.34073833944,1.06198690841,-0.0574140683078,5.6097797883,1.70596172262,9.37623237333,1.00456816095,15.3110312536
off_to_on,2.89617492139,4.74621915579,5.37429220024,1.10885250166,1.4255333397,3.98270344306,6.77018899093,3.45742172162,0.0171213159913,5.08473281939,0.0322057956845,8.78936616037,0.965337892927,-56.0986726789
off_to_on,-0.333188808102,4.13500727977,2.12918184395,1.04310785942,-0.660080264155,1.94334182317,6.10047572114,4.29155579793,0.0810951653793,1.88958983382,-0.09716118409,1.42765928356,2.67688704622,-56.9387023599
off_to_on,-2.53574124147,0.219820999744,-1.52242605807,0.19206108583,-1.63262719713,-2.17329593184,-1.17484143013,0.693082032098,0.108648833529,-2.32443872708,0.839419728444,-6.41119143721,1.82886223638,12.2093975909
off_to_on,-3.12555656223,-5.05160720496,-4.92712707435,-0.953284184658,-1.18310246628,-3.48672929905,-7.14567006411,-4.67912536607,0.0941654955638,-5.45676357203,0.0182529178864,-9.22694684934,-2.79376115258,66.3006949638
off_to_on,-1.92382347971,-7.16862631781,-6.33126554985,-1.41488183655,-0.214288121854,-2.12525782031,-6.07674339928,-6.45542178477,0.0542750967127,-5.73466938379,-2.75949691729,-6.42321205395,-5.96369342807,49.2348316836
off_to_on,0.617374174084,-3.03115601283,-3.33319245477,-0.471620546858,0.224810918571,-2.44506507482,-1.07315821429,-3.33688240411,-0.000610260299134,-2.40625717595,-3.70229585772,-0.282138508971,-2.98027803784,-19.8879219987
off_to_on,2.55120137577,4.35766464264,2.89077578568,1.16088909427,-0.160415912948,-3.83343036364,1.84222765644,0.83187402699,-0.0699452285642,2.88640753183,-0.462761532386,6.0099927747,3.11783233644,-89.5792538983
off_to_on,1.85189297442,7.58879625611,6.72735422951,1.66989874471,-0.726094447089,-0.679012399045,1.94550673427,2.77943166297,-0.129143937645,6.11463648711,3.69934697005,8.31666092,5.24640252009,-103.457114793
off_to_on,-0.791363533592,3.11084422807,4.25974330021,0.300271190022,-0.433830184424,6.60444171545,2.49354361379,3.43976596026,-0.127309398276,4.36534534676,3.97280442627,4.1640721136,1.67852368732,-15.1851999202
off_to_on,-2.20283848829,-3.9678571819,-1.37497286217,-1.44513097289,1.0362691657,8.81613405539,3.89821263744,4.47110894977,-0.0460720641752,-0.513362034743,0.507728977579,-2.99250403551,-2.41526625659,139.866529323
off_to_on,-0.597053418175,-5.71928066465,-3.72661524702,-1.55638341352,2.48297290549,1.16004277804,2.89023694904,4.10089592824,0.0615859239194,-3.62337238157,-2.25865907141,-5.93748445864,-2.57212330853,207.822911019
off_to_on,2.04733578299,-0.883150726709,-1.23577236278,-0.030682840143,2.0403198904,-7.47821125639,-1.57210418069,-0.251993355266,0.121003851354,-2.67248101434,-1.8761988427,-2.31467590896,-0.0324404533412,64.208720909
off_to_on,2.52530327589,4.22506645046,1.52499365515,1.28883994332,-0.604223803846,-5.86869003606,-5.47158213407,-6.38292700641,0.111117964893,-0.0669676792076,-0.184758390605,2.21276205319,1.74373847554,-184.503477396
off_to_on,0.2674565006,3.85223672862,0.722193514679,1.15022504341,-3.27420845906,3.00854143811,-4.60881747949,-8.26080581033,0.064388161156,0.996388671136,0.50636298277,1.85745503909,1.67251392508,-268.531055043
off_to_on,-2.4985046033,-1.02888410997,-2.05084909672,0.124129255608,-3.37767744282,5.76432644458,-0.162551708298,-3.48856625486,0.00857576901572,0.276679302753,0.233407618377,-1.63446479101,0.294522328677,-82.7294147735
off_to_on,-3.5000202202,-5.04177012653,-2.99412470694,-0.640234337525,-0.76618731745,-1.78819993086,2.8998208781,3.27826460285,-0.0525513035642,-0.615884184553,-0.246531683002,-2.66645452147,-2.12503175763,162.659834777
off_to_on,-1.9764964736,-4.27360120599,-1.03289927232,-0.797091025862,2.20846104705,-8.34186026821,2.22211974201,6.15264201334,-0.104117346823,-0.801854472264,-0.852155394223,-0.16441327715,-4.03510855738,208.781659836
off_to_on,1.52199194139,0.91607953124,2.18333035463,-0.548939360627,3.31874680757,-3.64620962611,0.510512537486,4.71471794848,-0.109849183764,-0.074041850125,-0.852758130697,2.29852085157,-2.14118861045,67.31840219
off_to_on,4.92039333058,6.45799125437,4.71234717252,0.0233825159302,2.24497180963,6.66774570002,0.937177339801,2.35912466721,-0.0556958835967,1.69471803096,0.966695651273,2.84373905291,3.7476493153,-53.4892551258
off_to_on,4.84915341951,6.95926371538,4.66231096752,0.684505629569,-0.0718277004869,9.36198195957,2.15650740171,0.197770046801,0.0228149832463,3.17322581584,3.29746708926,2.52662902918,7.5521197992,-63.8095843903
off_to_on,-0.162554857497,0.32083373394,0.532238966707,0.789460086929,-2.42865653787,1.90386470228,0.339726757642,-3.24928390942,0.0766390711909,1.63366255832,2.43620658344,1.02953985518,3.35477139204,-57.4145733723
off_to_on,-6.24415524594,-8.21546101516,-5.78288392249,0.0999214551875,-3.31654230664,-5.48823462837,-4.17883333087,-6.74502047482,0.0893974523023,-2.98058716455,-2.19758176994,-3.02831949481,-5.55330525378,-82.1873493031
off_to_on,-6.78674020989,-9.43507514499,-8.20618947707,-0.599513388278,-1.50586939236,-4.87228757925,-5.57273322936,-5.59240298248,0.0723858148419,-5.79174255718,-5.39825652141,-6.74639175016,-9.05891553468,-47.1921816665
off_to_on,-0.27706712419,-0.626584476013,-2.76448623833,-0.48031168819,2.02174769032,0.126596750609,-0.128637589704,1.49475920446,0.0341058031554,-2.37963515076,-2.49627807236,-4.1326632059,-2.82030390224,77.8817070536
off_to_on,6.60437950187,9.30629472291,5.82476845024,0.104496264697,3.84800610286,1.93502517652,6.94483352696,8.15872993939,-0.0202345385157,4.28386112871,3.46881972636,4.43059714967,5.9523610183,147.12128578
off_to_on,6.29562684531,9.19211139086,8.20655924891,0.220487985755,1.64480900728,-0.365676256556,6.50401281242,6.84536192359,-0.0696376403546,6.35136339328,5.09836225479,9.37557107153,7.69214219039,47.8884038083
off_to_on,-0.429286346098,-0.683712018716,1.97327424632,-0.123794041086,-2.44270460118,-2.19612024999,-2.3255620571,-1.5261766632,-0.0852991808955,1.17586200891,0.623127637712,3.57148042147,1.83666139027,-98.9251343325
off_to_on,-5.52549461854,-8.63450015626,-4.92475908699,-0.0923256807601,-3.80071835999,-1.3057736352,-9.27771025612,-7.80871086451,-0.0603183934819,-4.94779744166,-3.87141731739,-6.83598628957,-4.2943288868,-101.818253443
off_to_on,-3.74771277898,-6.09854280908,-4.54750769133,0.404916476805,-0.938595615864,0.563441324326,-5.25084047611,-5.12300419983,-0.0150016582743,-4.88818206845,-3.03031840902,-9.22465756212,-5.28259161421,17.1915456012
off_to_on,1.52520987248,2.35342824257,0.980554254903,0.43883199194,2.69385164748,2.18065072062,5.4555748238,3.26576685292,0.0278811169774,0.580010443787,1.0979840212,-0.755416069766,-2.14923245731,71.1457136752
off_to_on,3.62031323139,6.12977462584,3.49434282074,-0.317687443395,3.15751708025,4.04165312381,9.86989087659,7.8290001225,0.0580620264536,4.68579141893,3.08641124082,8.22524122817,1.55863565331,4.11198301997
off_to_on,0.96391367488,2.18402017835,0.333355626062,-0.827385919723,0.620536372217,4.87635603778,2.72324212543,3.39097377272,0.0688412050204,3.24352705651,1.49657454952,7.68947088424,3.75059345502,-45.4851985809
off_to_on,-2.21651752458,-2.85890818845,-3.10719598697,-0.242217745609,-1.74455394219,1.4762507585,-6.93794496847,-5.31807664445,0.0526654195094,-1.43195247338,-0.836153719533,-0.518288905749,3.50109496875,5.47406644738
off_to_on,-2.1328215289,-2.79815716412,-2.02857569361,0.687576437686,-2.07925998009,-5.81991778285,-7.53063782663,-8.70582488174,0.0135693458943,-4.19120923337,-1.74681161216,-6.91489262279,0.607550869613,53.268599272
off_to_on,0.406278090851,0.687117439619,1.49146458293,0.702479062319,-1.17165514539,-10.5760761537,0.589371543692,-2.65189957611,-0.0286041738037,-2.38404273483,-1.54516475164,-6.08239935767,-3.00173610602,0.94754818465
off_to_on,2.156671125,1.99324761892,2.65936744912,-0.0927815228468,-0.145026829801,-6.67661445708,6.50841048691,6.58019365359,-0.0547512926356,1.9945255742,-0.769493229444,-0.751600248667,-3.98969251987,-69.2770207077
off_to_on,1.58430647428,-0.3280327421,0.782333888353,-0.532053023697,0.952458327532,3.5115610573,3.16270074992,8.80910972182,-0.0597228082047,4.11490431067,0.6541981649,3.49311385246,-1.43320047722,-36.932454423
off_to_on,-0.150663148811,-2.33213812579,-0.98347999616,-0.225322000435,1.90381322715,10.5661544668,-4.25573623064,1.59405911222,-0.0457070233919,1.17333364633,1.9260431254,3.97711365559,1.7765876296,51.967251436
off_to_on,-1.24413711479,-0.652223835944,-0.730202439487,0.0809254091116,1.61823817172,8.37378877871,-5.77079337877,-6.56511899834,-0.0145030841777,-3.60184045619,1.62733108971,1.83251889246,2.62822094461,63.2029361331
off_to_on,-1.16261636921,2.84737665498,0.340997671664,-0.0404801587041,-0.193130253711,0.73101139159,0.62574990039,-6.44861119897,0.0256406569776,-3.80529286046,-0.0223588822591,-0.281679607416,1.40278772099,-6.8020286299
off_to_on,-0.657968833711,3.43526278167,0.510236025718,-0.0669021951825,-1.86102488859,-4.07403386183,6.95648171718,0.543432557312,0.0556917092414,1.62779119013,-1.12718180968,-0.785528026733,0.110197754955,-40.1276576685
off_to_on,-0.453234814729,-0.372967015702,-0.394393963824,0.313560564876,-1.62632391747,-3.4664163402,5.52818835111,4.92943507892,0.0597815882242,5.61869885445,-0.819963870423,-0.419243830164,-0.628455454268,-0.96926721187
off_to_on,-0.223218007435,-4.53666721946,-1.48655158107,0.468551697809,-0.0199479172618,-2.22789662304,-1.87068945658,2.13557676663,0.0395720303862,2.06032131846,-0.253639899809,-0.878445381898,-1.25691673202,19.6410956578
off_to_on,0.828521936886,-4.05698791902,-1.67985141216,-0.0976465438555,0.920534623937,-3.99739830516,-6.81729284509,-2.23980669236,0.00803731464365,-4.8407429101,-0.396327333023,-2.09716321309,-1.32942232564,-22.7128888589
off_to_on,2.32762859802,0.889091257298,-0.15891307371,-0.717783694086,0.4667738458,-5.1706552789,-4.68450781386,-1.75477533302,-0.0246061019214,-5.66611342958,-0.586057222824,-2.06401613966,-0.209820053856,-47.9083794042
off_to_on,2.42711950871,4.89733019691,2.46052015449,-0.454323155143,-0.143000186898,-0.439178553522,0.732712654428,1.54684458078,-0.0507323599886,0.768862291371,-0.0276741041668,0.0631356438533,1.06197272011,2.01984671542
off_to_on,0.00903660909597,3.73276095669,3.62357929446,0.444904452833,0.102506244768,7.81614988726,3.3592838849,1.55969267961,-0.0588812671744,5.59834862436,0.823874089406,2.28588380954,0.891402237672,56.8137193889
off_to_on,-3.21485462999,-0.837568068641,1.30144572617,0.84496929956,0.562685713099,10.6479950937,2.41919975879,-1.66983305684,-0.0409995785069,2.84869843816,1.22863414356,2.47695693731,-0.240705874996,36.0503818909
off_to_on,-4.03443511485,-3.76581116093,-2.81887223499,0.288788366349,0.299532263006,3.94459929366,1.31773176141,-2.38498565304,-0.00500790984349,-2.45437583107,1.14267185316,1.22239171499,-0.460168331648,-18.4139232345
off_to_on,-1.38080798414,-2.82102204519,-4.44549944383,-0.516951141322,-0.32356572333,-5.5967799701,1.12840145046,1.06026169968,0.0300824793617,-2.87538143436,0.47697105603,0.271016437639,0.355574481544,-20.8248568973
off_to_on,2.34942769856,-0.00156171888572,-1.71061598508,-0.762434697781,-0.416969644043,-8.6855290985,-0.386601822046,3.29162505862,0.0511836167424,0.467339849141,-1.08713504577,-0.361852719976,0.470116618514,13.9671291094
off_to_on,3.94639224373,2.12876930681,2.42089197226,-0.387210093196,-0.169552638943,-4.51700259089,-3.15172929257,0.574866518128,0.0552023358079,1.40427662301,-2.6031745424,-1.51105634165,-0.474088975233,7.94130588452
off_to_on,2.50364369241,2.75466429624,3.71698948129,0.213808875835,-0.398977311963,0.275785363926,-3.09776391617,-3.10447979439,0.0399829457068,-0.709034532561,-1.95609613917,-2.31742590326,-0.675453019799,-37.4168478043
off_to_on,-0.408950538491,1.57377919066,1.40961142157,0.685419004411,-0.808982093979,1.73087189188,1.24319401174,-2.23411582413,0.00514405387414,-1.12883046461,1.0248741036,-1.35042304758,0.524127940281,-44.1103666397
off_to_on,-2.61406795526,-1.51970503088,-1.70290011011,0.707262680564,-0.161006019508,2.2988107716,4.47191699598,1.80703810677,-0.0362468538324,1.09807629378,3.17987344018,0.411839931996,1.09106390778,6.97869314953
off_to_on,-2.7479317355,-4.35424437089,-2.79637988047,0.100013328757,1.48994359014,4.13106535351,1.23917329124,3.12284698538,-0.0604465224243,1.58771156377,1.82538425716,0.778365538239,-0.360647811483,45.8316642949
off_to_on,-0.864934679458,-3.15640883532,-1.37096361403,-0.707435791733,2.11539378511,4.17173094926,-4.87298986383,0.070464559024,-0.0544989081341,-1.04283620123,-1.27443063193,0.253554988152,-1.87179922192,30.4370567226
off_to_on,1.38419038493,2.2757395153,1.15388045007,-0.822464399881,0.306526573484,-0.612499408728,-5.12906824768,-3.03961428163,-0.0270903529461,-2.25180777211,-2.20226636645,1.28421391546,-0.992665401413,2.34686660745
off_to_on,1.90252938409,6.34566287933,2.74899605907,0.0102118912798,-2.2957123365,-6.43883198522,1.86245212526,-2.53621742072,0.00574422996281,0.537767021229,-0.370141863308,3.26578916073,1.27654931523,-1.42821762567
off_to_on,0.453187840025,3.82499360428,2.01468826792,0.816118020165,-2.60117608816,-5.99596334263,7.43824933582,0.48855353196,0.0353773421511,3.12215764602,1.13898531487,2.3330910723,1.9904532332,-6.60837392562
off_to_on,-0.859426276361,-2.9387968209,-0.594775103182,0.503747897074,-0.0214464971555,1.66798468749,4.70749839381,3.0479175917,0.0553280976238,1.32531125694,0.554948849563,-2.24933800418,0.687648138538,-29.4856020809
off_to_on,-0.394235176869,-6.43754755295,-2.8087251726,-0.599254099858,2.54928420209,8.4027972237,-2.31390378116,3.59284920155,0.0539348902118,-2.24763249291,-0.412812933247,-5.43806315494,-0.500202969396,-26.0315932485
off_to_on,0.690080031091,-3.35179989563,-2.69976907532,-1.01025997335,2.23833179176,5.93253214446,-5.29285410969,1.60882217899,0.0257641383991,-2.7822615748,-0.160602106776,-3.12271980524,-0.682957827819,23.6708389277
off_to_on,0.404557030534,2.00582353144,-0.64577338814,-0.0201779094299,-0.374895252976,-4.09603716911,-3.01560977854,-2.59090881189,-0.0149585905209,-0.70709916267,0.158255507752,1.67789810774,-1.05189981313,46.6055348722
off_to_on,-0.714271624212,4.09636409616,1.5386817679,1.26179175273,-2.26547226627,-11.1232340736,-0.726289319415,-6.08174889495,-0.0446200664117,0.514918225061,-0.659737523099,3.1792168249,-1.64807987527,-20.5674439406
off_to_on,-0.550133711822,2.43345732379,2.735735695,1.22762581437,-1.72420730113,-7.01550583197,-0.567091278812,-4.60710543702,-0.0521276172071,0.952711302424,-1.09974752472,1.09508102663,-0.59664018676,-99.9447073968
off_to_on,0.653860775844,-0.0551117630119,2.66413735045,-0.207407910726,0.127527026844,4.70153001704,0.636761635163,1.85024953445,-0.0416900350119,2.66518038534,0.539266728716,-0.0653160354934,2.14401761757,-49.7094572605
off_to_on,0.330782267576,-1.61222324066,0.854786434993,-1.470247506,1.40910047274,12.2423018167,3.95205010333,7.20772447559,-0.018587176584,3.62130501716,2.55154974869,1.19392804184,3.27395336852,120.257226218
off_to_on,-1.69564235128,-1.97588460369,-2.39687756299,-1.22027638904,1.63091929003,8.37500936856,5.13536891425,5.88279198461,0.0140224115544,-0.0400610266428,1.78372655169,1.4470291937,0.645504124671,210.027103502
off_to_on,-1.84384287304,-0.65837877782,-4.41716726684,0.123206188104,1.21321015725,-1.8766981028,1.35472801063,-0.377788381463,0.0445867594521,-5.90235467922,-1.46577573354,-1.18892871639,-2.94990687519,65.3372529683
off_to_on,1.64081860447,1.7702854278,-2.29368478151,1.02689487555,0.104727143542,-7.96779192977,-3.69484899956,-5.06780501378,0.0547535165804,-6.38104994502,-3.41168521073,-3.51020402772,-3.20649967441,-201.735459747
off_to_on,4.57262775395,2.28205867233,2.55284050907,0.719443978418,-1.76796544465,-6.44936015235,-4.84428772378,-4.85229193418,0.0379078498577,0.344180829031,-1.83104714495,-2.19578170522,-0.0910954976135,-305.047758054
off_to_on,2.02213108458,-1.01445276249,4.65693003225,-0.0608616465554,-3.12224822775,-2.93611428656,-2.25135634652,-1.73735041248,0.00691756274716,6.68553904901,1.30513958938,1.27121503763,2.59801031148,-104.323388272
off_to_on,-3.84092638523,-4.60029962117,1.2544813631,-0.238088545652,-2.01773989504,-1.74816475416,0.384258790714,1.4388199687,-0.0213368199221,5.85521984896,2.82916962565,3.07903455034,2.50669130106,216.92088988
off_to_on,-5.64520320813,-2.93887954104,-3.43903203486,0.17315050546,1.46220356602,0.383742964114,1.60861426575,3.54539134023,-0.0400750385732,0.343510919833,1.90364893565,1.87972981849,0.600630632148,333.227414617
off_to_on,-0.88946468612,3.40097151719,-3.39286084743,0.260378318768,4.30648602787,6.60778849417,2.21421334384,3.34788826274,-0.0468150344475,-3.46936837756,-0.234347900636,-0.961478471284,-1.61455474976,129.917625654
off_to_on,4.37118244434,7.08419059306,1.17567438791,-0.350140302411,3.49284496868,11.1728265297,1.68077537222,-0.160708675721,-0.0355635624154,-4.0974090457,-2.09741928879,-3.37576723174,-3.3124647974,-169.849690033
off_to_on,3.90542234983,3.28691877905,4.20059011391,-0.884480932557,-0.447434913176,5.7660780919,-0.635134281083,-4.18515262353,-0.00587333118232,-3.42087046368,-2.39918351948,-2.92746779064,-2.75420197816,-260.077549755
off_to_on,-0.476656902423,-3.77133226771,1.99048308253,-0.512826377043,-3.76966878318,-6.82229173283,-1.99272452368,-3.32793051434,0.0272328821103,-0.868084475154,-0.444050173531,1.71894594086,1.48052978404,-96.1012537701
off_to_on,-2.53316085342,-6.37133828106,-2.36798853512,0.429665579421,-3.57193291885,-13.479859124,0.707555479049,2.73751563591,0.0443557356526,4.19366654691,2.4087728551,6.98905194576,6.30262256035,88.4364847472
off_to_on,-0.734984961745,-2.88893596745,-3.82597866701,0.861581048818,-0.703288923398,-7.2572545325,4.40306951017,6.53234997237,0.0404308954282,7.01726855496,3.03497395363,5.66938252786,5.28363107172,100.933886702
off_to_on,0.80067332588,1.60066948614,-1.6340035825,0.408695315698,1.755378593,3.75455257853,2.24716406302,1.94848462194,0.0238996335309,2.25184009163,0.112451303004,-3.63978315043,-2.80444514935,13.0537251377
off_to_on,-0.330800794281,2.86761277924,1.16346719864,-0.18871291767,2.10268602922,7.848842859,-5.66783906104,-6.3576921914,0.00169839827202,-6.19531945537,-3.43613284174,-11.3669574518,-9.71421738468,-0.123100672623
off_to_on,-1.44975310709,1.74354443488,2.34140485873,-0.208421472968,1.19381728199,4.13273442645,-9.72811976779,-8.02163960941,-0.0232881105512,-7.88188393284,-3.44680550581,-7.36998448509,-6.54271997622,62.050524129
off_to_on,0.00719705265941,0.77885807298,2.05237335601,0.110504773329,0.411873631514,0.0436985560178,-3.02965710812,-0.689858246776,-0.0420729350235,-0.198610229413,0.355452382815,4.84219041665,4.36130773541,51.9907760462
off_to_on,2.02503176659,0.375657895234,0.906201124829,0.0966767706259,-0.15853733803,-0.828801660471,8.08545756024,6.87783197714,-0.0413420530264,7.12708923034,3.94173680685,11.3059687864,11.0712953054,-61.4689171299
off_to_on,1.42032418627,-0.305823318395,-0.820012489367,-0.320190730136,-0.970804803074,-1.01387460697,11.2529131847,6.56366438906,-0.0197039531102,5.34484591262,3.70963448537,5.63875562636,6.25869578116,-127.115658519
off_to_on,-0.977280596931,-1.08254022881,-2.13194759563,-0.598104008212,-1.49557182865,-1.58537830735,3.6613852856,0.578422769368,0.00792040376847,-1.8212278473,0.147272366602,-3.48733647483,-4.40264188676,-49.2250147864
off_to_on,-1.7544426875,-1.21805086284,-1.70644546753,-0.394151894747,-0.758431548466,-0.461860729105,-5.42606533662,-3.46131087824,0.0267142810209,-5.00101446031,-3.36000013292,-5.61313075383,-9.70468459565,61.3831653708
off_to_on,-0.13213081015,-0.769494440881,0.154138922978,0.0974000228999,0.80545257302,1.47570627936,-7.29275882028,-2.90473720935,0.034215199494,-2.31255278068,-3.9705710488,-1.86851021236,-5.46949663277,65.1193546752
off_to_on,1.38397360991,-0.111015299482,1.51056149621,0.548160071774,1.37666530322,0.161328864781,-3.1154522588,-1.09781659674,0.0324117176989,0.847415015049,-1.3610199707,0.297962751605,2.79456841216,2.02378997051
off_to_on,1.06804262481,0.735557849875,1.21213539984,0.788170153093,0.152689269279,-3.82522380515,0.710860621819,-0.516946513577,0.0187434641949,1.66905253284,2.32226710747,-0.4153349283,7.30736334304,-2.72423689833
off_to_on,-0.228445397879,1.24506771694,0.0414077086534,0.67387501547,-1.28042077533,-4.12587890435,1.4498857401,-0.0519060501898,-0.00608519887664,2.01793698621,3.92046487816,0.0972523267666,5.04067531783,43.18956274
off_to_on,-1.38255659595,0.304700364246,-0.890100345264,0.0955845918122,-0.917548825728,1.50944858681,0.967834810814,1.09823029984,-0.0292416247828,1.97494102298,1.9010586666,1.71885170729,-1.27687410089,27.9359894651
off_to_on,-2.2212925516,-1.62500661038,-1.37306423957,-0.720475028455,0.908346979652,6.53500798552,1.03896898949,1.41372925522,-0.0359916892932,-0.829577259576,-1.73021786914,0.423241304014,-6.01790468193,-54.8393687249
off_to_on,-1.84403519703,-1.77844654295,-1.12967698647,-1.20608861019,1.91098827455,5.09945275275,1.46472932469,0.21531794652,-0.0257413715403,-4.51786878601,-3.15490176516,-2.43829402099,-4.83581238162,-85.0019316051
off_to_on,1.21704750254,1.35570108724,0.636615139137,-0.931731021266,0.877422940726,0.375394150682,1.63310719382,-0.564341615461,-0.00916950159057,-3.12574492609,-1.0659267369,-0.542696180667,1.32456863928,-16.2933520262
off_to_on,5.47001122108,4.68880668068,3.32026950959,0.00865725693351,-0.912824457181,-2.01823470985,1.18419747126,0.443990418651,0.00702688399284,3.57002221387,1.76049303867,5.65103338248,6.19908576786,48.8104954296
off_to_on,5.83561375088,3.41285987796,3.91907048025,1.06348028734,-1.62997659094,-3.23269964283,-0.263527121686,1.60153521876,0.0223531704794,6.99574348337,2.01318008425,6.53816166425,4.392476566,31.115867239
off_to_on,-0.392337745484,-2.58985130087,0.170185445248,1.50166607241,-1.11227793185,-6.34273134371,-2.22768800896,0.864015123791,0.0319903912848,1.35537146871,-0.162144646179,-2.31620499981,-2.18270220236,-6.86279430815
off_to_on,-8.26334412106,-7.56775455582,-5.51161611466,0.826644592329,-0.369221584517,-6.97288525719,-3.09425202247,-1.15933205458,0.0269454205583,-6.85647812967,-1.91275152225,-11.0383090682,-6.2378143101,12.1212539957
off_to_on,-9.35473835109,-6.13863810458,-7.36053638112,-0.624508251809,0.209224211292,1.02401793269,-2.22418414766,-2.60428474355,0.00763638995275,-7.08160271894,-1.48426608866,-8.03311330103,-3.78561901111,43.3946033644
off_to_on,-1.64700981733,0.772926554051,-2.4980945091,-1.58685806887,0.933588631471,12.0489654563,-0.929194800685,-2.9446459862,-0.0127810086262,0.757735135166,0.274802640718,3.32732376371,1.65211387674,9.48127024538
off_to_on,7.53935704554,7.1756747481,5.252363344,-1.02683806041,1.52668589416,12.2985854311,0.231928881662,-2.1210391844,-0.0230924677613,6.78885012033,1.70429875259,9.3661719176,4.39367131669,-53.8371377536
off_to_on,9.6712694515,8.0506389158,8.90452674546,0.474935643521,1.14047729824,-0.681639124091,2.85954116488,0.9050227393,-0.02405468181,5.05000293127,1.95438000965,5.06480831463,3.31378942204,-54.3075845387
off_to_on,4.03039208218,3.32241823533,5.35878403296,1.20160418201,-0.157520158941,-12.2388563921,6.65478688268,5.66408534978,-0.0199006352117,-0.196680226224,0.885921638155,-1.06851201871,1.13004245294,1.502970938
off_to_on,-2.9522186104,-3.03320474167,-1.82812321246,0.45343127168,-1.0965168847,-9.71069256813,6.52393416547,7.67590940053,-0.00921119762079,-2.81823643385,-1.03173229825,-1.55166555646,-0.639252225057,25.9349550589
off_to_on,-5.72008248185,-6.59519825289,-6.5378676939,-0.560236665156,-0.925182212047,1.22782651969,-1.28917546503,2.6306681464,0.00836057356683,-2.76055414107,-2.40877214239,0.131503568389,-2.62500924986,1.5812148029
off_to_on,-4.48237566887,-5.71843244676,-6.04919384628,-0.517895921324,-0.462254861899,6.52311452293,-11.0470227816,-6.55446978279,0.0236057433987,-2.64126723598,-1.90628248832,-1.92558839096,-4.30339840426,-1.50700513484
off_to_on,-2.43360875132,-2.17944670065,-2.48367985097,0.174583730774,-0.660391704713,3.17426270173,-11.6437284941,-10.8679138301,0.0257696171074,-1.82154518634,0.00866099216885,-5.31038030149,-3.30818585981,36.5859824375
off_to_on,-0.800063673527,1.25234655614,0.873178441125,0.292291290444,-0.909462961195,-0.561959154109,-0.723182999978,-5.37542174618,0.0157597456554,1.35711052552,1.44106822433,-3.75342273269,0.936304564051,44.7017886249
off_to_on,1.62020295916,3.61665567797,3.08129678974,-0.146784285402,0.0743937172014,-0.161286770827,10.6764160675,4.49451350738,0.00312527986269,4.54718730472,1.53377786711,2.09855539076,5.18967618602,-11.0320163096
off_to_on,4.91087886257,5.24312617701,4.65610385427,-0.0961668715201,1.95670456029,0.534324053417,11.0838349646,9.18211006817,-0.00728255764893,3.6938937568,1.1853566287,5.53237936076,5.52735868905,-58.7029818241
off_to_on,6.23962065371,5.04526813621,4.70806043869,0.498055035979,2.68346520404,-1.00081806778,2.02372800116,5.54699786765,-0.0167675822567,-0.668063129706,0.896816438707,3.76418634302,1.5494663588,-34.6266240935
off_to_on,2.89045263605,1.07333203784,1.51750900959,0.466096289715,1.0661354156,-1.57236202601,-5.85981115138,-1.26336741888,-0.0228466072353,-3.6502250037,-0.228351436732,0.701676112598,-3.36447793044,15.8132812462
off_to_on,-3.50161415431,-5.12533193442,-3.71756735587,-0.511624214403,-1.48759317918,0.373240686195,-6.60989259664,-4.88419769677,-0.0185970791511,-2.52176891343,-2.19156125471,-0.299942831864,-5.29854123696,19.0100196075
off_to_on,-7.46498245153,-7.76479713183,-6.39515647853,-1.114117231,-2.58121337295,1.1610209994,-3.1373388028,-3.66065906737,-0.00402622294396,0.396664917533,-2.73785015942,-0.777068800348,-3.00334221511,-9.17738896576
off_to_on,-5.36947414999,-3.51221005298,-3.76383179316,-0.401461984281,-1.62952939197,-0.991748788356,0.379014904207,-0.15466094029,0.0107762169156,1.68319731426,-0.396878271597,-2.76706357325,1.15540211065,-5.22666795626
off_to_on,0.389122666885,3.05596155333,1.07609053098,0.67115625436,-0.153813149696,-2.05788711333,3.25575031239,2.21948127003,0.0174880617605,0.748147724256,2.4533418731,-4.54615328067,3.20020469397,27.1942126113
off_to_on,4.25651494245,4.71500527093,3.0645394613,0.796725133011,0.520667219299,0.595263089095,4.76089125496,1.61180544382,0.0174720706917,-0.828327951592,2.28227279619,-3.24256501831,1.57158308404,30.2731300417
off_to_on,3.91149554829,1.33564527276,1.90810509613,0.27938447029,0.747054027275,2.99604226835,2.385706094,-1.02017133665,0.0143729108171,-1.46102830807,-0.397558848209,0.928832886049,-0.847876065263,-2.61899099605
off_to_on,1.79551813328,-0.571255849902,1.43981503438,0.150972361638,1.30661774567,1.2495178836,-3.21625669202,-2.50634619629,0.00660678455638,-0.33195841923,-1.60032487869,5.03361460645,-0.323081016858,-20.5014211078
off_to_on,0.439795627398,1.60907033795,2.57494384385,0.213202694284,1.67754137221,-1.6998333993,-6.25606491105,-0.821273582016,-0.0066903505481,1.95207022305,0.099642805802,6.25864812498,2.21256028167,-9.37201923481
off_to_on,-0.74391245467,2.52272458389,1.52540674988,-0.399426302385,0.722771372665,-1.36508686697,-2.71053973799,2.16832815095,-0.0183952179079,2.95865051686,1.45762469638,3.38285409697,1.98272283622,-9.98681124225
off_to_on,-2.56898153341,-1.74744885358,-3.13350306478,-1.20812813855,-1.17933956898,0.586824148251,3.75876122943,3.04121194578,-0.0199581998449,0.810151934764,-0.0731256232444,-2.33719300273,-2.28186398791,-29.8240340736
off_to_on,-2.95180499056,-5.93245615984,-6.14111624309,-0.822016890742,-2.07573270083,0.0661940544729,6.3735859656,1.45769187725,-0.0121494588861,-2.59792071687,-2.07009355348,-6.6846815656,-5.23791276207,-18.9850941136
off_to_on,-0.0172368424167,-3.09950436751,-2.50109387327,0.602060671181,-1.00097289538,-1.53395180667,3.40866541607,-0.123991750299,-0.00243115148506,-3.2598475707,-1.05418940998,-5.52429525106,-2.1299454383,35.2559041754
off_to_on,3.29354639266,3.7083221462,4.10835192603,1.2290717263,0.53075268161,-0.174132618607,-1.5520476064,-1.05092286972,0.00573265951148,-0.637022685997,1.64652812379,0.034289216532,3.63254340457,63.9087002765
off_to_on,2.06668824057,4.98814871031,5.36666866723,0.360969021651,0.583661318493,2.44763061727,-5.10576132252,-2.96843618516,0.013546096734,1.39803469658,1.78479219683,4.02109586189,4.66298099182,16.2932020447
off_to_on,-2.92581309784,-0.847598635797,0.00199302490674,-0.438910487873,-0.438235875823,1.19069504603,-5.77420782648,-4.86976212187,0.0186737948653,0.545219253657,-0.963250026577,3.01416983046,0.189105285967,-52.4950252643
off_to_on,-4.83044576659,-4.71370760606,-4.31276126944,0.0387790053391,-0.483567738415,-2.63129592121,-2.41587210122,-2.42129485797,0.0152096098572,-0.401597104591,-2.26022079262,0.355620521448,-2.9914920183,-54.3767919421
off_to_on,0.0481409373498,-0.613305582193,-1.98686077207,0.622603271327,0.964719652573,-2.08935595298,3.96590073156,4.65895409844,0.00324300495989,1.34611621389,0.136393680943,0.375164359935,-0.893411751969,9.76567613098
off_to_on,6.32581411482,5.30372941294,2.97096038661,-0.176007867353,2.02313822396,3.33955940233,7.7685707461,8.84834805968,-0.0088967579171,3.16706000088,2.79559554784,1.54276199644,2.00733513954,60.7606512565
off_to_on,6.22455704608,4.27839171621,3.5869031767,-1.42826973615,1.1357838011,5.06584411972,3.87801790269,3.76056758473,-0.0145495615744,0.951777468943,1.82060974479,-0.263877323403,0.523898591456,46.9307394022
off_to_on,-0.255290136135,-2.15391545541,-0.224663039785,-1.08157654184,-0.784601683987,-1.4957692762,-4.17478718853,-5.64294147042,-0.0148373253744,-3.5185630964,-1.41002264588,-3.78251115633,-2.75802608777,-16.1360971262
off_to_on,-5.89875535076,-5.46145610222,-3.00153293096,0.714431871315,-1.84194735914,-8.4197152209,-6.79570841025,-8.21791442929,-0.0123659233888,-4.28646233829,-2.64562132183,-3.47912383348,-1.92101964993,-84.0715118469
off_to_on,-5.8417997902,-2.9483607432,-2.30027694618,1.67914083631,-1.62041333898,-5.82803298656,-0.989802869831,-1.59347361448,-0.00555229302281,-0.144209237631,-0.976505307515,1.29650484371,2.32256275394,-102.209405021
off_to_on,-2.17631085014,0.235835125862,-0.68606640271,0.743819722893,-0.940045971402,4.04781390359,5.032705148,4.85378233699,0.00601990843841,3.33503655267,0.71549481599,4.22178924506,3.47259401817,-19.0910973077
off_to_on,1.12657710604,0.898279396733,0.00981430489731,-0.632019608485,-0.0495200593619,10.0422771345,3.30730255071,3.61980076103,0.0159868513728,2.07195356966,0.707534764881,1.28702618387,-0.4276140787,135.058103792
off_to_on,3.29598572586,1.82180883628,1.16285031816,-0.87983489711,1.30705647229,6.50652535946,-2.84459402659,-1.16788098484,0.0172143365087,-0.962115314288,0.390926173452,-2.93361377533,-3.61834629292,206.333083469
off_to_on,4.82525979533,4.41298452768,3.14608757403,-0.303301749726,2.36751377854,-1.74222714699,-4.48681887508,-1.78631965167,0.0105389044077,-1.19476876436,0.945296490824,-2.15851829664,-1.55494311765,66.7329495983
off_to_on,4.21704148691,4.40518478255,3.17840901971,0.0953492732285,1.69897679273,-7.45952838338,-0.24769449144,1.05292505115,0.00211429583794,0.54835722602,1.15336454386,2.18476983843,2.37740756436,-180.180689036
off_to_on,0.143880750622,-1.05893275477,-0.294074608602,0.236565461759,-0.55302834192,-7.89329506569,2.93125765665,0.917766546382,-0.00529935903354,0.525017708698,-0.142432162718,3.44042694397,2.53707272862,-265.383153586
off_to_on,-4.86775004215,-7.04813810965,-4.17664229477,0.379605303879,-2.22382534049,-3.87487017611,1.21765722127,-2.68077917716,-0.0123965425876,-1.10573274611,-1.66889658466,-0.226617464921,-0.539920900581,-82.8011436207
off_to_on,-6.27304076987,-6.64009011651,-4.36495596874,0.168646086134,-1.68367716556,2.37952376439,-0.96806292201,-3.20013678937,-0.0166889319163,-0.811598003395,-1.54855901285,-3.60030909383,-1.89908335041,159.416913752
off_to_on,-2.81156430842,-0.331578738972,-0.913193654463,-0.513671131638,0.185872998481,7.28906407497,0.925319314464,1.9994145954,-0.0131827176081,1.78414890488,-0.0769946392037,-2.36192470527,-0.140347297237,204.612428236
off_to_on,2.23365050586,5.11044404554,2.70499012586,-0.717022557574,1.30122723156,7.66327794989,3.97443869192,6.54899469003,-0.00243096608426,2.65371380118,0.974301709568,1.37989690977,1.23771015735,64.9990188085
off_to_on,4.89619579753,5.55830008706,3.94971217208,0.205736228656,0.8128886423,3.70606399669,2.22102121399,3.83064127336,0.00824213227217,-0.446980003409,0.882197087066,2.98750669738,0.0208505758211,-52.7779263493
off_to_on,3.87549737327,2.74376148247,2.67449020592,1.15107077059,-0.486280105684,-1.93701937171,-4.24239084169,-3.77137340383,0.0132871472773,-4.23072370648,0.308759584686,1.24247807559,-1.61887492673,-60.9325058608
off_to_on,0.463753312306,-0.473016152225,-0.27210520331,0.669465821683,-1.35974487944,-7.24557517952,-8.63470556244,-8.04870548302,0.0135966653024,-4.09868763527,-0.160212818536,-1.56199745075,-1.13031465476,-54.1131484649
off_to_on,-2.8010091959,-3.22996833329,-3.33324923583,-0.696449431943,-0.9240366618,-9.85637854983,-5.39698772354,-4.86512248927,0.0110620945796,0.234470478924,-0.386661760229,-2.94325339972,0.728555324935,-80.0349869908
off_to_on,-3.44148413438,-4.65102937388,-4.04376499828,-1.10434227625,0.907366148588,-5.59482260155,3.54141777174,2.24679221228,0.00436171395552,4.90150774332,-0.143540974049,-1.7127318915,1.74297697112,-47.2032361209
off_to_on,-1.02158529106,-3.09258850939,-1.24534823087,-0.213934352475,2.75131979215,5.69347914687,10.3666649392,6.85258597827,-0.00626035046719,5.96839390125,0.435151294622,1.74032895737,1.33063618788,75.7185993995
off_to_on,1.82707541267,0.916068316797,2.64851693796,0.472440398619,2.34683223779,14.1049997448,8.5431068748,5.5056857942,-0.0148820423343,2.29541195149,0.382546558653,4.65312275599,0.232145716454,144.125521236
off_to_on,2.02160354423,3.99246455511,3.84612302539,0.207910559745,-0.779682078007,8.4257815613,-0.684150615048,0.0154720913413,-0.0155461774445,-3.75673467088,-0.709016301131,3.35823630577,-0.975273446642,45.8223784384
off_to_on,-0.103894100538,3.81227422475,1.65958439211,0.0448303571944,-3.78672819925,-7.01312388573,-8.56653531562,-4.21217726728,-0.00931151546128,-7.25627037025,-1.37318206629,-2.0391689612,-1.6067840944,-99.246501621
off_to_on,-1.33013508258,1.49663367537,-1.13330844384,0.610861969141,-3.34791445939,-13.7763580905,-7.41958143001,-3.16635900871,-0.00147227264065,-4.46199179094,-0.0997350807167,-6.08480685304,-0.808999101639,-100.745870528
off_to_on,-0.210761958328,-0.919213995463,-2.21985143278,0.695972460872,0.104724553116,-3.15848647766,0.474166353649,1.03735120899,0.0056077376988,2.50120290068,1.85367505019,-3.97560859792,0.781364456975,19.0508168039
off_to_on,1.0324141403,-2.80645868794,-1.82018840255,-0.603763337688,2.76361763702,10.3398645551,5.10604293757,2.14021063089,0.0121066903808,6.5490765326,1.65007795813,1.8946621055,0.968841367863,73.285075516
off_to_on,0.216205494412,-3.52412458448,-0.813328948203,-1.79156446729,2.32375293937,8.44335346255,1.24098409392,-1.95759655421,0.0154338241035,3.47615636971,-0.868835491538,4.66861181519,-0.781540345874,5.65151755149
off_to_on,-1.39622459316,-1.71215208571,0.621806345922,-0.883064642689,0.499808921077,-5.04114378414,-4.65085112951,-5.45319000519,0.0114818980051,-2.58772835578,-2.44053971553,2.00439896385,-1.73026256128,-45.5762233937
off_to_on,-1.16475131343,1.86109701603,1.81000108094,1.36264336841,-0.170508993335,-10.490099194,-3.16897729985,-2.18414786564,0.00136689225723,-4.22226061644,-0.90813118307,-1.35587699372,0.382137532277,3.73326848391
off_to_on,0.929531363541,3.45867583191,1.44485920979,2.1592021689,0.0307920349199,-1.49280054193,4.98466101446,5.31889004116,-0.00827187059927,-0.143753265927,1.64261019142,-0.88892399445,3.34210868979,51.1383652161
off_to_on,2.36931078659,1.19196662359,-0.199684567736,0.553690289412,-0.622137684808,7.36576503238,9.66890044966,8.61605252045,-0.0127472017441,3.70067405639,1.96367889166,1.51845782108,2.97409015869,-0.353806429543
off_to_on,1.49108223981,-1.53941127749,-0.984914655855,-1.34808049815,-1.76221216166,4.31033251833,4.4950461429,4.25748568169,-0.0128093532457,2.39602159726,0.172164635609,1.21588254909,-0.924488171986,-69.5919401888
off_to_on,-0.851661834125,-0.71313675067,-0.0675622921871,-1.46940663617,-1.35466012577,-2.66682065217,-5.50520372968,-2.75222118506,-0.00988152172766,-2.03740697261,-1.04472326504,-1.94211946857,-4.0404793647,-36.55021644
off_to_on,-2.59412273185,2.01226266291,0.673338143611,-0.356005055883,0.654429567519,-1.08676810388,-10.6505969596,-6.50781143176,-0.00299857038108,-4.24691029274,-0.699276449426,-3.61041049344,-3.20519844922,53.1082585358
off_to_on,-2.23132131749,1.67536339092,-0.224462430861,0.278074576538,1.69658865005,5.10827248925,-7.23263694627,-6.30743147359,0.0069485804282,-2.30809318795,-0.33751138439,-1.52760826357,0.000895540400955,64.9860354725
off_to_on,0.0849559528558,-2.19932970764,-1.3706243266,0.211591393146,0.331796910713,2.81578756125,0.576717664798,-3.86930689983,0.0143718574485,1.17259053357,-0.767892765202,1.48968294377,2.1164657868,-5.35169203502
off_to_on,2.17707146245,-4.65451328656,-1.05903938289,0.458710477111,-1.39249764847,-7.65816100202,6.46626198142,0.498158926786,0.0143269629903,3.06434303837,-0.632032825681,2.05029474224,1.99880182885,-40.0361454627
off_to_on,1.63023971427,-2.50887843558,-0.101825922486,1.07835065753,-0.738477649737,-11.4871056049,7.17709538089,5.71914139641,0.00815483952354,2.62417683677,0.919775695556,0.912750045732,0.875151277538,-2.079120829
off_to_on,-0.814642711108,1.6917666229,0.234783923661,0.897682656147,1.80344052908,-1.35977960834,3.74179435628,7.79950617056,0.000564412297036,0.991878656397,2.26148136287,1.04857526126,-0.01373251435,18.3173801458
off_to_on,-1.29977144667,4.11999461775,0.983780525032,-0.480728455156,3.00898158696,11.3259917536,-0.246404136942,4.15410900051,-0.00631278984946,-0.49790681698,1.46769556755,2.41855789136,-0.263252223902,-23.7517341187
off_to_on,1.66593201791,4.1366146612,2.95719385441,-1.71178957312,0.946964974429,11.8765849741,-2.21378619272,-1.95019371569,-0.012209597558,-1.33608977094,-0.834306324347,1.59907196438,0.0531571935994,-48.7481287789
off_to_on,3.73257961688,2.50270930256,3.34554409456,-1.35701459101,-2.73565717232,0.729861620308,-3.00587791134,-5.06782533526,-0.0145042565567,-1.82469176098,-2.26611473555,-2.76209899868,0.254604542457,1.70204439906
off_to_on,0.312240371008,-0.976899425771,-0.747361137977,0.233781525242,-4.57838148333,-9.28932858543,-4.33789001554,-4.17962970766,-0.00990943785002,-2.02356987097,-1.64355346668,-6.48702982261,-0.545012305438,57.6868170935
off_to_on,-5.58299438661,-5.13070327279,-6.11395058563,1.36870243606,-2.65606653816,-9.02693369723,-4.44109004273,-2.154905745,-0.000102610542487,-1.03257054977,0.0905499183542,-4.31375806989,-1.89825313651,37.8606670431
off_to_on,-6.12472142784,-6.07222906323,-5.98062673292,1.03679041578,1.67935596604,-0.766908017772,-0.10846741674,-0.414933931756,0.00875103408612,1.47533679122,1.35444693497,2.6790406492,-2.00233022825,-17.0304564822
off_to_on,0.18836773141,-1.97765293608,0.364242952476,-0.0913602370059,4.81420325257,6.95721072626,6.15715021527,1.53183899504,0.0126313672554,3.25343091545,1.27997299612,7.03139035323,-0.264480896681,-20.7876401265
off_to_on,5.70484195695,3.12612202376,5.63736820757,-0.663537438322,3.95925569309,7.41536233944,6.57197938485,2.53739282655,0.0122200312117,1.47064972487,0.0467103520266,3.84976996345,1.51463217354,13.1580006109
off_to_on,4.42953436436,4.35441133514,4.54022927083,-0.221421450541,-0.0489645254572,0.323103235658,-0.712316096788,1.03615502234,0.00867798679104,-2.44431440022,-1.10364654238,-2.49295324345,1.88524216705,7.17290810581
off_to_on,0.247439426062,2.74122362187,0.68231017934,0.436003415501,-3.31952496495,-7.62068496349,-6.18633056799,-0.480865395688,0.00145199637329,-3.0218269877,-0.664620737038,-3.7927500994,1.93456620867,-38.0719411344
off_to_on,-0.286364578416,2.34393575915,-0.282672709555,0.333806120403,-3.01506053004,-8.09468416762,-1.37063642039,1.88956030735,-0.00797508493661,1.69239821926,1.20858055702,0.813887634403,2.59442992688,-44.9025868684
off_to_on,1.25253096468,2.30240461126,0.222473954512,-0.482239583007,-0.438852437169,-0.099110691833,7.14798418442,5.46548829761,-0.0142763618348,5.63478156502,2.10548571715,3.59687931646,1.64965671788,6.45408166615
off_to_on,-1.30584431042,-1.76368016501,-2.48286427726,-1.01064142821,1.00729005302,8.0232433376,5.3601348454,2.44204004109,-0.0133629035132,2.08843462391,0.169136134774,-0.49955334023,-2.93722456178,46.192878461
off_to_on,-6.66712450013,-8.15257291253,-6.31700076969,-0.522899681041,0.369540508827,8.22828580417,-6.97535250078,-7.47470574624,-0.00690095694127,-5.93174536457,-2.82915819438,-6.0088497088,-7.57959191433,31.4605053213
off_to_on,-6.29994202383,-8.31156402186,-4.16604611521,0.544220038242,-0.175269164965,2.02443378838,-13.498357322,-12.7633965315,0.000717255919601,-8.25708693314,-3.13660769764,-4.56215620942,-5.77177119129,3.22741395258
off_to_on,1.94776496179,0.808252126798,4.02795900349,1.12768990101,0.755449570705,-3.40077741483,-3.74663378745,-4.66508270848,0.00741699955167,-1.26884972953,-0.0221670211935,2.68769601908,2.49072392493,-0.974907023323
off_to_on,8.72426075468,9.85960126046,8.758703725,0.778494074499,1.49336248161,-5.25058530884,11.0550931138,8.94199757161,0.0125705402129,6.70604748437,2.92408686174,6.43853157456,8.62012187222,-6.33628622121
off_to_on,6.02734582053,8.42877600867,3.91691586197,0.0169577539549,0.308827556752,-5.74903857047,12.9081766264,12.6034845629,0.0136584591362,6.68702494226,2.51875779682,2.69491875261,5.93080943125,-29.5307436379
off_to_on,-1.38065838195,-0.794225581002,-4.04897021034,-0.490383659541,-1.32683056152,-4.79459472913,1.37448085259,3.88889285707,0.00821012904376,0.754507253063,0.097384969011,-1.93076173802,-1.3661871542,-26.8525591751
off_to_on,-3.72740898398,-6.12739531379,-5.25181706459,-0.650006045228,-0.844786611989,0.397093014618,-7.63347107193,-4.51275498426,-0.00152937874711,-2.53549990711,-0.919754279201,-0.969758867806,-4.15002598612,22.3357805512
off_to_on,-0.68204280384,-3.11890952258,-0.158122331812,-0.657664385217,1.06640216397,7.56304720921,-5.02341021496,-3.83420237423,-0.0096975657864,-0.988864155923,-0.117857338992,2.04864814172,-1.00491664747,45.7693154406
off_to_on,0.0118877123556,1.1420601746,2.50008750605,-0.429083328182,1.10628767713,9.02687659072,1.10709891574,-0.251555117911,-0.0127869291421,-0.225954279107,-0.0835837794435,0.0367140102823,0.995147441402,-20.4083147232
off_to_on,-3.69569806288,0.369109911864,-0.595987667751,0.209387961979,-1.44894399821,2.47132613331,0.57345238789,-2.33253096195,-0.0115269513017,-3.03064091354,-1.67979858559,-5.43788050075,-2.07431226282,-99.2463991638
off_to_on,-4.79937547251,-2.20987717336,-3.36751634973,0.905443238797,-3.06881705753,-4.34009244959,-3.80578287103,-6.38699342622,-0.00709729158735,-4.52695701145,-2.32021857962,-5.93719306738,-4.97746454399,-48.8073210264
off_to_on,0.806440836149,-0.982603519135,-0.80252607526,0.912877752773,-0.878388201656,-4.35476683173,-2.87493050355,-3.06019781568,0.000514378502452,-0.52012794042,-0.0725760247267,0.660014143295,-1.77616390491,121.541704784
off_to_on,6.95863809762,2.56308537162,3.5398988137,0.0496943038132,2.95346382179,-1.16477065431,3.6859115773,6.30824839691,0.00930927902514,5.0694290069,2.8682342152,6.46412661495,4.70560801093,211.120710353
off_to_on,6.0911136314,3.10149293063,3.79004280559,-0.840195098864,3.92010465913,-1.91027638306,7.33643018329,10.1983469271,0.0142896960734,5.61291417175,2.90865686651,5.14864957343,6.75087082315,64.6018776469
off_to_on,-0.139781924627,0.39515124047,0.437626339649,-0.764916511865,1.05071996413,-4.85287236933,3.595795334,3.5354346804,0.0122204103026,1.18410174659,0.0486176207618,0.469873341802,2.52412817198,-204.617220432
off_to_on,-4.34634203065,-1.18708190179,-1.8151175262,0.185296224199,-2.29110093196,-2.43233859825,-2.59999815667,-5.26629685669,0.00518942493743,-2.40021179633,-2.17294988739,-1.00517140944,-2.30654342997,-307.282332825
off_to_on,-3.7724188311,-0.359494148137,-1.647794518,0.868686813217,-3.03767491626,5.20431422869,-4.97012500498,-6.58827257702,-0.00251097988614,-2.26951486177,-1.50174678737,-0.176195219505,-3.17205151838,-102.757501061
off_to_on,-1.53870230581,-0.163342551894,-1.49840614673,0.441106111986,-1.49292267934,8.97342119798,-3.35218597051,-1.75301107992,-0.00877390349995,-1.19268461889,0.421430455583,-2.0992044479,-1.77649782228,221.136349102
off_to_on,0.125755167547,-1.64162426099,-1.86294471445,-0.630083593432,0.41438379997,4.36889120682,-1.10850740277,1.58612307021,-0.0127921304962,-1.64658642993,0.858830645013,-5.70036495347,-1.48654954722,334.985250087
off_to_on,1.83920636296,-1.82788235675,-0.423703984334,-1.12619163475,1.64592132694,-2.17590573693,0.48009876596,0.916677081592,-0.0124005483791,-1.91960636521,-0.350501960318,-4.49694521306,-1.85844102702,126.42739276
off_to_on,2.89559258125,0.629661379847,2.81076485105,-0.473131925425,1.87724682984,-3.77103815769,2.17323220889,-0.0708079894065,-0.00603121065695,0.214328593715,-1.13944064719,2.49884933185,-0.499397594931,-174.858383145
off_to_on,1.05031977085,2.5564295156,4.02646127076,0.698330910375,0.737706826723,-2.56238551261,3.57228670435,0.889731990199,0.00354022215008,3.31281560433,-0.280322949171,7.74817074397,2.28135369066,-260.534263364
off_to_on,-2.53164651448,1.2546129799,0.984644738849,1.31443667481,-1.2168703528,-3.54291926483,2.99078180128,1.84230561849,0.0107675974262,4.09181231925,1.23412612011,5.38502532371,3.79407705314,-91.2158141921
off_to_on,-3.19520082056,-1.2593181862,-3.2980623151,0.890733896595,-2.01927867328,-4.86950604036,-0.0348987999973,1.00384604409,0.0126951838796,1.58739857974,1.66278462888,-1.10935053297,2.76105211046,93.1869902663
off_to_on,0.416999862402,-1.67008328355,-4.29917034734,-0.195047386778,-0.498382939917,-1.4755926625,-3.70375516399,-0.66005995158,0.0102842344173,-2.25810387671,0.44661244376,-4.70571552462,0.296714452735,100.710627363
off_to_on,3.75976063758,-0.0939933221421,-1.27893261104,-1.13243235388,1.70525675618,5.05031410046,-5.19458304511,-1.74719643829,0.00495345488103,-4.71079244475,-1.32871240207,-3.76588781884,-2.12730144448,9.12749219306
off_to_on,2.91004889861,1.34179220567,2.87397459519,-1.25145299299,1.9551741841,7.74151760411,-2.65827618169,-1.91515265403,-0.00275088248775,-3.69692766921,-1.88044740719,-1.20015145447,-3.47809050291,-3.11127719032
off_to_on,-0.208085881745,2.00997110051,5.0490805906,-0.45971990598,0.0570114227079,4.40979585282,2.81066712197,-0.738332493967,-0.0105157938481,0.918584614541,-0.373833297016,1.40263554891,-2.65717173798,61.8611037602
off_to_on,-1.99940743065,1.81318605833,3.44523632833,0.636073350678,-1.71911175152,-0.219219028549,6.77199109681,1.78255394613,-0.0138743110995,5.73283457608,1.84675399534,3.64196919487,0.275583907074,52.7120724438
off_to_on,-2.74908440038,-0.706040226921,-1.94442629635,1.17489192459,-1.82125170054,-2.61233420201,4.8923604857,3.29880716837,-0.0105213937816,5.49252757444,2.13317810328,3.03306569033,2.65057843118,-61.2524057609
off_to_on,-3.91536696455,-5.23987343386,-7.68663005858,0.805108986947,-0.840210525839,-4.14571741232,-1.87740019963,1.15005165906,-0.00299778178585,-0.892894168825,-0.4381439462,-1.93564794026,1.68991812909,-126.252403758
off_to_on,-3.12862023505,-6.67066072556,-7.69785266256,-0.0567738477745,0.326029370332,-5.50073730695,-7.10271187871,-2.93646414704,0.00448007188564,-7.27225299783,-3.24342464197,-6.43072076929,-1.2207077475,-46.865945339
off_to_on,2.40943985327,-0.469201681968,0.437353337563,-0.759797449735,1.67553607617,-3.8532432241,-5.58198271004,-3.83892105582,0.00986768179467,-6.39268113454,-2.66957956646,-3.55466146642,-1.60837159093,63.3408606262
off_to_on,8.83388607571,9.01064474328,10.2984692616,-0.95717661515,2.69868419833,1.33766962497,0.736577582105,-0.199270024524,0.0124207098335,1.14840494434,1.28718101719,5.02249488425,1.6904012207,64.3431661692
off_to_on,8.17810639629,11.1933291802,11.707091152,-0.546140847011,1.77582742617,5.20332208496,5.27226260752,3.11543221776,0.0105272778653,7.25381050166,4.41977141802,9.0371792057,4.10560133148,-0.816793606352
off_to_on,-0.819881596949,2.20375255061,2.18459381562,0.423638553708,-1.38211339767,4.19583534768,4.38526571138,2.0527122973,0.00350279212416,6.04519101391,3.16617521844,2.9988148515,1.46866392928,-4.82081113443
off_to_on,-9.58226742006,-9.271581127,-9.50774007331,1.37471350769,-4.01837130694,1.56654382628,0.430398528063,-0.762533659901,-0.00551478208915,0.0709956811602,-1.08790018636,-5.95179867326,-3.75250475377,43.0811108786
off_to_on,-9.69996153576,-11.9671465101,-12.7796294712,1.23248953334,-3.09790797951,1.48631452422,-2.26550067016,-0.758830574727,-0.0114452977914,-4.33332633848,-3.86914934994,-7.73894907086,-5.47925487734,28.6020238962
off_to_on,-2.26257790554,-4.58387575565,-5.86677240746,-0.362943244937,0.690418560118,1.58997645172,-2.11064064649,1.09725422828,-0.0119900716137,-4.62714324564,-2.99926527165,-2.34197146349,-2.07362458049,-54.4038972397
off_to_on,5.24629558528,4.83234064206,4.33948454214,-2.03993236399,3.54533372379,-2.55382496972,-0.500664377819,0.493348045092,-0.00845248685312,-2.59622084588,-0.388676312577,2.44063055739,2.14872484755,-84.1418424467
off_to_on,7.79454256983,9.06793288814,10.3477597045,-1.85264279817,3.07056399951,-7.99607727206,0.632584222287,-2.28883306714,-0.00253521356796,0.0493771570394,1.35279979484,2.935559503,3.35330218221,-14.5784552847
off_to_on,5.38724038316,7.08515320482,9.29638493289,0.296908893596,0.481391755093,-6.81807555264,0.401102519495,-2.48362452613,0.00479440392666,2.88024202287,1.97493499647,2.36908177503,2.45782462574,50.0419696734
off_to_on,0.0411604715316,1.25074782463,2.45810685972,2.24041924041,-1.74869145141,1.69389082981,-0.800550762579,0.901926157634,0.0111662564812,4.46538466621,2.32476628321,2.72327665303,1.76169779887,30.4402527756
off_to_on,-5.33916254459,-5.34550674783,-6.15699803842,2.03249518191,-2.51985795852,8.28634163397,-1.6053872028,2.8222069257,0.0128135793828,2.73686830808,1.83459861338,1.28181929669,0.73149594313,-8.7872078576
off_to_on,-6.67458006562,-8.53596869712,-10.7113679299,0.151420035622,-1.81589950367,5.9056678718,-0.744924071193,0.294000318319,0.00835324915954,-1.53604125838,-0.605805611978,-2.85953693098,-2.03963864382,10.7769480485
off_to_on,-2.07542950647,-5.03344979178,-7.10430998338,-1.41113930327,0.21461721525,-0.905877111925,1.54258875832,-2.4377073366,0.000684100712934,-4.38211423016,-3.7250360563,-5.13051932374,-4.71707671615,43.1897288874
off_to_on,4.348393603,2.95648924339,2.2896392179,-1.59201794436,2.47657539306,-3.09667273882,3.45259154217,-0.573409828262,-0.00616107310963,-3.11404374122,-4.11765594868,-2.07543022221,-3.67117516788,9.5776423386
off_to_on,5.87461434361,8.15150261739,9.44974500832,-0.884977333251,2.71689272367,0.226829073371,3.19501772894,3.36837392004,-0.0103525630978,0.565000322344,-0.422601515283,2.74728845826,1.09550848064,-53.7446410465
off_to_on,1.16751917367,5.69167738643,8.26796997834,-0.00820769180174,0.0614670567839,1.83229430092,0.439815927492,3.2938277786,-0.0113845981544,3.05214163504,4.11006663885,3.68914713546,4.95479630095,-53.526635452
off_to_on,-4.12942446122,-1.48582257724,0.546746264443,0.833069111529,-2.91731905564,-2.10652842244,-3.41731665888,-1.11741454628,-0.0082539691595,2.83224721086,4.79532978217,0.860186926969,4.05860246096,3.01889826447
off_to_on,-4.5662456527,-6.42652560898,-6.47354854487,1.33063504366,-2.71336324449,-6.22554130014,-5.74618673452,-4.22561181897,-0.00101493042237,0.78679749681,0.932801598576,-1.28170319462,-0.214895327084,26.9320871663
off_to_on,-0.737457133784,-5.52753733692,-7.43827049347,0.920547160394,0.53802308551,-3.69925529384,-4.16048409731,-3.02601637985,0.0070585432858,-1.78340870631,-3.35880335335,-1.07709661599,-3.37118063776,1.14559878804
off_to_on,3.05054764616,-0.549222519274,-2.76575858058,-0.255790830899,2.9251268735,3.87572056676,0.92202805827,-0.557552081095,0.0114975447962,-3.58244920154,-3.9783231047,-0.690274388462,-2.95336775636,-2.69976095646
off_to_on,4.01975016405,4.56947407549,3.25147200631,-1.08749609507,1.75607381102,7.9665842026,5.4652209644,0.278180634653,0.0107034351412,-2.93299079303,-1.23377658672,-0.960172155643,-0.312123351763,35.7654150683
off_to_on,2.1919148656,6.42704967886,6.28129624148,-0.805471844498,-1.07009969457,3.83488860331,5.51571522649,1.22600913921,0.0063153576185,0.654084134354,1.42276481595,-0.101293128621,1.79047863572,44.3146999815
off_to_on,-1.02980045195,3.32609728289,4.52521856316,0.0339651518777,-1.89541882683,-3.47620768355,1.86877456887,4.16373537023,0.000241355876279,4.5924272366,1.96721217487,1.97701146094,1.87754823278,-11.4784327901
off_to_on,-3.45015471604,-3.05724317134,-0.413128151851,0.437937237367,-0.196717970663,-5.52115317024,-1.14267421174,5.93724630763,-0.00631975391801,4.96614396806,1.45065654092,2.38561363192,0.400330648158,-58.9166226575
off_to_on,-3.09105259328,-7.4918671496,-4.66869035258,0.283728565331,1.17607965988,-0.95927289146,-1.77484414127,2.09557901576,-0.0111478402845,0.913087449812,1.2552320216,-0.1186203472,-1.04826964009,-33.8807611308
off_to_on,-0.541900732028,-5.55131891732,-5.17738505148,0.0848142297985,0.275791557583,3.35803317165,-2.6187441515,-5.61397033235,-0.0112397959631,-3.92449710615,0.74348275455,-2.54744117568,-1.05822058376,17.2352234124
off_to_on,1.24397581626,1.27037172113,-2.13364811133,-0.0277834204764,-1.36583188213,1.8890544103,-4.83416836787,-9.68762175989,-0.00602671637813,-5.11105471757,-1.13471148313,-1.81473073799,0.241903708,19.8630276452
off_to_on,0.997378799019,6.68781960319,1.77617455139,-0.250611153753,-1.15556984412,-2.54958282272,-4.54542728564,-5.49579831993,0.00139518551386,-2.01427294284,-3.19692803143,0.851029302295,1.08614633736,-9.48579530145
off_to_on,0.84839691963,6.22420401298,4.09939668633,-0.358354831227,0.880118925759,-3.56911926472,1.23263412599,3.16197985018,0.00730650771508,1.7988297926,-2.97797590442,1.75409573685,0.0321029401882,-6.00292847313
off_to_on,2.1486787755,1.15077111821,3.96246188545,0.0582489130059,2.19683922341,-0.225637440482,7.84433681038,8.33206525736,0.0102021794566,2.50802850962,-0.191426444768,-0.382197357055,-1.93424946728,26.714730576
off_to_on,2.38133468392,-3.98558850059,1.62808089837,0.684021443222,1.18117455831,2.84730745869,7.6118945889,6.27872136035,0.009886125656,0.176125660768,2.57734205204,-3.00289417738,-2.09857423183,29.9609415206
off_to_on,-0.577622365163,-5.65166782813,-1.6871612186,0.698648032314,-0.861163011768,2.97421263153,0.574064958948,0.442138036925,0.00590856006866,-1.21600786937,3.14597076977,-2.418129683,0.73131345749,-3.10200987416
off_to_on,-3.66529216383,-3.07275843715,-3.79931418853,-0.0165588485946,-1.65612722877,1.97550722557,-5.08575796266,-3.2399925025,-0.00113072061197,1.45185894379,2.09290969268,2.53651407393,4.22538841165,-20.8296314902
off_to_on,-2.6457168886,1.69898620255,-3.13598296043,-0.699887757821,-0.914229109104,0.848641987943,-4.3792509044,-2.75473741493,-0.00801983387678,5.54050835863,0.899978774515,8.09295984729,4.48620096059,-9.0432645062
off_to_on,0.672405234744,4.57714921849,-0.704408399607,-0.843075191521,-0.223770786989,-2.27510417689,-1.49758184324,-1.24026406106,-0.0109761930251,4.42292744976,-0.623224314573,7.16664740452,0.150772155816,-9.19380426611
off_to_on,0.838310218958,2.71921229633,0.970413437578,-0.646549549344,-0.327540389832,-6.33432060788,-1.58464572981,-1.99681458607,-0.0090648785156,-3.96437079909,-3.14688848182,-3.11371241423,-5.62811776236,-29.1680906296
off_to_on,-1.85932814588,-1.67099723348,1.21529264276,-0.192806630731,-0.00218751164159,-5.22241273378,-2.14216968443,-3.50838601331,-0.00418171163759,-11.9471767957,-4.98688877751,-14.576813205,-7.54839242963,-18.660688254
off_to_on,-1.00804438253,-3.08363344603,1.76017533416,0.759729533874,1.64208306891,3.35147211691,1.76343671051,-1.35064111648,0.0016782526892,-9.36161578833,-3.14721407232,-13.6737119424,-3.02826065859,35.339660613
off_to_on,4.88896502035,0.168915793806,3.16767309925,1.70256467499,2.94053867879,10.9171623796,7.30080842475,4.73148677764,0.00724764976416,3.42116813309,2.19772223442,2.10577025091,4.77959856255,63.5277969847
off_to_on,7.67795891585,3.11019232945,2.87161482145,1.28987778089,1.39117695834,7.13421044771,6.30635190406,8.42921647316,0.0105751705135,13.7753194189,6.45003008282,17.5331432797,9.14248929148,15.2733921819
off_to_on,0.874405438868,0.948677546114,-1.14152455202,-0.695955884719,-2.52035757718,-5.63153569685,-2.20258049502,4.13115964911,0.00939646977751,10.9166275079,5.40799156255,15.6729704775,5.90747793896,-53.44287589
off_to_on,-9.11767221412,-3.58980879403,-6.00342639015,-2.25513159253,-4.89304335393,-13.515523354,-8.83959605306,-4.86208150713,0.00383046503876,-1.18618245691,0.216722481687,-1.12795246541,-2.0931335824,-54.1679549754
off_to_on,-10.0587082839,-3.76694481409,-6.18379185478,-1.44096734854,-2.71534808089,-7.78861828167,-5.79461831555,-9.02811772244,-0.00296104793207,-9.05299881532,-4.08687780668,-13.6202357764,-7.50850372232,11.0104151108
off_to_on,-0.279086209232,1.3178016033,-0.367351575615,0.810046971581,2.31808695624,5.47664754914,2.97145553182,-3.99839022704,-0.00779723239568,-6.27067457248,-4.35029577313,-9.67497420903,-5.91494084871,61.5420641971
off_to_on,8.96173649672,5.07443529062,6.1081777504,1.71552057578,5.38356027959,13.7811317208,7.23439718919,4.05182920162,-0.00988089062843,0.342987871948,-1.97128148297,1.94070663691,-0.175863240267,46.2890431664
off_to_on,8.07103743801,2.60279800396,6.87860524815,0.43212620964,3.61710616715,10.8444415209,3.15638753328,6.15937164857,-0.00921552927485,1.75090680854,0.0250725078696,5.61226200037,3.37524838798,-17.2579866165
off_to_on,-0.0162034780279,-2.64885349548,1.47521456057,-0.918775554339,-1.17326880699,-0.709404333821,-3.54932764138,1.21184474984,-0.00433629891091,-1.55449839253,0.709391835418,-0.377006737425,2.31301905442,-84.0978175654
off_to_on,-5.74459641775,-3.99014446496,-4.47840541961,-0.484048518611,-4.64382482353,-13.0519116955,-5.61507965662,-3.86140928102,0.00534587571355,-2.38830144758,1.24301578503,-4.56041021533,0.0545559829806,-101.034997925
off_to_on,-4.74574025628,-0.43684452642,-5.4220713632,0.743688109904,-3.99970247681,-16.4205980504,-1.74208358268,-3.23770031929,0.0142151809957,1.94156432667,2.33072741556,-0.155015949606,0.415783321403,-18.0410939633
off_to_on,-0.280702042204,2.81766127525,-1.29134214122,0.730834956463,-0.135081802492,-5.39816692303,3.6140678017,1.50706245413,0.0117202815681,6.34858008832,2.9485937155,6.60392946593,2.37765329786,135.064838389
off_to_on,2.82920452422,1.76434359053,3.07463862875,-0.471146111097,3.43648329848,12.359478317,5.23748101512,4.47196263829,-0.00442754799665,5.42901198656,1.60325670412,6.82161253269,1.96383350745,205.570745488
off_to_on,2.75152826876,-1.734850012,3.31445100352,-1.04144842904,3.69223637781,19.1707722436,1.68797531748,2.44857849695,-0.0170273013801,-0.004313526356,-1.63245095075,0.543766592956,-1.71428179364,65.6768957731
off_to_on,0.488770844907,-2.96510640468,-0.0166657647873,-0.272526247491,0.800528197911,6.74756346688,-3.40420115357,-2.24699404916,-0.00418784525569,-4.9840051481,-4.4881340302,-5.30749908236,-4.72932565453,-181.433050358
off_to_on,-1.64480726378,-0.101443871541,-2.55479816176,0.589156125818,-2.15035382425,-11.1094783606,-4.65899931146,-4.82584120517,0.02571700601,-6.08949127737,-4.19371944699,-6.14804124594,-3.3154837875,-266.264973196
off_to_on,-1.69544492508,3.83260614168,-1.47283357158,0.477895682119,-2.49435609071,-14.0594142383,-0.863681331315,-2.90350854393,0.0298669183919,-3.5376134945,-0.400340419296,-3.11379862672,1.16100219094,-82.0276841686
off_to_on,-0.0404718442047,4.12550143775,1.30183620063,-0.0522735900154,-0.749458542188,-1.34621208363,3.21907620557,1.40403009276,-0.0134791078191,0.376752141752,3.73061004384,0.353609649405,3.79306355148,162.144970118
off_to_on,0.915800099726,-0.494941286735,2.01024767182,-0.100014893965,0.642619418953,8.23693251919,2.65648213303,3.87740207829,-0.057078803628,3.1425985188,4.3690854178,2.01836750178,2.12078235447,207.26814172
off_to_on,0.147571541755,-5.68796999611,0.134263537119,0.097313139432,0.738806075413,3.21916588205,-1.22570066963,2.63306080981,-0.037041525869,3.46443562562,1.25482642152,1.95277287973,-1.12144122355,64.9461966205
off_to_on,-0.430076353665,-5.51657577097,-1.36746659224,-0.121424153469,0.710373282092,-5.8345332135,-2.91241364714,-0.249040068279,0.024035512538,2.21666941522,-1.95822039122,2.04702449292,-1.69357996336,-55.6541741043
off_to_on,0.624630427052,0.536883715831,-0.667883408595,-0.457977513056,1.09182380494,-4.2029024815,-0.468222749872,-1.74962821209,0.0336138684,1.24371191134,-2.17393153473,3.41529306453,0.852566749388,-63.9116977279
off_to_on,1.37790457741,6.07593736819,0.510922278035,-0.117170254769,0.56106147528,5.10334765093,2.31786041468,-1.44969487566,-0.0166893767245,0.629660289213,-0.412900909453,3.63706108543,2.73648511895,-54.77730455
off_to_on,-0.301930016949,5.07670455623,0.0561123291819,0.685727025421,-1.40437018253,7.86663469242,2.01109212903,-0.878166285673,-0.0027598131065,-1.24835346921,0.320497698279,-0.706786322461,0.781418082425,-78.7238965612
off_to_on,-2.39302440073,-0.664378256564,-1.08616571546,0.803045540154,-2.52954403135,0.862532089615,0.0496729063009,-0.407615542503,0.126645042892,-4.01403124972,-0.449199104668,-7.33246989929,-3.32354023284,-45.7854192779
off_to_on,-1.20521472924,-4.04800066036,-0.541246895284,-0.152500042647,-0.574184764354,-5.05305335208,-0.598456749678,0.904977599754,0.176677920373,-4.10188403501,-0.49094150269,-8.17197445367,-4.6104026467,76.4837156108
off_to_on,2.43246715606,-1.97151462994,1.60921605861,-1.10760292916,2.73554062285,-3.00313579566,-0.191862212531,2.45088180663,-0.0662914371884,0.18746274166,1.00863413918,0.078132858781,-0.822819484284,144.829407432
off_to_on,3.46954498895,1.34535552995,2.69313877854,-0.916751901845,3.17070027921,0.780989661889,-0.844063342454,1.740226865,-0.425725127954,4.43350404245,1.75822028987,8.74914014637,4.22490122045,46.5595107612
off_to_on,-0.2378662324,1.02298593994,0.930673060807,0.173032917324,-0.358963624515,-0.817440120738,-2.33681461404,-1.74981056172,-0.406954708369,2.93868289216,-0.00923364109342,6.77817645024,4.63158588714,-99.4347622381
off_to_on,-4.61398625826,-1.92774615541,-2.47240046992,0.953509279693,-3.8933501332,-4.15590328569,-2.32728355885,-4.44705020623,0.154221338862,-2.63689053411,-2.25990887572,-3.70920918535,-0.298516666993,-102.256944837
off_to_on,-4.60463032574,-2.89163559962,-4.54703121598,0.775443818595,-3.22912968301,-1.76677008195,0.0222166996123,-2.5738906709,0.713222574962,-4.23809915967,-1.68580724111,-8.76705397085,-4.56628169304,17.3799126793
off_to_on,-0.0286690444352,-0.146288532939,-2.89117715272,0.0942136825052,0.951532549237,5.12237022832,3.01838327182,2.67910293452,0.583755934272,1.43899288768,1.40430094828,-1.26949623275,-2.6276014916,72.827376997
off_to_on,5.1864600628,3.6121590632,2.3251250036,-0.351130909701,4.16107579604,8.17666009028,4.58283168388,5.93430454906,-0.17338361801,7.27852078268,3.14437317461,8.98268726194,3.28161976644,6.34759289724
off_to_on,7.10000503629,5.00070074812,7.18347442206,-0.370059367116,3.35380910922,3.50624259658,3.56055106917,3.63132723048,-0.755195463422,4.85887948807,1.25571789308,8.48434258448,5.4865016999,-44.7494736776
off_to_on,3.79234704837,2.79777164303,6.14913573896,-0.234442184422,-0.319511406874,-4.20215101426,-0.254183756454,-2.14173124892,-0.582680790258,-3.86860970329,-1.98458410021,-2.05386938828,0.604017740741,4.27525704327
off_to_on,-3.65317683239,-1.99177133695,-1.80544888121,-0.145346749742,-3.45602159876,-8.12938734963,-5.12048298103,-6.01766291836,0.0450724458858,-8.9672858689,-2.91233059056,-9.83485318668,-5.85634717329,51.7478045574
off_to_on,-9.99420709805,-6.3939900022,-9.66499086119,-0.0546872059739,-3.68069455204,-5.57222189932,-7.07160253864,-4.61506120923,0.439567215593,-5.44132634286,-1.04942966615,-7.35250661557,-6.27951508945,0.27275302769
off_to_on,-8.63515345432,-6.44952420045,-8.56351281362,0.0942686951946,-1.10468753733,1.31896617572,-3.43871142038,0.594288182016,0.383068254629,1.51194744687,1.00379410385,0.0165354451418,-0.304540413058,-69.663175233
off_to_on,0.920265199255,-0.921794776212,1.42461076095,0.180986278302,2.16574891038,7.09455752836,3.15806747752,4.8212283896,0.186362281706,4.85705961321,1.36307179101,4.08259844545,5.28035428277,-37.5545136251
off_to_on,10.2077549628,5.74496792845,9.98693965681,0.0653747000814,3.5947945138,6.18176952668,6.79294075219,4.33349052812,0.0681132970737,4.1486184448,0.729482900865,4.159435699,5.18631947934,51.9887091581
off_to_on,10.1528248585,7.05111283328,8.21519062561,-0.11719430928,2.15301630438,-1.33559930271,4.74424886624,0.0284714565979,-0.0895155302407,2.92167014148,0.476504214267,3.99218032211,1.11102348891,64.60408743
off_to_on,1.52036131383,2.01990470859,-1.09064927286,0.00234170207372,-0.769635641897,-7.55342367119,0.0102584271376,-3.41197231338,-0.336486678176,1.86275246723,0.544099610516,3.77657470198,-1.93823424392,-5.10450672994
off_to_on,-6.40964558345,-3.33651690084,-7.56470300962,0.500781730173,-2.65906500262,-4.75362099605,-2.99102684253,-2.53936171423,-0.416293072901,-0.885681480382,0.057483475574,0.654339825767,-1.97962540005,-39.7207280646
off_to_on,-7.03219138818,-3.53337098947,-5.6713016145,0.774005542875,-2.22449667686,4.24586243788,-2.95834338023,1.06326389661,-0.144526189046,-4.51371002013,-0.942915550094,-4.83276957682,-0.895888493855,-1.73202383094
off_to_on,-2.47331946108,-0.186293387178,0.603852730709,0.0919727723323,-0.276620715171,8.47914276911,-1.36468291042,2.88633517196,0.240758251785,-5.37904960596,-1.46042964116,-7.72650701902,-0.685733289108,18.9794481047
off_to_on,1.55911262179,1.19358221035,4.42807309826,-1.25320105482,1.44595712659,2.7882571619,-0.00145442006657,0.922705577729,0.368732071199,-2.2325108122,-0.927219948818,-4.60568636259,-1.19671261572,-23.0403025246
off_to_on,2.61048395818,-0.910112036952,3.4415409934,-1.80066778961,1.76328117297,-5.53444919504,0.0409394112805,-2.37477764012,0.217424868301,1.92854453527,0.188410347315,2.18991814166,-1.18088852436,-48.6838853901
off_to_on,1.61997259503,-2.63613620484,-0.104101828903,-0.519697784496,0.617358548329,-6.88275370163,-0.999130247911,-3.44278164308,0.0483781587554,3.90806971627,1.08149712084,6.9250807588,0.0774478667716,0.989990791971
off_to_on,-0.0200632250588,-0.9109385889,-2.98506306033,1.59227879228,-0.986798664057,-1.67865107482,-0.966897920137,-1.36694703999,-0.0284543099876,3.36981180909,1.27113423676,5.68959774081,2.13795194943,56.8687403805
off_to_on,-0.940287005816,2.33041368556,-3.11497297741,2.29075765594,-1.53554696618,2.16534871714,1.92162233975,1.9889045496,-0.130335017452,1.28027939875,0.627316351547,-0.415839511042,3.36899390956,37.5003051834
off_to_on,0.160052557716,3.34961794503,-0.344379859586,0.737926992005,-0.338302460399,1.3878491898,5.25467626488,4.09039260967,-0.270497600832,-1.55860714461,-0.525120275778,-5.79978227594,2.05571775063,-17.0545056052
off_to_on,2.36966720492,1.68369356629,3.01791365821,-1.32207837942,1.43464014966,0.733608110375,3.95342057333,3.35308740189,-0.260010697397,-3.22445430909,-1.20956664299,-4.81483449316,-1.23503476867,-20.7450604484
off_to_on,2.36479238289,-0.120974817473,3.77751870937,-1.65210762835,1.76634951291,3.72289120907,-2.41176675178,0.0605794575472,-0.0268887628055,-1.27527628347,-0.521514368392,2.18596883228,-3.21875153224,13.4044071708
off_to_on,-1.19218080592,-0.725986997421,1.19954201911,-0.276552015686,0.148175240479,5.90804031634,-7.12887305451,-3.38808859331,0.213196112854,3.01614385349,0.998674940115,7.69868969381,-1.6914084171,7.77967379959
off_to_on,-4.73701076234,-1.40997143938,-2.18872871082,0.77774933247,-1.75707795759,1.24321120324,-4.52725748529,-4.17277010909,0.245648805249,3.99540192443,1.45516382804,4.66613924008,0.930083440978,-37.4646355229
off_to_on,-3.94035818658,-2.91549586201,-3.65849729966,0.332242576174,-2.10530877088,-7.6026406762,2.01337989619,-1.89978869787,0.133423015235,-1.28514641492,-0.136453042872,-4.58860764842,0.54080009718,-44.808133079
off_to_on,0.506330736072,-3.18638509293,-2.71612394069,-0.527619811684,-0.780094880382,-10.5249557911,4.60086509677,1.01065979052,0.0511307013223,-7.34635615403,-2.16709317403,-10.0693985917,-2.28622643275,6.06552499063
off_to_on,3.92543111081,-0.193224485783,-0.230114807515,-0.333129296786,1.02479292282,-2.74061990412,1.58391812909,2.28939114097,0.000512850293906,-6.11550304549,-2.11693553097,-5.87936619901,-2.42239363031,45.7662399663
off_to_on,3.54909724287,3.97866845078,2.61726271013,0.556802943503,2.18926384093,7.59577265859,-1.42879271289,2.00875593633,-0.11401803354,2.1267072151,0.187532646488,2.85533788533,2.03456854261,31.1733900239
do_nothing,0.777230064781,4.62626697621,3.78388159072,0.708335791531,2.02481109342,8.5331601564,-0.698092052848,1.25800695729,-0.233407809873,8.47245426399,2.25077717787,7.18975433453,5.88708239161,2.93405768721
do_nothing,-1.65376698133,0.754350822702,1.58693361399,-0.0191895842852,0.300899026515,-0.0436166121583,1.25227939619,0.323737516242,-0.194470527729,6.92422077862,2.16059030848,5.51276337239,3.83535028132,-1.17627610997
do_nothing,-2.09419072595,-2.74765476124,-2.02746895945,-0.314975230642,-1.98879124766,-5.48562737775,1.32484438199,-0.632988434439,-0.00385470718836,1.25922978764,0.804054180471,3.19373583394,-1.67558665231,-6.07175343739
do_nothing,-0.287429311182,-1.55664420559,-2.49160874962,0.284036775418,-2.69880621913,0.30322485547,0.320325594102,-0.811437919354,0.145738092187,-2.15620010683,-0.0612628639614,2.5434836502,-4.10822431594,-28.8658848612
do_nothing,1.9891149741,1.54385767183,0.805052859373,0.451259782818,-0.820363446331,8.14339646971,-0.513717858213,-0.3478916343,0.151081351394,-3.50492532961,-0.598085190591,-0.674894440045,-2.49195129868,-26.5121442783
do_nothing,1.40758628249,0.547323369577,2.35770975764,-0.729147764555,1.69706478353,3.50175932231,-2.20733334932,-0.936099133503,0.106322154295,-6.32571730547,-1.94715898409,-8.38507446037,-1.67438020947,21.8828761309
do_nothing,-2.62589671846,-4.0168188008,-1.37152336674,-1.82574918457,1.96481108149,-11.1034283805,-4.14827362566,-2.72528370598,0.0928703295409,-8.37415465272,-3.2037392601,-13.2379403805,-2.96648940864,45.1596850682
do_nothing,-5.16002194947,-4.64787988602,-5.1525166947,-0.828674050204,-0.0711919005099,-16.2350936913,-2.40905801868,-2.5051584275,0.0431404876963,-3.21624087995,-1.87262335906,-6.57812849724,-1.31329416729,-20.0301348303
do_nothing,-1.40849255213,1.7379670593,-2.04025788855,1.63904029569,-1.52385570234,-1.87592740041,3.58155458993,1.76330537109,-0.0941856419282,8.22015330774,2.03229010618,8.10556948035,5.23385947613,-97.7802592662
do_nothing,5.21867854473,7.44530975867,4.9645111266,2.64045409444,-0.541077555332,16.3184647131,7.16185437472,6.0831052849,-0.205592704367,14.7804614918,4.69017022561,16.3757142909,9.37939832964,-47.8194386447
do_nothing,6.29841883695,4.17558930027,6.00152003177,0.784956101359,1.32586684918,16.4536616941,3.03206379669,4.57381099613,-0.161613778831,8.19744754418,3.03107987741,9.77204203019,3.92496472147,120.193686973
do_nothing,0.501579177463,-4.11187773655,-0.585696208028,-1.78277253691,1.57738532815,-0.160011514296,-3.7578859888,-1.7016708914,-0.0149990504895,-5.24794724916,-0.955621346373,-3.51840008031,-6.32308015595,207.60959191
do_nothing,-3.88493331992,-5.87938510682,-4.86945409292,-2.16870942755,0.0811922355859,-11.703542663,-4.416276685,-5.18708634986,0.0833176127071,-11.8002786954,-2.76081534247,-9.23038345416,-9.38792042332,61.926559136
do_nothing,-1.49899430542,1.20265046708,-0.523904638183,-0.339874079209,-1.36932184528,-6.63745024726,0.276111773023,-2.44591812697,0.0970968742381,-6.99679839987,-1.38651654366,-4.77393835845,-2.27516603092,-203.011245966
do_nothing,1.75443706599,6.38612052571,4.80766466316,1.31397537015,-1.69933186086,2.49585613952,1.60292241676,1.04415304119,0.0990759422203,0.629272730626,-0.0968293356189,-0.13360391492,5.04966804603,-301.475007921
do_nothing,-1.28617674521,1.46625906412,1.26463040792,1.25521068495,-1.18500356069,0.804828767585,-2.49662972806,-0.129741853255,0.101958289961,2.59225891644,-1.00156461437,-1.96528549877,3.77464198297,-97.5017184117
do_nothing,-6.33440211844,-7.13859362473,-7.1663336356,0.122107442348,-0.123461118529,-6.47615215912,-3.95853458778,-2.6542078066,0.0444726761022,0.718376940858,-1.89063390873,-4.58407583548,-2.29258627053,220.568300927
do_nothing,-3.71062340693,-7.68699083315,-7.88353834314,-0.878314786227,1.38813379442,-4.23340709484,1.56604310144,-0.286333378894,-0.06304195329,1.33638602938,-0.0502299938819,-0.288173240279,-3.72218893984,328.468639611
do_nothing,5.55302702328,0.560532978779,1.48023661928,-1.23324926572,2.46936806975,7.61573027733,6.6070689248,5.16110318247,-0.121278075181,4.44125540744,3.09577498055,7.64760136089,0.981376431555,119.477029724
do_nothing,9.76526229533,7.66949640793,9.59584557716,-0.653069850432,1.88207815763,13.392720587,3.537632126,5.80737085768,-0.0932330792831,4.47055572401,3.77076901161,9.28435458337,4.94296009893,-176.689280567
do_nothing,3.66779078254,7.24849034268,7.80086409941,0.941593282619,-0.20618706875,4.76575610833,-3.02270829358,-0.0704212536251,-0.0506080389247,-0.0522353678238,1.19622290541,2.65922424832,3.73722639022,-256.641554754
do_nothing,-4.20785252104,2.51262275178,0.555994947561,2.32553757106,-2.07875627492,-7.89310964907,-3.63134071346,-5.09914547238,-0.0345264896381,-3.90456824961,-1.61544671749,-3.80570463307,0.117259700192,-84.9874513816
do_nothing,-5.06416203786,-1.72905682588,-3.92401741805,1.51917970573,-2.43831567346,-10.7428053357,1.01280399004,-3.78597567257,0.010756397427,-3.25141944595,-2.32961568832,-4.20274236159,-2.25197573602,98.2533365035
do_nothing,-1.98006729699,-5.18088200628,-5.06915506691,-1.37009743268,-1.51079415344,-3.74294020326,2.03072076938,0.0718686014124,0.107712499431,-1.16023802075,-1.8701659629,-2.76098959,-3.77164989026,102.308216854
do_nothing,-2.03161818409,-7.6320180963,-5.98614897012,-3.24594958844,-0.023821097419,2.92567193843,-2.68410630633,0.50998751671,0.160631741687,-1.93031283954,-1.74909779552,-4.77037417046,-5.2784403445,5.69802409014
do_nothing,-3.37761354637,-5.47589214383,-4.7818604775,-1.65830522557,1.60128869791,3.41282359012,-5.32964223997,-1.3890318217,0.0885279667136,-3.55471009187,-1.25472378005,-6.37464516415,-4.17473465874,-10.6386302624
do_nothing,0.486940858084,2.27468907065,1.74202096272,1.60520111583,2.58765828131,0.658388353179,-1.0879093524,-0.572008078426,-0.0398292606596,-0.598047949722,0.878628048292,-0.532608306405,1.66220284359,55.4217216806
do_nothing,7.34825312739,9.0841306342,9.10289822596,2.62348334522,1.81688365211,-0.473231263382,4.70679658009,3.07501901257,-0.101395981037,6.47569423614,3.48219598829,9.85312755205,8.41297645503,53.0869966282
do_nothing,7.69292033108,7.86071773497,8.76706447167,0.616792162541,-0.459172508305,1.31499987594,5.56792145747,4.73164333523,-0.0876425550353,9.87563090728,3.85878607398,13.0946523624,9.15841236105,-54.4442572787
do_nothing,-0.288927882997,0.517858228135,0.595228302018,-1.25376561568,-2.08022301395,4.06844142711,2.68350317862,2.28461695313,-0.0735178766998,4.16512916203,1.32836962539,4.14577193446,2.25794971711,-119.592889386
do_nothing,-6.80560313202,-4.76082993698,-6.08333951767,-0.66773312166,-1.46963644713,4.36783154648,0.216384421025,-1.36578878588,-0.0651751569398,-5.9208078333,-1.90353230395,-7.86708808962,-6.14077443717,-45.3325695497
do_nothing,-4.66028527566,-4.41149824674,-5.30444486139,0.770567544087,0.150470600689,-0.296853090709,-2.04485237119,-3.53285663206,-0.00217170986671,-10.408238596,-3.47317198068,-10.96812747,-8.81310701645,61.3088956041
do_nothing,0.821962254187,-2.20719474015,-1.46574352932,0.515724601525,0.473534882757,-7.72409272265,-5.48383994277,-4.40771248495,0.100794339575,-5.60373797097,-2.99142043943,-4.49789768631,-4.76252877486,62.3207093335
do_nothing,1.26447898461,-1.50695347797,-0.67344031584,-0.948321472541,-0.560741462026,-10.7816341927,-6.73917498896,-3.85229124252,0.139463789036,2.3205047483,-1.28633434386,2.43792241233,1.07656436085,-2.99539315783
do_nothing,-1.85660900664,-0.700564690516,-1.46905919588,-1.24345698198,-0.854219136892,-4.5205491076,-1.95418261452,-0.351216587306,0.0723285921887,5.40446991747,0.9171952944,3.58926273039,3.89749159398,-8.69303845845
do_nothing,-1.0658523569,1.98599344047,0.860612069895,0.0227876820674,0.559799323038,6.92404297082,5.40626825874,4.8933913806,-0.01693406463,2.78869920445,2.80012582176,1.30730082103,3.27553770981,39.9337080449
do_nothing,4.0518475992,4.18208284402,5.13863763511,0.941968765374,2.08642650406,13.526522391,7.76439057247,6.92591192409,-0.0495076227417,-0.124420607194,3.13353580587,0.470803410158,1.83597201524,30.3890687486
do_nothing,5.9260162571,3.03731790052,5.64243612274,0.531961026595,1.87855061685,9.45201910038,3.73903006337,3.08694970822,-0.0517354035168,0.376499220234,1.38865795472,1.77635302921,1.27391331541,-48.5213257197
do_nothing,0.924051836116,-0.0695670267686,0.955994027335,-0.0442182095735,0.1233406571,-1.83270224863,-0.868199500576,-2.69814046109,-0.0711854198559,2.0876205464,-1.20224241218,2.58211409037,0.769777190361,-79.8687027752
do_nothing,-5.08626969258,-1.80012959062,-4.0323479544,0.172890842865,-1.66432149885,-11.3779010033,-2.34033547735,-4.76119972076,-0.0765167354353,1.01129529504,-2.60002511619,1.16977810932,-0.867928615616,-14.9022725589
do_nothing,-5.35922833068,-1.73230837358,-5.03903942675,0.416659404071,-2.42736706336,-11.7453272124,-2.9770442651,-2.75103285841,-0.019386889241,-2.69829232059,-1.95189864591,-1.83029368192,-2.81882756244,47.8687196739
do_nothing,-1.04130490559,-1.80909909706,-2.89692528532,-0.133346447861,-1.85395867747,-2.44104458606,-4.50367426059,-0.640003677173,0.0616093700618,-4.93103395073,-0.186715759461,-4.46839238697,-3.15023659628,29.2130445949
do_nothing,2.13629625586,-2.2723123242,-0.400688400579,-0.799580897736,-0.0151844288762,8.39077682285,-3.88946946983,-0.24385407894,0.0860315696101,-2.99471113808,1.16571741401,-4.4873387642,-1.56088601076,-10.3494974003
do_nothing,2.19761038271,-1.29853339155,1.59552521707,-0.654152108305,2.17352283628,9.95466050405,0.894960738694,0.427287701308,0.0499227423925,1.29790837526,1.28399112674,-0.865043229126,0.345570838438,7.56117878509
do_nothing,1.68663743085,1.61446857755,3.2873542148,-0.0685868733913,2.92965231478,0.775011042743,5.75420941047,2.52145754485,0.0177911687438,4.18930462958,0.407436438813,4.18403583948,1.57187507303,41.0927190422
do_nothing,1.9058488673,4.31490757803,3.79154456667,0.185990037782,1.31825123891,-7.54197718963,5.47413129704,3.71076297089,0.0128703373491,3.88076422171,-0.553654141533,6.06758620721,2.62893684024,11.7245949112
do_nothing,0.892498972519,4.24597734825,2.01027674809,0.337222244597,-1.31240274125,-4.17338866997,0.953610439024,1.61223039405,-0.0047963248639,1.15420958539,-0.74992204839,2.47253152148,3.29531450975,-49.2166019417
do_nothing,-2.33031337604,0.796274460913,-1.43839897647,0.780015145379,-2.60365370989,5.47498045777,-2.5979052884,-2.33052837279,-0.0513965552966,-2.1697572908,-0.10200016157,-3.3896522737,1.76892667623,-51.0825646166
do_nothing,-4.80133399096,-4.03488197723,-4.35087344883,0.7792344504,-1.69076360042,6.56993800533,-2.71093015358,-4.15098638063,-0.0845639076449,-3.94432481798,0.681218140089,-5.72715394232,-2.126065979,2.52025426925
do_nothing,-2.96842830643,-6.3240923255,-4.52888234989,-0.361285664236,0.308912886882,-3.10229479608,-1.19695816692,-1.92869614658,-0.0686941776418,-2.35205697022,0.903104344915,-2.31995488899,-4.83491377805,26.1361699577
do_nothing,2.2483547437,-3.14050596429,-1.30327505038,-1.47061185257,1.83811738406,-8.92401043795,-0.150405557612,1.9419096092,-0.0152413366352,1.85244333876,0.48510789309,3.23605450656,-3.0256433078,0.849325613897
do_nothing,5.74234233587,3.37667735585,3.33510508902,-0.789151698875,1.96345929037,-1.60044432546,-0.0367098448705,3.19723676663,0.0519569016292,4.47114757429,-0.311039857796,5.39778560747,1.36795733115,-4.46714321708
do_nothing,3.89850394298,6.62871501126,5.42955250998,1.0682431837,0.439014392692,7.77868531226,-0.780065043365,0.466389559061,0.110627695446,2.00627209845,-1.21473468852,2.15932485038,3.28759071745,32.4579673657
do_nothing,-1.19092515626,3.00288441738,2.78843124296,1.50875422016,-1.87653637832,4.51174611306,-1.45100979343,-2.73421364952,0.111646562133,-3.16241862737,-1.6352807268,-3.18994138422,1.44549783344,42.7281269089
do_nothing,-4.24764441344,-2.88268352743,-1.93355121342,-0.234102339846,-2.84006383145,-6.40413616201,0.117003840232,-2.00061782965,0.0151021901963,-4.75663205447,-0.762054764163,-5.39105526025,-0.524302624244,-9.45992746325
do_nothing,-3.06833090006,-3.99973365895,-3.98727591795,-1.7315842933,-0.897601849432,-7.57041963456,3.97502567938,1.84741581676,-0.115512011704,-0.833150929558,1.1591700387,-2.53458109396,-0.296387348772,-55.6745326318
do_nothing,-0.530841432436,-0.598414788255,-2.40395661549,-0.863547126275,2.49215204072,3.73206711195,5.55318071184,3.16081676545,-0.13812185787,3.21037740396,2.25785859584,1.96528487717,-0.0586116831671,-32.385210384
do_nothing,0.215077247954,0.985447613045,-0.408413707458,1.08486151782,3.78866304924,11.2472193913,0.913274364873,-0.456762903061,-0.0116693302644,2.28627001209,1.0786178878,3.46764285568,-1.50859701409,17.3051834758
do_nothing,0.281097606414,-1.07356624193,0.285779951157,1.47133130132,1.43384576899,4.55151432323,-6.04643515382,-3.62310441413,0.116963028131,-0.85759072911,-1.03535852951,1.80833356673,-1.81306556017,20.1389850018
do_nothing,2.29601548275,-1.30824747176,1.65520896591,0.151263937408,-2.22076480448,-6.43510068667,-6.94485836376,-0.659976534377,0.0879303024576,-0.145861701887,-1.2719281209,0.832830207319,1.51831651906,-9.5857730908
do_nothing,4.64712038812,2.91399604316,4.10590758562,-0.771340104412,-3.78962626005,-8.3037064479,-0.383881024348,4.76191161419,-0.0557790435937,3.57835736106,0.608845008,1.85184335203,4.72311201519,-7.95434187383
do_nothing,2.70690147058,5.34782816864,3.53201161106,-0.400060935791,-2.42987878396,-3.08978096007,5.39775897228,3.70754154881,-0.125029861533,2.96339170091,1.47900421535,1.0019225838,2.14083605214,23.9763536824
do_nothing,-3.44734864037,0.44842683333,-2.22118872271,0.00797373222878,0.321836989999,-0.286330246003,3.75762706534,-4.20454429308,-0.0382745466936,-4.0835457491,-0.704067134674,-4.09663844518,-4.49101574152,29.0959250408
do_nothing,-6.99240824023,-6.25639159956,-7.3433250367,-0.352120366382,2.79853925202,0.363176894348,-1.59590484442,-8.38597794084,0.0866803989362,-9.24363125865,-3.36602273308,-8.14337692476,-6.88893374326,-1.74564823331
do_nothing,-3.09095391218,-5.20759951717,-4.50335227083,-0.468537111074,3.76311568931,4.87949110049,-3.02725958063,-2.05298981323,0.109448562586,-4.6426917586,-2.43220502098,-3.98559095293,-1.5126044887,-19.3943636043
do_nothing,3.63573252342,2.37583760412,3.88931494399,0.413769910106,2.06393376559,9.58964889899,0.133387504689,7.15529374561,0.0363938187137,5.45112437305,1.82969309005,6.01249686504,5.22751944548,-8.46268987397
do_nothing,4.87258699946,5.70169235116,7.46622710422,1.140996726,-1.88578244221,4.78000550049,2.48186478,7.56637525196,-0.0336957482073,9.7486838318,4.7005330632,10.6840780545,5.77969451819,-8.16737082106
do_nothing,0.0938832703103,0.69972773388,1.96685346115,0.424555854516,-4.75278680139,-6.9757018833,1.58276016037,-0.0815385538809,-0.0536560280788,4.74950014793,3.04073152963,4.31110291117,1.13889335831,-27.4788368152
do_nothing,-3.1204088107,-4.11856714875,-4.85361803081,-0.923605381005,-3.09596359409,-10.9965833036,-0.0134435396052,-4.78587771664,-0.0465801204473,-2.15841147208,-0.980441898629,-5.36445242872,-2.26263588331,-18.6087041092
do_nothing,-0.389154371479,-1.45526635883,-4.42526796712,-1.07555679924,1.88071422441,-2.44094947007,-0.83985892963,-2.00287321269,-0.029348058893,-4.35972239806,-3.2537897723,-7.51608395806,-2.11719354591,32.6040370692
do_nothing,3.53591285455,3.60776765933,1.15367208848,0.127230868635,4.74665717719,5.45812116777,-2.3502468144,1.1268699013,0.00225344491191,-3.595770262,-2.70927738932,-2.13726533153,-1.46128799469,60.8393710824
do_nothing,2.54924224141,2.67139232771,3.80562837161,1.07657444848,2.29100527012,1.97312297957,-3.91586004064,-1.12415089657,0.0276847349598,-3.34576773214,-1.12275762387,2.30747395042,-1.76695377834,15.9425150579
do_nothing,-1.91108086324,-2.22925104756,1.4918853267,0.749383191064,-2.34620334383,-4.35135604416,-1.87635833862,-3.81025464295,0.0131475304749,-1.66742498679,0.383800925872,2.06507028305,-0.687792351342,-50.7850695508
do_nothing,-3.97300475212,-2.77848599109,-0.975018777259,-0.22582546063,-3.73369337818,-0.333029236305,3.89840695599,-0.450335173826,-0.0233223833678,3.49101727586,1.97685865873,1.16701079455,2.32818264075,-54.047799815
do_nothing,-2.20083906632,1.18860371391,-1.16108756278,-0.873094390976,-0.902312369193,9.35544496812,7.25864409228,5.31725981423,-0.0161147097623,6.83722624185,2.83690218942,1.75544650375,3.38923648897,7.71215273349
do_nothing,-0.197285361922,1.59966061564,-1.74469781923,-0.942564104326,2.19725947923,8.64901078643,3.32903683092,4.94205048655,0.0550873301424,1.97631303048,1.28750792129,0.110586734296,0.0652098638773,59.6469003139
do_nothing,0.334186742192,-3.35588378909,-3.35568286704,-0.448007839603,2.28484508938,-4.35365976903,-4.20490315023,-1.46840722139,0.116444571081,-6.49308110139,-1.97596936071,-4.48588441919,-3.66712987855,49.8322306622
do_nothing,1.60387681094,-4.85803467742,-1.73831850497,0.611547730402,0.278411332526,-13.2558255768,-7.23420479447,-4.99035356567,0.0770201734585,-6.41829692138,-3.32211450893,-4.95646281497,-2.34032535227,-11.2337463124
do_nothing,4.13593689228,2.33643941299,4.49505467166,1.55913396493,-1.09100312472,-7.00852520309,-3.03538340723,-1.19426495525,-0.0594850489465,4.17721339938,-0.6851659201,2.87501165171,2.91361019929,-82.3611852259
do_nothing,4.2432907783,9.71860587595,8.65657488101,1.21134494147,-0.96074917372,5.13952437262,3.37840451377,3.73425073867,-0.183852002115,11.4697148889,2.97648188743,10.393906754,5.30185116105,-105.60670671
do_nothing,-0.280681645682,6.27116909927,3.91333813016,-0.464579902828,-0.405114825778,8.39227539523,5.72922651829,2.56282768069,-0.182821388625,3.84756177197,3.015764755,6.00070763693,1.33615895124,-23.9368338294
do_nothing,-5.48728626287,-5.12545423373,-6.1981769324,-1.76416437908,-0.196746756727,2.30798014334,2.42663661065,-2.92248687523,-0.0458902370699,-10.7654807633,-0.77966955946,-7.25360025741,-4.67357850561,133.111214017
do_nothing,-5.7633825593,-10.9338040067,-10.7783711466,-1.25657133058,-0.034685528933,-2.5601063359,-3.20836734328,-5.36262142269,0.124497966177,-14.2237419933,-3.80201613838,-13.4914513509,-6.24713207864,207.234947792
do_nothing,-1.16031503769,-5.07628954601,-4.87612896144,0.300357652486,0.39909025607,-1.58425893826,-5.99273338,-1.9560636231,0.205353836941,-2.14872150548,-2.58654646918,-4.96762605467,-2.26987722303,67.6339371556
do_nothing,3.05217193065,4.16556240953,4.77968991095,1.07694437917,0.775398913619,0.261136778212,-2.74096453393,3.13758263335,0.157722116542,10.9100172026,1.07344228302,7.64794508269,2.89624375258,-179.851750347
do_nothing,3.31761605238,6.54167865811,8.43805862705,0.640138861622,0.624051347818,-0.61295672979,4.25277825919,5.12723490551,0.0406953215982,11.3688945271,3.03049675893,10.2777643803,5.11742797849,-263.479952728
do_nothing,1.22085739571,2.25229914393,4.1572287291,0.0796531374181,-0.0348362535828,-1.13032861998,7.98109996165,3.50545212947,-0.0679592706329,2.58403414363,2.00970090824,3.25920115543,3.98548406273,-79.055973676
do_nothing,0.0042994430773,-1.44130776542,-1.97096879579,-0.00340061836353,-0.646278618619,1.30505960569,3.7421792004,0.548224422384,-0.138119157118,-3.65174838347,0.143770305458,-2.69784226895,1.22333716393,161.57978325
do_nothing,0.39060502189,-1.05312476426,-3.96911754466,-0.164535876245,-0.588734401173,3.35010150686,-4.67720170234,-2.12542105609,-0.165914120162,-4.04613779286,-0.716096608139,-3.00951186605,-1.84726120672,202.455236514
do_nothing,0.762020619263,0.597712199011,-1.70339155918,-0.62154887733,0.0979530978611,0.789610222492,-8.62905629091,-4.14225865751,-0.128695295996,-4.1295861199,-0.979002171605,-2.48175232318,-4.25576173157,60.4045510785
do_nothing,-0.232796658374,0.446826553353,0.811433089663,-0.564274692135,0.481429028562,-4.73053062182,-4.57072639718,-4.84460903459,-0.0124899043607,-5.51712913243,-1.44446448277,-3.80340779231,-4.45985489136,-55.8752915253
do_nothing,-2.20651332539,-0.971345001695,0.655664218751,0.357132346648,-0.185121216134,-7.0908558965,2.54886084355,-2.8369838853,0.127469098183,-2.84024964958,-1.45994886451,-2.65449036807,-1.49497761032,-61.3984726987
do_nothing,-3.31797340689,-1.75731606972,-1.16866846527,1.02877050872,-1.10180952743,-2.36929042129,6.22519710273,2.14722197309,0.192222777747,5.25647813211,-0.140790429635,3.08308304675,2.89979510258,-53.3934199336
do_nothing,-1.83137804561,-1.43108281467,-1.62692245344,0.381316821789,-0.616903189868,6.87992681856,5.12418245339,7.08996411792,0.14220430681,10.4771133874,1.64080044879,7.17865166754,4.91444235806,-78.4130533131
do_nothing,1.66778508584,-0.601684690895,0.276312758731,-0.861562444109,1.26236407867,12.6220048287,1.56594943397,6.99465012469,0.0343846969509,5.34580347053,1.96220548661,3.52287185268,2.54024711998,-43.7260185135
do_nothing,3.92248864823,0.301221983502,2.17841511143,-1.08283736427,2.2337501591,7.41697653386,-2.68630539789,0.346016632061,-0.0583235072337,-5.431273394,0.406473076847,-4.06279009438,-1.78864852001,79.6339221701
do_nothing,2.45544086276,1.18661340623,1.68677749972,-0.0281317000459,0.664726395058,-7.0372796807,-5.96818111958,-7.2380411095,-0.118338729428,-10.0096600616,-1.22534245692,-6.49254110966,-3.59735676134,144.681406116
do_nothing,-0.82995631171,2.0550611969,-0.105470981703,0.961521034734,-1.78641730943,-17.7316134163,-5.16137042896,-7.80837953157,-0.148820998527,-4.0676905785,-1.09361078661,-1.5746046862,-1.36209781943,41.8940664442
do_nothing,-1.71202863932,2.72509642667,-0.319152546288,0.870868543778,-2.14995177002,-12.0058434285,0.794766521692,-0.567788832244,-0.12221938592,4.82631071061,0.480247336346,4.07820736328,1.98800341939,-103.860425686
do_nothing,0.405742836215,2.29433888891,0.984145855067,0.104092242764,-0.234560452474,6.53546911232,6.96061036393,6.34642621387,-0.0209393524662,7.42156872681,1.48041946945,4.52584134096,2.77560249855,-102.095607301
do_nothing,1.43144138699,-0.364339461711,0.595032892565,-0.482007490691,1.2475528829,18.94185498,6.56126768588,5.59779217986,0.0991551230561,2.74447754895,0.561918810201,0.789356998488,0.578576151683,20.3300294778
do_nothing,-1.19555537188,-4.43156066192,-2.5014365275,-0.659440495238,0.725439563409,11.9386143888,-0.435680697299,-0.59054204279,0.150454033335,-3.37386328874,-1.47461641115,-2.77478178529,-2.14436540444,74.320471874
do_nothing,-4.15464335807,-6.40311571721,-4.52989460238,-0.553142474485,-0.262844465681,-5.99484682418,-6.65305701365,-4.50573751748,0.114553846797,-5.82206899177,-2.53866607613,-3.84063831819,-3.21610514497,6.26821225368
do_nothing,-2.86289550393,-3.48475054911,-1.95853645488,-0.0985216884826,-0.0133857946177,-15.1004952634,-6.19914963735,-3.26689772984,0.0483013255875,-3.72324448809,-1.36467998245,-2.32874057642,-2.19986086582,-43.5789378909
do_nothing,1.6778199203,2.4991999616,3.00572187002,0.609187014608,0.566469430238,-8.021898693,-0.877741346615,-0.454971764421,-0.00775446941477,0.977133178053,1.21868385197,1.03471531844,0.423699714632,6.39320589707
do_nothing,4.31432003763,6.51813376419,5.05335367229,0.938963329762,-0.0947086431425,4.10583475581,3.78547814552,1.2299737954,-0.065560630001,5.13675008205,3.01902180649,4.07656554846,3.54279985166,51.3451946119
do_nothing,3.05696416398,5.77616984203,2.79162726649,0.372889952357,-1.08866813013,8.42561863619,5.16945623012,2.9702348392,-0.123249016933,5.52044603563,2.51269249383,3.74289636279,4.90611958376,-3.20991125698
do_nothing,0.896260468118,1.98654567413,-0.253836324655,-0.663408721783,-0.3347131198,4.74760681347,3.85370770897,4.60210241815,-0.129748835171,1.35341344246,0.242338854456,-0.149604938215,2.53121070306,-72.2961141776
do_nothing,0.11284086644,-1.76610500038,-1.37165837121,-1.138610033,1.58654026913,0.316059544016,0.537300048507,2.55164604754,-0.0554188173473,-3.80707184612,-1.80904114121,-3.47378893193,-2.33314110855,-36.7548378095
do_nothing,-0.929752254059,-4.10959425127,-1.70866284886,-0.538861504788,1.66645422672,-2.11725337819,-3.62218960628,-3.62882676071,0.0483016629869,-4.99321457377,-2.20311377319,-2.54844831407,-5.3289979906,53.9019550246
do_nothing,-3.55270385018,-4.73953627022,-2.70646105251,0.645220205415,-0.979568071197,-4.42619969031,-5.48616560601,-7.62435460498,0.106137249911,-1.52001904782,-1.25566058279,0.896725077633,-3.68524967312,64.7880922819
do_nothing,-5.06485815709,-3.25125114887,-3.01939929123,1.42514315061,-3.23731216445,-5.63565807135,-2.90409263787,-4.22054010751,0.10473739696,1.95799893533,-0.260156922833,2.01073897084,0.269394765608,-5.48328222845
do_nothing,-2.43419171798,-0.23321415701,-1.09284955872,1.06718138333,-2.02496457927,-2.22161785491,1.36252412413,2.54487665285,0.0774583623384,1.31595715506,0.139263027517,-0.595181643418,2.10459458877,-38.3281863096
do_nothing,2.63447401638,2.3038295105,1.7712522591,-0.380575214324,1.52556184653,4.51712031867,2.56112790225,4.7652582412,0.0342754189564,-1.59885901055,0.411915310392,-3.13093484958,1.05739695139,0.1688382157
do_nothing,5.62212458018,3.28216340326,3.39526579297,-1.8878764954,3.62613487556,7.94147614029,0.770735575721,2.0257794119,-0.0353046966922,-1.49643912579,1.09000591875,-1.72485987826,0.430017876398,18.3656648434
do_nothing,4.86270502133,3.73403368803,3.77267609678,-1.99568326307,2.5023221125,4.56566551313,0.640958750966,0.758435284316,-0.104030415524,2.83966392379,1.79412175713,2.76955504562,2.12496108381,-25.7323373106
do_nothing,2.13569363083,3.96630041084,3.49635789358,-0.203347977547,-0.25462629472,-1.5927121644,3.4635176157,2.82145984597,-0.115542638546,6.16102835111,1.62349256427,5.79096002652,3.50067525597,-50.0472525773
do_nothing,-1.24107825335,1.70398532629,1.10330199866,2.11617235828,-2.34169905053,-5.01030136409,4.20303662453,2.38518767154,-0.0599910273551,3.20328944709,0.284792196304,3.81970604275,1.26495000277,1.99317843958
do_nothing,-5.03284162496,-4.02457713841,-4.31069661903,2.75347674162,-2.83293054254,-4.93101774994,-0.740874878546,-3.46778675426,0.00958365021852,-4.11540582103,-1.49729491481,-2.18656025781,-3.3624962311,57.7709660473
do_nothing,-7.02482809197,-8.75138709323,-8.80524861179,0.947240063782,-1.7481746506,-3.33600213285,-6.78389911454,-8.1743700213,0.0498494936107,-8.29106258155,-2.61591709295,-7.26127602135,-5.76576029364,36.9230307863
do_nothing,-3.84517967289,-6.50032999423,-6.48320567995,-1.6647238733,0.480956898917,-0.590468469132,-6.7457031168,-4.86551540707,0.0696964309277,-4.98313409673,-2.38383599158,-6.528865416,-3.63020784938,-17.2733631467
do_nothing,3.42664157561,1.8776228829,2.29696283124,-2.69142760562,2.49476900993,3.22273874478,-0.984835677704,2.87172683396,0.0826706294206,2.01450950638,-0.85373961152,-0.0889461398753,0.674925929461,-19.2860724511
do_nothing,8.1013261075,8.20714884032,9.42787910805,-1.41936261178,2.50994196504,5.363273799,3.3711163928,5.93726113742,0.0666335919887,5.65644735126,1.22321834449,6.28161890124,3.52825174265,14.6884221111
do_nothing,5.27146131573,6.46333785193,8.05508529194,0.672825557301,0.399825143042,3.27051426088,2.89508463381,2.70590197124,0.0060418179955,3.8522371474,2.69899316359,6.73749036208,3.84900737922,6.9888575998
do_nothing,-1.75691937376,-0.217658579927,0.502993094344,1.68579317972,-1.64448570046,-0.74464015038,1.85292985583,-0.0339709228726,-0.0622598850422,0.689174927293,2.72276618873,1.69886959333,2.71602857863,-39.0224760439
do_nothing,-5.3977717295,-4.15193042324,-5.26024014263,1.18866237946,-1.53481281015,-1.87662352743,3.95765192049,1.40527723338,-0.0877322873468,0.0217635024105,1.40901286806,-3.03882076311,0.975731898298,-44.942671213
do_nothing,-2.88852751011,-2.4047759293,-5.07964348116,0.224005633147,0.209271332898,0.138879575281,5.42829759993,2.45400448092,-0.0683984986067,0.597629697002,-0.364145560833,-3.53030186337,-1.18422778751,6.76835686496
do_nothing,1.49197218694,1.21269611918,-1.61784323746,-0.225554764018,1.26604244872,0.443979014112,0.694768556394,-1.20702607261,-0.0362206200965,-1.02510073499,-1.8683584077,-1.60356372135,-3.04670341298,45.3707358708
do_nothing,2.69511486521,2.00214979598,0.842641320052,-0.287271417672,0.400734142088,-3.3759082213,-7.88513360539,-6.07613993967,-0.00101902515668,-4.50308657418,-2.84032755036,-0.679231679095,-3.38731241555,30.1368867759
do_nothing,0.329152934697,-0.6824749935,1.12173252885,-0.578188265754,-1.32875132751,-6.82190251993,-11.4177126046,-5.97412431841,0.0461126581088,-5.36369397589,-2.82961845023,-0.569250331607,-1.89250510049,3.35656255578
do_nothing,-2.51548741412,-3.9802832678,0.397374143102,-0.977820397557,-2.03184892411,-4.10056972145,-5.52082831165,-0.947284644131,0.0858742133681,-0.993210173482,-1.10710443893,0.872870495377,0.3011246901,0.538513891905
do_nothing,-3.15177976585,-4.54701762339,-0.280676484258,-0.667621793247,-0.860630509446,3.93997410775,4.3373105204,3.60413828518,0.0787321523166,5.11396589685,1.97786419222,2.82094224344,1.75044932056,-5.51656256581
do_nothing,-0.912406359236,-0.915691634332,-0.290664148057,0.515825478985,1.45744481997,10.2661251609,9.72184963477,4.6203486903,0.0245346359357,6.82392006976,4.17153497685,2.10736211291,2.00710350604,-30.1111631571
do_nothing,3.02670682867,5.07213474676,0.95787737801,1.4424575874,3.2041981479,9.2845856137,8.08147590222,3.68948371776,-0.0295925070882,2.51744901624,3.2352095289,-1.21577687617,1.72492021484,-27.2410157781
do_nothing,5.85562106823,8.72137830622,2.97911338991,0.983750475092,2.78515283372,1.91692250291,2.91936680881,2.4885727494,-0.0515736685203,-2.988266422,-0.151810457293,-2.79716138325,1.68288214438,23.0693849197
do_nothing,4.51610377324,6.117851122,3.49744815971,-0.402110695248,0.0400942622517,-6.42139296396,-1.92742046133,0.339458967312,-0.0551486748173,-4.19102800119,-2.69529867747,-0.155440244287,1.63260810685,46.2940504104
do_nothing,-1.21082602584,-1.73876435689,0.440399548978,-1.13873411989,-3.21608285159,-10.6955265607,-5.09993640118,-2.94910365405,-0.0550852312948,-1.17098371579,-2.30816805118,3.06099506357,0.245002776639,-21.3080996529
do_nothing,-7.22162940327,-9.17358875347,-4.96525185116,-0.555452021943,-4.39725742284,-8.91438091333,-6.18340833898,-5.19220263952,-0.0345109340459,1.29337615814,-0.497164146729,1.83664639268,-3.06303332166,-100.619281578
do_nothing,-8.14188628917,-10.6023812064,-8.00677455516,0.350571577505,-2.34112195856,-2.22896605694,-4.72942380384,-4.36425209265,0.0160515996325,0.199899750427,0.0557652390684,-2.88199708105,-6.09849007754,-49.1669806437
do_nothing,-2.50233914835,-4.83125313157,-4.59491137259,0.431522622299,1.5622714022,5.78669175293,-1.35239172133,-1.13816322169,0.0623683802632,-2.15793839254,-0.73687752206,-5.05304585489,-5.0797734904,122.084085579
do_nothing,5.35500572347,4.44966144675,3.80152594115,-0.0957879568939,4.35788201602,10.4824884925,2.1434920246,2.18549201268,0.065609863121,-1.81522910544,-0.652936249517,-1.58372569921,0.850191783911,211.751361769
do_nothing,8.85408975203,11.0075742831,10.0327103388,-0.241232846186,3.80666330995,8.71088989688,4.41197281566,3.90433423214,0.0353604700935,1.48282816835,1.17508766684,3.71150973849,7.21041274585,65.4209178669
do_nothing,5.13085821934,9.8342876241,7.8034849045,0.192725842661,0.310132583598,1.52303383661,5.24637878291,3.55352240979,0.00808301983111,4.22628928443,2.81276111442,5.28835853621,8.19664951807,-203.515502841
do_nothing,-2.13453314604,1.37036752132,-1.10136378754,0.454802346699,-3.1042566479,-5.8208497708,4.50696033252,1.8592516539,-0.00922053888882,3.64791165508,2.25011017827,2.43602322179,3.03971586039,-307.12231987
do_nothing,-6.14593537582,-7.4957610156,-7.86282966957,0.0909758145574,-3.355467196,-7.91351496968,1.77008701391,0.453470709268,-0.0341953118274,0.393254316066,0.0030924707668,-1.25593368917,-3.39045083422,-104.462424195
do_nothing,-3.90267118781,-9.15618789304,-6.31685895738,-0.439029424653,-0.527205132918,-4.28265923347,-2.45369499617,0.0302829956656,-0.0594504401784,-3.0886489086,-1.9549865066,-3.12070494964,-6.3646074322,219.110070187
do_nothing,0.77356228341,-3.26588256219,0.0572296266518,-0.518726246451,2.01064892591,0.234829948106,-6.21660458811,-1.20730596327,-0.0530599371286,-4.81133249396,-2.6343589943,-3.36789898369,-5.50407308771,335.02413303
do_nothing,2.12566759788,2.96344323808,3.16502204846,-0.142872272571,1.49553760731,1.2497615254,-7.39158633356,-4.81477006634,-0.011619286124,-3.63944743381,-2.20067676438,-2.51839066284,-2.71807694053,128.283110563
do_nothing,-0.39591335588,3.59655233057,0.842017811572,0.306481925487,-0.861291303885,0.070273228055,-4.9117836284,-7.64473493612,0.0278727363421,0.311780875323,-0.727588510405,-0.0591154840568,1.11790632549,-173.731509663
do_nothing,-2.04121170745,0.620967634284,-1.46792487756,0.576626698087,-1.67640979838,1.18097743457,0.839740912309,-3.99559298825,0.0399083649781,4.46029851591,1.55741789115,3.33179800968,5.15854555144,-261.139141526
do_nothing,0.208193106401,-0.325270876907,0.423107950827,0.542139548967,-0.0320688471394,4.92560150186,7.40380535494,5.69451283098,0.038513838473,4.91664279825,3.1955625131,4.65780693364,6.50740764875,-91.8449018108
do_nothing,3.50223857555,1.68296265231,3.53887243457,0.0763441048192,1.63962768187,6.04268512821,10.2702518156,12.2054923032,0.0387751615548,0.86280779312,2.47313776086,1.88548576162,2.84859092969,93.7292058843
do_nothing,3.56629404048,2.55721018041,3.01231370617,-0.673848733429,1.44500522955,1.08230358218,6.12022111193,7.84340008054,0.0259439317663,-3.44454317333,-0.194257068136,-2.62320979821,-3.14729519105,101.10568524
do_nothing,0.633987537526,0.252160779324,-0.503982197599,-1.0939618741,0.457844880228,-5.68214493046,-2.67558098829,-2.98610203342,-0.0121992423203,-3.26552485145,-2.24511225489,-4.14821809646,-5.56929194677,8.07903542433
do_nothing,-1.83996216152,-2.28199095293,-2.59570789429,-0.61162672674,0.13001142107,-7.06677132982,-8.86485514465,-8.7499931217,-0.0504805894849,0.694662823457,-1.91926690598,-1.1808899448,-2.42785090245,-4.34639677919
do_nothing,-2.62313547481,-2.17759008619,-2.07251653459,0.559978526821,-0.449272132833,-2.31373161126,-7.62571170588,-5.45152484623,-0.055282806788,3.24464077818,-0.185128282114,2.6787087385,1.71485294343,62.3322416837
do_nothing,-3.24060306632,-0.93586066557,-1.68826520328,1.43632274111,-2.41331310382,2.21659764462,-1.77139635384,-0.355353252948,-0.0307128484621,1.33312340505,0.827886516689,2.9377179559,1.84987334738,54.3091715503
do_nothing,-3.59738113396,-1.24834241523,-2.43676452225,1.15406860761,-3.75797186236,1.85708860096,2.31085314441,-0.101314562935,-0.00558354265983,-2.69053239984,0.351257193427,-0.771174412946,-1.09732479431,-60.6540116
do_nothing,-1.12627076328,-2.03809908005,-1.60405832479,-0.151224725424,-1.31971571592,-0.601087549811,2.52358779358,-1.59645586489,0.0119334363098,-4.60427730995,-0.702167845828,-4.47337065922,-2.25914092605,-127.034947512
do_nothing,4.38245982443,0.0368885398715,2.35371368786,-1.36735267466,3.91149430287,0.20256251677,2.05064351879,1.24060106547,0.0335400679716,-2.65421655775,-1.0424754921,-3.93077476834,0.377710821916,-47.4725164877
do_nothing,8.25687677872,4.75168033366,6.35923195821,-1.39036307108,6.53054159213,4.17909695854,3.20557999987,6.63831045491,0.0527369777102,2.06377169473,0.0476380676565,1.33616669682,3.84664622071,63.5786694227
do_nothing,5.71866207928,7.03339873686,6.05090425853,-0.225261926911,3.07832751931,5.69837587266,3.91047392692,7.15343987742,0.0445170912992,6.7639170282,2.13648911398,7.17057326336,4.35187380244,64.3610985687
do_nothing,-2.13602953031,2.7635739842,0.771372627061,0.951437004094,-3.37439192198,1.11909372552,1.40208709459,0.838853786483,0.00687625820688,7.46652600087,3.26061587287,7.71666083889,1.20202350396,-1.53616262333
do_nothing,-8.92870954823,-5.41967102428,-5.89024659936,1.02643792808,-6.61955246216,-5.96132522213,-3.26136178881,-5.91614604853,-0.0293452556448,1.56611533111,1.29586164906,0.814289790632,-3.35070603089,-5.14376834946
