label,COUNTER,INTERPOLATED,AF3,F7,F3,FC5,T7,P7,O1,O2,P8,T8,FC6,F4,F8,AF4,RAW_CQ,GYROX,GYROY,MARKER,SYNC,TIME_STAMP_s,TIME_STAMP_ms,CQ_AF3,CQ_F7,CQ_F3,CQ_FC5,CQ_T7,CQ_P7,CQ_O1,CQ_O2,CQ_P8,CQ_T8,CQ_FC6,CQ_F4,CQ_F8,CQ_AF4,CQ_CMS,CQ_DRL
off_to_on,-3.76523772233,-0.945326752029,-1.62458105636,1.07700280359,1.04263278702,0.434129921168,-0.418868733666,-2.92184551149,1.222228882,-3.79741628094,1.48497158903,-3.3037093358,-0.960647015731,-21.0756994631
off_to_on,-4.67438413553,-3.01869366349,-2.56131043904,0.68768602048,1.29693637813,0.931016793605,-0.941767970124,-3.80975947972,0.863144094187,-5.88133087842,0.138919692119,-5.73965791763,-3.15156227175,-14.8830746994
off_to_on,-4.13526796647,-4.05947818559,-2.58011361091,0.246902825321,1.40786481073,1.5150769771,-0.849176516066,-3.45010726735,0.424789226277,-6.17830204135,-1.02205383189,-6.38955833055,-4.252158171,-10.043081687
off_to_on,-2.22335563272,-3.7863680587,-1.68418241908,-0.194086720769,1.24234907962,1.92824571657,0.0310742414714,-1.63466080935,-0.0500563208032,-4.39705667335,-1.69026278112,-4.88127581824,-3.89317371876,-6.54868062791
off_to_on,0.527522893727,-2.35107427483,-0.197860048219,-0.595476118637,0.716813025901,1.89314390677,1.51262752842,1.30547678156,-0.523371846339,-0.947387620522,-1.75325375068,-1.57019854555,-2.20459867563,-3.09593637769
off_to_on,3.27715060183,-0.278694526032,1.34283084195,-0.924956920168,-0.142312291043,1.23912389896,3.08158759084,4.54081593587,-0.954125991268,3.14668178608,-1.31479300443,2.53402318528,0.220594382705,1.86477503005
off_to_on,5.14180412717,1.71640357954,2.3766791225,-1.15277759911,-1.1742125733,0.00165779086622,4.06510954115,6.98013367641,-1.29242269024,6.55721132318,-0.638479952321,6.0763688106,2.52663498324,9.00131504025
off_to_on,5.48351030306,2.97502291564,2.51621744235,-1.2501118198,-2.11227925596,-1.54966600834,3.8835663681,7.63431661296,-1.48118017628,8.08958695033,-0.0372991819301,7.80528027246,3.89190494951,17.4209844828
off_to_on,4.12883907362,3.11352996794,1.68866690432,-1.19291441976,-2.66150429636,-2.97355199529,2.29648116015,5.98555627289,-1.46734572026,7.09992303002,0.248729521322,7.01114442321,3.81937620662,24.7609667645
off_to_on,1.44121872659,2.14510955834,0.167734752402,-0.97036900087,-2.59967257799,-3.7941199183,-0.45200458097,2.2280086292,-1.21986321395,3.74585707838,0.141428309509,3.80055777891,2.31737379102,28.036292915
off_to_on,-1.78159338255,0.462139940153,-1.51692352576,-0.594371821603,-1.86527664681,-3.66671255657,-3.65208891836,-2.7178093419,-0.747697020571,-1.02392923811,-0.252169036758,-0.896735990521,-0.095424393029,24.9080238207
off_to_on,-4.55470137626,-1.31125617624,-2.76241299652,-0.105403707782,-0.597179089803,-2.51239984948,-6.31996144369,-7.44070217029,-0.109898321822,-5.7487420512,-0.689195322668,-5.60229173651,-2.56545074298,14.8453745631
off_to_on,-6.01837301237,-2.54247949391,-3.10408375995,0.428921357629,0.892837721341,-0.569550539922,-7.50825672278,-10.4614803088,0.58831753272,-8.91798290855,-0.893266630425,-8.76170304944,-4.20081348073,-0.321754467995
off_to_on,-5.71294555477,-2.81021240701,-2.38137902439,0.923767446288,2.2091512089,1.66098792907,-6.63495042283,-10.7102792849,1.21485085009,-9.46530573438,-0.670516924061,-9.26126286952,-4.38580381042,-16.7369245952
off_to_on,-3.72551702354,-2.04429480587,-0.799062109934,1.2934317311,2.99419813033,3.56271825435,-3.71702466762,-7.89994815879,1.64109446107,-7.12907782649,0.0046628232184,-6.81442430103,-3.00257795009,-29.6722331834
off_to_on,-0.660189899979,-0.539086047762,1.13856098333,1.46967091964,3.04118938929,4.5944150712,0.578637541535,-2.66483284341,1.77470754105,-2.55559425218,0.966804768745,-2.08384316924,-0.480932287508,-35.1120081013
off_to_on,2.55740601056,1.16078347214,2.79799617259,1.41672504773,2.35794081939,4.46054412785,5.09659231357,3.59162474831,1.58458717458,2.89326107085,1.90885788238,3.50832861921,2.34291130181,-31.1895546139
off_to_on,4.97549263677,2.45848063808,3.63206925111,1.13888108565,1.15936547156,3.20309376684,8.52492188351,9.10118734877,1.10994423335,7.5670291902,2.48690107056,8.22464385613,4.51047700516,-18.9342631259
off_to_on,5.91324736348,2.91475317091,3.36526900149,0.678939311003,-0.208014589256,1.18414366837,9.79696318362,12.2627553793,0.450408489846,10.0485298427,2.44286957279,10.5673332245,5.26973621349,-2.02631075101
off_to_on,5.1627075888,2.3952895126,2.08452889649,0.108822062605,-1.38156925105,-1.03326062568,8.4342253755,12.1329959259,-0.259773719458,9.59919353028,1.70152911948,9.76183129615,4.33415725495,14.3845268563
off_to_on,3.03253567531,1.10586947351,0.204827566652,-0.484327089934,-2.09609033296,-2.86332160741,4.71721575712,8.71816737418,-0.885340084781,6.38307926741,0.407089676437,6.00951861655,1.98236939044,25.3941452099
off_to_on,0.225186527406,-0.493094431157,-1.67659110826,-1.01259333082,-2.25528620651,-3.87307564902,-0.375635256639,2.97366705103,-1.32114182054,1.399898937,-1.11380593144,0.42686822531,-1.03542374327,27.9893690019
off_to_on,-2.40515127165,-1.85787092932,-2.98453147903,-1.39925615945,-1.9382090593,-3.89708967963,-5.44642174557,-3.4872067133,-1.51195904407,-3.84523653129,-2.45027971795,-5.30781877684,-3.75077308717,22.0362734972
off_to_on,-4.12853861551,-2.55444169606,-3.35616342818,-1.58707838451,-1.34302900806,-3.05717009059,-9.08860094856,-8.88009394254,-1.45653173046,-7.82154975549,-3.2332987745,-9.48286927461,-5.30153695467,10.2566610464
off_to_on,-4.55641749999,-2.40368713124,-2.75136265377,-1.54349902494,-0.694451932475,-1.68832934415,-10.3022537577,-11.7758816494,-1.19694231459,-9.44229035752,-3.24753377644,-10.8839392329,-5.21573505335,-2.79928074582
off_to_on,-3.7316834039,-1.52895430889,-1.44715585432,-1.2641359062,-0.15404846737,-0.205323004345,-8.78458497841,-11.5019530851,-0.799215503769,-8.37396818245,-2.49287145614,-9.15671076125,-3.55877432102,-12.4144424066
off_to_on,-2.07040155539,-0.293327844335,0.0773151171967,-0.775521104906,0.230211205031,1.03735217421,-5.0072084287,-8.29946449673,-0.333160149616,-5.09374851157,-1.17759531885,-4.89032450832,-0.897209861315,-15.4020140649
off_to_on,-0.18586623209,0.845675110486,1.31987595737,-0.136536436721,0.516538133072,1.84136452256,-0.0605015373051,-3.20037764529,0.14157188688,-0.69066244178,0.351281926921,0.595675589353,1.90352349857,-11.2275122187
off_to_on,1.33568596825,1.50736983468,1.9314645604,0.56352586596,0.810441221349,2.18699554492,4.68103478427,2.32139170734,0.579864364449,3.50952372572,1.71467024968,5.68159441836,3.97345461261,-2.15250853453
off_to_on,2.12622097628,1.52131873993,1.8258094158,1.21294919821,1.18315895867,2.18396436772,7.9641750009,6.80233826244,0.947202979785,6.36316004685,2.60880223155,8.94912677668,4.72142364405,7.65018773729
off_to_on,2.12979918531,0.97554593861,1.18578959235,1.69327628918,1.60656679082,1.98091473001,9.00710502537,9.19897268154,1.21230987038,7.23366862326,2.87978222628,9.5925963003,4.01206529101,13.689598922
off_to_on,1.57441598333,0.165523043744,0.369176976304,1.90176136339,1.93758746008,1.67833845959,7.69144647223,9.13388443226,1.3424193395,6.12667866861,2.54553228082,7.61642552596,2.18165284108,12.8822172219
off_to_on,0.842995024461,-0.532734701227,-0.246063438934,1.77638266281,1.96456002913,1.28486328576,4.54808860864,6.92037487633,1.30559181356,3.61044855601,1.76474740933,3.77176554961,-0.103976671769,4.78493879093
off_to_on,0.300357491677,-0.8146572171,-0.415285130685,1.31660345424,1.50102594032,0.735177641511,0.555650110966,3.38398117087,1.08068768415,0.570426759837,0.770072096314,-0.72787483159,-2.09194589864,-8.11720157482
off_to_on,0.145627459626,-0.565717566448,-0.120157931081,0.592479638662,0.48987044637,-0.041271583347,-3.17308461444,-0.438257931785,0.671393362712,-2.10264176261,-0.207570272566,-4.60450424037,-3.19635009785,-21.1882003128
off_to_on,0.345545098203,0.0974397495942,0.43340204547,-0.263154427863,-0.927756383904,-1.03594819644,-5.71302931053,-3.6111944884,0.117856110523,-3.78020194374,-0.997484534139,-6.89249138794,-3.17618412658,-29.2280475798
off_to_on,0.669911987995,0.876949210881,0.909422384711,-1.08014240463,-2.41450665665,-2.10544690188,-6.56021590794,-5.52955309877,-0.500662288555,-4.23650679737,-1.51470161774,-7.17942790713,-2.18175195285,-28.3286417685
off_to_on,0.809581548667,1.41364015697,0.989428559666,-1.68919582237,-3.52032231983,-2.9780784811,-5.71721799729,-6.00579076034,-1.07594988123,-3.6344324488,-1.75128046617,-5.65181489335,-0.663945122248,-17.3593072161
off_to_on,0.525727141896,1.42992130858,0.514120388329,-1.9631394888,-3.82599986029,-3.33062841272,-3.6234945524,-5.21915862196,-1.49298739151,-2.38696993784,-1.74531785568,-2.95612100401,0.810575944456,1.436925234
off_to_on,-0.231670268587,0.841034742011,-0.437553383752,-1.84947748219,-3.09935320625,-2.91181035711,-0.972468088085,-3.57412060431,-1.6584209243,-0.965260551774,-1.54614435843,0.0557060894713,1.76526023373,22.9594123804
off_to_on,-1.28456298547,-0.206883659463,-1.56424950304,-1.38423361128,-1.40652928502,-1.66526153732,1.51343260893,-1.53775974919,-1.52668003953,0.266980434244,-1.19227448757,2.5989143904,1.96596302177,40.73287216
off_to_on,-2.28309268053,-1.38525275677,-2.44850952201,-0.68220443512,0.867893900981,0.200823418246,3.27623438131,0.482799338952,-1.11506426975,1.1355558267,-0.709891370733,4.15796672806,1.4706225376,48.8942494134
off_to_on,-2.83570907311,-2.29883537974,-2.71382459644,0.0941009214123,3.10913150764,2.23463497555,4.03305701851,2.19301605987,-0.502298592143,1.63975855743,-0.12831062714,4.56708349921,0.568907141113,44.057423711
off_to_on,-2.66248256631,-2.62523705863,-2.17283114752,0.777824755355,4.64818309134,3.85727047542,3.78833514373,3.40137977266,0.189676527922,1.86687666162,0.499873151798,3.96873763973,-0.354426045339,26.4699482104
off_to_on,-1.71185635467,-2.22694033964,-0.90970939447,1.24042948286,4.97231528267,4.54281930724,2.76679597751,3.98271018044,0.825449037313,1.89214219015,1.08861232892,2.69204938963,-0.973427946813,0.100355666166
off_to_on,-0.195124954325,-1.19636300458,0.735726530513,1.42090513646,3.9010520787,4.0023589589,1.30781507956,3.85509436976,1.28849080784,1.71854669659,1.52794413603,1.11293270297,-1.13213872042,-28.374446854
off_to_on,1.47559481716,0.179706632371,2.27794276184,1.33323915801,1.66635859418,2.30521026475,-0.235824076251,2.99475854873,1.50660176074,1.28570817877,1.7131065136,-0.449426239553,-0.875216987574,-51.3818619251
off_to_on,2.82347769018,1.52006270986,3.25005643571,1.05114031307,-1.13503407804,-0.111670223779,-1.56600487483,1.4839176175,1.46357058736,0.539403391859,1.58275899096,-1.7729937079,-0.395293278661,-62.5378192252
off_to_on,3.46698506437,2.47464457765,3.3627703322,0.676555841945,-3.70783049605,-2.55843846897,-2.46764684776,-0.440232527392,1.19504268207,-0.479195803755,1.14977270117,-2.7175756674,0.0721775338872,-58.4100213957
off_to_on,3.24509465085,2.82989485327,2.600159815,0.303703837567,-5.29397900543,-4.30002951654,-2.81013908088,-2.37774249926,0.771830793609,-1.57828693584,0.509224453218,-3.1861003217,0.357103480845,-39.4772819379
off_to_on,2.26294562379,2.55853850519,1.21836600009,-0.00866996808697,-5.40490495048,-4.79097221537,-2.54271776512,-3.82940457472,0.277620303703,-2.43474433863,-0.183485893592,-3.10045778637,0.419322358753,-10.0416904677
off_to_on,0.843573640623,1.80153308621,-0.350510766065,-0.247649842883,-3.97647178385,-3.85884877724,-1.6992372557,-4.33048832593,-0.211056427367,-2.69471673832,-0.759298357247,-2.41519338891,0.344938334841,22.8572562968
off_to_on,-0.593312188921,0.796257246598,-1.65208235227,-0.436745952917,-1.39659475154,-1.77230828341,-0.413067875953,-3.61704691464,-0.636729612598,-2.12232218843,-1.09081633751,-1.16563575505,0.281167890813,51.2170275785
off_to_on,-1.67802270985,-0.215850380191,-2.36320949532,-0.611890748638,1.6045494967,0.833198205503,1.07252295068,-1.76175269427,-0.962937171364,-0.734867186236,-1.13510785079,0.478204019686,0.343657424389,68.0637845805
off_to_on,-2.20774094584,-1.06418215088,-2.38928480141,-0.793515399589,4.16852639549,3.15123078115,2.4202851596,0.784639701413,-1.16862982156,1.14030849661,-0.946239281579,2.19166892,0.541950530899,69.1598937733
off_to_on,-2.19174413828,-1.67912931824,-1.87188696663,-0.966830633431,5.56126761681,4.45952289041,3.25687360782,3.28283615256,-1.24027867157,2.92708765498,-0.65085445916,3.53968219956,0.760250683036,54.020826447
off_to_on,-1.8124529145,-2.07158258352,-1.10839396407,-1.07924148234,5.38742533064,4.35136841852,3.27043322999,4.91502802194,-1.16721708279,3.97445088084,-0.394698521578,4.08848513436,0.805593601656,26.0197809452
off_to_on,-1.32311401463,-2.27851123612,-0.418789718756,-1.05713368226,3.70251141603,2.86711307873,2.32325218918,5.05530178778,-0.943501883854,3.78963709997,-0.280327261788,3.55502743833,0.504654475574,-8.41931949002
off_to_on,-0.927302631643,-2.3059025538,-0.014312381633,-0.836533868496,0.991292392578,0.482283026773,0.538584523914,3.50844329229,-0.575838583092,2.2463613415,-0.321154691162,1.93953281001,-0.193174387728,-41.332635125
off_to_on,-0.691388588053,-2.10067531578,0.0795740005567,-0.396245137071,-1.97801685392,-2.04392068373,-1.68044609185,0.625605617465,-0.0935347417878,-0.316111425417,-0.43200825298,-0.417179744437,-1.15480690875,-65.073172303
off_to_on,-0.526459665498,-1.56919104692,0.0161251395758,0.2197513864,-4.37756505702,-3.91030090283,-3.72471579882,-2.75893877597,0.445388980896,-3.15386074297,-0.462860485972,-2.88922724904,-2.07821923538,-74.0881974444
off_to_on,-0.246834441872,-0.637543600552,0.0407242587149,0.900762431143,-5.5542795307,-4.52710236768,-4.93925584006,-5.56542945305,0.957020370083,-5.33390896694,-0.265252447774,-4.73223225021,-2.58643795321,-66.215238267
off_to_on,0.320093636401,0.672580199813,0.361729356415,1.49185788335,-5.20731714458,-3.70000386377,-4.82865209399,-6.81226470583,1.34521303888,-6.04060814159,0.233285213341,-5.31547469767,-2.37059289434,-43.2011594293
off_to_on,1.22043656649,2.18969612576,1.03355884043,1.83500248202,-3.46064513947,-1.68721538127,-3.24245529553,-5.95369988701,1.52360299262,-4.86994870936,0.976954967167,-4.34353272766,-1.32837282882,-10.318200194
off_to_on,2.30803558383,3.59254023417,1.90291762424,1.8164949961,-0.815197110199,0.885960626714,-0.472508269558,-3.09379617493,1.439679632,-2.00556415298,1.77566078422,-1.98693510151,0.359003830066,24.8482890979
off_to_on,3.26019954095,4.47748432945,2.64473893308,1.405394199,2.00026545855,3.2250987732,2.78368972554,1.00494454951,1.0929151582,1.79435454813,2.35337710384,1.13299641915,2.24879109275,54.1729529859
off_to_on,3.677015131,4.47943718421,2.87888924805,0.66980861437,4.23357595963,4.61261041084,5.5977458114,5.13258354609,0.540193172979,5.4069424179,2.43870289149,4.11188869991,3.75967294617,70.9150707368
off_to_on,3.23211696911,3.40804267008,2.32562429992,-0.235353809125,5.31070122049,4.62439300043,7.079690858,8.00137722092,-0.114386851713,7.6901573313,1.86806804631,6.0356198092,4.35912839103,71.3321235899
off_to_on,1.81956997496,1.34946781572,0.940088226246,-1.10655951197,4.98081758275,3.25194571216,6.66137595212,8.65624096856,-0.743157497664,7.85269050601,0.664519446214,6.27224267618,3.7518151953,55.5770053691
off_to_on,-0.361392210578,-1.30921988715,-1.02900320693,-1.74482803998,3.36984094876,0.896515808891,4.30155473416,6.79070842575,-1.22530411606,5.72447742123,-0.939340225714,4.68482426869,2.00114283573,27.6382407936
off_to_on,-2.82275054528,-3.9524564949,-3.08528019402,-2.0081853231,0.933457714154,-1.75778547993,0.539381347247,2.86182296069,-1.47510805476,1.83423023518,-2.5481720199,1.69090722211,-0.46332148451,-5.67872727931
off_to_on,-4.90920696114,-5.89198981733,-4.62611100389,-1.84791399325,-1.67302417412,-3.94909372712,-3.63147633389,-2.0368537166,-1.45985384663,-2.73632908462,-3.71073913577,-1.85547438515,-2.96137881973,-36.4774525299
off_to_on,-5.99065857536,-6.56241547831,-5.13456672876,-1.31829642085,-3.77083482972,-5.05766323861,-7.03836435338,-6.5047491616,-1.20278576607,-6.67728835274,-4.05544275965,-4.92355120343,-4.76640927888,-57.7541527744
off_to_on,-5.66409980867,-5.6960180676,-4.35675200123,-0.557858445593,-4.83345998165,-4.77665727099,-8.67460921988,-9.26002958731,-0.771475435509,-8.85016520072,-3.41148253481,-6.62343059105,-5.33214379725,-65.1098330064
off_to_on,-3.89703371039,-3.41982343387,-2.40217347708,0.251203576383,-4.61790990432,-3.18830452572,-8.00779517346,-9.52464157862,-0.25655151863,-8.63340150692,-1.87515115787,-6.47799464755,-4.46678191416,-57.7311824635
off_to_on,-1.06182783921,-0.240640666171,0.269906762402,0.932500516701,-3.22016203998,-0.729713627717,-5.1533912201,-7.24731588221,0.25167891998,-6.10374568799,0.202757755248,-4.56136754857,-2.39635791231,-38.3869237429
off_to_on,2.15426772677,3.08119120992,2.97649642592,1.35903212417,-1.04272991606,1.93575237184,-0.85619008355,-3.09887233145,0.681439830667,-1.99904654003,2.30741929811,-1.46183934769,0.303472772025,-12.4720381584
off_to_on,4.93774291502,5.73341692419,5.00937159889,1.47890687496,1.31614978253,4.10139471116,3.71810378347,1.75014344853,0.988058084127,2.51959660873,3.90211186694,1.91378280503,2.88390050661,13.5892538884
off_to_on,6.57793697088,7.06927881731,5.84187039879,1.31760677818,3.22313569997,5.20318707529,7.31897970355,5.99012445859,1.15256766886,6.22413799849,4.57894975516,4.62565611478,4.64888445984,34.0885329242
off_to_on,6.66564647935,6.77691182681,5.27789079249,0.958832243267,4.17913115178,4.96110049594,8.97259503087,8.55221769631,1.17380369275,8.17761497583,4.17231771759,5.98077138893,5.15712708746,45.4074191378
off_to_on,5.20110030173,4.95300973734,3.49765198093,0.512294390308,3.95334437786,3.44306331783,8.25882754402,8.88984032244,1.05941926949,7.98282617113,2.80117254097,5.71850299229,4.33740604396,46.6432000264
off_to_on,2.58145737916,2.06357965191,0.990141842612,0.0799068630029,2.64584210937,1.04024189453,5.4214931315,7.08455609538,0.820745505407,5.85256159581,0.829126147931,4.04955898145,2.48592530943,39.36880722
off_to_on,-0.523153861219,-1.19104682425,-1.60058684819,-0.269068401765,0.659838284212,-1.63597587121,1.28218862428,3.76125361457,0.473769170189,2.49433284197,-1.24307548548,1.54802853767,0.154540746569,26.7012390619
off_to_on,-3.36200030305,-4.06295125577,-3.66199805359,-0.507600355779,-1.41149545414,-3.90774060333,-3.01092122221,-0.140855380834,0.0449444076746,-1.13767752853,-2.9179442064,-1.05526555956,-2.02664744923,12.0724758144
off_to_on,-5.3033706969,-5.93993806835,-4.7727314385,-0.64473013458,-2.95494165759,-5.19794252288,-6.31885732726,-3.65494507823,-0.422341077971,-4.13341007681,-3.83160631187,-3.10164586103,-3.53140738838,-1.83170843937
off_to_on,-5.98319895925,-6.47695393399,-4.78962010639,-0.708578154982,-3.5173344899,-5.17213121561,-7.82928946721,-6.0377478628,-0.865774997595,-5.86651954961,-3.8370778284,-4.17976285123,-4.06783026249,-13.6011030626
off_to_on,-5.36572762023,-5.64778267477,-3.84462283688,-0.726523820399,-2.9435089003,-3.82274677786,-7.26336779414,-6.91706627796,-1.21027056507,-6.11670063059,-3.02056911901,-4.19805170602,-3.62391117012,-22.9695193324
off_to_on,-3.71025688294,-3.71541182605,-2.26558497868,-0.710555062415,-1.4289822793,-1.47578019848,-4.91795515087,-6.31188290245,-1.38258820662,-5.05560048072,-1.65299797041,-3.34679248842,-2.42689502585,-30.1713721528
off_to_on,-1.46731115658,-1.14201060823,-0.457759196457,-0.652952968592,0.532727384987,1.28340533935,-1.54192657471,-4.54665957535,-1.3308920002,-3.12464037897,-0.0982416321737,-1.98153025999,-0.843356258708,-35.1483962041
off_to_on,0.854655210742,1.52850212431,1.20977374263,-0.533060597608,2.29714479057,3.75033627571,1.90529015671,-2.11112242808,-1.04290848048,-0.864124651569,1.28985414546,-0.482668114707,0.738050354909,-37.0307357945
off_to_on,2.80932115154,3.78290380367,2.47819793829,-0.331567836741,3.26911089249,5.2768548548,4.53361649486,0.477753914853,-0.555856395257,1.24162092214,2.25068094223,0.85437056767,2.00150005734,-34.1989960358
off_to_on,4.08963733862,5.22411307677,3.21981880868,-0.0460375982005,3.0957627907,5.44014090405,5.75684052965,2.77183608398,0.0465397933719,2.85737938179,2.66014338616,1.86537930174,2.75329263195,-24.9773860379
off_to_on,4.55306507678,5.62175026299,3.41469507137,0.298863627572,1.79030166304,4.16196664523,5.41916944439,4.43499665638,0.650538802202,3.81569285276,2.52974573222,2.49870436041,2.92442825876,-8.71130096385
off_to_on,4.20542146509,4.93138296159,3.10745773072,0.650861847722,-0.256789430033,1.74382145891,3.78925675971,5.24858317216,1.13837190828,4.08029438338,1.97195984431,2.75850517645,2.54351407745,13.234170091
off_to_on,3.16469816691,3.29074261363,2.37125192532,0.940139963063,-2.38842268793,-1.19726341331,1.4384877471,5.10665654589,1.41635079409,3.69167604895,1.1508545146,2.64974761972,1.70404249565,37.0591788558
off_to_on,1.6254744871,0.999002484477,1.29566629593,1.0970645608,-3.88358460791,-3.88171299018,-0.948138412037,4.0227454273,1.43680983886,2.73034704787,0.237074021289,2.15807560116,0.544264053027,57.0339438578
off_to_on,-0.165544383401,-1.5204922938,-0.00151016124181,1.07204195481,-4.19040063238,-5.57312228633,-2.76696820716,2.15106015991,1.2075322894,1.3146579055,-0.62077167328,1.27552319458,-0.756518040961,66.9307093495
off_to_on,-1.9255958726,-3.77778582276,-1.35445802641,0.851269833902,-3.11489023637,-5.78260885204,-3.64174954225,-0.195696124016,0.786385726522,-0.375271431128,-1.30648665654,0.0560748883829,-1.97639494722,62.0143895859
off_to_on,-3.35554825371,-5.29638855983,-2.54389905921,0.46348461305,-0.901783661378,-4.41386148628,-3.48803178634,-2.56061737734,0.263633123481,-2.07528597509,-1.73530610052,-1.3339783503,-2.86276170182,40.9438509468
off_to_on,-4.17561645461,-5.71000711866,-3.32309570793,-0.024389185372,1.82345181519,-1.80401019393,-2.49134303977,-4.41135577666,-0.261907088538,-3.44807113831,-1.85192395855,-2.60797058679,-3.17214888598,6.87001690652
off_to_on,-4.18055570481,-4.85838106098,-3.47694894594,-0.521484991619,4.23775899225,1.35686238868,-1.01936407188,-5.26336902062,-0.705282723367,-4.14451442464,-1.63519861861,-3.41350906992,-2.73769844694,-32.788500773
off_to_on,-3.303675811,-2.85516571996,-2.89746407002,-0.933190997916,5.57356166078,4.20976616089,0.497235626377,-4.8285992336,-1.01014177154,-3.90697347147,-1.11014001914,-3.44157047473,-1.54543813808,-68.0040645394
off_to_on,-1.66681248571,-0.0994735385558,-1.64594842968,-1.18193296783,5.36190448915,5.96479019724,1.67894999778,-3.13838098714,-1.15287271685,-2.67995635294,-0.360177352541,-2.55332179727,0.212736129028,-88.8542694985
off_to_on,0.410129358673,2.78706207182,0.0285641003829,-1.22336561362,3.58710507912,6.12508702251,2.27917981455,-0.586126819934,-1.13729582273,-0.680313566102,0.471393432654,-0.872590364769,2.1417609611,-88.5095784296
off_to_on,2.45787528581,5.09525256561,1.7323638915,-1.05436611747,0.701814889443,4.63071200436,2.22065587811,2.14427409059,-0.984215395821,1.61412529185,1.20001985953,1.20234419923,3.71902630175,-65.5461366018
off_to_on,3.96363365298,6.20803545585,3.02700530847,-0.711582416707,-2.50374887031,1.87854032068,1.58791416185,4.25964237482,-0.721271151216,3.57208873749,1.64023685014,3.08756338093,4.43373368708,-24.7825539761
off_to_on,4.51035500934,5.77737111828,3.55829681276,-0.261699213954,-5.13728354811,-1.3889099447,0.587050862625,5.10030194852,-0.377320772153,4.59031243067,1.65913178493,4.18493137485,3.95282228668,23.7314742975
off_to_on,3.90825990082,3.84390588607,3.17180364907,0.213595680914,-6.46963740185,-4.29335803874,-0.512144503376,4.36604667158,0.0173053898691,4.2937050671,1.22580176886,4.0831842682,2.25833994432,67.3670936158
off_to_on,2.27323713047,0.855880757239,1.97282782284,0.634114393622,-6.14600824169,-6.06705685186,-1.43768719151,2.24305031061,0.426603093443,2.6839844087,0.437084019755,2.71807281723,-0.2979519579,94.4608167779
off_to_on,0.018991421965,-2.42897376281,0.305477459327,0.935497555259,-4.27835457513,-6.26269426403,-1.97014776041,-0.623273379625,0.804886532345,0.177145105001,-0.494825406293,0.428891684869,-3.05499586889,97.687132853
off_to_on,-2.24416845419,-5.13900402767,-1.34716843,1.07873219647,-1.39440608705,-4.86635903068,-1.98392559185,-3.31377313542,1.09731341364,-2.49546574289,-1.29515017789,-2.1188785277,-5.21308230117,76.2159783644
off_to_on,-3.8796374744,-6.52940686492,-2.51151905236,1.05367385845,1.73417030176,-2.28397364076,-1.47068431057,-4.92699331142,1.24735674495,-4.50075326484,-1.70720471069,-4.12892910891,-6.07018875365,35.9732913849
off_to_on,-4.41401653174,-6.19790382017,-2.87175194726,0.876867561478,4.32399658168,0.789089912513,-0.541862935548,-4.882274635,1.21037628818,-5.16778844468,-1.57651907775,-4.92814160546,-5.25161939085,-12.0885722766
off_to_on,-3.68575837553,-4.20879899486,-2.36763846456,0.585124673463,5.79624475884,3.57075057355,0.591432802281,-3.12997993551,0.969213912123,-4.21538732406,-0.909816749621,-4.19540698413,-2.85585627481,-55.1796754764
off_to_on,-1.90291055317,-1.08452950438,-1.20827230321,0.226943712091,5.91128283163,5.4037816468,1.6601048693,-0.19124287707,0.545935460122,-1.86410351749,0.113836035143,-2.08564196137,0.538453789265,-82.335538911
off_to_on,0.412352107614,2.33628611488,0.202931526793,-0.146099541112,4.78838346204,5.91473760523,2.39480998594,2.99418254097,0.00432214392152,1.21085193388,1.1877369348,0.797964441772,4.01672125775,-87.4343814422
off_to_on,2.57815541875,5.13389190096,1.40567118178,-0.486346116231,2.8185499398,5.08009964817,2.58916022131,5.36716029745,-0.559563810864,4.07680314817,1.96745849598,3.58016704407,6.58655835548,-70.674798738
off_to_on,3.95909241298,6.56585609507,2.03476709429,-0.754595186708,0.513597779277,3.19168830368,2.15395867303,6.09799658429,-1.03739068274,5.83088428518,2.17908320603,5.38447801654,7.47299671293,-38.1282056376
off_to_on,4.15902939399,6.271945742,1.93455183211,-0.92224587003,-1.64892170226,0.744856449354,1.14769287012,4.86755292567,-1.33395655155,5.88562342167,1.71103155397,5.61161443027,6.35854057123,0.402392677412
off_to_on,3.13912558745,4.36550751251,1.19780773649,-0.971802331017,-3.33235789921,-1.70684492419,-0.227266129652,1.98428814612,-1.39058991023,4.15999435176,0.658460276674,4.13471212901,3.49070301518,34.4653610621
off_to_on,1.22387532636,1.38725761584,0.119009815674,-0.896823621653,-4.37264646391,-3.68370306718,-1.66504522093,-1.70424426858,-1.19948195386,1.11333027247,-0.696340564791,1.34722687084,-0.379454349448,55.9781283822
off_to_on,-1.00538870122,-1.8600347285,-0.917855012431,-0.702228609463,-4.74218279791,-4.86480973171,-2.82545280675,-5.07718842586,-0.804650923865,-2.38928984054,-1.96356405034,-1.95231010991,-4.2107485423,61.2569757955
off_to_on,-2.89355779857,-4.54213021368,-1.57440844265,-0.405262384845,-4.48021062422,-5.11468535046,-3.41552313652,-7.09518838,-0.289487973656,-5.33691608886,-2.76175231745,-4.8014105852,-6.97193279338,51.5168526026
off_to_on,-3.91136279092,-6.01841346839,-1.66745035114,-0.0366106148529,-3.63389273541,-4.46256978048,-3.26268701257,-7.12665606707,0.244957149962,-6.87499339306,-2.83389694437,-6.36338963133,-7.93606211558,31.833818474
off_to_on,-3.80793254371,-5.99692108141,-1.21634922281,0.359559995893,-2.24330995703,-3.05880633866,-2.36049412524,-5.1393835805,0.704113069374,-6.55552640357,-2.12725646699,-6.17478446774,-6.87997181391,9.06287351102
off_to_on,-2.67027751871,-4.58071233877,-0.416279668318,0.728116599192,-0.377337772846,-1.13306073965,-0.874996578953,-1.69879330417,1.01935934399,-4.46001953435,-0.811834622359,-4.27562560181,-4.13139592437,-10.4982579922
off_to_on,-0.875875327589,-2.2030224681,0.446950788841,1.00910352885,1.8023702329,1.03203276709,0.889669780131,2.21988037118,1.15791115068,-1.16279478224,0.767975362791,-1.18728142959,-0.455419883839,-22.9026959379
off_to_on,1.0401115149,0.51782655976,1.10451495169,1.14751807825,3.99161900146,3.11427891211,2.55756649257,5.53715375589,1.1218629958,2.44680556777,2.19298452673,2.24866554051,3.17814802521,-27.2768968944
off_to_on,2.55508698326,2.95253892396,1.39320483598,1.10526948268,5.75030720517,4.76741553791,3.76281771892,7.38923105473,0.938887209904,5.42285318589,3.08880349759,5.11553291634,5.87066207027,-25.3732746707
off_to_on,3.31000153002,4.61118414189,1.29434778682,0.872524547065,6.58644991551,5.65617116391,4.22827096418,7.36081893247,0.649519472183,7.02141226686,3.22899359473,6.67427938338,7.02976588617,-20.2810835689
off_to_on,3.19506192935,5.23248189084,0.914045975735,0.474955262931,6.10411828477,5.51892872623,3.82449487353,5.56537190178,0.296267237132,6.88542665362,2.59188183056,6.55146802114,6.49870041596,-14.8942048603
off_to_on,2.34960966739,4.7999491333,0.41956643872,-0.0262120903578,4.1681652971,4.24868296662,2.59834013594,2.56272550408,-0.0820041367068,5.11081563629,1.35681610612,4.81568418271,4.55271814761,-10.7604553941
off_to_on,1.08596147542,3.49762683178,-0.0370902065653,-0.542901986915,1.02058992993,1.96582453385,0.767156829397,-0.842052148437,-0.44994966111,2.18797665313,-0.155144454375,1.9324769275,1.77855436557,-7.72522063285
off_to_on,-0.228652497689,1.6337340464,-0.374959359381,-0.976824233702,-2.70946666982,-0.951817708459,-1.31907673234,-3.84132177931,-0.77232251817,-1.15103042937,-1.57478063215,-1.37704171423,-1.11364792945,-4.42745270923
off_to_on,-1.28767852989,-0.437210562784,-0.597404245644,-1.24068163902,-6.12787954511,-3.90963369607,-3.24093513987,-5.82878617112,-1.01124602029,-4.1274917373,-2.58281344914,-4.32619113846,-3.48278497941,0.647717091409
off_to_on,-1.92032500453,-2.37302712135,-0.761469193807,-1.27875326984,-8.3086445385,-6.21453195167,-4.58826158757,-6.50976736488,-1.12775665054,-6.09817971935,-2.98450008017,-6.24834917508,-4.89868343054,8.07128430919
off_to_on,-2.10732363696,-3.87810661672,-0.921969474888,-1.08122019117,-8.57205866587,-7.24910061477,-5.04250465843,-5.90414117561,-1.08899679569,-6.68309381351,-2.74285046197,-6.73573955452,-5.20322601038,16.8382714687
off_to_on,-1.94246640787,-4.72165722089,-1.08025112878,-0.687882782055,-6.71737930694,-6.65424262298,-4.4490282301,-4.26776937664,-0.879407968222,-5.81960284267,-1.96710254544,-5.70843477706,-4.49095757114,24.5021646822
off_to_on,-1.56434309621,-4.75380939602,-1.16512342517,-0.179671652422,-3.12581898696,-4.46125663496,-2.86477469568,-1.98106614663,-0.511733734011,-3.74572877889,-0.866688912792,-3.41092341242,-3.03412988488,28.0469276161
off_to_on,-1.09055005273,-3.92883181371,-1.05838523365,0.340196791224,1.31249788738,-1.12309203373,-0.567685341988,0.547518152276,-0.0327295688157,-0.929895258022,0.310756295678,-0.348262448322,-1.188236234,25.1511847319
off_to_on,-0.581008530372,-2.33318683845,-0.656112713451,0.770498794953,5.43658704708,2.57727243221,1.98118793945,2.93624309513,0.480304529105,2.03068805181,1.33777355725,2.81945694024,0.690105293302,15.3223520285
off_to_on,-0.0412792568312,-0.204215935191,0.0613021975982,1.03512241047,8.14932047952,5.72421587032,4.22313744141,4.84533544905,0.933060560624,4.52344965455,2.04770530988,5.40508840053,2.29602020729,0.411522894722
off_to_on,0.54200580163,2.0801731306,0.98430953939,1.09876276076,8.74398628753,7.51878939464,5.62290985796,5.97776719229,1.23504382171,6.03127963264,2.35232987263,6.82726319914,3.40060569666,-15.749379038
off_to_on,1.15538954414,4.05521965569,1.88058466625,0.971208344863,7.11632719498,7.50525651295,5.80096989436,6.09608754588,1.32193922357,6.22941355761,2.23973386672,6.73074052874,3.85904519449,-28.5074245373
off_to_on,1.72790187735,5.26571041126,2.45848896708,0.69974819118,3.79102096306,5.70359600346,4.64375434653,5.07191890782,1.17272158186,5.05627090999,1.76061905004,5.07492974573,3.61687784702,-33.9483099561
off_to_on,2.13308860203,5.38497170717,2.46894852812,0.352825172225,-0.247582695523,2.60446678824,2.3583072321,2.95861208248,0.816021703128,2.74347822977,1.01147676166,2.16939538827,2.72094531449,-30.2880926144
off_to_on,2.22602142024,4.32105382739,1.80839948829,0.000537404351216,-3.8651605168,-0.973526080535,-0.552184739714,0.0527388771488,0.323538666581,-0.209796668563,0.119525277753,-1.36213386211,1.32961368468,-18.5723867507
off_to_on,1.90123520757,2.27108315581,0.580835260684,-0.301872031593,-6.12512564227,-4.1201334983,-3.39576708978,-3.09979557943,-0.207616882872,-3.12630755528,-0.770524029796,-4.69679007416,-0.291989832736,-2.4016131822
off_to_on,1.14722171463,-0.303707650404,-0.910666576332,-0.522936764825,-6.55999849313,-6.08927646049,-5.4613992108,-5.78478614892,-0.678311634986,-5.29714386126,-1.51114175613,-6.99473074734,-1.80609406339,13.2451611837
off_to_on,0.0731132277985,-2.78557038167,-2.24718081335,-0.654720222975,-5.27973080658,-6.49520776186,-6.20864749726,-7.28747255675,-1.0095806451,-6.15837263496,-1.9714077998,-7.6131214986,-2.87013444807,23.6823947201
off_to_on,-1.10648593791,-4.56490141786,-3.02719017924,-0.705196665787,-2.88769722585,-5.39128204966,-5.42391537096,-7.10682005164,-1.15747512419,-5.45365349983,-2.06122496551,-6.29754591227,-3.22644400515,26.0936317182
off_to_on,-2.12616788983,-5.21360883363,-3.0038950066,-0.687549194605,-0.241756823976,-3.21385001731,-3.29432926206,-5.14600988823,-1.11722155161,-3.33193889692,-1.75549224189,-3.29093088062,-2.78679397171,20.4469389308
off_to_on,-2.74578064653,-4.6113784791,-2.17600479208,-0.611385636433,1.85007270092,-0.618536275751,-0.3712022936,-1.80318851569,-0.917070927126,-0.339641771464,-1.10964714,0.685918187767,-1.67872222408,9.42263227747
off_to_on,-2.82105661796,-2.98110764473,-0.796131271703,-0.479588504066,2.89062398776,1.73033864159,2.57315698059,2.08852378245,-0.605475511703,2.70602611238,-0.257696476002,4.59514455361,-0.228167432551,-2.61760608709
off_to_on,-2.34382088029,-0.818372695127,0.709895818483,-0.291782828197,2.82270477915,3.34554167452,4.75818616717,5.47345593439,-0.236869061626,4.93839450301,0.612031626844,7.35340980174,1.12686690062,-11.2442524708
off_to_on,-1.43837272546,1.26454357157,1.88642613568,-0.0523330721893,1.98914460131,4.0208864729,5.61640244762,7.38325548401,0.139140589606,5.69795208903,1.30072820065,8.14329399337,1.97084792583,-13.5698878055
off_to_on,-0.317234530347,2.72949090929,2.40343197602,0.221389662947,0.949786644869,3.82998956605,4.95663591051,7.24686292279,0.482584626476,4.74530624176,1.65180402476,6.67164965493,2.05096034708,-9.27217231903
off_to_on,0.785628448162,3.27438352501,2.16741547424,0.49510087797,0.233026664221,3.03587374721,3.01792496716,5.09319526064,0.762342390339,2.35719898862,1.59645139989,3.28880064543,1.3727309483,-0.660816194355
off_to_on,1.67873176112,2.91158646029,1.3465378743,0.72106938408,0.120604407071,1.9577817829,0.395506213363,1.568192576,0.952593855735,-0.73572320149,1.17618154405,-1.08082333678,0.211580855864,8.23301255851
off_to_on,2.25184483876,1.93701081915,0.300085940618,0.848965100338,0.547757573938,0.851894217634,-2.13983516802,-2.25182465092,1.03030621571,-3.56095457579,0.532611858661,-5.1889372749,-0.971784982168,13.2119455079
off_to_on,2.47923632992,0.802839754462,-0.56178608253,0.840879378508,1.15353319673,-0.149798360411,-3.87374187092,-5.19741230566,0.976635216008,-5.20615619393,-0.134723283646,-7.82725539388,-1.68946933108,11.5457024602
off_to_on,2.39257677653,-0.058660595183,-0.935387794856,0.685184622922,1.45645702112,-1.02727981213,-4.35949063536,-6.38465620634,0.782801584078,-5.11648141558,-0.630506935672,-8.19597824882,-1.60588163865,3.0859686767
off_to_on,2.04123741747,-0.395155758547,-0.738066942609,0.403782979152,1.0817555284,-1.80494821895,-3.54276758992,-5.50645831383,0.458308964261,-3.28796253524,-0.825847428008,-6.15990536129,-0.674304593276,-9.55004887127
off_to_on,1.46191969984,-0.219070727722,-0.135730770004,0.0493392188769,-0.0534621278475,-2.47025100463,-1.76222017619,-2.93369767727,0.0375035498104,-0.287251584033,-0.699445611789,-2.3058003524,0.822929884477,-21.810084463
off_to_on,0.673601034934,0.213823659125,0.528189760993,-0.307394679772,-1.6738546956,-2.92441351176,0.371808780998,0.412579205782,-0.419690494186,2.91661587552,-0.342864403792,2.22429834095,2.35250172977,-28.7748785499
off_to_on,-0.299733584138,0.523287141621,0.875980429766,-0.596379753141,-3.22836431536,-2.99482683129,2.17881500605,3.37698402743,-0.835310243018,5.25957356003,0.073047140695,6.07695793495,3.30635882553,-26.9256706574
off_to_on,-1.39125251835,0.37509495544,0.656214397607,-0.767014778355,-4.09295978486,-2.50874185004,3.12337069662,4.96560710516,-1.12861660574,5.93092639078,0.359996600259,8.10240227022,3.21892378227,-15.498700383
off_to_on,-2.46093528678,-0.363142437539,-0.141272637227,-0.800417181744,-3.81696650173,-1.39724675671,2.9748522887,4.68419158439,-1.2353883322,4.6473663393,0.381449222724,7.70914211095,1.94953724925,3.04907477803
off_to_on,-3.29515506338,-1.54289945313,-1.26296464755,-0.711125327422,-2.31750666476,0.219560981068,1.86269638496,2.70033512576,-1.125526967,1.75892259514,0.104985091026,5.04424222798,-0.237515650468,23.6411107701
off_to_on,-3.64759603875,-2.76671871593,-2.27434356675,-0.537946704327,0.0556971966661,2.01237474029,0.214082381483,-0.226655611461,-0.813197068908,-1.85227413323,-0.381224289008,0.94110266786,-2.73010500241,40.0720777467
off_to_on,-3.31498465346,-3.52415322241,-2.72003428904,-0.327724143658,2.61512717888,3.50986054008,-1.40009009415,-3.02209990393,-0.355768700455,-5.05027928501,-0.894815916043,-3.34770623576,-4.75022975003,46.918502479
off_to_on,-2.22347134795,-3.38463525159,-2.3030415389,-0.118463431995,4.55999479666,4.23992064577,-2.45623927286,-4.67904334755,0.158703853629,-6.81034018565,-1.2206794012,-6.54495397326,-5.60404037351,41.2646260825
off_to_on,-0.491810016935,-2.17674405684,-1.01528152499,0.0715266197404,5.25124410438,3.89835035447,-2.64216162092,-4.61134979711,0.632066083147,-6.55017678169,-1.18716411421,-7.74228538102,-4.91699185866,23.7012850484
off_to_on,1.55927520248,-0.0854178308269,0.832425662791,0.244253166283,4.43761929297,2.48118454413,-1.94264568241,-2.85212763363,0.97875482081,-4.31785087333,-0.731108490192,-6.66680033903,-2.77346798215,-1.71164741585
off_to_on,3.46589878165,2.37384576398,2.69683414927,0.41238461169,2.35009131754,0.324519332274,-0.624194329558,-0.0297934503257,1.14410710812,-0.774697190144,0.0710484944445,-3.73894105722,0.289259596649,-28.5064774325
off_to_on,4.73830178294,4.50135820984,3.97835737834,0.583666618744,-0.370631836147,-1.97373656053,0.868866086669,2.86521520632,1.11343946784,3.01924466787,1.0177681936,0.0894902063194,3.43430988348,-49.5729643217
off_to_on,5.0037814446,5.63397958615,4.22605890604,0.746571866114,-2.88829668814,-3.7325421034,2.0664034523,4.83531249505,0.91023353964,5.9439820359,1.83908069346,3.65596399642,5.77748652777,-59.1102003694
off_to_on,4.1292463317,5.36584435738,3.29870246549,0.864387507617,-4.45071164107,-4.40969027387,2.61967260721,5.22288959419,0.585301221181,7.16911044303,2.27790433457,5.95573580462,6.65675253949,-54.2118753379
off_to_on,2.28000706434,3.69255460807,1.42338034043,0.882008866578,-4.63566161895,-3.78966759978,2.3971156122,3.9266280516,0.201419598642,6.39993201733,2.17025653217,6.43696657768,5.83137902992,-35.6574175127
off_to_on,-0.109960670143,1.02738864593,-0.870861354605,0.744748794589,-3.47759632964,-2.06788012613,1.50367723925,1.41477409902,-0.181258114296,3.94389867194,1.498893324,5.13193338654,3.54740486329,-7.71969497171
off_to_on,-2.45224524094,-1.91833799426,-2.92253965919,0.423290432797,-1.4340447018,0.203892224869,0.2262905684,-1.46118051432,-0.51486104791,0.583789050796,0.403519126065,2.5935721016,0.451350048725,22.9266047467
off_to_on,-4.16965316557,-4.35192173407,-4.1517678883,-0.0644842716156,0.790806609318,2.29686336372,-1.06809932008,-3.77702602033,-0.766905814081,-2.69103485552,-0.855409107447,-0.326580529084,-2.61541632235,48.8819858948
off_to_on,-4.86145140325,-5.64085971261,-4.24452736386,-0.644201274418,2.4972970396,3.54958216388,-2.04381730302,-4.85350219403,-0.918050290122,-4.99933234898,-1.96779997718,-2.77260954122,-4.87119894299,63.8414440744
off_to_on,-4.41500583147,-5.49928939254,-3.24403181327,-1.19419995651,3.22389439797,3.59200436552,-2.48176829539,-4.46713530568,-0.957670725382,-5.82308996303,-2.65816368426,-4.14690564107,-5.81408375843,64.106423713
off_to_on,-3.02772189682,-4.05906970942,-1.51976207777,-1.57314312025,2.88125160286,2.46929737779,-2.3180597468,-2.88543325205,-0.88080932503,-5.12461997869,-2.75810822516,-4.25749944354,-5.34023206859,49.44258591
off_to_on,-1.13310429705,-1.80576301136,0.371404520753,-1.65928005098,1.7449092204,0.620161013807,-1.63443540718,-0.726304817898,-0.68874768246,-3.29973507491,-2.24702097276,-3.31383244106,-3.73090480468,23.1101650801
off_to_on,0.742934949083,0.593754320822,1.87966539133,-1.38971751485,0.318834224395,-1.28345420848,-0.614952805252,1.2931537324,-0.393134998797,-0.998956723202,-1.25144927763,-1.79113281975,-1.52444596015,-8.91025279556
off_to_on,2.14613521869,2.50938955312,2.64187457154,-0.786798545051,-0.870897883366,-2.57792136962,0.509584619843,2.61623900494,-0.0212936180188,1.10894398064,-0.00631313557695,-0.227727778483,0.673557905002,-39.299518974
off_to_on,2.82305336206,3.53606019259,2.58356143241,0.0382362426257,-1.47028007197,-2.84348479284,1.51087291257,3.01644161503,0.380919178193,2.54414629462,1.20838614847,0.963656600899,2.37298422386,-61.0714421247
off_to_on,2.77368398079,3.5905558581,1.91115408465,0.907517340612,-1.40689367875,-2.04831748999,2.1971362145,2.62130767048,0.751893752339,3.12640251586,2.13630998185,1.60435249625,3.3155288602,-69.1650324326
off_to_on,2.2140145487,2.89080993174,1.00355591498,1.61986420221,-0.879112484781,-0.549055399432,2.4335696033,1.7959342613,1.02390270977,2.96408455476,2.60075162333,1.74998056185,3.49542677262,-61.6101828551
off_to_on,1.46741719377,1.83447428292,0.248998245136,2.00334794685,-0.238357655621,1.05132497743,2.15664240366,0.947779068565,1.1379858747,2.34425344039,2.53557029431,1.59974759938,3.09296983435,-40.007653112
off_to_on,0.828693506504,0.828814357878,-0.108299657618,1.96188711185,0.180550340886,2.13459148575,1.38819672848,0.342542504382,1.05998395342,1.58085930763,1.98735057076,1.36624491942,2.36014932221,-9.20461883895
off_to_on,0.452978918011,0.138547640217,-0.0532370949314,1.50200226934,0.207712320248,2.30058195943,0.247948837606,0.0104153491301,0.792476429749,0.887347201272,1.09308685863,1.1674832091,1.51066945809,23.7822332897
off_to_on,0.310661820515,-0.192347678908,0.213710680051,0.731609383689,-0.0962322323206,1.5153172322,-1.0452951003,-0.221599783097,0.378143225832,0.322065224212,0.042882038358,0.986847324755,0.657881021848,51.3730952424
off_to_on,0.223242777981,-0.319909831514,0.380156232477,-0.168895665113,-0.482134810972,0.118496067011,-2.196899471,-0.593313279211,-0.107437751161,-0.181036990011,-0.961490560905,0.712465299997,-0.181179049581,67.2029408059
off_to_on,-0.036480380697,-0.494996795192,0.172084155988,-0.994693382935,-0.641087708113,-1.3120418561,-2.8923222298,-1.24014166772,-0.572175471612,-0.722147854501,-1.74325589386,0.23040167041,-1.02823054007,67.6501806057
off_to_on,-0.621543703075,-0.920738637365,-0.510557855112,-1.56957145605,-0.362366292662,-2.18717903184,-2.88086312988,-2.07276116443,-0.928612424869,-1.33612151507,-2.17731493848,-0.478038455761,-1.86855440524,52.7306608635
off_to_on,-1.51602993079,-1.63353622053,-1.52837857882,-1.78864094321,0.349474026478,-2.13815497819,-2.06632752543,-2.77168252872,-1.11381018807,-1.93548660807,-2.20533654052,-1.28579770983,-2.60048010536,26.1095081569
off_to_on,-2.50886861564,-2.45845271381,-2.53544304005,-1.63908057171,1.25174467766,-1.16413526032,-0.572181732781,-2.9097238134,-1.1023696314,-2.32596900808,-1.83997500179,-1.94539583792,-3.03928391544,-5.80062306882
off_to_on,-3.25082046586,-3.06006235847,-3.10084376592,-1.19436473974,1.94931722915,0.36173180513,1.25124248914,-2.15613848759,-0.909262481747,-2.28978036316,-1.1596143996,-2.18390767474,-2.97931054571,-35.4441660505
off_to_on,-3.37726241306,-3.07177267782,-2.87480508882,-0.585648661591,2.05738831096,1.83175219169,2.89557893369,-0.474186640769,-0.582457525042,-1.69926883465,-0.29472540339,-1.82810150814,-2.29006565654,-56.0190022563
off_to_on,-2.65322754225,-2.25480589185,-1.73721183566,0.0393602813711,1.37597151745,2.63709921504,3.83178116623,1.78178782164,-0.188463054845,-0.607236817018,0.593346870515,-0.903501583461,-1.00385286483,-63.1586331431
off_to_on,-1.08662893819,-0.624499675628,0.128405172353,0.556689372396,0.00281193645553,2.40713753061,3.68032571396,3.9286798431,0.204219898723,0.732383108008,1.33970860909,0.341299610022,0.647756175599,-55.9424198677
off_to_on,1.03516112547,1.50841146981,2.26612868502,0.893592069736,-1.66683206528,1.1630159606,2.35911157737,5.17183756554,0.538722834437,1.93141049801,1.80619867067,1.50428912001,2.27304047539,-36.9622941023
off_to_on,3.2042779071,3.60387381736,4.0772237026,1.03643108727,-3.06165898024,-0.675017419025,0.152508434185,4.90570514415,0.777220892695,2.6020058158,1.90936030891,2.17323773372,3.429362757,-11.4478939638
off_to_on,4.83233989947,5.04921737958,5.00585538128,1.01912287345,-3.63684390493,-2.43271526753,-2.3349163386,2.98360357449,0.901523605397,2.50783907134,1.63951246486,2.08871348705,3.76743719527,14.2699839779
off_to_on,5.42787361013,5.35586828543,4.71866561849,0.898717757675,-3.08325464146,-3.42800757547,-4.33966954451,-0.156989678699,0.908801111238,1.66952696692,1.06491081661,1.26048322332,3.15835120191,34.4848105733
off_to_on,4.75337755722,4.32913855926,3.21784653216,0.728402446673,-1.46286678436,-3.22795812487,-5.17372052728,-3.58036668626,0.805855007083,0.376571709229,0.317932992341,-0.0147510043925,1.75374377056,45.5130059196
off_to_on,2.90981230198,2.15141831478,0.850208208025,0.538124649473,0.785139318095,-1.82057922962,-4.45898083204,-6.13887386758,0.605193738196,-0.906545795224,-0.43502374649,-1.24945867175,-0.0481122821597,46.3739632488
off_to_on,0.319769231419,-0.652546883359,-1.79003984186,0.329385590803,2.97597385644,0.364270561723,-2.28093694379,-6.8693247189,0.324596744157,-1.70983238328,-1.03314899211,-1.94499478462,-1.72356424322,38.6091804558
off_to_on,-2.3863271492,-3.36012204374,-4.03214275143,0.0849651952093,4.4052973719,2.59569501004,0.798926577399,-5.35922366769,-0.0103941582257,-1.73983806095,-1.35997505177,-1.78879856656,-2.79251172658,25.3883415097
off_to_on,-4.54535348021,-5.26000959021,-5.31802545377,-0.211449882617,4.59013727862,4.09551644173,3.88818082437,-1.94304601817,-0.363516944909,-1.00239650592,-1.37039848335,-0.791608147953,-2.97625274447,10.2791792444
off_to_on,-5.64345634969,-5.85980850654,-5.35144750822,-0.554529669557,3.43796852173,4.31419473621,6.0287704896,2.357185089,-0.6875222153,0.186284821356,-1.09811005032,0.693770364525,-2.28781908756,-3.85514705469
off_to_on,-5.44987804664,-5.0265144192,-4.16482866048,-0.904703133359,1.28247878331,3.12926594711,6.50117882759,6.14302725269,-0.928902622038,1.31097266562,-0.641369864763,2.08729856099,-1.02176660907,-15.45271972
off_to_on,-4.06503990248,-3.01727847736,-2.09020757573,-1.18998234899,-1.22723713182,0.894330721108,5.06760995464,8.10512468621,-1.03783719668,1.85402846636,-0.131751493973,2.79367163298,0.353579893687,-24.1892007393
off_to_on,-1.87387728757,-0.393894367294,0.348622947966,-1.32318307863,-3.34413587807,-1.67935319219,2.06984762167,7.48381578684,-0.981089886781,1.50451448038,0.304242958855,2.43489977867,1.36304963788,-30.3761122268
off_to_on,0.574912676285,2.14846821156,2.58375148832,-1.22972554287,-4.46923811703,-3.76616753489,-1.65691656664,4.3595373085,-0.753772731138,0.298298335816,0.578795994635,1.01473442349,1.69080219082,-34.1648147326
off_to_on,2.72222695066,3.98217661759,4.14452018731,-0.876935163795,-4.33910634151,-4.70716262811,-5.03203776899,-0.337919170478,-0.385523156184,-1.36955722812,0.661714428376,-1.05231415729,1.28622491622,-34.9775964538
off_to_on,4.13728343846,4.71538111964,4.75515726733,-0.294508811411,-3.09095611069,-4.22908217353,-7.06157657835,-5.1153968236,0.0619890790584,-2.87217839562,0.580063221006,-3.06622383526,0.372225577552,-31.4865246976
off_to_on,4.60439566814,4.27943482207,4.37025834649,0.421957575915,-1.18788005908,-2.52542937456,-7.14702875211,-8.40659259791,0.506633773543,-3.57672190299,0.400483898523,-4.28207561473,-0.645616067154,-22.216608237
off_to_on,4.14116731914,2.91592438904,3.15115429259,1.12744409751,0.761797942437,-0.174579561005,-5.26938315335,-9.10029090712,0.863838522506,-3.0876090266,0.201777702814,-4.18175790286,-1.33448003966,-6.55644955551
off_to_on,2.954782833,1.07640072105,1.40222185483,1.66079049025,2.21980574884,2.07104055968,-1.98849722431,-6.92317871177,1.06613094322,-1.41571829489,0.0479338936217,-2.67717269915,-1.39668669118,14.264101847
off_to_on,1.36071348836,-0.726394019839,-0.507782677952,1.88610422099,2.88746231617,3.54544743246,1.74021310275,-2.54192983593,1.07860416427,0.993918397043,-0.0293978230664,-0.16691382644,-0.779708885454,36.7254042795
off_to_on,-0.305207115373,-2.06606017145,-2.21820980976,1.73063592452,2.77073133971,3.88491259225,4.86862518329,2.65368525324,0.905911905493,3.39305415647,-0.0343060110288,2.58018016656,0.305440847098,55.4444960132
off_to_on,-1.75548080927,-2.70510983322,-3.43152463723,1.20797266564,2.12526377862,3.12464755946,6.5763189847,7.01331649784,0.58907281495,4.9785160684,0.00315464832459,4.67834015585,1.46261847054,64.5079683233
off_to_on,-2.7876577829,-2.62813489537,-3.94958281855,0.419278424067,1.31330470009,1.64855448532,6.50349512999,9.17471790641,0.193549732266,5.17178298627,0.0442043081793,5.42769194007,2.25560007103,59.3736538918
off_to_on,-3.29109474616,-2.00590640079,-3.69542567706,-0.468575364518,0.637243710693,0.019486546014,4.82463791285,8.50947293778,-0.207358585524,3.82974032426,0.0582650437566,4.55915736359,2.36607709434,38.7205182708
off_to_on,-3.23609508782,-1.11217828908,-2.72416653731,-1.26260497681,0.220369475067,-1.23962489211,2.14828842778,5.31400067969,-0.548694380219,1.309056713,0.0329940498689,2.33295585263,1.70749716237,5.54805319163
off_to_on,-2.66003538021,-0.226402135303,-1.22162537749,-1.79060670034,-0.0176164838653,-1.82866726987,-0.711669096833,0.684791234735,-0.785180245294,-1.64192650251,-0.0254052222309,-0.546164094917,0.455123571589,-32.9960168884
off_to_on,-1.65960629615,0.445473043229,0.515463272557,-1.94283923014,-0.284712293684,-1.75034293954,-3.0064503747,-3.87202408238,-0.895453704291,-4.12816179388,-0.0998641864419,-3.16819622774,-1.01599311051,-67.189425383
off_to_on,-0.388799248872,0.811310017694,2.12423812233,-1.69746198784,-0.778254425827,-1.26355116181,-4.26938407075,-6.95507147423,-0.879616126091,-5.40467742629,-0.173028702993,-4.72722029785,-2.26020245916,-87.3594078691
off_to_on,0.94593617815,0.889692088416,3.24598860643,-1.12326297081,-1.54917030562,-0.737320728261,-4.41064160896,-7.72486536279,-0.752710940922,-5.12128620243,-0.234883305147,-4.79119777802,-2.90976907026,-86.8030432465
off_to_on,2.10439734009,0.773805731638,3.6114489273,-0.359524095421,-2.43353920032,-0.471003204889,-3.67065145795,-6.1481288351,-0.537659605531,-3.43005545626,-0.283639645503,-3.43721629601,-2.79028710007,-64.0752479626
off_to_on,2.85134035358,0.581269835755,3.11952905526,0.420900161519,-3.088118547,-0.557774447544,-2.46682184382,-2.9540234789,-0.260567455301,-0.919808825614,-0.319977174422,-1.20625505893,-1.9651394189,-23.8481930341
off_to_on,3.0110946283,0.409348176605,1.88256514775,1.0548502574,-3.12203894148,-0.84858757504,-1.20516996033,0.66841178806,0.0504597933922,1.5961058268,-0.338536711974,1.10299871376,-0.698583855021,24.0405119859
off_to_on,2.52310470333,0.308711414478,0.215895800965,1.42673680556,-2.27410206317,-1.03086224459,-0.135274569773,3.51182532301,0.363947450723,3.3607877982,-0.322471910381,2.72400228076,0.643456744947,67.1650810178
off_to_on,1.47735555106,0.279523076356,-1.43526500195,1.49134338463,-0.561801426922,-0.787688206848,0.697715874007,4.76726601535,0.643583699342,3.92275413514,-0.245832793981,3.18970170542,1.71530595704,93.9916958317
off_to_on,0.111076060328,0.285196124182,-2.61737323011,1.27659551105,1.66539830458,0.0313146290461,1.39538037721,4.26905014323,0.849336402755,3.26636204832,-0.0848795459327,2.4815020745,2.29206791948,97.217387369
off_to_on,-1.24071169047,0.27458996286,-3.00447491669,0.867252971167,3.80133352915,1.30303117043,2.08050598562,2.49033613984,0.942696274466,1.78244900717,0.165355296111,1.0092872591,2.31683035538,75.9333192144
off_to_on,-2.23191395216,0.20344314874,-2.50448809423,0.375820334537,5.16979824564,2.63901728005,2.77034064758,0.306829136718,0.895545089601,0.097139985957,0.476644158088,-0.564967190581,1.88550838805,35.9257632681
off_to_on,-2.60516978652,0.0491678927869,-1.29699924049,-0.0898367848686,5.25956779083,3.51393265521,3.31435454204,-1.36964812002,0.700076258727,-1.17228849384,0.783411585902,-1.59007951421,1.18441044462,-11.994782235
off_to_on,-2.2725855936,-0.182626247265,0.216056465661,-0.452511237829,3.9214683646,3.4695088684,3.43229565553,-1.9430387022,0.376007502925,-1.64155655477,0.994015122562,-1.67470762309,0.411432484985,-55.12704745
off_to_on,-1.3485373401,-0.458558482254,1.53624681873,-0.678432096708,1.45049409571,2.31554532311,2.84183417368,-1.33856631708,-0.0283978063611,-1.28173930919,1.01676946874,-0.829624548266,-0.286256938481,-82.5092410901
off_to_on,-0.119989209026,-0.722845393859,2.23240617624,-0.774670650215,-1.48449709403,0.245693328868,1.42170175919,0.00817930348566,-0.443237878347,-0.399286729114,0.793452527585,0.54780265552,-0.836751860677,-87.9366007724
off_to_on,1.03944156571,-0.906643963827,2.0874837257,-0.774175119361,-4.04551096808,-2.18540522668,-0.665263581239,1.36299888532,-0.790917522855,0.511706501587,0.328464422744,1.8377253392,-1.22813422042,-71.4710631478
off_to_on,1.78552278273,-0.941605012853,1.17627007366,-0.715273987936,-5.49598929292,-4.22586271532,-2.954163218,2.01377522957,-1.00369237715,0.982493479951,-0.298575510159,2.44555557241,-1.46958782217,-39.0450716319
off_to_on,1.91175429723,-0.777674316638,-0.156386164553,-0.623812271359,-5.44239128794,-5.17894695709,-4.79032401495,1.56984550468,-1.03987425935,0.76271733837,-0.944527574408,2.03790668065,-1.55443969423,-0.372564774068
off_to_on,1.4135376763,-0.402997399413,-1.41309983576,-0.504520970203,-3.9605321614,-4.65508053081,-5.54301643395,0.12277684444,-0.893907430731,-0.0812458012522,-1.43833038382,0.677159015571,-1.44739556397,34.0990899985
off_to_on,0.485985669906,0.13950784259,-2.11884837737,-0.344370135726,-1.5612482748,-2.72988856206,-4.84544850145,-1.79101609562,-0.597315479763,-1.19851688343,-1.63112135391,-1.19547736557,-1.10425023292,56.2009073462
off_to_on,-0.544273245739,0.746750186598,-1.99261301205,-0.125902414212,0.991902397771,0.0546418314546,-2.76687155507,-3.40640094573,-0.210337108015,-2.10063052356,-1.44505991551,-2.92081641133,-0.514280787357,62.0967340175
off_to_on,-1.33009747794,1.26845914123,-1.05396468929,0.155415456266,2.94642196035,2.85357473287,0.159381222161,-4.03574199313,0.193076038922,-2.36277608648,-0.903837015356,-3.86485456714,0.258162142753,52.8295656277
off_to_on,-1.61952368774,1.54110672257,0.37589178489,0.477518218806,3.81047482643,4.79479072936,3.07790111338,-3.34343283426,0.542333231164,-1.79882819434,-0.132810586029,-3.65253840323,1.05903344816,33.336725885
off_to_on,-1.33650718365,1.43738303966,1.78223920631,0.788282013914,3.49910394234,5.2724833662,5.08479054957,-1.48188656102,0.784483543171,-0.541147338117,0.673544296315,-2.30524157508,1.67292870881,10.4096337429
off_to_on,-0.599606075611,0.917503893352,2.63829444216,1.01512475548,2.32751519299,4.1549305868,5.54033257786,0.961882872581,0.892160337463,1.00561436797,1.30790130429,-0.232364099628,1.89117947258,-9.62410108962
off_to_on,0.326374622779,0.0635898145959,2.59645356328,1.08556653937,0.859708108162,1.83170185666,4.30651289647,3.18548249923,0.864046701675,2.31769488628,1.6123269747,1.91728406296,1.59645797007,-22.7042442538
off_to_on,1.12704875633,-0.92021626836,1.62041661036,0.952219683101,-0.325246487164,-0.918351719988,1.81612720057,4.46885558484,0.719252198458,2.95159334327,1.52585647373,3.48658098321,0.828771730287,-27.7942616057
off_to_on,1.54798221205,-1.75032896786,0.00880222547501,0.613413007338,-0.857273429019,-3.19335701698,-1.06183317082,4.43469663147,0.488734731757,2.71122442764,1.10106682689,4.03660954527,-0.199818885515,-26.4800150225
off_to_on,1.47796505132,-2.14307646957,-1.70114290666,0.121483806501,-0.703511782472,-4.27595393639,-3.32117206342,3.17281496443,0.2072725163,1.71768974853,0.483615774308,3.48558186239,-1.15724074742,-21.7244660577
off_to_on,0.977457320293,-1.90978837263,-2.91807210559,-0.425458121093,-0.153419747683,-3.87423414937,-4.17886812762,1.18470811034,-0.0915292714058,0.355207952869,-0.138479409534,2.11239915299,-1.69962241921,-16.3644499812
off_to_on,0.244422051833,-1.03655517878,-3.20507451322,-0.906996182137,0.329592278715,-2.21192950857,-3.36597473167,-0.824573333491,-0.376596560886,-0.884343275034,-0.598286545467,0.429500713984,-1.60025843624,-11.9672744036
off_to_on,-0.46703742242,0.282480294668,-2.43799042473,-1.21247611304,0.327539047501,0.0624947480856,-1.23825187304,-2.2214717007,-0.618409388255,-1.5958913563,-0.803844988698,-1.02104415381,-0.850736878543,-8.46038477576
off_to_on,-0.942835832568,1.67789068561,-0.855903895562,-1.27179283167,-0.332419814185,2.11372440514,1.34171703656,-2.67619305481,-0.788091731731,-1.61696062607,-0.763397637621,-1.86686596317,0.309279789743,-4.59893977858
off_to_on,-1.08297182629,2.70275955284,1.01610726061,-1.07505090517,-1.48111196528,3.21846763319,3.31594558206,-2.26222560973,-0.85881767995,-1.08249307664,-0.57306376748,-2.02336093881,1.45408639409,1.01420969257
off_to_on,-0.92617639187,2.97114762097,2.54645635443,-0.674690415409,-2.65608137347,3.0186118549,3.82751417866,-1.38802665944,-0.810463028524,-0.356541161607,-0.37172564536,-1.68814735834,2.11270605672,8.85770391816
off_to_on,-0.617687669729,2.29507187469,3.216388295,-0.169383018444,-3.28074718331,1.63959836216,2.55766149176,-0.593789661693,-0.636529892861,0.132028208959,-0.28015561665,-1.21982695165,1.94351001475,17.8741803689
off_to_on,-0.335223323458,0.772759459823,2.80186981973,0.32496881924,-2.90587451077,-0.365798616953,-0.124541044204,-0.300272918014,-0.350734123397,0.0835235797277,-0.347694031956,-0.955336777904,0.88019595261,25.6055829847
off_to_on,-0.204733174042,-1.20805206502,1.45332330811,0.707574013013,-1.4179920031,-2.22528210708,-3.26352160828,-0.615485269222,0.00997355115652,-0.52866362928,-0.52759578333,-1.04447853151,-0.808798604352,29.0555618535
off_to_on,-0.241586669539,-3.06299761628,-0.355688220949,0.917978696499,0.871096490299,-3.22975846637,-5.64289667861,-1.28122431164,0.388428957954,-1.42607892207,-0.692009505616,-1.3729038162,-2.57857784102,25.9395639145
off_to_on,-0.342766575935,-4.17973401203,-1.99339087376,0.946476424925,3.29626438482,-2.98889080281,-6.22531315689,-1.78447493767,0.716873598556,-2.12401965144,-0.682885011881,-1.60869180092,-3.77421199994,15.8065056079
off_to_on,-0.335105209728,-4.11406648331,-2.89060359415,0.827438656311,5.05397746005,-1.56886079323,-4.55029517799,-1.59098431999,0.931327984465,-2.12816033155,-0.381140635898,-1.35672637627,-3.85527327442,0.546736470767
off_to_on,-0.0614126468793,-2.75120490476,-2.73979410572,0.619437276239,5.48591216898,0.534700670705,-0.943502246461,-0.406699860812,0.986915080789,-1.15518165426,0.231679201998,-0.359315042502,-2.60308714701,-15.9716496018
off_to_on,0.530479654105,-0.375633465774,-1.60240203982,0.380610056045,4.32795523664,2.57617746249,3.54614373613,1.64217052557,0.869590472686,0.71009104278,1.04403390523,1.34089472572,-0.235311565238,-29.0598754757
off_to_on,1.33436836664,2.38153541265,0.113160166558,0.149038472402,1.83046254859,3.82559423782,7.47002869171,3.99144981096,0.600560433446,2.9889601197,1.83191979909,3.34919856095,2.62055223783,-34.765700395
off_to_on,2.09505892327,4.71099536448,1.79484607224,-0.0645340318661,-1.29962294637,3.82511005915,9.45937495151,5.80337282414,0.231818263518,4.93594927344,2.32180137847,5.01157520484,5.09717558104,-31.2665124979
off_to_on,2.48446028062,5.864259548,2.84113248323,-0.26959476113,-4.12009399353,2.5464948201,8.69792222536,6.26167837923,-0.166034704955,5.78329462482,2.2808230309,5.62968073651,6.35373140601,-19.5748784865
off_to_on,2.22207438456,5.39177525609,2.87097757612,-0.478406022049,-5.76364041018,0.396744541001,5.22347164171,4.89222197182,-0.52015541769,5.02112283842,1.60494346645,4.72598436659,5.85516017694,-3.27356338447
off_to_on,1.1978498577,3.30411682855,1.85657719856,-0.68674965301,-5.72876716123,-1.92638749914,-0.0496229562081,1.78836033369,-0.771321448506,2.61333984327,0.373983411466,2.26182632128,3.57157293285,12.6512077597
off_to_on,-0.449901110018,0.100198498054,0.133435704269,-0.86250287119,-4.04889173017,-3.67485615753,-5.60010982549,-2.35019268726,-0.885012941374,-0.933391630867,-1.14843950665,-1.27862905849,0.0267324218526,23.4772176892
off_to_on,-2.33676512889,-3.35429416329,-1.7147009678,-0.948766006541,-1.27973382332,-4.30111379503,-9.77466100066,-6.39193212382,-0.855230410651,-4.68241096776,-2.57507511511,-4.98241105533,-3.82873962667,26.3249382424
off_to_on,-3.92385108184,-6.0683504255,-3.05524837191,-0.882341111683,1.69051110379,-3.63308820053,-11.3106584696,-9.11221964722,-0.701041438218,-7.5343761022,-3.50061552057,-7.76201106719,-6.88706208972,21.0843472843
off_to_on,-4.67648134172,-7.21771769864,-3.42132822718,-0.621645323868,3.94109325301,-1.91682076343,-9.73381129089,-9.58633216084,-0.458094923675,-8.56731495095,-3.62217237212,-8.69382850117,-8.21556814695,10.3596863211
off_to_on,-4.24173912074,-6.39941948365,-2.66828930164,-0.173286389809,4.82341343228,0.281766782045,-5.50095652343,-7.50468128083,-0.168570252315,-7.33956763929,-2.83758214123,-7.33064127192,-7.3482407808,-1.54358554025
off_to_on,-2.58583714268,-3.76877650955,-1.02029560194,0.394388671652,4.16504300373,2.27581628124,0.154531543254,-3.30163167763,0.127122918985,-4.05452092445,-1.28962554919,-3.88099625981,-4.44335461701,-10.219067127
off_to_on,-0.0412217751016,-0.0127786123686,1.00644557824,0.958762001733,2.30505009961,3.48475663716,5.61752493477,1.94911282133,0.394929130628,0.470978786371,0.660186177403,0.811422535115,-0.254588405823,-12.7647221062
off_to_on,2.7599574363,3.83704294968,2.77528519966,1.3721771973,-0.0464050301428,3.61197711317,9.39114869667,6.84183000749,0.607965695467,5.02970638999,2.52336842193,5.49111392903,4.07899289662,-8.81104686561
off_to_on,5.05313005383,6.69947978831,3.73610153499,1.50540203665,-2.06918220604,2.71696900969,10.5374091698,10.0512055045,0.745183459006,8.37194321727,3.81660721787,8.85256445937,7.3618150921,-0.601088977343
off_to_on,6.16249473939,7.7592036931,3.59844085333,1.29154654906,-3.11918990235,1.16574476735,8.92086027549,10.7190249586,0.790204580135,9.57121320891,4.19624696333,9.92947433678,8.6898686408,7.90365248594
off_to_on,5.70910043885,6.70808493154,2.41556272356,0.754971274878,-2.93820549498,-0.514037725195,5.189784134,8.69517969475,0.732206494,8.29530760426,3.55568786151,8.38938719034,7.71234282031,12.5637518299
off_to_on,3.73967624742,3.83871340942,0.555939647604,0.013556666362,-1.71736482148,-1.81653159492,0.519546243108,4.56296963656,0.569312568406,4.90042818474,2.05687400446,4.64045861082,4.72832610777,10.68628983
off_to_on,0.732450840628,-0.0391294853844,-1.42317138281,-0.748946735103,0.000809570834441,-2.41482478449,-3.78096458272,-0.550592955287,0.313247914355,0.322160085262,0.086428127827,-0.283932700684,0.591385050176,2.1383658398
off_to_on,-2.52655018552,-3.8346638089,-2.95432817657,-1.33363970638,1.53870599335,-2.2418871926,-6.66211992949,-5.31177528022,-0.00719817378013,-4.20017530173,-1.85082596271,-5.02726151447,-3.54622438229,-10.4645321104
off_to_on,-5.1628211912,-6.49422598,-3.63078560068,-1.58504716901,2.3348093352,-1.47659773211,-7.60072044982,-8.55534084916,-0.346508894731,-7.47960027757,-3.26998134842,-8.30528923262,-6.57000127158,-22.5815136601
off_to_on,-6.46377447689,-7.30586532349,-3.31632557714,-1.43878677069,2.13793798617,-0.450802573657,-6.67111202306,-9.5850755037,-0.648112750884,-8.71050891837,-3.83601976043,-9.27395573245,-7.7183039918,-29.3083599609
off_to_on,-6.08485609749,-6.09956687808,-2.16432555053,-0.942365957025,1.07794541435,0.481077927685,-4.42334288687,-8.31879368943,-0.855006013476,-7.67562882093,-3.44894812255,-7.7596967623,-6.78369186431,-27.1434852407
off_to_on,-4.14871320941,-3.28458813251,-0.547883656359,-0.241541043795,-0.405468646479,1.06026584574,-1.63636499472,-5.2514803872,-0.922893613124,-4.77661511096,-2.26124724784,-4.28698141182,-4.14550620526,-15.3458423491
off_to_on,-1.2071650379,0.284660703409,1.06892983403,0.464050308673,-1.74167127825,1.1905954593,0.951988130467,-1.26726064502,-0.832070925217,-0.888850358754,-0.624964025429,0.098531768704,-0.631405434555,3.59333978265
off_to_on,1.92228469945,3.57078309714,2.27282059341,0.981960943031,-2.44424460072,0.938614863677,2.8432936094,2.62826079412,-0.594202290831,2.90755758142,1.01387062767,4.15102465493,2.74324842392,24.5472844756
off_to_on,4.3953439573,5.66223176738,2.81093201684,1.18495343998,-2.28177225505,0.477512882524,3.85089215789,5.57033392759,-0.251472671379,5.63597644331,2.24133685507,6.78869376084,5.07521431344,41.2460483666
off_to_on,5.58261132624,6.0349978902,2.63881740614,1.04713027269,-1.34473795377,0.00460461685808,4.04791846129,7.0217919351,0.132122420429,6.68068390083,2.78554259421,7.39180002727,5.82215403177,48.1972177554
off_to_on,5.24158147469,4.68986465405,1.90054244227,0.646687805303,0.00910186735303,-0.332518638335,3.64038083472,6.84771480682,0.485120921143,5.92492819818,2.58004620038,5.9506060688,4.930390759,42.4294450781
off_to_on,3.56916580434,2.12780782262,0.857298615636,0.1350928376,1.30249594735,-0.474879680577,2.83622518904,5.28036094958,0.744580201537,3.7405317812,1.76542017725,3.02844009615,2.81186447111,24.512157593
off_to_on,1.12262865805,-0.823444883838,-0.204960634658,-0.316201797438,2.11854225844,-0.447688389694,1.77045681959,2.80682556893,0.869269747417,0.844433945849,0.632329852285,-0.438082281111,0.187286723086,-1.46501132303
off_to_on,-1.36248833127,-3.2735463003,-1.05643528666,-0.572977608489,2.24366937106,-0.323138305446,0.510579560929,0.0251102811101,0.846652398199,-1.92639483071,-0.473683014262,-3.43295534127,-2.14872575336,-28.9475381638
off_to_on,-3.19811642465,-4.54025580854,-1.56988094062,-0.579956401543,1.72342729973,-0.173049323964,-0.876736616837,-2.49002013269,0.692322822096,-3.85218580359,-1.25551487498,-5.15688496009,-3.56525316468,-50.6913288035
off_to_on,-3.94238315199,-4.34351940839,-1.72524598571,-0.373379333345,0.817263042361,-0.034951390429,-2.24801533985,-4.28591149366,0.442960893986,-4.51350497352,-1.54515911206,-5.23931962983,-3.76458303009,-60.7408922055
off_to_on,-3.51176615979,-2.86639183795,-1.58102184383,-0.0613284616175,-0.122082132601,0.0942600346986,-3.34993104457,-5.08855747537,0.145699003949,-3.87537428345,-1.33955028942,-3.81085729456,-2.83832201752,-56.0520657398
off_to_on,-2.17667026486,-0.669837059586,-1.23075958534,0.219974139579,-0.791818532828,0.237858473996,-3.86390642965,-4.8227360346,-0.15251603933,-2.25897557056,-0.784168100636,-1.42530488014,-1.20226246847,-37.3222402636
off_to_on,-0.44838826035,1.5053354807,-0.764604937164,0.357452541218,-1.0473136814,0.406117200263,-3.52139127896,-3.60564562104,-0.412616210391,-0.219404017373,-0.113128917426,1.13469912829,0.560605780779,-8.82729690132
off_to_on,1.10061021543,2.98192145023,-0.249275171444,0.301448505047,-0.935490007674,0.570442974622,-2.2436089968,-1.72043670186,-0.606804756522,1.62851452181,0.432863857793,3.10324293899,1.89383617892,22.660576895
off_to_on,2.02193005726,3.355991287,0.270727456612,0.0809267557082,-0.646190512726,0.660908340455,-0.239327506915,0.429749609679,-0.718156310354,2.78446115847,0.683864486462,3.95267844683,2.43579675497,49.5653821798
off_to_on,2.12224348016,2.60755405763,0.757903035133,-0.210939645092,-0.407871949789,0.591584281919,1.99652862192,2.38898239942,-0.738309700675,2.98992023495,0.589505698496,3.52858637904,2.1126753622,65.3652216857
off_to_on,1.5009535495,1.08138932775,1.16522349972,-0.454444178128,-0.375214699376,0.30401299642,3.80390041814,3.73456412738,-0.665508856043,2.27830048285,0.225700699313,2.06542285475,1.1333289823,66.1572099662
off_to_on,0.488125884301,-0.649570936529,1.430102555,-0.549596642562,-0.557176280211,-0.190875047652,4.5686658996,4.16995725696,-0.504529175932,0.940757014455,-0.240402307266,0.0871313741879,-0.104704692137,51.5688149234
off_to_on,-0.490296382711,-1.98815302621,1.48450846161,-0.453524910865,-0.81510703931,-0.793488744479,3.95140752302,3.60280007504,-0.268596002884,-0.576427208772,-0.613613382395,-1.7699171902,-1.16147205622,24.8274976887
off_to_on,-1.06994982947,-2.51382019657,1.27842861125,-0.1953610773,-0.930143941782,-1.33190894459,2.04486131084,2.18216860142,0.0180720707034,-1.80995968694,-0.740053628823,-2.95433637964,-1.70247480658,-8.00028430609
off_to_on,-1.07287145525,-2.11380867978,0.806924028806,0.136312460707,-0.709875319783,-1.61235334161,-0.610448250541,0.275434832476,0.31929613061,-2.41287426227,-0.559601117428,-3.15809529111,-1.60019353612,-39.408684652
off_to_on,-0.558098003802,-1.00344119642,0.128363044602,0.427985693578,-0.0880403676547,-1.48752163723,-3.17405263795,-1.61855064941,0.589527813512,-2.24644008518,-0.124709478573,-2.39166317521,-0.959145657222,-62.1692563923
off_to_on,0.216054812924,0.366824665721,-0.63596144171,0.584102210905,0.825936396958,-0.91765501586,-4.77688176924,-3.00165221705,0.780738233292,-1.40716445189,0.419580437617,-0.958818138717,-0.0609722951368,-70.9844186746
off_to_on,0.900673385426,1.48159837826,-1.32394142941,0.561827455006,1.77009246805,1.40988520037e-05,-4.82533200539,-3.51717438436,0.852550392161,-0.18439356217,0.886708632647,0.655445642573,0.74741049887,-63.7139602447
off_to_on,1.19404511396,1.94664413167,-1.77155101289,0.384657693426,2.41860005052,1.04718499237,-3.22802555418,-3.05485609763,0.78293691628,1.03628423594,1.11293856103,1.94539037775,1.18161903204,-41.8988070076
off_to_on,0.957570331331,1.62559681472,-1.85724940847,0.13016565647,2.50220984916,1.94322338505,-0.456854545371,-1.78399071252,0.576043341324,1.8935197272,1.01314025008,2.54221584266,1.11879832034,-10.4511757544
off_to_on,0.267845913657,0.680613802224,-1.53822627741,-0.102780896495,1.91377325869,2.42833803213,2.58969065716,-0.10066743579,0.264175977196,2.15794322445,0.60942243429,2.3207744061,0.634285346174,23.4409844754
off_to_on,-0.613208419558,-0.495345758634,-0.867084515867,-0.234099211021,0.757796084462,2.34361675749,4.88154046929,1.49601617378,-0.097380805493,1.79494743547,0.0233773343349,1.42444588208,-0.0352821580133,51.9670567921
off_to_on,-1.33834422169,-1.42870734048,0.0165397005707,-0.233913400675,-0.675350193704,1.68120213842,5.61107988017,2.55886519428,-0.44182138294,0.964370532798,-0.564985054354,0.203474291204,-0.587827638303,68.5332629741
off_to_on,-1.60782467234,-1.74321491468,0.917513021047,-0.132838760046,-2.00107446646,0.5883731618,4.48131629757,2.82711984099,-0.705605485544,-0.0412964893654,-0.977380274202,-0.910835222767,-0.775448709786,69.3506758972
off_to_on,-1.28594965194,-1.30143448835,1.63150257793,-0.00700167210424,-2.86399615443,-0.674711006378,1.82292920179,2.29586639206,-0.84250682417,-0.899034260188,-1.0959588631,-1.55385272872,-0.504079599651,54.3700453417
off_to_on,-0.457964233163,-0.258782376012,1.99392165651,0.0563079856903,-3.04822979912,-1.80843268621,-1.50616788847,1.1986771513,-0.833067372084,-1.36354444814,-0.900758071824,-1.54863665379,0.123837248671,27.3052335465
off_to_on,0.594443800571,0.989838403177,1.91922438518,-0.00137364747485,-2.53623718036,-2.55388829537,-4.40776827884,-0.0871241954992,-0.68707263901,-1.34530797676,-0.473476053244,-0.960561824671,0.840964486589,-5.28830899833
off_to_on,1.49136288481,1.95245737483,1.42122689964,-0.180351932223,-1.498852011,-2.75529549951,-5.91814607719,-1.17580080533,-0.438865112871,-0.932125817138,0.0332510763181,-0.067694869864,1.31196138359,-35.6624165819
off_to_on,1.89195973011,2.2211994419,0.610104994395,-0.416633870746,-0.225471592958,-2.38846476676,-5.53905589697,-1.79903475439,-0.137461615708,-0.347035881023,0.450050379326,0.743084103518,1.2627237518,-56.8276877839
off_to_on,1.62152032816,1.62746389462,-0.332752896301,-0.602746326982,0.975280341281,-1.55209567035,-3.40774395046,-1.87785097392,0.165205307038,0.142265120018,0.649457476687,1.11914581071,0.595891776035,-64.2854806092
off_to_on,0.741783951189,0.314750998122,-1.19602950991,-0.62876596866,1.8659842064,-0.430875854364,-0.245711850266,-1.51860290593,0.424465424973,0.329754020671,0.588556491857,0.875307304287,-0.550844615262,-57.0688495433
off_to_on,-0.462229059835,-1.29882910423,-1.78659544313,-0.428549532923,2.33100686019,0.753636067133,2.8950281355,-0.941126420629,0.609091371064,0.153897279076,0.320866271647,0.0701919164597,-1.82899502716,-37.8133314832
off_to_on,-1.57614779346,-2.65767370786,-1.97379838038,-0.0133490305973,2.37541823675,1.7885025189,4.9971923835,-0.373139486103,0.702805585271,-0.274889266613,-0.0264070266422,-1.00315208097,-2.78342552281,-11.8603202141
off_to_on,-2.1991958167,-3.25932040785,-1.71995475258,0.521129002265,2.08261093695,2.50147499626,5.42476436646,0.0434576359975,0.702169631337,-0.714580098461,-0.301370240268,-1.91268004244,-3.00519996818,14.3186676199
off_to_on,-2.08632854604,-2.83279849503,-1.08972744229,1.01887490127,1.55679270434,2.77815856198,4.12874678552,0.295971967105,0.612973424413,-0.887225257437,-0.384969376673,-2.23923251166,-2.28267018726,34.8909643123
off_to_on,-1.23916349584,-1.44204969388,-0.235410054884,1.31220956003,0.879585214518,2.56916454062,1.64221011422,0.478480693611,0.447275489161,-0.595990338086,-0.236215926994,-1.73420719506,-0.697701392364,46.0959033489
off_to_on,0.0873573708717,0.52309450584,0.639432640076,1.27885126803,0.0996240433887,1.89371267467,-1.1284738353,0.717058917241,0.222327581014,0.180474881437,0.0913974180636,-0.427750916868,1.37044079321,46.9406239653
off_to_on,1.46634647537,2.46734431742,1.33000493176,0.887582837463,-0.74450263242,0.842709685186,-3.23621812198,1.0792207852,-0.0387871209655,1.25453334843,0.468526592851,1.35356955702,3.3415402676,39.0132722107
off_to_on,2.44121304012,3.7821686753,1.68181224512,0.215941741003,-1.58570503794,-0.421635468254,-4.02691708795,1.51152651435,-0.306209992908,2.27467635461,0.737252784925,3.07156954887,4.60539829519,25.5655325459
off_to_on,2.67995319748,4.04504498554,1.62999398013,-0.567389361292,-2.3011098695,-1.67719779886,-3.35438894355,1.83772085438,-0.543965219453,2.83870796458,0.770121795467,4.14101704244,4.71478287603,10.2507219769
off_to_on,2.08810041862,3.15819472636,1.21497559054,-1.25078266275,-2.71870448291,-2.67171591837,-1.60324345279,1.82368600925,-0.713642442228,2.6383251545,0.519536172642,4.12270805782,3.53771333431,-4.00754854746
off_to_on,0.841177779873,1.37988558381,0.568887091528,-1.64318225383,-2.66451287765,-3.17238737055,0.481396375655,1.2855455051,-0.78122806905,1.58426283405,0.0392541760993,2.88142068556,1.31711432268,-15.6284274081
off_to_on,-0.674433697698,-0.761712566007,-0.124429134173,-1.63230090489,-2.03598858035,-3.02689028659,2.08763471803,0.195980716741,-0.725630560861,-0.135140890203,-0.530414426628,0.65390742179,-1.38547521079,-24.3099096355
off_to_on,-1.9913028471,-2.64184262052,-0.684572699779,-1.21857648709,-0.871018330286,-2.21817345525,2.64119961629,-1.25944072122,-0.546258976359,-2.08798549969,-1.00907395104,-2.00013166226,-3.84795215694,-30.4120307024
off_to_on,-2.71597706367,-3.73982011148,-0.988037179646,-0.514128309707,0.621785889545,-0.891558904462,2.0075366258,-2.70714932282,-0.26676480255,-3.71978666944,-1.23815236806,-4.3531708847,-5.39941100402,-34.1378027832
off_to_on,-2.6554145393,-3.79873672193,-1.00260943984,0.292346172276,2.09412618996,0.66245689172,0.520443725853,-3.69169638832,0.0670664459626,-4.52451200986,-1.13618465361,-5.7246040196,-5.61897225328,-34.9425302718
off_to_on,-1.87177929679,-2.89137949748,-0.790807836475,0.99265656472,3.14964507437,2.07315156918,-1.16682378246,-3.82979131846,0.395537822463,-4.20941542471,-0.727510443746,-5.68771690094,-4.45838431116,-31.5002924152
off_to_on,-0.64854805462,-1.37332361267,-0.480541224288,1.41935430962,3.46947775708,2.98836836613,-2.34545812767,-2.9568712147,0.657626224915,-2.79733415114,-0.133868980407,-4.20267111339,-2.24967623899,-22.3082989619
off_to_on,0.617336541385,0.255894111348,-0.212738623578,1.4900969777,2.92748379854,3.17831413411,-2.52638090257,-1.20948381981,0.804631642745,-0.630015945963,0.468191429845,-1.63258504031,0.403156719847,-6.71112986144
off_to_on,1.55646880598,1.53082022708,-0.0846398708231,1.2233167049,1.64981659301,2.60955385838,-1.62242216136,0.992340940341,0.811094018499,1.73065790264,0.908629912793,1.36239623629,2.81139181855,14.1014882018
off_to_on,1.94943847572,2.17235254931,-0.110170486564,0.722529966199,-0.00925981538066,1.46102185739,0.0284546712622,3.06270088364,0.679938029228,3.67164341731,1.08150798663,4.01858670823,4.40535626149,36.627692162
off_to_on,1.78720042634,2.16070299668,-0.213733157467,0.137050946496,-1.57339696212,0.0720148094361,1.80236076008,4.42999543333,0.440564830259,4.7117540028,0.977690153395,5.68749431737,4.88849912932,55.4706111746
off_to_on,1.24992666288,1.70637796176,-0.262025091005,-0.386063118118,-2.5985521778,-1.16408048238,3.03284533418,4.71777319019,0.140755133234,4.63801701932,0.680709249587,6.01082313805,4.29441739804,64.6748280877
off_to_on,0.615980289845,1.13526917041,-0.12397802636,-0.742541616776,-2.82164181398,-1.92586391311,3.2625079382,3.8626041799,-0.164967570052,3.55155697042,0.327753318547,4.99933724552,2.93439436349,59.6434004218
off_to_on,0.139042736745,0.736244914707,0.263094251119,-0.891869697541,-2.24853799407,-2.06601753016,2.40713480595,2.12746823412,-0.427041581962,1.81152311681,0.0511554439042,2.99692310255,1.26140829475,39.0090765461
off_to_on,-0.0568236714511,0.633392025161,0.847720541541,-0.854702748204,-1.14691416443,-1.65220171068,0.773455711961,0.00710986833472,-0.6095388088,-0.0984480375325,-0.0764002291936,0.550007652745,-0.295315333092,5.75284768321
off_to_on,-0.0218471275988,0.735015540687,1.46026653101,-0.691377307329,0.0558084014981,-0.930609705654,-1.07017189143,-1.93877301537,-0.694059675737,-1.73033297575,-0.0706814449703,-1.76735703766,-1.46339165514,-32.9588568302
off_to_on,0.0533552929913,0.781212605341,1.85809591572,-0.472233981496,0.933013242585,-0.224444032761,-2.51437162302,-3.26288444724,-0.678888848362,-2.80033574184,-0.0261197263748,-3.51136890343,-2.18147756476,-67.3520579075
off_to_on,-0.0630703471698,0.472496131352,1.80896479762,-0.251943925146,1.21805724311,0.195227093099,-3.13200119756,-3.75447405173,-0.574972120017,-3.2425975009,-0.0698817405274,-4.45928289937,-2.56053492914,-87.6861239858
off_to_on,-0.520305676513,-0.37162807319,1.18560371067,-0.056769516024,0.90104793788,0.216764677736,-2.81825576674,-3.46880966586,-0.400995132315,-3.17525992458,-0.297114530859,-4.61190547197,-2.77544955281,-87.1978353076
off_to_on,-1.28870532784,-1.690014354,0.0368549640059,0.112649729737,0.224775711626,-0.069451143944,-1.79823302083,-2.65846010278,-0.17956467988,-2.80098114228,-0.713589616979,-4.12138318035,-2.93821040157,-64.4114849915
off_to_on,-2.13552898393,-3.14871502382,-1.39466400699,0.267086675027,-0.420338740801,-0.41228005714,-0.507185096207,-1.64142140113,0.0645762478771,-2.28942151806,-1.21112201725,-3.18533680884,-3.01137177934,-24.0106703731
off_to_on,-2.69027291034,-4.22429787113,-2.72217841057,0.411554910183,-0.662746973796,-0.511574325184,0.600725309505,-0.664889600657,0.304708458027,-1.69514515542,-1.59021959322,-1.95797048181,-2.80425858803,24.1156524178
off_to_on,-2.58219733212,-4.38116299351,-3.5225482966,0.534082542192,-0.312640315946,-0.158038020119,1.23296917629,0.17714358047,0.512082445232,-0.948246344401,-1.62691422585,-0.517073845414,-2.06002431066,67.4666981339
off_to_on,-1.60191569173,-3.28383057307,-3.47131101909,0.605935346794,0.544786909346,0.655136060668,1.35426922605,0.939190752174,0.657279591602,0.0770865688353,-1.1628373949,1.10217031269,-0.602150110935,94.4349546391
off_to_on,0.175365026301,-0.966251914151,-2.46131460204,0.593176920069,1.56657393133,1.69762298699,1.16149572034,1.7383216889,0.71395166268,1.44626724486,-0.186085221251,2.8283850239,1.52022328226,97.6700759075
off_to_on,2.35869352344,2.11095862432,-0.662903957332,0.474093985283,2.27839849659,2.56564926924,0.954694403559,2.63009752134,0.664633617347,3.05474426836,1.12988451887,4.47573269781,3.95533929012,76.2584679072
off_to_on,4.32619100139,5.14950188452,1.49993026122,0.254188812377,2.26527896326,2.8275045013,0.965985560144,3.50908735692,0.507007207022,4.58216887964,2.45013891541,5.71592728317,6.0872403437,36.0260967824
off_to_on,5.40840271315,7.232808091,3.45654813843,-0.0286940346056,1.35381601295,2.20027706735,1.22639078961,4.08944668274,0.258220251457,5.54559487877,3.36496310795,6.13202974514,7.1953842795,-12.1457203515
off_to_on,5.11452244626,7.61235668921,4.65101844927,-0.312392362522,-0.287472806287,0.69038246038,1.53446647122,3.98863823005,-0.0449693044667,5.44815768531,3.51659335654,5.35093831967,6.69344974362,-55.4776170574
off_to_on,3.3249106401,5.96885834976,4.70932559897,-0.529240417207,-2.17521828848,-1.36139074316,1.54625237106,2.89195471195,-0.351331633876,3.97803187487,2.72648174501,3.21374337357,4.36859669582,-82.9484713915
off_to_on,0.378458675559,2.55802602766,3.55951425629,-0.628561690054,-3.66413683854,-3.35789410756,0.951651022556,0.735336097353,-0.604976196335,1.18448667123,1.0793178429,-0.0822818384657,0.531723734659,-88.3321524701
off_to_on,-2.98564125862,-1.81639505942,1.46492465027,-0.593901256644,-4.17553280464,-4.62958571013,-0.339235118811,-2.17360875111,-0.757539760246,-2.44411490992,-1.06932920798,-3.93752504999,-3.98921101267,-71.7129853744
off_to_on,-5.82471969602,-6.00546002211,-1.04262722912,-0.447956568693,-3.41917999741,-4.66582270942,-2.08683208272,-5.1621244499,-0.779438640922,-6.04827620414,-3.17198775954,-7.44101589469,-8.03215740183,-39.0801950204
off_to_on,-7.27292754318,-8.83895735106,-3.31115612835,-0.243047133675,-1.52432688448,-3.31239567355,-3.75039647471,-7.34873996003,-0.666936308478,-8.61041718309,-4.63702631071,-9.59346313018,-10.4193658667,-0.217988514764
off_to_on,-6.81785912441,-9.47354073693,-4.7535386858,-0.0408353760156,0.974660282778,-0.860450463317,-4.6598901732,-7.91429034385,-0.442939883657,-9.25827375313,-5.00326508212,-9.60633492891,-10.3191510416,34.3673205174
off_to_on,-4.48232082544,-7.65639813169,-5.01265398838,0.110555797799,3.300877421,2.01373877963,-4.27598546988,-6.40180427869,-0.151313821042,-7.56449089209,-4.0879098909,-7.1843195312,-7.53557317922,56.4789558564
off_to_on,-0.846728805065,-3.81917909928,-4.05653374438,0.192755507509,4.69366548863,4.44738006058,-2.4394011372,-2.93682893978,0.153562003247,-3.73895658964,-2.05954894099,-2.69131074237,-2.62506397594,62.2920627428
off_to_on,3.10281214008,1.03147686017,-2.17611322379,0.220119851287,4.67388556087,5.66706276755,0.495452136129,1.7239244342,0.418928067759,1.36296683836,0.590773349937,2.87205438175,3.21121527919,52.8935534
off_to_on,6.25914811859,5.59702141926,0.110630797699,0.22839127205,3.2201199769,5.24994024356,3.71146408344,6.35513558286,0.604123622723,6.43738514356,3.17645273709,8.09499969748,8.44042523302,33.2791563411
off_to_on,7.72512634097,8.65915095091,2.21515372771,0.254015474428,0.789392284607,3.27882954587,6.16649781049,9.60389785575,0.686865447405,10.0876685252,5.00537461836,11.5357808872,11.6299494019,10.2903220874
off_to_on,7.08721976779,9.42826206873,3.64484482413,0.313196177107,-1.82960511873,0.333153439832,6.94643655011,10.4096839352,0.664347758257,11.2364271449,5.57751007127,12.1461815253,11.8690966438,-9.7227419251
do_nothing,4.54407036922,7.76289369288,4.12851949964,0.390164538946,-3.78255065039,-2.68714131995,5.61086962952,8.36716915319,0.549899956241,9.46568492549,4.73068574288,9.61011206147,9.04945841951,-22.7128887533
do_nothing,0.847498534886,4.19548596376,3.66605179678,0.440540577054,-4.44250874226,-4.84946899203,2.40065769679,3.90475956612,0.367183716553,5.17326515192,2.68995497958,4.48316334005,3.91314043183,-27.6868549388
do_nothing,-2.9267580359,-0.239665235261,2.49396119072,0.409420206839,-3.62622802402,-5.4927682625,-1.78207224762,-1.79421301494,0.144275372833,-0.512765420618,0.00491681396329,-1.92338322849,-2.15116293892,-26.286856184
do_nothing,-5.70665211798,-4.31953638308,0.986379942951,0.257418317533,-1.65605975528,-4.44471035942,-5.6329508999,-7.11789087943,-0.0905837379523,-6.04454575129,-2.60667338811,-7.89216128133,-7.50563119312,-21.5230123826
do_nothing,-6.74632772865,-6.98813187825,-0.470063177362,-0.0160235657046,0.755632481158,-2.07705997729,-7.86743338233,-10.5062156561,-0.31096027908,-9.90039098769,-4.46229475167,-11.7857702597,-10.7346415969,-16.2509688937
do_nothing,-5.84214019822,-7.6466273197,-1.5843403849,-0.362466105451,2.75918540965,0.820705653722,-7.66528413874,-10.9355318054,-0.492560151575,-11.0314423987,-5.10452156063,-12.524980431,-11.0468285279,-12.0196122901
do_nothing,-3.37582877924,-6.29403051053,-2.219596183,-0.693245143472,3.66763940291,3.30684891719,-4.98020108994,-8.2502426008,-0.613326078357,-9.17112035931,-4.42175520465,-9.91228840148,-8.48668576259,-8.7055114561
do_nothing,-0.174768561863,-3.48412752576,-2.39064050228,-0.905742748104,3.19695161413,4.60113534643,-0.597142557925,-3.22941025395,-0.654693133694,-4.91068544586,-2.66613105694,-4.69833653565,-3.89473048935,-4.99735303422
do_nothing,2.76187163342,-0.122633394885,-2.21187181896,-0.918574915246,1.56076551022,4.3396319164,4.09575858267,2.63980148813,-0.604615261649,0.483204421618,-0.366632296051,1.63330077003,1.36589608548,0.561069333994
do_nothing,4.58015569011,2.82374641358,-1.82375132732,-0.702945228645,-0.613447640423,2.68426567133,7.55383774139,7.614573648,-0.461794289338,5.45234720602,1.83311043153,7.30029095448,5.82660850579,8.47900303662
do_nothing,4.82905508983,4.61196436589,-1.33042416095,-0.297999614566,-2.51557630975,0.251970784435,8.59420389436,10.2327267083,-0.239498354962,8.61289975703,3.36145286706,10.7435546928,8.34260939082,17.6895704466
do_nothing,3.57839346135,4.91499493078,-0.772579498436,0.196652985697,-3.44706180451,-2.10871454506,6.80821366281,9.76207598757,0.0330543409172,9.1593514596,3.87386781332,11.0783996837,8.40330783021,25.6868068001
do_nothing,1.36463353253,3.87093496179,-0.142279060963,0.649881948933,-3.07151429663,-3.6131727233,2.7219617859,6.41940677208,0.313302484297,7.0838108235,3.33285406846,8.33835775535,6.23530803695,29.4025118354
do_nothing,-1.01063707488,1.9866451583,0.57240994791,0.940031287409,-1.53171457278,-3.8043766877,-2.35755429161,1.29021845755,0.552261815263,3.14762264815,1.99384754609,3.44038972571,2.67807882024,26.4784741972
do_nothing,-2.75730661052,-0.0603376110222,1.33794811142,0.993782631198,0.60786776363,-2.69423449627,-6.76516654772,-4.02258728555,0.704519414089,-1.37905727614,0.307669493448,-2.11292658807,-1.115518822,16.410446356
do_nothing,-3.35428777386,-1.64951745715,2.04774937631,0.809087890252,2.57023077373,-0.737366940221,-9.0296458147,-7.90574110075,0.738768426771,-5.12217394166,-1.22559798161,-6.69764923196,-4.04970733162,1.071300222
do_nothing,-2.70398044689,-2.39986586593,2.53347229521,0.453924111033,3.64902726776,1.347638785,-8.36867414687,-9.2345282512,0.645843466683,-7.02321951681,-2.20428651309,-9.0532792098,-5.40722973483,-15.6491103552
do_nothing,-1.13739226122,-2.2537886584,2.61501965454,0.0413433770186,3.46213030764,2.84098041474,-4.95743551613,-7.70546371941,0.441740665604,-6.64317430326,-2.43043178618,-8.63970130421,-5.02527490702,-29.0094630021
do_nothing,0.724467096664,-1.44671633827,2.17160591725,-0.310055954787,2.08401948961,3.27228101493,0.122263724624,-3.90169183018,0.164520909629,-4.26189058444,-1.94506751867,-5.76190470429,-3.2826777884,-34.9909800999
do_nothing,2.19929181926,-0.385548055661,1.20555036662,-0.515792833752,0.0108382692082,2.57065959922,5.23658456622,0.921306031874,-0.13417336381,-0.751482889641,-0.989438223129,-1.43364679727,-0.918988661275,-31.7095461056
do_nothing,2.780620851,0.51302218848,-0.129015648902,-0.550923439142,-2.02630421432,1.06508144644,8.73847362538,5.25195831165,-0.400641862599,2.72602437149,0.0891013262115,2.96669322182,1.24130181702,-20.1363081739
do_nothing,2.30249433401,0.965233285126,-1.54853675551,-0.4523085952,-3.32902346029,-0.658270340059,9.50871237114,7.80107461092,-0.590502844915,5.09382473764,0.952630722291,6.13247566325,2.56127863126,-3.83968176258
do_nothing,0.978949972518,0.89774734296,-2.71083128335,-0.297652341474,-3.48113990559,-1.98320746635,7.31747566108,7.88843638391,-0.676940974305,5.68754027431,1.3725000677,7.21830513813,2.77225647861,12.1832051571
do_nothing,-0.689226444338,0.441023837928,-3.3131261075,-0.170082455545,-2.48919848214,-2.4883469157,2.88727129429,5.61962521356,-0.653993846474,4.43515583936,1.28482470959,6.06498269806,2.01226384247,23.1821292078
do_nothing,-2.10221958579,-0.148986576152,-3.18496514876,-0.12251883574,-0.76502099694,-2.08691349784,-2.35919138867,1.80808418034,-0.534694282405,1.84201736832,0.789570972441,3.1997550515,0.724194228497,26.2426322971
do_nothing,-2.77425275919,-0.604427911766,-2.3440936372,-0.156053557268,1.03954856199,-1.03377070744,-6.77587562391,-2.31861994377,-0.345434365426,-1.20275223622,0.0998055635462,-0.374559717052,-0.537255047415,21.2209005916
do_nothing,-2.49713250555,-0.749184267349,-0.995517563954,-0.221014548318,2.28109653792,0.196558987009,-9.03074161451,-5.522420688,-0.118830667105,-3.7268390866,-0.537667361634,-3.52242697457,-1.31413375494,10.6922108821
do_nothing,-1.39977627478,-0.555536237324,0.526719088647,-0.240400086324,2.56207903193,1.10862500857,-8.52296367612,-6.93355792523,0.112620358462,-4.98145267656,-0.92259079094,-5.33449372432,-1.39526193613,-1.06239695908
do_nothing,0.112306218901,-0.137607400185,1.85597631416,-0.14639884654,1.86894701655,1.38196393937,-5.54523612555,-6.28658594502,0.320614388901,-4.65778072461,-0.957647472627,-5.3888724027,-0.861004371833,-9.65808493105
do_nothing,1.5111092755,0.309673837233,2.69599350215,0.0847650868151,0.561406824539,0.988342658395,-1.14678184621,-3.94965210457,0.482584480427,-2.95157824021,-0.666428282786,-3.83962401649,-0.0174923822619,-12.2114167247
do_nothing,2.33576488679,0.597701038432,2.89742443485,0.41421574961,-0.780015478139,0.187121213859,3.24469640271,-0.754328391129,0.58158197562,-0.46634127226,-0.172048857511,-1.31743059954,0.74511996475,-8.36461532505
do_nothing,2.34965029373,0.6214258241,2.48519338355,0.746672182761,-1.58766260929,-0.595909003326,6.30484316886,2.30300503444,0.60590550565,2.00291508083,0.352252217672,1.31143549719,1.11144826513,-0.358369470367
do_nothing,1.61114441302,0.397165003834,1.6316522139,0.960730239765,-1.53131612925,-0.955260410764,7.23200570342,4.38158240729,0.54967774729,3.7286258897,0.741965373384,3.2395789393,0.956576847425,7.86963738565
do_nothing,0.436825099775,0.0485775180146,0.589059717011,0.952906484582,-0.647677015002,-0.681977555721,5.96710394694,5.03405931103,0.414729292874,4.26795547267,0.890465662737,3.96745985067,0.379173331813,12.2282012034
do_nothing,-0.72523843694,-0.250811111052,-0.392452509608,0.679363408284,0.674441264032,0.141914821147,3.15197528982,4.29374911648,0.213085392206,3.57358187111,0.774720675784,3.43025972936,-0.353957206436,10.0916447541
do_nothing,-1.46325192999,-0.353715171858,-1.13278646549,0.179358518173,1.84730841948,1.16937434574,-0.143121030432,2.59915496267,-0.0314334159153,1.97195507594,0.452696430788,1.97180183907,-0.924539944165,1.39851040642
do_nothing,-1.54889991252,-0.202818512397,-1.55500571833,-0.429400863968,2.31733749194,1.92564231401,-2.81475227638,0.598523423221,-0.284101818429,0.0270712251079,0.0367831768811,0.187335452529,-1.09241528742,-11.1813928477
do_nothing,-1.01190337742,0.14299836993,-1.67786431248,-0.983341898932,1.78905614655,2.00355735699,-4.10043387801,-1.08736994993,-0.503611112551,-1.65733902959,-0.345822477875,-1.30137525705,-0.78799805238,-23.0912282298
do_nothing,-0.117588982724,0.529860888571,-1.57756412861,-1.32323451112,0.354109428751,1.23988237144,-3.80404587936,-2.06023818252,-0.649532143513,-2.62912943734,-0.592412468852,-2.05767485164,-0.134482388824,-29.4622094723
do_nothing,0.741336513607,0.769007846989,-1.33901946862,-1.34511633475,-1.5252718029,-0.198231082966,-2.30498324088,-2.23646007681,-0.691305430824,-2.71230804787,-0.652220738859,-1.9581433417,0.605142140484,-26.8776061282
do_nothing,1.19712405904,0.712565606938,-1.01847035109,-1.03445899258,-3.17461503713,-1.85380893066,-0.363774762655,-1.81758804228,-0.61625846962,-2.03109729036,-0.535441605075,-1.20060479365,1.1327980496,-14.7114512323
do_nothing,1.04697580303,0.316088824006,-0.631929920695,-0.471795584483,-3.95062830997,-3.13630950885,1.19200505293,-1.16458822543,-0.434094271227,-0.934898104349,-0.303323517782,-0.199004316376,1.23017529819,4.43235964297
do_nothing,0.329976427359,-0.335866899192,-0.171174207852,0.19207872323,-3.48088857425,-3.53739232582,1.78055948907,-0.632302782709,-0.176155100225,0.142569305962,-0.0442383766605,0.589590780885,0.840432791602,25.3534856014
do_nothing,-0.68608972099,-1.05112460409,0.363703194427,0.782729096065,-1.81163742758,-2.82601251082,1.26462407547,-0.428898649339,0.110719494335,0.838113602212,0.156041366942,0.840285899285,0.0878081605606,41.7759920194
do_nothing,-1.60233162283,-1.59112709086,0.933478973267,1.15461483807,0.591453671648,-1.14875439772,-0.0285869973325,-0.549641639859,0.374266284483,0.97573305098,0.240891649993,0.475772352412,-0.769555344761,48.2782995112
do_nothing,-2.03499757821,-1.75078959413,1.44810008243,1.23206980477,2.99156698117,1.00454830084,-1.46245053375,-0.80270426942,0.568113900526,0.609484085995,0.198895787407,-0.3157773506,-1.43361574252,42.0212003977
do_nothing,-1.75778718538,-1.42940452241,1.78281551728,1.02588857209,4.62640348304,2.96036750193,-2.35398625826,-0.909448012671,0.661300460098,-0.0161834103999,0.0654073235411,-1.16187585915,-1.67136729037,23.7298082454
do_nothing,-0.789632948465,-0.66851135224,1.81822650236,0.621635679779,4.96484489712,4.09030856122,-2.24237904735,-0.63553072289,0.643583080653,-0.569609966404,-0.0903603160481,-1.65279833428,-1.39285968823,-2.37640987034
do_nothing,0.602969087802,0.355700959872,1.48906674744,0.14570953382,3.8848554611,4.02739691076,-1.06399804552,0.0991853153491,0.525500601983,-0.759940099547,-0.18887099342,-1.49987152922,-0.676378892967,-29.6842586772
do_nothing,1.98990745091,1.38243430867,0.821374388799,-0.277559036967,1.71163318572,2.79221203232,0.82594952607,1.17300617673,0.333767364044,-0.445414449122,-0.167748475379,-0.648524109385,0.264614216707,-50.987541033
do_nothing,2.91868329476,2.14194288056,-0.0590454775748,-0.562421807623,-0.894955430025,0.783973025171,2.78641402084,2.29321189624,0.103870819327,0.313722077206,-0.00526295302591,0.692706743121,1.15717137736,-60.4603631152
do_nothing,3.06464521494,2.43243587011,-0.953493680035,-0.680089899875,-3.1617171848,-1.3593032686,4.12362694439,3.09236223727,-0.127705137199,1.27350773823,0.267460520089,2.11590136529,1.75777485079,-55.2438480356
do_nothing,2.33958139115,2.17468374209,-1.64559341928,-0.654851288749,-4.45354488941,-2.9803285173,4.33675993774,3.25444679016,-0.329534953856,2.08771830639,0.570190207504,3.14708094688,1.92306797417,-36.2188974176
do_nothing,0.922893147297,1.42919624113,-1.96649645695,-0.542387416818,-4.46830294931,-3.62262418683,3.28875638109,2.62632838636,-0.478486189563,2.42438218885,0.793820460475,3.40323386212,1.64052975608,-7.78191968614
do_nothing,-0.793857620797,0.37348044666,-1.84716722282,-0.400974204908,-3.31153559426,-3.17340500205,1.24638178885,1.27692870215,-0.560264483466,2.07900877641,0.832788254954,2.72063067932,1.01383537782,23.28207857
do_nothing,-2.32931875119,-0.750729053492,-1.33896935532,-0.267880703838,-1.43191081515,-1.88120432141,-1.21714611618,-0.51409206473,-0.568357903845,1.04841789742,0.621120699594,1.21310693881,0.214481092411,49.5041944406
do_nothing,-3.26047309708,-1.70227151111,-0.595096155969,-0.149943954586,0.552246211465,-0.246757406917,-3.41526275175,-2.33231776681,-0.50280061354,-0.457594495944,0.161254326144,-0.756856894189,-0.578082885115,64.5630788564
do_nothing,-3.34828232058,-2.29779726873,0.180432356409,-0.0305954443947,2.06858321076,1.16839282746,-4.76514054635,-3.74298964011,-0.369797707686,-2.06974442525,-0.46453501279,-2.68284981864,-1.22460390122,64.7910839244
do_nothing,-2.60172314832,-2.44658570078,0.797856105006,0.111596689997,2.77095922151,1.94274662303,-4.95459425327,-4.4073964879,-0.18238648557,-3.3610504612,-1.10624721408,-4.06021137797,-1.64747077055,50.011969187
do_nothing,-1.26268230703,-2.15689814376,1.13782334485,0.282568843653,2.62426808332,1.93165998768,-4.00858245751,-4.16714301598,0.0386230762113,-3.96617162609,-1.58139748634,-4.52689583441,-1.82373782233,23.5452529392
do_nothing,0.279464816105,-1.5173081363,1.17954220186,0.460729726362,1.87200854583,1.29319396393,-2.24449989529,-3.07507607271,0.264738523429,-3.68342831571,-1.72555215355,-3.9579779151,-1.76049177639,-8.59015679325
do_nothing,1.61259118219,-0.663383292726,0.992817557863,0.59946024831,0.908676206889,0.399273775944,-0.144719383395,-1.36969862867,0.462106552512,-2.53101064922,-1.44440970304,-2.48925459074,-1.46981366411,-39.0682917572
do_nothing,2.42400197818,0.257514146649,0.699467284075,0.643765666796,0.112300758148,-0.328359383739,1.80031667139,0.593339055242,0.596497547451,-0.74322655101,-0.751412099611,-0.468691334478,-0.958662705666,-60.92359157
do_nothing,2.58163974134,1.1128683927,0.420653327036,0.554265957056,-0.296717926514,-0.590958828715,3.2223967611,2.428850633,0.640244511744,1.28976054911,0.222495628669,1.64397247702,-0.239876939245,-69.1271844896
do_nothing,2.15172811419,1.79820916547,0.231006017017,0.32813927715,-0.31884140385,-0.326964160047,3.94118359195,3.80366898973,0.5793814848,3.11979918337,1.253078349,3.39609200938,0.641608589974,-61.7318471826
do_nothing,1.35257885588,2.23830508111,0.136624076248,0.00744493541731,-0.142282933409,0.274987351805,3.95685416693,4.49357386478,0.418727371743,4.34838128121,2.07710474365,4.44490485789,1.58280728536,-40.3353112547
do_nothing,0.465287945811,2.38240232328,0.0838403729116,-0.329842946046,-0.0336897803155,0.866252629515,3.39006255673,4.40799146696,0.182967605496,4.71587332343,2.46308367835,4.61941361066,2.41511122234,-9.75024927031
do_nothing,-0.265177716212,2.20087308639,-0.00678001730616,-0.593742110367,-0.201742677691,1.09316515184,2.4060525556,3.58569628932,-0.0871487868845,4.15179484123,2.27854860692,3.93262432137,2.92736965663,23.0644181787
do_nothing,-0.704260143365,1.68842383244,-0.196496535478,-0.712497473201,-0.691526541769,0.753567666701,1.15878824546,2.17167521472,-0.342899262762,2.77809861361,1.53356655403,2.55157557491,2.91951687167,50.5906612006
do_nothing,-0.854097270287,0.874392251565,-0.493172073678,-0.657616907847,-1.35333585819,-0.108266826005,-0.225207205644,0.386627483624,-0.537989008548,0.870544703463,0.386111814744,0.74325597513,2.27258532607,66.5060351241
do_nothing,-0.826687188909,-0.164379711159,-0.839354102812,-0.453866795097,-1.89861842293,-1.20686009314,-1.62665613092,-1.50301084465,-0.638505105486,-1.20698938964,-0.89422778219,-1.1832893967,1.01092832827,67.1939191744
do_nothing,-0.777837388635,-1.29596568764,-1.12854472533,-0.170078443717,-2.02040788911,-2.11999590226,-2.89956133756,-3.21251587199,-0.629765997525,-3.07653030405,-1.99528603169,-2.92404657883,-0.669024645089,52.6310234408
do_nothing,-0.829133474165,-2.33912658993,-1.24323936196,0.105919951321,-1.52959762719,-2.4525715972,-3.85304305052,-4.46672361198,-0.51836186734,-4.41182781722,-2.64501083487,-4.21166526578,-2.42077321904,26.4075163328
do_nothing,-1.00843970638,-3.08716489543,-1.09987386393,0.298676008043,-0.451650291089,-1.9964673056,-4.27050007235,-5.03262312517,-0.329151692333,-4.98583103547,-2.68419840314,-4.83624070816,-3.82188218021,-5.15415907008
do_nothing,-1.23186748573,-3.3486440948,-0.683434433665,0.370705955274,0.95680949349,-0.823943940524,-3.96839571528,-4.75814640701,-0.0984556533104,-4.69714497206,-2.1083263618,-4.66410671741,-4.48346648535,-34.5779441687
do_nothing,-1.33458480021,-2.99706057413,-0.0588373746745,0.332505031673,2.28148557501,0.723067320649,-2.87529749869,-3.61262928772,0.134342886352,-3.57826258954,-1.06667167744,-3.66096952606,-4.16426927247,-55.1079475247
do_nothing,-1.13976853305,-2.01638284887,0.644716707862,0.233388656929,3.08938109191,2.14611538058,-1.09751091454,-1.71814536085,0.33439529175,-1.79007498488,0.18037976633,-1.91782912588,-2.8539875595,-62.378860213
do_nothing,-0.540642270307,-0.527689244718,1.27013479813,0.137267661367,3.08319767673,2.96532532664,1.06246597535,0.64241092948,0.476416209295,0.394709601119,1.33265017481,0.331014534183,-0.797411973541,-55.4287360012
do_nothing,0.435196859103,1.21502803616,1.6762003629,0.0935403358346,2.21431082295,2.89226047366,3.1534876543,3.05259902526,0.546499862792,2.62007323451,2.12896391507,2.71395837307,1.55242133798,-36.7809198601
do_nothing,1.60505993497,2.86475037383,1.77380541307,0.11527638535,0.711786556359,1.93668692581,4.68354873608,5.02929788369,0.541252250514,4.49016932328,2.4110036176,4.76600260433,3.64263837703,-11.591138885
do_nothing,2.66591366244,4.05218128228,1.54392397597,0.173911842466,-0.985044459165,0.407490332058,5.25747924111,6.12143185951,0.465538784456,5.62943216401,2.15540365729,6.01394286665,4.96199047794,13.8682721107
do_nothing,3.27777772516,4.47282754143,1.03440040489,0.212895691604,-2.36826490619,-1.19319451888,4.6995990582,6.02041780367,0.330261875243,5.75535108548,1.46762220762,6.09025504557,5.17607465125,33.9211116522
do_nothing,3.17172857542,3.96909070145,0.340565273839,0.174820644892,-3.02846541284,-2.34456029735,3.11803589657,4.65375515527,0.151065123409,4.751762588,0.542734900569,4.84748716545,4.21798265083,44.8847981991
do_nothing,2.24839988798,2.58455226144,-0.420494737002,0.0307334647245,-2.78935149174,-2.68751039985,0.885409129191,2.23241229538,-0.0520068714368,2.72329674188,-0.392614295352,2.43643022633,2.3085166091,45.7595131921
do_nothing,0.633505561567,0.572545441048,-1.1321998274,-0.201015148239,-1.763508372,-2.14631321038,-1.46133980286,-0.768828018728,-0.254663355205,0.00943541860653,-1.13896242727,-0.685221541779,-0.0997961136785,38.0617382855
do_nothing,-1.33153525681,-1.64824799263,-1.69176912755,-0.455189194515,-0.310728300779,-0.948845453762,-3.37127813712,-3.70241329781,-0.42946106561,-2.85765385834,-1.56737778602,-3.83059316103,-2.43908779386,24.9433368236
do_nothing,-3.16656059614,-3.58451180233,-2.01520261706,-0.640568344473,1.08581778474,0.460243463241,-4.43185270469,-5.89446931039,-0.548690600634,-5.25365590442,-1.63802924979,-6.23904570253,-4.17053515997,9.96742120912
do_nothing,-4.37876249921,-4.7851700616,-2.03943888285,-0.674146694622,1.98230168496,1.58067379528,-4.47468408016,-6.81241763829,-0.58910990752,-6.60474639443,-1.39326772478,-7.273713656,-4.91744191516,-3.99749876254
do_nothing,-4.60297761656,-4.9552300384,-1.72819307156,-0.515605765578,2.12012401204,2.03332071637,-3.60274762762,-6.20938033808,-0.537582022929,-6.5388164978,-0.932056596929,-6.60674180239,-4.55215035538,-15.3846813208
do_nothing,-3.71475316052,-4.03589970331,-1.08460839712,-0.18819266084,1.50619164565,1.68972388724,-2.13438156039,-4.20307279424,-0.395913606709,-5.00236924672,-0.376666993092,-4.33463829496,-3.21589896964,-23.8779538081
do_nothing,-1.88075000451,-2.22746298574,-0.167715092405,0.223205922509,0.402218271642,0.70978258504,-0.48781309001,-1.26191030679,-0.183026726751,-2.30355669036,0.157653609069,-0.981664851107,-1.26980468817,-29.8180162705
do_nothing,0.471832378776,0.0541369600165,0.896071162496,0.597499437236,-0.771011267512,-0.523121448369,0.951297543319,1.90429785487,0.0668362467624,0.940972796436,0.582997682035,2.61986439111,0.806381388918,-33.4052031188
do_nothing,2.76166649509,2.27802932218,1.91729651836,0.817926594917,-1.58018201523,-1.54373410109,1.93392026963,4.5241171496,0.310028559995,3.95058141877,0.847207559536,5.54597590437,2.53833244941,-34.1190277087
do_nothing,4.40755190248,3.93102247606,2.67116781467,0.813101165419,-1.72672264831,-1.97120718443,2.39143108968,5.96752439361,0.502354611913,5.98251963253,0.932891340335,7.03552993304,3.57067120867,-30.678440131
do_nothing,4.98729995476,4.64677094108,2.94779241213,0.583255570992,-1.14612769587,-1.64111243455,2.41138910917,5.91541670682,0.608642243875,6.53578293736,0.851641754316,6.70843840736,3.74190561276,-21.6259128962
do_nothing,4.35535035387,4.29621820805,2.61385574372,0.201508395905,-0.0280201794162,-0.658437981668,2.16304927647,4.44576503871,0.610452144237,5.49602539492,0.637470947156,4.68021628007,3.10503692298,-6.32596059057
do_nothing,2.68429410902,3.01440564663,1.66665691494,-0.210855027569,1.24749116828,0.643878866627,1.80749170813,2.0090965388,0.509822738188,3.17441185661,0.341104777091,1.53437325793,1.8935116382,14.0569620577
do_nothing,0.417308246293,1.15668558302,0.259649796064,-0.526364484149,2.23451574034,1.82294964407,1.43002372922,-0.701999453956,0.32811055826,0.223508432314,0.024225704612,-1.84325874241,0.446280960679,36.0960428817
do_nothing,-1.85532133778,-0.802367132303,-1.31515731683,-0.655311592003,2.56594016441,2.4770445429,1.02053014896,-2.95262651825,0.100433894459,-2.54890469806,-0.248465011596,-4.52110940187,-0.885113814372,54.504690346
do_nothing,-3.5598395578,-2.39766169465,-2.68970229664,-0.575523473969,2.07201588335,2.37732394232,0.505985914438,-4.17593762466,-0.132534389835,-4.41400201583,-0.420656025344,-5.7926842742,-1.82222361988,63.4428240537
do_nothing,-4.29510640399,-3.2928217993,-3.51359042506,-0.337108402316,0.837032764127,1.5372517589,-0.182845709635,-4.13098751927,-0.333061186998,-4.93273937461,-0.458110567688,-5.37901917621,-2.21741445099,58.3978244205
do_nothing,-3.93587554652,-3.35674809172,-3.5529302755,-0.0407538234503,-0.821530011131,0.200395115104,-1.04265566038,-2.96018067129,-0.472949455126,-4.0774039255,-0.360647621227,-3.50051328079,-2.07227131356,38.0262569311
do_nothing,-2.65428069922,-2.67825208476,-2.76368073802,0.201850155089,-2.44316874676,-1.24415204083,-1.95959348049,-1.12913361969,-0.536909653045,-2.22519196464,-0.167000510863,-0.796453083789,-1.51661809128,5.26022392215
do_nothing,-0.85559456222,-1.51891560787,-1.31465688118,0.310180071021,-3.55573830316,-2.38631987322,-2.72205297747,0.731390394235,-0.522562206572,-0.0259045972539,0.0518168910159,1.8814966764,-0.758162750227,-32.8453285875
do_nothing,0.949686139327,-0.222903639537,0.449983569162,0.263532515528,-3.80950522322,-2.91694048698,-3.08319483294,2.03064219163,-0.437982929506,1.81313167903,0.211426347852,3.73577165283,-0.0191462670581,-66.6606352175
do_nothing,2.29664920226,0.885783680883,2.10002058434,0.105440916663,-3.07647927145,-2.70931554148,-2.85123120905,2.40414038024,-0.298260662656,2.75444869377,0.241154839648,4.26477707595,0.522212516345,-86.5817035479
do_nothing,2.89330640055,1.58677939898,3.23469312692,-0.0773417744513,-1.48899197338,-1.83983503984,-1.97296456244,1.82120519095,-0.122441264454,2.59556079422,0.110872964776,3.40449091659,0.771044796334,-85.9364728135
do_nothing,2.68727722046,1.80472439978,3.59017405357,-0.192534306995,0.591029123785,-0.54881517498,-0.57688994486,0.579876278283,0.0684017485369,1.51827198367,-0.152378041301,1.5275667588,0.728223366807,-63.2713389335
do_nothing,1.85534789652,1.60155919826,3.10709907859,-0.181430103665,2.66226200864,0.838757818796,1.04388603934,-0.807351706093,0.252078206693,0.00787674498873,-0.465776435259,-0.695510941168,0.476044150915,-23.220665664
do_nothing,0.724700995721,1.12954676351,1.93902484213,-0.0436634498927,4.20931752892,2.00360882167,2.50684130449,-1.79717198697,0.405950746126,-1.32782853916,-0.712333870951,-2.52412057981,0.144334404313,24.4283799309
do_nothing,-0.344007246971,0.566692596648,0.401444718125,0.162364032085,4.8313163011,2.70651065068,3.44982597971,-2.00558133099,0.508326641366,-1.9759181457,-0.777714148383,-3.3874252423,-0.13170683917,67.2966230468
do_nothing,-1.0710512407,0.0592497412283,-1.1207242279,0.343654477014,4.34235055575,2.82982659745,3.63887548079,-1.33972856408,0.54115738835,-1.69654444228,-0.591029485395,-3.05832565301,-0.249979056512,93.8825728652
do_nothing,-1.33244167391,-0.310262526191,-2.27759017133,0.411723391745,2.82012921611,2.38325669358,3.0376878372,-0.0270063258121,0.493853642035,-0.600980219395,-0.155687790869,-1.7076540832,-0.166882785837,96.8996285764
do_nothing,-1.17402992448,-0.523576001377,-2.83962335044,0.320833841177,0.59167330938,1.48216607614,1.81570302699,1.46757490432,0.367194042143,0.895770125605,0.441486097827,0.173586456508,0.0950738393651,75.4453204847
do_nothing,-0.766213192893,-0.603164079574,-2.74147642857,0.0896404026026,-1.84051947295,0.312104452168,0.293105854819,2.60608569725,0.175811702952,2.22877594667,1.04804863359,1.95185781276,0.457064380862,35.3115725545
do_nothing,-0.321281699948,-0.581004323163,-2.07695386744,-0.203068908174,-3.91490076546,-0.908377370324,-1.15736560295,2.96653150399,-0.0521556403997,2.88726378588,1.48694291428,3.06468601316,0.806615800038,-12.6790305654
do_nothing,-0.00719742700159,-0.476854126546,-1.05358970121,-0.447583692294,-5.14313171873,-1.96032014738,-2.21799223666,2.38991521827,-0.278939898352,2.59601890399,1.60886076687,3.19740713649,1.02648696372,-55.8059024865
do_nothing,0.109583268869,-0.296304066151,0.0737014548782,-0.546382199687,-5.22732615277,-2.652215326,-2.70771433201,1.03463876822,-0.464108563343,1.41046562081,1.33968355709,2.36652390711,1.0230152886,-83.0873734667
do_nothing,0.0728738177558,-0.0473581160726,1.06749851965,-0.454167676206,-4.1341114505,-2.84597378978,-2.61355592057,-0.679738762944,-0.573075999789,-0.306340732131,0.70769792204,0.888026094625,0.748660129846,-88.3098374158
do_nothing,-0.00225635105853,0.236409458034,1.75397303451,-0.198564906883,-2.10662318512,-2.4822782087,-2.06658255195,-2.21831728498,-0.584930039497,-2.01387182043,-0.158558632095,-0.750375717013,0.215517717782,-71.5487571988
do_nothing,0.00336901625826,0.482879863979,2.04298603846,0.127569701559,0.390198122088,-1.60176172061,-1.27686505839,-3.11384830587,-0.497369268657,-3.18251874995,-1.06169851532,-2.06233550177,-0.501667218399,-38.7778374013
do_nothing,0.148100833008,0.591690216564,1.92535975734,0.400240010639,2.77941076313,-0.35361305031,-0.455044274448,-3.12205762684,-0.32730623794,-3.4717571468,-1.78681155069,-2.71832562341,-1.27342102671,0.224389908617
do_nothing,0.395435256428,0.469900091373,1.45703629657,0.512239030468,4.51106675734,1.01809760087,0.249914363464,-2.29526875819,-0.106942858684,-2.83532630646,-2.15740342992,-2.6313809132,-1.93426660642,34.9369400222
do_nothing,0.62624330124,0.0813687660058,0.740456994849,0.416410065073,5.19599644156,2.21582955341,0.77646609258,-0.950370893809,0.123557254135,-1.51907482355,-2.0797678582,-1.94993928093,-2.31141198029,57.1285339323
do_nothing,0.692897547657,-0.51205014735,-0.0909728563615,0.146908871563,4.70009429987,2.95404971994,1.13581455018,0.454479590333,0.324736394048,0.0426566979327,-1.56395564271,-0.970058054285,-2.26099734136,62.9317962154
do_nothing,0.492679849323,-1.14080586832,-0.885901589569,-0.190829932266,3.17418655134,3.03441209723,1.36966630208,1.4873971469,0.46553558113,1.38936290589,-0.717284848926,-0.00793083280188,-1.70688640913,53.4016890193
do_nothing,0.0284840634033,-1.56338107351,-1.4906327641,-0.458765842395,1.01119678077,2.40866990036,1.50372296511,1.89245423394,0.528187982602,2.19280132432,0.285309979238,0.714923883647,-0.673930624165,33.5303858563
do_nothing,-0.571581676913,-1.54382289317,-1.77232479321,-0.539586762125,-1.25810638829,1.20685458034,1.52039635095,1.66733243445,0.50950987862,2.35318027672,1.2437235621,1.13070996248,0.694510666365,10.193640251
do_nothing,-1.0884960675,-0.948148054642,-1.64985042133,-0.38446393942,-3.10255288384,-0.283632321438,1.36430585667,1.04254710161,0.418949295828,2.00103753161,1.9755614829,1.31106953313,2.14459481386,-10.1897588732
do_nothing,-1.29151382265,0.176238547184,-1.12500022329,-0.0363686148522,-4.12377207316,-1.68757088306,0.978350786477,0.37311292288,0.274639784556,1.41052812418,2.34930396411,1.39307445561,3.35121051702,-23.4863214819
do_nothing,-1.03368089982,1.5740928621,-0.300968870749,0.381183790885,-4.14922607375,-2.6430648995,0.353174140529,-0.0136802736558,0.0990308845744,0.864354889102,2.3025503266,1.48339991946,3.98618219998,-28.6231739139
do_nothing,-0.32582671888,2.83015969481,0.625266959273,0.70716889107,-3.26112872915,-2.9048902646,-0.434975049532,0.0453942783535,-0.084627025042,0.52841891472,1.84552697196,1.58644186536,3.80340210466,-27.1940554411
do_nothing,0.643516415138,3.48695120867,1.40338034069,0.802783629422,-1.75620064699,-2.41758039743,-1.22003877143,0.482241807651,-0.254389984358,0.388605250108,1.05370235415,1.59063461516,2.72002303119,-22.2077604011
do_nothing,1.55612253181,3.20025751751,1.79755457301,0.605851554662,-0.0512225665683,-1.33376330261,-1.78469196718,1.02569708147,-0.390576549343,0.275338294397,0.0541876359917,1.32119938234,0.868676914153,-16.5678485458
do_nothing,2.06828115551,1.88070987416,1.66343703754,0.159095552353,1.4357199287,0.0298809752526,-1.93254227875,1.31485625025,-0.476369426856,-0.0356505375217,-0.991041312027,0.637685245409,-1.40107868348,-11.9076764016
do_nothing,1.9365511962,-0.232681432834,1.00774658038,-0.399408844041,2.39309248927,1.28651832448,-1.5687314066,1.0540117173,-0.498906153661,-0.690609509891,-1.90465449112,-0.466738550349,-3.58257853444,-8.20148311754
do_nothing,1.11918859524,-2.60342083398,0.00534891813698,-0.88150235866,2.68331640637,2.09390458181,-0.756349695318,0.148984496015,-0.451254843202,-1.652326139,-2.51738254644,-1.81114473324,-5.12641567219,-4.22234233101
do_nothing,-0.187077931246,-4.53586378056,-1.03962575332,-1.11446562318,2.354535926,2.25397515821,0.278651924262,-1.2293447485,-0.334946639204,-2.67195883827,-2.69582248772,-3.04891385606,-5.58428644817,1.43615593101
do_nothing,-1.59402424942,-5.38563546067,-1.78293319699,-1.00339712238,1.59959429726,1.76629965468,1.20442477444,-2.6818770343,-0.162078487602,-3.35783532527,-2.37210270921,-3.76717944722,-4.74383050701,9.27796996693
do_nothing,-2.64195863804,-4.77709736639,-1.95412513222,-0.567623437832,0.680715925873,0.819719470838,1.68937652416,-3.70870116654,0.0442668839374,-3.32108177192,-1.56890804415,-3.6324513435,-2.71290979687,18.2718423785
do_nothing,-2.95442662051,-2.75356916835,-1.45700003466,0.0626524001785,-0.153264286473,-0.273280448735,1.52402659448,-3.8830653472,0.252243203646,-2.34426755746,-0.410686698504,-2.52926822294,0.0782906130093,25.9736599676
do_nothing,-2.37413141929,0.197591506775,-0.418681758261,0.689000421244,-0.731396475422,-1.17673667491,0.714709429141,-3.00969258863,0.426272636572,-0.505468269895,0.887461108315,-0.636517081771,2.96745220323,29.3833806205
do_nothing,-1.03035381086,3.26460193987,0.835849255603,1.11196769864,-0.990433740823,-1.6331504882,-0.489696564868,-1.20980002892,0.53404107862,1.7973581955,2.05683271118,1.5944958199,5.22526562575,26.1990305715
do_nothing,0.689735348187,5.54676806449,1.88187393662,1.19906633169,-0.96710695818,-1.53561194327,-1.65676345061,1.09909615129,0.553760413983,3.94171458338,2.83363517073,3.56147371052,6.25316110508,15.9496812513
do_nothing,2.26029284614,6.33520650938,2.33691611497,0.92936972839,-0.762599988891,-0.949883667777,-2.304778932,3.32316293562,0.4796613343,5.27063879582,3.02584661373,4.69601965313,5.75717991631,0.517128931065
do_nothing,3.18838884688,5.34787757772,1.99912020241,0.398953704305,-0.49633100725,-0.0833591968397,-2.07323859535,4.87139275061,0.324018220018,5.31451948714,2.5695799234,4.65013720952,3.84414687363,-16.2176382911
do_nothing,3.17971225676,2.83801547562,0.931845236551,-0.214420844641,-0.266307044624,0.785439295135,-0.87289423324,5.33307045719,0.114943173532,3.96557189057,1.55613290576,3.41842099045,1.00629201943,-29.5295088092
do_nothing,2.24030683359,-0.466503462271,-0.5401055411,-0.714283900755,-0.127241278385,1.39232504543,1.0406440591,4.59464138755,-0.109584644964,1.53877632074,0.217700534602,1.35010676614,-2.00723240257,-35.4140845103
do_nothing,0.677260361609,-3.58026182575,-1.92767687344,-0.953154859603,-0.0885663157113,1.56144266697,3.1052859989,2.8599049496,-0.309883293918,-1.30875680582,-1.12824297685,-0.957178598024,-4.39849227101,-31.9957449319
do_nothing,-1.00384544811,-5.56794614442,-2.73971790897,-0.880659188416,-0.126506722347,1.24793911722,4.60337015672,0.572319525381,-0.452750662566,-3.7779452653,-2.16234911767,-2.84822028949,-5.54864737008,-20.2504313493
do_nothing,-2.27038277408,-5.84356108556,-2.6562453725,-0.555310576865,-0.200627208843,0.541236365495,4.88690592803,-1.72808981506,-0.517583410242,-5.18158183494,-2.65074604298,-3.82096741738,-5.19685159417,-3.75415239464
do_nothing,-2.74364521413,-4.36172624491,-1.65154297922,-0.116817291093,-0.266706207659,-0.366825700581,3.60936660131,-3.56053438505,-0.499087375886,-5.16492203837,-2.50945566479,-3.68439581673,-3.51420645696,12.4787397098
do_nothing,-2.32570913491,-1.63496617808,-0.0202146078199,0.269657081832,-0.282912696018,-1.23592413177,0.88670268451,-4.61947815147,-0.406336202516,-3.81596791288,-1.82492584273,-2.60852045532,-1.04797174895,23.6682473825
do_nothing,-1.22706197433,1.43218012582,1.70850837406,0.475743873332,-0.211973666271,-1.83709916825,-2.67428198058,-4.81783953418,-0.259004487658,-1.62636078012,-0.823187875591,-1.0495365955,1.448523011,26.8611948596
do_nothing,0.115131958804,3.83986584512,2.94368633411,0.455182669343,-0.025090689595,-2.00451625586,-6.10454472907,-4.25464670954,-0.082276093624,0.683561896078,0.203132671009,0.422433239283,3.24831714848,21.8760011861
do_nothing,1.19911221388,4.82297048714,3.23592118037,0.255660096078,0.287974811917,-1.67032803903,-8.33377095499,-3.1331920256,0.0979890330514,2.41365634256,0.986469248985,1.33055875778,3.87295636944,11.2641687916
do_nothing,1.64271942357,4.10414472788,2.44054635591,-0.00631515967204,0.703405485038,-0.879173591311,-8.51371299506,-1.67168931821,0.25871871385,3.11855908758,1.36450020214,1.45847462039,3.23402670506,-0.691753869867
do_nothing,1.32292056834,1.98407545124,0.781462570416,-0.196785540187,1.1494676899,0.217612766663,-6.30730098753,-0.0457731218025,0.381396582114,2.74513163744,1.32233987512,0.916963623054,1.6489941795,-9.57536885124
do_nothing,0.419388474425,-0.76269454122,-1.21095785561,-0.221284426356,1.50507124877,1.38661621055,-2.04910803444,1.61718390725,0.452558503168,1.62534457657,0.983132284616,0.086360898451,-0.273458439939,-12.4461130587
do_nothing,-0.654799846666,-3.15244530041,-2.87103298449,-0.0647052611413,1.61987766423,2.3538279476,3.28478306568,3.19923456651,0.463852486522,0.329836190732,0.551367372052,-0.54354545099,-1.84104439757,-8.87676354244
do_nothing,-1.41126867394,-4.32874949432,-3.62211683565,0.201758184375,1.35752907058,2.85965055893,8.30486969338,4.53896711136,0.412423189422,-0.561897980485,0.229896563975,-0.57639239779,-2.51038561865,-1.04455320754
do_nothing,-1.47624259342,-3.85699012993,-3.17771041304,0.449541346898,0.65251829268,2.72063126446,11.5806806541,5.40376706472,0.30189244953,-0.688489043936,0.141025367313,0.121274089597,-2.06798004074,7.15262848989
do_nothing,-0.742435895242,-1.87670205355,-1.64872721458,0.546332639151,-0.438725538064,1.88620529729,12.0554859807,5.51643370553,0.143551479165,-0.0460178156809,0.280678858376,1.34884594535,-0.69990308775,11.6283939643
do_nothing,0.57455110569,0.940771714708,0.48288352001,0.413315373287,-1.71580684548,0.474615313641,9.38112320636,4.64021385724,-0.0431192832213,1.01261451389,0.52275758875,2.62865026918,1.07294592548,9.72566865817
do_nothing,1.99938462654,3.61603122077,2.51840939503,0.0631080820408,-2.85922823579,-1.22801438487,4.06721966921,2.69629997731,-0.231571612135,1.91867084587,0.672518430052,3.37437554673,2.57286523664,1.32464286507
