label,COUNTER,INTERPOLATED,AF3,F7,F3,FC5,T7,P7,O1,O2,P8,T8,FC6,F4,F8,AF4,RAW_CQ,GYROX,GYROY,MARKER,SYNC,TIME_STAMP_s,TIME_STAMP_ms,CQ_AF3,CQ_F7,CQ_F3,CQ_FC5,CQ_T7,CQ_P7,CQ_O1,CQ_O2,CQ_P8,CQ_T8,CQ_FC6,CQ_F4,CQ_F8,CQ_AF4,CQ_CMS,CQ_DRL
off_to_on,-4.84281533472,-1.85088050709,-4.2939957305,-0.846642135824,-4.86543333425,-8.1809895933,-3.11760424214,-2.54126587776,-0.501883377537,-3.77209579298,-3.9365446134,-2.61076065906,-3.43003172881,60.5988326372
off_to_on,0.280647655131,2.57295843498,0.822499883059,-0.289707207177,0.300279488354,-1.78187842792,0.172497965784,0.598098774585,0.457633078246,1.01409299785,1.30227137733,1.98097268834,2.36679090671,27.0975769486
off_to_on,4.74130496926,5.80122618033,5.19492998395,0.288357380605,4.81280075627,4.61632497123,2.51580987924,2.53241111278,1.24365096823,4.71233361919,5.70793218024,5.19791687233,6.86427219499,-12.9398807468
off_to_on,7.43235219518,7.08427849663,7.73809808275,0.850710071104,7.63466564886,9.39139985152,3.63719795904,2.97998131525,1.73695288538,6.41067643705,8.20830619048,6.32168524765,8.94792864159,-49.52031505
off_to_on,7.91203050544,6.3413590437,8.0346369837,1.35952620674,8.34957791964,11.5125440506,3.79071406825,2.33038952046,1.90410428848,5.99279355282,8.3914230639,5.44798239482,8.36097150398,-73.6879729706
off_to_on,6.43676320562,4.10388479185,6.36868877072,1.76336614339,7.17283163339,10.7498842456,3.52349196004,1.38100001632,1.78542903766,4.06018918098,6.5513625279,3.33267323591,5.67690322938,-79.9054094285
off_to_on,3.76312528702,1.265091645,3.52794096872,1.99304853984,4.75918817727,7.63024419365,3.34137730007,0.920838378923,1.4623160765,1.60586544964,3.50535503235,1.01205379498,2.00428461515,-67.4369664618
off_to_on,0.81850480809,-1.25863079619,0.471041053681,1.97187778234,1.9072477879,3.18713841979,3.43011718943,1.34337693224,1.01947184273,-0.414155898577,0.266868538282,-0.637374970478,-1.44560745008,-40.3458347631
off_to_on,-1.62471097787,-2.82823639983,-2.00544260383,1.6396840946,-0.71643211841,-1.38960973368,3.55701502623,2.45334090447,0.51795584392,-1.43854530809,-2.29881999751,-1.22287126816,-3.7628497679,-6.13861567092
off_to_on,-3.15527956667,-3.24385415238,-3.4821624073,0.983169514899,-2.73546987959,-5.0839643078,3.19731752752,3.54979130854,-0.011342770364,-1.45587365468,-3.71679577937,-0.924105170961,-4.57752009397,26.4954188389
off_to_on,-3.75405322981,-2.72770588137,-3.95447042783,0.0604858397573,-4.06671495659,-7.26961503715,1.83033294481,3.75183563326,-0.553957748461,-0.915044239371,-3.97187261298,-0.328959595216,-4.07139774308,50.1340764236
off_to_on,-3.6697433113,-1.75762558672,-3.70798359143,-0.992017869964,-4.80000929191,-7.77180458014,-0.726945338805,2.43065230516,-1.08731470267,-0.449321079778,-3.40505538943,-0.102698955474,-2.79206780402,60.5090785136
off_to_on,-3.21900660301,-0.833235340584,-3.1097432666,-1.97790944449,-5.03533563632,-6.79330348568,-4.10394776692,-0.436744779728,-1.55983113226,-0.54423870848,-2.50085331811,-0.641564854789,-1.3692897932,57.2878657508
off_to_on,-2.61131619767,-0.273603497705,-2.41713908221,-2.68220343829,-4.76786305532,-4.76375347259,-7.39160756516,-4.15045974809,-1.88655825379,-1.29568864698,-1.66293620004,-1.86305019818,-0.25837062792,43.5919753969
off_to_on,-1.8758786139,-0.12245696978,-1.68712571714,-2.92599480295,-3.88027204232,-2.18296644539,-9.40981538221,-7.47450141453,-1.96695153911,-2.36033796988,-1.06871005529,-3.22371720834,0.391277679591,24.5191030221
off_to_on,-0.913204461654,-0.186412988368,-0.815337870626,-2.61802223911,-2.24488700128,0.488898860108,-9.14262504574,-9.07290897822,-1.72022850695,-3.11592926996,-0.651587300972,-3.95744500116,0.707451165518,5.25582658309
off_to_on,0.367117076536,-0.175024140627,0.327460965063,-1.7865324085,0.118821914497,2.87618419149,-6.1787944014,-8.03630696555,-1.12504909607,-2.95920048803,-0.202012955217,-3.43267647851,0.942958369509,-10.5285886387
off_to_on,1.90167052541,0.128389995061,1.73874766049,-0.58021309457,2.91766557721,4.68419209556,-0.978360067154,-4.29444877615,-0.246648713074,-1.61071587512,0.471211505043,-1.47498754278,1.2865035148,-21.4637517776
off_to_on,3.40398075049,0.744111596914,3.19299956305,0.763531245068,5.56777258511,5.68325608524,5.16024935153,1.25666005423,0.762218921171,0.70782291148,1.39956841314,1.48757149268,1.73219915493,-28.2322423236
off_to_on,4.41813526322,1.47515073637,4.2707570218,1.97438219857,7.32122182744,5.71367118262,10.4511679206,6.98318445505,1.69111416061,3.30613625146,2.40035653329,4.52860782256,2.06972830145,-32.5003371317
off_to_on,4.48464057103,1.9948636493,4.50681318716,2.8129374209,7.50670873525,4.72351321809,13.1877466001,11.0348948718,2.32557859982,5.26363129564,3.13470784234,6.54774459832,1.99747173545,-35.5494899442
off_to_on,3.35249063293,2.00179986796,3.59921442949,3.12446862227,5.79894550906,2.82362986827,12.333458776,11.9828552092,2.50813755658,5.78336017485,3.25262025834,6.69395933614,1.30183523413,-37.2435064542
off_to_on,1.14310266103,1.3713666683,1.5874601383,2.86845709691,2.40780606033,0.324356870852,7.92393398656,9.34479733646,2.1863263081,4.52126538851,2.5604351049,4.72139843854,0.0134108657911,-35.8228528984
off_to_on,-1.61609777142,0.235343994922,-1.08606925612,2.11807615247,-1.9015902584,-2.2826695031,1.12388751164,3.80158729017,1.43100510291,1.75598583007,1.13524038512,1.13166584543,-1.54137909984,-28.6706650426
off_to_on,-4.12157371849,-1.04878281498,-3.67390558932,1.03332163108,-5.98830433593,-4.41504700503,-6.09996343854,-2.98579802715,0.418032578342,-1.67546212278,-0.667853681698,-2.96404277421,-2.82924169315,-13.7753622482
off_to_on,-5.55332199187,-2.02952851899,-5.35850403976,-0.181204916515,-8.66981279802,-5.54813085206,-11.5925338391,-8.90698376613,-0.621144542584,-4.65978598353,-2.32493286529,-6.22164719407,-3.31249077097,8.71438271447
off_to_on,-5.37314736706,-2.34139151769,-5.54320480565,-1.3201717393,-9.10336592845,-5.3767962538,-13.7073539155,-12.1019633912,-1.46384249569,-6.20475755041,-3.32913883432,-7.5439184464,-2.68408335761,35.5500353588
off_to_on,-3.54685835026,-1.85850609614,-4.0885729568,-2.21175852329,-7.08121021126,-3.93095692657,-11.848208256,-11.5869510086,-1.95449114344,-5.80201049104,-3.3800326647,-6.4837058317,-1.03337026456,60.5899467226
off_to_on,-0.597249736409,-0.756468200355,-1.39750265021,-2.73689627312,-3.12982456481,-1.59450016253,-6.66609440451,-7.58601251635,-2.03873825254,-3.61623354707,-2.49984701593,-3.41614571168,1.13696631259,76.2770068639
off_to_on,2.54507449951,0.546603750248,1.69410219557,-2.83476129524,1.63125845659,0.991314685563,0.159899894612,-1.45053857049,-1.76414274864,-0.42671167782,-1.02801736428,0.589482594236,3.06453930071,76.016939049
off_to_on,4.84948999591,1.5494968405,4.19113049076,-2.50023268228,5.83123581804,3.11655954118,6.48428967242,4.80588918658,-1.25028428101,2.65848826433,0.506312478492,4.15437461984,4.00280285285,56.6872616417
off_to_on,5.54498413107,1.86572143194,5.28298425517,-1.77961812258,8.27841251384,4.22317851329,10.4059983171,9.19364609533,-0.641521525105,4.60826646375,1.58500740338,6.08951264687,3.51569553229,20.3613409964
off_to_on,4.40021355389,1.3803889319,4.63216730263,-0.767875629272,8.33391695811,4.08107197775,10.8831469509,10.4132881655,-0.0606543241184,4.84072671345,1.89609392327,5.82318233395,1.67372736525,-25.4855390701
off_to_on,1.81741887617,0.301558387191,2.49925322982,0.394261193464,6.10194211462,2.8558100243,8.04204992418,8.27010131598,0.420275891387,3.42149847147,1.44601294457,3.59637023837,-0.933803786868,-69.5533391586
off_to_on,-1.3000799988,-0.917315819205,-0.345799456014,1.52863286018,2.37353230863,1.04143873001,3.08023118189,3.69719667141,0.783811014471,1.0148882462,0.544224366888,0.353256973179,-3.38734804639,-99.7395783054
off_to_on,-3.86365495529,-1.75572901978,-2.89717384609,2.43927380494,-1.65293932972,-0.719257173147,-2.19258000613,-1.61173224858,1.04794013461,-1.39015298718,-0.333697873949,-2.63027358826,-4.76475951297,-106.737471553
off_to_on,-4.98611970155,-1.83598900651,-4.27329550695,2.9453747228,-4.77430375463,-1.86274480018,-6.0048953251,-5.82045087046,1.23546634851,-2.8708490568,-0.749445375462,-4.23755860305,-4.48876011548,-87.0744151532
off_to_on,-4.29887336174,-1.08114048342,-4.03179602439,2.92305942434,-6.16744875205,-2.09808409358,-7.23107345664,-7.59351614007,1.34728434278,-2.92571258714,-0.489538331622,-3.93369046996,-2.56165657823,-44.5628780046
off_to_on,-2.08275947308,0.24358894196,-2.32335757343,2.34483704541,-5.62620995422,-1.4951111529,-5.74316927974,-6.53616508357,1.35240702705,-1.6566917902,0.339689708853,-1.95846100278,0.407307835363,10.4010306343
off_to_on,0.836274069889,1.62535433388,0.172134645029,1.30226651651,-3.5764633728,-0.436183923253,-2.39152141166,-3.28124780314,1.19970429953,0.29043445988,1.34999965186,0.783009917532,3.40066019701,63.5801306271
off_to_on,3.38908051309,2.5001750064,2.50280967181,-0.000395101133254,-0.876532162246,0.548371798412,1.36458179673,0.794990889977,0.846441903254,2.00125572684,2.0292238417,3.08822777616,5.35063025003,100.901976058
off_to_on,4.6521862264,2.47610198601,3.7991761557,-1.28587886184,1.51455636758,0.996953556715,4.02902296526,4.11192751388,0.290901875301,2.67300452681,1.9576801226,3.94040881878,5.52714017597,112.518154864
off_to_on,4.18104015891,1.49564888413,3.59366302509,-2.26999139295,2.87575872985,0.701688833969,4.62752982585,5.47335573911,-0.406162316271,1.94848167809,0.996424442063,2.91867261221,3.81204449473,95.6615463183
off_to_on,2.16604262443,-0.12794299876,1.98720553698,-2.73663792211,2.94892052071,-0.209629747465,3.0483491933,4.48957688318,-1.12265309027,0.0706602918358,-0.63012176906,0.37515750638,0.755427798739,55.4091532433
off_to_on,-0.644217119939,-1.81799156785,-0.397203982622,-2.59878223288,1.97733417038,-1.32615170064,0.0467795415441,1.68432860568,-1.7015385942,-2.20444473162,-2.39452696985,-2.69142382321,-2.61055799995,3.11496859884
off_to_on,-3.22188141476,-2.94695446691,-2.65395816694,-1.92457983136,0.557716753875,-2.12046679682,-3.07690848162,-1.74138067322,-1.99507574192,-3.90395447107,-3.65135900429,-5.01909094838,-5.13484345471,-46.9875679488
off_to_on,-4.63620766596,-3.0744239815,-3.93541300545,-0.917924404029,-0.625918625119,-2.16409485655,-4.99577704918,-4.38917526168,-1.91179520142,-4.22814944616,-3.8789424602,-5.57643359282,-5.9558042526,-81.9432196638
off_to_on,-4.38831866225,-2.11943514756,-3.7652568566,0.142589062958,-1.0783398245,-1.30781886588,-4.87091838729,-5.20068511749,-1.44925310861,-2.88142855668,-2.88600040159,-3.97693370394,-4.80570597987,-93.7030689049
off_to_on,-2.58284579303,-0.399859285129,-2.20853601509,0.987842529044,-0.673826689598,0.244035610742,-2.66928844954,-3.85063088311,-0.700107092186,-0.213154856108,-0.902654233218,-0.6528709261,-2.10044802541,-81.1335253367
off_to_on,0.122684093855,1.47826908494,0.162130654704,1.4383015086,0.321360336677,1.99558739601,0.830151325455,-0.853584430377,0.171549307992,2.88965755723,1.48211702824,3.28109409305,1.2165214627,-49.8627927156
off_to_on,2.76684950794,2.8414759322,2.48717852971,1.45330170317,1.38365511579,3.33544985508,4.33741068226,2.64695010344,0.976012848604,5.32003875649,3.51672758974,6.42647998677,4.01637616675,-10.1255676551
off_to_on,4.43553992905,3.19731366663,3.94104942171,1.13279317721,1.96254446445,3.76074572663,6.54015128471,5.31942609426,1.55050762899,6.15989313696,4.54640410856,7.61349481115,5.38561380005,26.6078378874
off_to_on,4.58436548479,2.41717590826,4.03149996383,0.671187446898,1.71139778817,3.06454717458,6.59323953902,6.1445269723,1.80086250566,5.02514872959,4.24101541768,6.33557033164,4.93833842529,51.0891513905
off_to_on,3.21606716578,0.784553559173,2.76670452109,0.279936115569,0.628140268351,1.41624789702,4.4265034379,4.78737795292,1.71913084683,2.21641658552,2.70812019125,2.94315989295,2.92895623126,58.7503596824
off_to_on,0.854261507771,-1.10942933086,0.632499269275,0.106873750596,-0.945434722301,-0.694680145949,0.760512291874,1.70773484327,1.37306629796,-1.38153244443,0.450902962682,-1.47521372257,0.130795743983,50.4726671673
off_to_on,-1.66773308747,-2.58375778926,-1.60461384139,0.18182324926,-2.45948848995,-2.6292430224,-3.1678892496,-2.02415282251,0.873667545567,-4.61277792708,-1.81164846636,-5.47916473299,-2.46597067267,31.5764056861
off_to_on,-3.51674181207,-3.11665251652,-3.18795900269,0.408664775243,-3.36856688499,-3.81885897712,-6.0603282071,-5.12805245934,0.3345390237,-6.45729733772,-3.39451622287,-7.78500705033,-4.01823918792,9.53277309285
off_to_on,-4.14958995078,-2.53302140648,-3.6417017221,0.60714889218,-3.33511785859,-3.95268062933,-7.01812278605,-6.57543710928,-0.161229387445,-6.38004969704,-3.87440505789,-7.70812416464,-4.11821148131,-8.72031527824
off_to_on,-3.47800135144,-1.06136045676,-2.92156472251,0.589246251931,-2.34633650979,-3.06505195393,-5.83963804554,-5.94077761672,-0.575171054862,-4.49511125689,-3.21437600146,-5.37869776141,-2.90267717399,-18.9216772363
off_to_on,-1.85636344958,0.758755853836,-1.39495535573,0.241568183258,-0.704452217864,-1.49606628881,-3.05103185479,-3.5193035344,-0.905585241595,-1.49093959012,-1.74532555733,-1.65855235477,-0.952666263401,-20.4240561914
off_to_on,0.0897628277629,2.28096388913,0.331669378982,-0.417606426443,1.09781156034,0.252356121313,0.328191207231,-0.18061655155,-1.16410942575,1.64516545099,-0.0191431369887,2.19940406099,0.965344408492,-15.7404569377
off_to_on,1.71699379862,2.98924945064,1.66186178761,-1.22955690748,2.56071151673,1.7034480623,3.18349943059,2.97264268488,-1.349491241,3.9905342539,1.40434792145,5.01240235024,2.2065363813,-9.02298137992
off_to_on,2.59570250799,2.6784927146,2.23218173894,-1.94016858705,3.34466088778,2.56090342719,4.7087380515,5.00301570758,-1.43217248199,4.99691761858,2.15288639331,6.07241987228,2.47954373474,-4.15021875687
off_to_on,2.6321274903,1.51280108358,2.02229700438,-2.28458956251,3.35803303413,2.77491675857,4.66163624527,5.44237066663,-1.35829602783,4.63256707178,2.14747417628,5.34562857478,1.91545689126,-3.18029650603
off_to_on,2.04330029114,-0.055585000757,1.31535727932,-2.08223735188,2.73975209078,2.50129969817,3.38332956592,4.39654373404,-1.0729538117,3.31428550292,1.58524053788,3.40351409762,0.956679572141,-5.72429536191
off_to_on,1.20965162457,-1.47019325442,0.53510399624,-1.3081960433,1.75661294173,1.98189522729,1.59067166051,2.42875193992,-0.553513581889,1.67329287266,0.816902302896,1.12990711023,0.123342576179,-9.40088382882
off_to_on,0.479371374119,-2.28213240642,0.0366484037475,-0.114584024099,0.67000613249,1.40708163259,0.0398895752765,0.287459780509,0.161582448954,0.264258460318,0.177533252004,-0.665194188387,-0.235715968384,-11.105049606
off_to_on,0.0146102550578,-2.30682981415,-0.0550497511245,1.20731633877,-0.364057327668,0.826724006324,-0.792625514155,-1.3991911564,0.962703954435,-0.65470032128,-0.154923248488,-1.56232956504,-0.0968106624111,-8.52353106815
off_to_on,-0.253371510287,-1.66739249271,0.112052561864,2.31262391329,-1.31736839276,0.152050234635,-0.879849659757,-2.33603716468,1.68537642457,-1.17887152909,-0.214542670596,-1.65203318115,0.247169664509,-1.26335542263
off_to_on,-0.544512579814,-0.713405321139,0.210906566402,2.90775333481,-2.22953953872,-0.752395019015,-0.598688921771,-2.60183700997,2.15086505945,-1.63289432201,-0.196637428203,-1.41590502133,0.352983796112,8.85841837399
off_to_on,-1.06784507762,0.145580030936,-0.0774675787886,2.83945344008,-3.10225325249,-1.93179876018,-0.497408844107,-2.51773223065,2.21900110256,-2.32984272652,-0.329272942277,-1.43074508503,-0.12455709688,18.4661758626
off_to_on,-1.85813534363,0.619090662483,-0.869869556183,2.13843138194,-3.80915414115,-3.22983215914,-0.984341695924,-2.41764578483,1.83551755328,-3.33187605845,-0.72949182737,-2.03343344494,-1.21674827801,23.9439434681
off_to_on,-2.69559481864,0.65126798582,-1.97272144829,1.0039963412,-4.07904092871,-4.26847408703,-2.08101362257,-2.43587390899,1.05683202351,-4.33395521818,-1.31388541216,-3.10235040281,-2.56290542549,22.8870382282
off_to_on,-3.15808402033,0.424951324737,-2.91871200653,-0.263321281251,-3.57806602432,-4.54830513162,-3.35696780908,-2.41668636502,0.0422493732045,-4.74102659518,-1.8098348962,-4.06280815256,-3.51930821007,15.1090648655
off_to_on,-2.79621174049,0.254294778832,-3.14587677782,-1.35659680973,-2.06930903597,-3.64553060838,-4.08697101537,-1.99366313328,-0.985503161584,-3.92371212262,-1.86931908022,-4.1280574551,-3.42406559975,2.8066037116
off_to_on,-1.36322898452,0.414023849479,-2.25283650044,-2.05176589477,0.414370871732,-1.43335096127,-3.57478074884,-0.807058338381,-1.79961135186,-1.55303880637,-1.24014724542,-2.68279014661,-1.91483723095,-10.1851334292
off_to_on,1.00099670522,0.981876523048,-0.22434924666,-2.26186581728,3.46641609956,1.76748336487,-1.51084192824,1.24023355681,-2.22972736367,2.13254465229,0.0800962482952,0.353788787856,0.836419265524,-19.7611772081
off_to_on,3.72377532562,1.7674066161,2.47601660478,-2.04079867373,6.33720096297,5.18881562135,1.79319046163,3.81367905929,-2.20475221001,6.2620386194,1.78081524426,4.35261345895,4.08507635713,-23.018949718
off_to_on,5.93366568442,2.36578414643,5.00303795331,-1.54011055962,8.1171330193,7.79501800489,5.41000336651,6.16207271565,-1.76512033315,9.53137972332,3.30613436259,8.08827786855,6.71348675216,-19.2783029411
off_to_on,6.74539186248,2.32286332607,6.40028715928,-0.939076445243,8.02832927832,8.60277394972,8.0677319005,7.33963944723,-1.04237693034,10.6253295975,4.04105508685,10.1293921655,7.61550540941,-10.2718099267
off_to_on,5.59981597404,1.34858338143,5.9548184626,-0.376828836365,5.72924585046,7.03951689872,8.60409723835,6.56823772726,-0.214749078338,8.72178007215,3.55192850551,9.37713666146,6.13191559389,0.55402302097
off_to_on,2.52994765056,-0.509908906342,3.50471533113,0.0875472765264,1.51710087313,3.2109320047,6.43917310538,3.60318267529,0.545203524244,3.88826434647,1.78821117579,5.55038338639,2.36938848083,9.35023165861
off_to_on,-1.76034098889,-2.81457951501,-0.42526669399,0.473707312224,-3.66345776271,-2.03350030107,1.88074591351,-1.05196067524,1.11342615774,-2.79832368147,-0.840588403042,-0.581718118638,-2.73398119956,13.2873290034
off_to_on,-6.05642613001,-4.83892790665,-4.72882189277,0.84168444604,-8.43545400241,-7.28540136418,-3.87333234812,-6.1919416355,1.43515860494,-9.48810233976,-3.55664138524,-7.33719452415,-7.64717653481,11.5528624401
off_to_on,-8.99664860072,-5.802928073,-8.04651521137,1.235884517,-11.3793854482,-10.9748799275,-9.06479455606,-10.2347531295,1.52015981763,-14.1018406717,-5.45531091771,-12.6129187424,-10.7273069211,5.55924643434
off_to_on,-9.52475645683,-5.16192809444,-9.21482915453,1.63799470805,-11.4805495777,-11.8626109898,-11.9412217593,-11.7335557146,1.41842419384,-15.0132940367,-5.81786189314,-14.5784328148,-10.7855506601,-1.69927234483
off_to_on,-7.27456498373,-2.84311234408,-7.68158514892,1.95161160325,-8.48579650512,-9.46551579997,-11.3681771097,-9.90265469556,1.18894891733,-11.6365814888,-4.38371924532,-12.3329108907,-7.53771089502,-6.87951064868
off_to_on,-2.7445741314,0.665315640132,-3.73658999548,2.02821623789,-3.04171789499,-4.26635849967,-7.26770135114,-4.96349204803,0.875249937044,-4.70242597803,-1.47840829238,-6.28420931861,-1.76890432935,-7.63231505327
off_to_on,2.81216554804,4.41858669765,1.53466064496,1.72666852732,3.44687422976,2.37728194596,-0.715151419325,1.83204823732,0.49696770765,3.89480975761,2.05903616469,1.90337904541,4.86360079206,-3.54072462572
off_to_on,7.75953859471,7.29107068323,6.57124452513,0.983525383597,9.207348721,8.61091313594,6.35797290409,8.53527202257,0.0590666023064,11.6508956368,5.13422718367,9.79756266525,10.3385581725,3.70276263338
off_to_on,10.5941067423,8.33680587901,9.83054390683,-0.134843832809,12.6222046141,12.6361479138,11.768311376,13.0977589462,-0.427879667641,16.2347644253,6.7574211629,14.9710078497,12.9255548952,10.9455865575
off_to_on,10.4331529409,7.11311389658,10.2906225726,-1.42241890078,12.7195896948,13.2639309577,13.7927348922,14.0381659733,-0.927743907762,16.2417873035,6.3811794446,15.7999224363,11.7639856102,14.8051754641
off_to_on,7.30806337339,3.85301345903,7.78944225606,-2.57535209056,9.4727131556,10.2879694376,11.7451396917,10.9505798476,-1.37055701507,11.6601461833,4.09540946777,12.0122771062,7.16389444118,13.0164061123
off_to_on,2.16044235404,-0.579053050544,3.08305555073,-3.27571211452,3.80974666978,4.55453018242,6.21697500869,4.67279455304,-1.66216818779,3.88624039436,0.607510818187,4.79122418451,0.519458532351,5.38941561358
off_to_on,-3.46008698184,-4.94015938155,-2.39880310562,-3.29094741144,-2.66998377819,-2.2961730049,-1.10518781347,-2.95388882362,-1.71031725746,-4.7219349171,-2.98921165286,-3.60805931036,-6.14036696648,-5.98609472086
off_to_on,-7.89466552976,-7.99022454724,-7.01683131026,-2.55532906457,-8.18170063577,-8.3335347843,-7.98556975028,-9.66106276234,-1.45815904879,-11.6052779793,-5.58008616787,-10.6001198002,-10.8126995081,-17.3788012018
off_to_on,-9.90154438976,-8.87629737898,-9.44771124883,-1.20407899298,-11.2860272735,-11.9213836903,-12.363196799,-13.4755348188,-0.912299324314,-14.82110266,-6.39972820874,-14.1157145101,-12.1675133923,-24.6794925028
off_to_on,-9.03316694067,-7.39258966815,-9.09338542671,0.453984868927,-11.2963800916,-12.1957606875,-13.0079869099,-13.3447235646,-0.153523615835,-13.6418771234,-5.27937500754,-13.2628016386,-9.96015130398,-24.849213157
off_to_on,-5.74131937645,-4.03141078788,-6.23935883939,2.01887449168,-8.43884430722,-9.28630148284,-9.88894763897,-9.45471372651,0.675740198413,-8.73712752286,-2.68557408316,-8.57825166345,-5.07252527485,-17.0444523663
off_to_on,-1.18391914635,0.188413618382,-1.91679796589,3.11174280302,-3.72517097973,-4.22023611197,-4.13734745097,-3.13693681279,1.40481684828,-1.88716353883,0.460256252938,-1.79186550061,0.823017488947,-3.0248425798
off_to_on,3.18955800171,4.05391641459,2.47346629998,3.48158286826,1.40552419887,1.44549929116,2.37020042458,3.59805153796,1.87895851194,4.65971066325,3.11364626059,4.80395739658,5.8515745956,13.3034567588
off_to_on,6.12339502423,6.53699756871,5.6368058959,3.07261329828,5.54828579164,6.1309941031,7.65368326787,8.7334820682,2.00017761394,8.95384152727,4.46949768943,9.14929212243,8.56472390857,27.0624951349
off_to_on,6.94286839341,7.09409581595,6.7934207964,2.03187793641,7.74285158899,8.70686230307,10.2695291853,10.8921515237,1.75170720859,9.96580074418,4.22571689187,10.094694912,8.39164880842,33.9125378891
off_to_on,5.7167660921,5.79247321084,5.88383032505,0.656542495882,7.70610402444,8.78367517994,9.73142053167,9.73713858985,1.19881731254,7.85405164708,2.6571772542,7.72978189425,5.76312251922,31.4118855976
off_to_on,3.15408140998,3.23217308408,3.51353573174,-0.699965053944,5.82777149151,6.73816741199,6.58159319373,6.0018429467,0.46690733991,3.80286029216,0.480066141917,3.26151280911,1.88052965256,19.800594013
off_to_on,0.290235656896,0.303712086097,0.6744975593,-1.7312288781,2.95450693541,3.4918260511,2.11124555149,1.15788708402,-0.294682693574,-0.48910792833,-1.43651640618,-1.49434965195,-1.77003309544,1.97586960643
off_to_on,-1.90988110028,-2.12489932109,-1.64162619288,-2.25739892015,0.0565656344962,0.140848459398,-2.1476405197,-3.14376406555,-0.950599864707,-3.46673876108,-2.40056235157,-4.80834192995,-3.97088569654,-17.3159355917
off_to_on,-2.88268738264,-3.48031994457,-2.79169400848,-2.25776971197,-2.09759391411,-2.42053165246,-4.96314077535,-5.64916366242,-1.4072766131,-4.27560423146,-2.14554501295,-5.65867156713,-4.18899681249,-32.811334703
off_to_on,-2.61501344375,-3.6261179037,-2.66734145448,-1.85039035118,-3.1487971821,-3.75184175422,-5.78216284348,-5.89009031505,-1.6236464254,-3.01841420207,-0.907794643608,-4.05539304581,-2.7101091358,-40.185972423
off_to_on,-1.57095275547,-2.83853108936,-1.66348822629,-1.23099416703,-3.17977844158,-3.91887863495,-4.82473569997,-4.25830224199,-1.60483430422,-0.630607574793,0.690289735602,-0.961631180042,-0.4560222365,-37.2237133891
off_to_on,-0.442118828349,-1.64131755275,-0.458090203662,-0.596380659583,-2.58486892311,-3.35256930773,-2.88486039861,-1.75992610684,-1.38512493865,1.55940929381,1.90101320921,2.1408007701,1.43004992334,-24.3945841242
off_to_on,0.168432012112,-0.573864513668,0.298329450365,-0.0805414893069,-1.84708219932,-2.59183766691,-0.939361321418,0.437169821755,-1.00957540095,2.40309470259,2.1531107735,3.86314928171,2.06113240302,-4.71927502235
off_to_on,-0.000974937319639,0.0151968416579,0.256094553856,0.27529336698,-1.32006298555,-2.02555819125,0.267932215224,1.47879902669,-0.522500515904,1.41052236651,1.27840728455,3.46000325025,1.16039735498,17.0071047471
off_to_on,-0.779057152029,0.0739215008994,-0.50328636959,0.511769551326,-1.10034927627,-1.73923015752,0.50103004702,1.13906945806,0.0335382278523,-1.04983474997,-0.421661452279,1.10983081829,-0.842097930505,35.40604017
off_to_on,-1.66075323027,-0.178302332405,-1.52472974777,0.708587909446,-1.03155558652,-1.52174825594,0.0657692005855,-0.139382024417,0.610508131389,-3.90353787408,-2.29238813947,-2.17445857113,-3.00062379223,45.8169216127
off_to_on,-2.04905513629,-0.385432397091,-2.19392236093,0.93016579201,-0.825379095966,-1.01805207465,-0.395069458742,-1.4822525968,1.14626356314,-5.81062884405,-3.57806913994,-4.96195980611,-4.25177197356,45.4062734818
off_to_on,-1.53520673482,-0.2358720255,-2.01604409597,1.18335560982,-0.237567191162,0.0473345076916,-0.24660097401,-1.99192190314,1.56247551429,-5.71915291808,-3.71273556182,-5.98055485785,-3.85952740138,33.8488371394
off_to_on,-0.0996534810805,0.387050062055,-0.843496801358,1.40481803983,0.782094717964,1.67900889134,0.806326059093,-1.15720347924,1.77434271676,-3.31442009634,-2.53905197296,-4.62933085635,-1.73184505797,13.4479974401
off_to_on,1.85007559922,1.34557774736,1.03979734112,1.48315364866,2.03202573326,3.5399350041,2.54417000122,0.902467838285,1.71170671784,0.812246976528,-0.374053030682,-1.23011105019,1.51511519573,-11.3221427975
off_to_on,3.62166615248,2.2998869818,3.01124543119,1.30682168351,3.11851881288,5.03848249003,4.2912462178,3.45724680162,1.34517818368,5.34358060877,2.10072408201,3.07636247421,4.77045773083,-34.7628393716
off_to_on,4.50481230376,2.84738285165,4.34255272141,0.818560998239,3.60807392897,5.54421151579,5.18677203078,5.44457873602,0.70708757655,8.70040918091,4.08121454065,6.74802761844,6.83811066213,-51.2041038127
off_to_on,4.05670400404,2.69005997475,4.48084704018,0.0542451275849,3.20907326561,4.64846686149,4.55868723278,5.89550036442,-0.102684812026,9.6171223536,4.9234193957,8.41324977079,6.88628158982,-56.3185160175
off_to_on,2.29245217957,1.76176187908,3.26792623238,-0.850281873262,1.90741951712,2.36428826484,2.24613738592,4.34174511674,-0.931459242816,7.61409887987,4.36266470492,7.38111457665,4.76635303884,-48.2164583135
off_to_on,-0.296356872465,0.265189754779,1.01266924906,-1.68908213406,-0.000652210652098,-0.819424453293,-1.26598446498,1.04230615612,-1.60735149204,3.19153386796,2.59229533519,3.90064482513,1.08137275825,-28.0584951273
off_to_on,-2.90479052001,-1.39433257973,-1.61073555214,-2.24393901321,-1.99424056211,-4.05998435264,-4.96454414914,-3.06311687523,-1.98277514762,-2.32679532271,0.179179157837,-0.924156327231,-3.02038822438,0.00632691959358
off_to_on,-4.69858139138,-2.75040947274,-3.79893405315,-2.35109134589,-3.50068721096,-6.422187362,-7.64286455156,-6.66209821817,-1.97453199295,-7.24184403662,-2.1456635361,-5.52718778018,-6.24813223053,29.6348414664
off_to_on,-5.111559486,-3.43611608972,-4.89960374983,-1.95446266084,-4.09051186773,-7.18741841103,-8.33118440941,-8.52753447101,-1.58743613158,-10.055644342,-3.73899342434,-8.43186522968,-7.61690518595,53.700675915
off_to_on,-4.04428738656,-3.30208483568,-4.6306818591,-1.12744672275,-3.62119830381,-6.09914576398,-6.6612229809,-7.95720805131,-0.913416879953,-9.96798946261,-4.2464994098,-8.75761902436,-6.77706346789,66.0276982824
off_to_on,-1.89028351804,-2.44996913439,-3.15952295005,-0.0558995356563,-2.27729557253,-3.45527917222,-3.02519172347,-5.0328878136,-0.106058555897,-7.11947268352,-3.68454533271,-6.49996836201,-4.10829164061,63.0238498586
off_to_on,0.617251220857,-1.17418684602,-1.01837066523,1.01218490334,-0.494809276438,-0.0134398722867,1.53450532936,-0.604182550231,0.661329063657,-2.5035687012,-2.38332761326,-2.49195293622,-0.552161155281,44.7657176737
off_to_on,2.67694159021,0.158930212441,1.10470495005,1.8342476073,1.19806798831,3.25674737319,5.66799522247,3.99585370631,1.24072090199,2.40750020691,-0.826133533168,1.92508897882,2.74501092857,15.1857891563
off_to_on,3.70405751573,1.24267894169,2.61475811297,2.23704561384,2.36148862168,5.48540755089,8.16941535227,7.3986559481,1.54352854462,6.1770405196,0.543490638797,5.3881917133,4.83948436633,-18.7650995537
off_to_on,3.52130361798,1.9196901139,3.20310609494,2.15806897687,2.77816062996,6.16810888949,8.37364888644,8.64970418899,1.55427207899,7.86863740121,1.4683111237,6.97245278714,5.2952584073,-48.820970914
off_to_on,2.38733703551,2.19820793246,2.91556421788,1.65377739995,2.49485714906,5.29523170312,6.3567736379,7.50151659213,1.32164028587,7.3000102895,1.92458164713,6.45932400912,4.28016127292,-67.5417197745
off_to_on,0.85946156092,2.19645951968,2.07926983588,0.874818901764,1.76322064627,3.30729412082,2.87344956878,4.4536235888,0.932628554932,5.01138340459,2.06206895985,4.32988852352,2.43049907761,-70.3028283644
off_to_on,-0.448488731531,2.0476779901,1.12849508375,0.0183215160397,0.911647380457,0.903219960063,-0.937057934457,0.538101398693,0.480705266826,1.98392140949,2.0753392704,1.5078047827,0.551821817498,-56.5543925662
off_to_on,-1.11294370779,1.81423193064,0.408238904311,-0.726801920186,0.205358486759,-1.21932122992,-3.96015661003,-3.05895533597,0.0398284628834,-0.765481719821,2.07247006413,-1.03028208366,-0.71634421003,-29.9624719554
off_to_on,-1.05325778434,1.45346251666,0.039349701656,-1.22530087801,-0.247062085843,-2.59212160892,-5.47602850034,-5.39527824009,-0.347477176921,-2.54924065063,2.00550561977,-2.61639597978,-1.13597069211,2.62884310738
off_to_on,-0.532059615501,0.852876984584,-0.100705179151,-1.42029098042,-0.50508773834,-3.09208898892,-5.35727423926,-6.04683155802,-0.666230680227,-3.19788498558,1.69681366327,-3.08670326996,-0.916467323645,33.1170073788
off_to_on,-0.00839179515638,-0.0809413045284,-0.278690080063,-1.33337230139,-0.726717729186,-2.91169303133,-4.03210066166,-5.17120968167,-0.914160807184,-3.01595593259,0.950165206216,-2.7482042408,-0.561982624101,54.36881073
off_to_on,0.0908547129545,-1.32252642107,-0.736945003204,-1.04407009152,-1.05429154432,-2.41034449188,-2.24369433179,-3.35748342014,-1.08493275717,-2.54592314321,-0.305604947779,-2.1509973215,-0.593334749308,62.0858385095
off_to_on,-0.417595607989,-2.66859177064,-1.53449187818,-0.65788862618,-1.51108167102,-1.918640945,-0.71395431045,-1.34087361286,-1.15852883682,-2.25736599915,-1.91121513104,-1.77910048154,-1.26890736727,55.7566300197
off_to_on,-1.37070530994,-3.75773443007,-2.4736944621,-0.273959686366,-1.95926452592,-1.58249503454,0.147744525208,0.293645487269,-1.10403388994,-2.3037370928,-3.46838195333,-1.80185237788,-2.42834505122,38.4451740986
off_to_on,-2.31208514008,-4.17449938754,-3.15214851221,0.0386370778987,-2.14306030619,-1.31331150197,0.374391402502,1.30041067608,-0.894021231978,-2.45412780068,-4.4474323406,-1.99673457456,-3.53124661556,15.54718437
off_to_on,-2.68297112019,-3.60609397423,-3.12539851856,0.251049189012,-1.80310287192,-0.86273305418,0.363756207045,1.78897343407,-0.524064348551,-2.22816350944,-4.37988620321,-1.87698000571,-3.88113583553,-7.02214324921
off_to_on,-2.07514833716,-1.99278533725,-2.11626896371,0.371294962714,-0.815104072537,0.0142464180588,0.634896272052,2.0774957671,-0.0280230066427,-1.17178970567,-3.06386900691,-0.966152291074,-2.94577581989,-24.5780799588
off_to_on,-0.441092992594,0.391957952906,-0.181924989496,0.431126176563,0.708450684928,1.38338841275,1.52962987353,2.46285305644,0.519090208101,0.852190546577,-0.696669917748,0.905006996373,-0.640479226208,-34.7795120896
off_to_on,1.83022342013,2.97457650001,2.23872949573,0.468718784605,2.40392735284,3.02597164617,2.99313249628,3.01947649379,1.01409650803,3.49573556545,2.13005759974,3.41868489172,2.5500278012,-37.7888275358
off_to_on,4.01281294175,5.03058510376,4.43045359327,0.512697190221,3.7472237623,4.46038519648,4.53558496661,3.52327936086,1.35148520969,5.96878605772,4.58756241648,5.80159690711,5.67583478153,-35.5265206121
off_to_on,5.29060694886,5.90785607198,5.63272579396,0.571528211305,4.22529583009,5.09486761406,5.40183401141,3.54002483165,1.453607076,7.29640937648,5.87547444277,7.07599404031,7.62872008176,-30.4040385304
off_to_on,5.0638429101,5.25005238296,5.31663679536,0.630312762678,3.52949370915,4.45974547849,4.88824060755,2.64327262708,1.29448317753,6.70033129235,5.50502172426,6.44402874449,7.54591349014,-24.0993855326
off_to_on,3.19914854165,3.14004395759,3.40402954783,0.655120433573,1.69806685508,2.42995788394,2.68059728939,0.666683588966,0.908441992961,3.95619779039,3.49544336461,3.65641645439,5.1608994988,-16.897727314
off_to_on,0.123864225016,0.106534784638,0.340918387104,0.60354978797,-0.850989886007,-0.654848405443,-0.929030639716,-2.12549928239,0.380249968595,-0.423377558522,0.404387322959,-0.789009408105,0.963687908166,-7.86908045158
off_to_on,-3.27977803497,-3.01725254093,-3.01241389945,0.439124728974,-3.41858362538,-4.03216314097,-5.04781154434,-5.03790810915,-0.17978455978,-5.27078053714,-2.82994438561,-5.71653766569,-3.90163784983,4.20725510095
off_to_on,-5.95140792112,-5.34216267961,-5.64539032362,0.146318884156,-5.2295224142,-6.72158002775,-8.42818716672,-7.13474275777,-0.666775733735,-9.10288017313,-5.18879775104,-9.60863116303,-7.97942799717,19.5951193525
off_to_on,-7.00650363265,-6.1990905026,-6.72763729955,-0.25756201446,-5.67900490403,-7.83216473734,-9.87882810633,-7.56367755462,-1.00736653621,-10.6102714605,-5.91457830066,-11.1042892444,-9.97319816478,36.6241086202
off_to_on,-6.04299407304,-5.35054478677,-5.89099501407,-0.717466143207,-4.53809199197,-6.8693998673,-8.69660110611,-5.8950504595,-1.17236051153,-9.12514786366,-4.77443984789,-9.48683065847,-9.18270859441,51.5066420976
off_to_on,-3.29048137403,-3.06619259944,-3.36235397455,-1.14563357346,-2.0469137638,-3.93297298507,-4.95988219161,-2.34282171111,-1.17289080564,-4.89568366635,-2.14985958558,-4.98235364783,-5.75365286992,59.1808491953
off_to_on,0.452833522846,-0.0363823344408,0.101923716278,-1.43756087327,1.13913960598,0.26988629554,0.432379508732,2.22952987264,-1.04378121129,0.941677461088,1.08402344383,1.2490689084,-0.650062259159,54.9972553638
off_to_on,4.07513651163,2.84743333524,3.45930358954,-1.49684599341,4.13606062068,4.60935168009,6.00288378654,6.53853041057,-0.822689877505,6.69494347317,3.85122893599,7.44100350733,4.64399832287,36.6891937959
off_to_on,6.50969699323,4.77167857578,5.7185983639,-1.26355089828,6.09230891255,7.86224090522,10.1457843222,9.27807579676,-0.534827851259,10.6479126051,5.23983264302,11.7651513266,8.59277801183,5.87537475474
off_to_on,7.07350414755,5.24647996055,6.25551940688,-0.738257043952,6.44171731305,9.08143885635,11.6345813148,9.5510897521,-0.190016838244,11.6111255247,4.81196566768,12.9118639091,10.0887342603,-31.5731747987
off_to_on,5.67130256927,4.23914662214,4.99924526494,0.00643581886247,5.06927364734,7.88662543709,10.0157664665,7.18361068128,0.207143254931,9.30444291927,2.75034853198,10.5105564375,8.78415168186,-66.6210828994
off_to_on,2.80035066981,2.15639845796,2.43021453578,0.832908870538,2.34038542291,4.58300546851,5.75443781239,2.80677658775,0.639655844114,4.44137095121,-0.209818627893,5.24809175761,5.1692297954,-89.4285198944
off_to_on,-0.637344620607,-0.311216257453,-0.603167321491,1.56513998409,-1.01121894915,0.0713643418179,0.0839038443317,-2.32775134129,1.06280460024,-1.51076118278,-3.0390060724,-1.3527721273,0.380993550246,-92.3190243579
off_to_on,-3.64211587588,-2.42365122242,-3.17841245352,2.02995938339,-4.09777747888,-4.41947774111,-5.386916503,-6.73964218049,1.40073853675,-6.80868363009,-4.77008445179,-7.41655830961,-4.18091617932,-72.4091904205
off_to_on,-5.43232586894,-3.6222873821,-4.59747047811,2.10256251609,-6.12576742487,-7.69107907071,-9.17332715739,-9.18663882354,1.5600503342,-9.98337803759,-4.82826787198,-11.2946971097,-7.29434693343,-32.9859857136
off_to_on,-5.66181294548,-3.68189014826,-4.58780242216,1.74320630842,-6.60436000427,-8.91255570573,-10.3547992005,-9.04802624746,1.45817873352,-10.2773387601,-3.21988981127,-12.0491033128,-8.26312450245,16.9288675969
off_to_on,-4.47416659496,-2.74047785903,-3.34423492572,1.01335113109,-5.45798127689,-7.8363838049,-8.81471145454,-6.49731372908,1.05738107681,-7.82968193993,-0.517088351697,-9.68738475791,-7.06805810134,64.8191747136
off_to_on,-2.39152563959,-1.20927535723,-1.41025741485,0.0648773962895,-3.02006368805,-4.83592992798,-5.21371038388,-2.41198573306,0.391099354453,-3.56278074505,2.35161461444,-5.08843765123,-4.29028101688,98.1142444068
off_to_on,-0.0945846163687,0.393949128144,0.545192607275,-0.89605536034,0.0785616131843,-0.766096796623,-0.723731953514,1.9397024698,-0.429341144124,1.17120604007,4.42699014691,0.335227314974,-0.857145192453,107.803226732
off_to_on,1.81591754612,1.62249338217,1.96618763293,-1.66094849291,3.08546842422,3.29836934317,3.37188054644,5.31959689282,-1.23365656744,5.04715968646,5.04455991377,5.10693698629,2.28337813575,91.103930575
off_to_on,2.98879791593,2.22682205095,2.57629105733,-2.07184335216,5.31381876982,6.36111575638,6.07007520151,6.90102468249,-1.83406072046,7.16524433106,4.0470990691,8.12193324103,4.44120398795,52.3385139701
off_to_on,3.3714500746,2.19241627987,2.42041301995,-2.05963291971,6.29347639395,7.75171599568,6.90495573858,6.48507601001,-2.07749457307,7.26277884528,1.81504994769,8.91158727964,5.32856925247,1.72360689874
off_to_on,3.13919315487,1.68948520932,1.78145065732,-1.65672714138,5.85612470883,7.26066540425,6.00150746355,4.49125186755,-1.89194053821,5.68935435933,-0.88767648099,7.6705314941,5.0436733563,-47.5611312598
off_to_on,2.55339570708,0.967779394286,1.01958587776,-0.981129727257,4.14617031768,5.14070273175,3.93489200659,1.74499673543,-1.31101873473,3.18416411464,-3.19009518337,5.07128619882,3.93025366229,-83.1218133751
off_to_on,1.82056322257,0.246646963311,0.408267351812,-0.198097897846,1.56751218512,1.99408731583,1.47027566395,-0.845452737767,-0.467719029745,0.561756806997,-4.4103323148,1.96295563582,2.39162279671,-96.7670030468
off_to_on,1.01623436718,-0.354243070164,0.0356193436178,0.527501726792,-1.31328241294,-1.40672309569,-0.709603088198,-2.59860990211,0.441675396758,-1.5661712471,-4.26756268902,-0.920615433344,0.743246878375,-86.5709679743
off_to_on,0.102260398138,-0.820930921478,-0.192980176213,1.07268248358,-3.88448532438,-4.30918542073,-2.19244183066,-3.24716210954,1.21229343196,-2.93458824107,-2.94133208748,-3.13944301513,-0.841847823065,-57.0158614266
off_to_on,-0.980034192311,-1.19575855871,-0.46144459062,1.37925519038,-5.60724213063,-6.13548284323,-2.88843814054,-2.94949454498,1.68647032552,-3.60104871992,-0.968253727114,-4.56833021523,-2.29044946202,-17.2676054478
off_to_on,-2.19497797626,-1.50511458141,-0.908547741378,1.45302028672,-6.11790399109,-6.57630113462,-2.95400388623,-2.14226365095,1.79285242421,-3.79254333301,0.975197727789,-5.28616170698,-3.53221556903,21.7786632369
off_to_on,-3.34149688911,-1.7057919761,-1.5192997295,1.34285157708,-5.30094205148,-5.61923974039,-2.64342434896,-1.30987288852,1.55704155085,-3.71226359528,2.31743198088,-5.41187289323,-4.41544527248,50.6984158487
off_to_on,-4.07245380747,-1.68105007293,-2.09644868555,1.11029973627,-3.3199108568,-3.52240443907,-2.16482154272,-0.77191151685,1.08207780341,-3.404069321,2.77384462612,-4.97919788146,-4.69369316843,63.9861115568
off_to_on,-4.00961557678,-1.29272665415,-2.33021270038,0.803003301706,-0.596165893341,-0.749239025876,-1.60294373231,-0.573388517962,0.50749873492,-2.73834033954,2.40569398431,-3.91422056297,-4.10403615355,61.0692562773
off_to_on,-2.91335300238,-0.467556155819,-1.93977030301,0.442573805512,2.26871204175,2.12105531002,-0.93249803026,-0.513704229143,-0.0372998794497,-1.52207542368,1.54538878399,-2.12397132151,-2.50911252267,45.7219866749
off_to_on,-0.835320383015,0.723358314895,-0.825949366186,0.0308229455606,4.61930038004,4.49700734568,-0.100564859516,-0.289933354356,-0.468654964143,0.324574901695,0.628737763591,0.353782048118,-0.0370854451859,24.2456158797
off_to_on,1.8190511138,2.03443744813,0.834440516693,-0.430047450492,5.89914525857,5.88291241951,0.874898307761,0.317071754439,-0.761634293082,2.61739548771,0.00709948247885,3.22397368285,2.85575508437,3.15176585385
off_to_on,4.36108346637,3.08970054544,2.60169302359,-0.914050979448,5.79439941056,5.97868930187,1.84832104927,1.300537265,-0.938231481476,4.86775302257,-0.185087845715,5.91086257269,5.45006747487,-12.8284592515
off_to_on,6.0140288501,3.49559103404,3.90046004471,-1.35746767378,4.32747122027,4.75311457637,2.56674573768,2.39481979873,-1.03837132527,6.39179824035,-0.0586706725708,7.67546366468,6.95593822861,-21.7887226795
off_to_on,6.1723716081,2.98643181663,4.22056260254,-1.66351049217,1.86737162109,2.46891292684,2.76320301601,3.16846178318,-1.08785370816,6.54236043343,0.110360085091,7.84863392005,6.77645545872,-24.5255598652
off_to_on,4.63288877313,1.54805876909,3.31750780287,-1.72716229463,-0.955893735129,-0.357284953375,2.28213724363,3.20528856777,-1.07807003492,4.97847493051,0.0299869590136,6.09793443516,4.74807954552,-23.4723336477
off_to_on,1.70756296554,-0.532465539438,1.33370904942,-1.47291445526,-3.41671172179,-3.06301705962,1.177207517,2.29711849446,-0.966984862652,1.86195541296,-0.45568629436,2.62044351341,1.26081839728,-21.2309684948
off_to_on,-1.83384910254,-2.7197377569,-1.2125965366,-0.891623308083,-4.89516155996,-4.99820619737,-0.269467912345,0.565102690573,-0.701608907834,-2.11027418988,-1.27642791793,-1.82874065044,-2.8025065575,-19.3337743745
off_to_on,-4.98373165842,-4.37766174232,-3.57579991923,-0.0612468923531,-5.05424208907,-5.69529516498,-1.62493688505,-1.5454795175,-0.25267132156,-5.87107710792,-2.14639643014,-6.10622768841,-6.30524721041,-17.7115241719
off_to_on,-6.8108404878,-4.96784280919,-5.02196238754,0.859278947174,-3.93595777392,-5.00199579606,-2.45569990043,-3.40143739358,0.353756155073,-8.3027574235,-2.67202328582,-9.00778676936,-8.20433165897,-15.0168754865
off_to_on,-6.76307285978,-4.2327242689,-5.07584700233,1.6647032159,-1.94224343811,-3.13209068532,-2.49254614944,-4.4003400484,1.02284271226,-8.60576324785,-2.51445652508,-9.6492397232,-7.89112521164,-9.58976386361
off_to_on,-4.85304309084,-2.2986127394,-3.68762398195,2.15791554239,0.296548392147,-0.611341847395,-1.74168040788,-4.18907303595,1.60465066202,-6.58515319713,-1.54150256065,-7.76893106668,-5.40612581858,-0.59545139852
off_to_on,-1.65946802732,0.341453495838,-1.25805956894,2.20753013586,2.12465966954,1.87170966451,-0.492721375778,-2.79827822525,1.93345515233,-2.74696716134,0.0925025397513,-3.8407373476,-1.44720033058,11.1889987245
off_to_on,1.85871739186,2.96485768493,1.48880553319,1.78959950496,3.0686162408,3.66744189541,0.785087485282,-0.640308746384,1.88094723564,1.83834240465,1.97297862112,1.05034847455,2.83869811596,23.304722346
off_to_on,4.67266759706,4.83503265383,3.74180309159,0.998824485719,2.97940646246,4.35615129734,1.6210102603,1.62959203771,1.40503338264,5.86526231279,3.55111056707,5.53518970929,6.21437260934,32.3189158952
off_to_on,6.01174825697,5.42621210012,4.86510391081,0.0243627644032,2.06053243139,3.86561155784,1.72567711328,3.33722830553,0.575966238594,8.20510142721,4.325287574,8.38299411641,7.74187141864,35.0479265797
off_to_on,5.5973638827,4.58383341516,4.59589417277,-0.902891546091,0.773056241369,2.4753723211,1.1047311988,4.01530282834,-0.43164779142,8.25935488421,4.01280121032,8.87759401717,7.07092868321,29.8166257505
off_to_on,3.70509221201,2.5683035343,3.1107197748,-1.57503431456,-0.347232845262,0.706280658184,0.0554863941113,3.54882855374,-1.3810753207,6.13378858817,2.65027394618,7.02165223348,4.52977538522,17.2498910178
off_to_on,1.03971200382,-0.03109740091,0.942211983607,-1.86329128764,-0.893251304112,-0.86601836958,-0.954538231708,2.19009485941,-2.03813345797,2.5764978402,0.587551509353,3.50361897024,0.99119018801,0.265501424259
off_to_on,-1.52596209311,-2.48219059405,-1.21836690767,-1.74798158791,-0.735378437797,-1.80749224125,-1.47995820001,0.443808968525,-2.23834985888,-1.29279260577,-1.62165516818,-0.554511245164,-2.43477467153,-16.7594008668
off_to_on,-3.25115780078,-4.13345431195,-2.75807867809,-1.31374901834,-0.0600839243144,-1.9621738108,-1.28328377103,-1.12816756145,-1.93515153271,-4.3619931044,-3.39282816747,-3.97529924652,-4.7707862767,-29.3619987591
off_to_on,-3.75902627119,-4.6023903224,-3.33345884597,-0.713363364719,0.716089074691,-1.48075265193,-0.437516664968,-2.1050333714,-1.21346372369,-5.87911554303,-4.28707210883,-5.89627567025,-5.47575349713,-34.4165973583
off_to_on,-3.12265875636,-3.870318689,-2.95160982381,-0.113863181014,1.12452981003,-0.733494716134,0.698639062855,-2.33380956504,-0.264282133756,-5.65741192674,-4.13221815962,-6.00779334423,-4.58075294262,-31.0971459144
off_to_on,-1.78435962483,-2.2586910531,-1.9207991108,0.355793943451,0.846172283804,-0.143149688991,1.62582529729,-1.94218076476,0.671547045598,-4.07086390201,-3.05227670515,-4.58641633009,-2.61976274621,-21.0430007455
off_to_on,-0.349547576256,-0.302309893305,-0.699436347692,0.637911425825,-0.142127779665,-0.00389191310224,1.91245350047,-1.24218270799,1.37229844757,-1.85656046717,-1.40277759786,-2.32841239824,-0.392557863221,-7.68767910002
off_to_on,0.659051136988,1.43220100617,0.291704141383,0.750116433555,-1.53588367759,-0.357777951744,1.38187267278,-0.572725971188,1.69540900418,0.189963631819,0.358087981446,-0.0589452293882,1.34429251581,4.98358313445
off_to_on,0.991011758722,2.51967774396,0.81962653887,0.761359842641,-2.80271938692,-0.978130325106,0.199834986272,-0.15093079503,1.61053452579,1.50588656636,1.81338419459,1.56783995502,2.14125931026,13.7809413698
off_to_on,0.732330456019,2.78611757163,0.896768372062,0.751130402029,-3.3800889911,-1.46765272749,-1.17768854063,0.00526694852585,1.19701943363,1.93063339147,2.69722412894,2.26783558628,1.98045015567,17.2729982679
off_to_on,0.226945242269,2.32541263917,0.731204649357,0.76889215105,-2.89855490982,-1.43365081401,-2.18027912574,0.0539341852811,0.609052025189,1.6986657713,2.93887552907,2.16111232119,1.22403213621,16.0377236457
off_to_on,-0.104499668069,1.42771372435,0.598356331077,0.809993738926,-1.34566438995,-0.671018932794,-2.35512876553,0.220640728989,0.0219575046324,1.27233877204,2.63685630449,1.64477050703,0.418276227508,12.1518473804
off_to_on,0.0307385716986,0.453608280284,0.693671824435,0.817460467128,0.895220925479,0.721695494864,-1.56255240336,0.657161868051,-0.421792319538,1.09411690351,1.98450604063,1.17043514081,0.0390111909151,8.15813300698
off_to_on,0.656032283008,-0.296573353106,1.0311585646,0.708808073346,3.15208205093,2.34407042026,-0.0533777367309,1.33434571891,-0.649658084782,1.36642141462,1.1832486463,1.02561456845,0.28342064694,5.93944616519
off_to_on,1.50609620664,-0.672548479434,1.43143183978,0.417179356879,4.68441870268,3.61989773661,1.60875111729,2.02169151424,-0.669035954093,1.9523388651,0.37880555781,1.21058365103,0.991032754534,5.94926036404
off_to_on,2.13818165323,-0.696620601621,1.60419500789,-0.0696451974057,4.9403565179,4.00552476302,2.75607804549,2.36880447456,-0.549927896881,2.43820568356,-0.359137133561,1.45851024491,1.7229303989,7.09602947706
off_to_on,2.12828786861,-0.519631342132,1.28968056305,-0.688370040175,3.75859614145,3.20438126908,2.87884686558,2.05897799964,-0.389214418169,2.33098541345,-1.01466699344,1.38478987697,1.96410962773,7.31507709581
off_to_on,1.27140933656,-0.335171733558,0.397935937107,-1.3070077334,1.44071354927,1.30559758105,1.83879284674,0.971421669674,-0.270833312684,1.30663469508,-1.58031882338,0.697100276905,1.36456455857,4.58873537677
off_to_on,-0.29841364297,-0.289662808782,-0.915713291859,-1.758914754,-1.33541641632,-1.21032896578,-0.0527815764302,-0.71948867595,-0.236154945802,-0.59713946234,-2.01664444354,-0.627755690228,-0.0809401113258,-2.00250474834
off_to_on,-2.12207001227,-0.423539644773,-2.27584921116,-1.89355057038,-3.73365991275,-3.60838783898,-2.12912932284,-2.55791750726,-0.273889386503,-2.93009638282,-2.23998216653,-2.28071489485,-1.99056698044,-11.6314997353
off_to_on,-3.56487302189,-0.663419145579,-3.20920739758,-1.62712548722,-5.03435755224,-5.13542934188,-3.60509223453,-3.93963245135,-0.331103716673,-4.95156633082,-2.14673705486,-3.70487164589,-3.71283764181,-21.7622920735
off_to_on,-4.04907777596,-0.863617150091,-3.32042914469,-0.975852219374,-4.87029811252,-5.27497368651,-3.87110592126,-4.32224392663,-0.339324772406,-5.88728862736,-1.66410905496,-4.30020986294,-4.56309061067,-28.8989954173
off_to_on,-3.28227388428,-0.87629887905,-2.45417411286,-0.0600629442186,-3.34210940625,-3.93024251236,-2.73335010291,-3.4362563397,-0.244909335569,-5.2271286809,-0.803558525535,-3.67031715114,-4.09049882251,-29.7996954176
off_to_on,-1.39285769835,-0.619924305439,-0.778807101305,0.923015782535,-0.974227190256,-1.46889881081,-0.506517466908,-1.41495565502,-0.0323126383698,-2.94941975381,0.30975139606,-1.81211088497,-2.27299907069,-22.7269830645
off_to_on,1.08376676279,-0.118419874901,1.24531754321,1.74987500919,1.47077969705,1.38878328572,2.08062450183,1.21260333111,0.267623558085,0.418983522236,1.44947008755,0.832025465352,0.437592304796,-8.27907818327
off_to_on,3.36997106259,0.503299584942,3.00708634836,2.22943320793,3.25213574238,3.8012629027,4.13658517604,3.6722726513,0.586327048371,3.93905555206,2.34348385213,3.48958014791,3.24327868221,10.5183957709
off_to_on,4.70693155035,1.0639971087,3.94784387628,2.2524029068,3.89293550031,5.07723872853,4.92521905049,5.19235446805,0.839040051742,6.55206264348,2.75513590559,5.30679782468,5.25936960066,28.9299504112
off_to_on,4.62006816477,1.39214995971,3.75455180409,1.81737832137,3.32104546803,4.89407463465,4.13368553848,5.26337534876,0.951192941113,7.42893914382,2.56145240378,5.64469910163,5.8152982631,41.8323443116
off_to_on,3.09331266228,1.38734330553,2.47289469482,1.02740379736,1.86395939431,3.38933602572,1.99067097654,3.81800447333,0.880728235423,6.25410230804,1.79912098912,4.31489041239,4.68983297895,45.2323966914
off_to_on,0.587860321094,1.05415781551,0.498363445243,0.0598863947075,0.106245296786,1.09708872886,-0.809868579501,1.26535587112,0.62976503845,3.34245511433,0.659990880641,1.66677222843,2.19623401533,37.5057152296
off_to_on,-2.10403307337,0.497288465682,-1.55300121677,-0.879818756989,-1.33306823031,-1.24462684849,-3.35217424912,-1.63525390858,0.24316408554,-0.453591458477,-0.563929584093,-1.51009474527,-0.914016563346,19.9715136155
off_to_on,-4.12103708264,-0.118274086217,-3.04939362923,-1.60723237351,-2.01955821516,-2.94456053713,-4.8201439122,-4.01918033978,-0.204081536134,-4.01649244212,-1.56768990149,-4.23848375434,-3.69611497698,-3.37118500118
off_to_on,-4.82024667155,-0.625502518407,-3.55197514413,-1.99707938459,-1.84044675299,-3.57877069769,-4.77909376594,-5.19598524021,-0.625673634745,-6.32210364248,-2.12312507284,-5.67492717627,-5.32067787174,-26.8639638015
off_to_on,-3.9910231213,-0.909872356072,-2.955184933,-2.00294195068,-1.0147582417,-3.10656627529,-3.3158057966,-4.86769939264,-0.943205779213,-6.7620302736,-2.14105512607,-5.3889339995,-5.34020305255,-44.6646113534
off_to_on,-1.92217358565,-0.940963581729,-1.51138927018,-1.65646916247,0.0195135601941,-1.84770415667,-0.988538748177,-3.21220832352,-1.10101490203,-5.32182740652,-1.68648671881,-3.50344514118,-3.82350439617,-52.2594782407
off_to_on,0.699044949525,-0.77170799162,0.265881909034,-1.05015868101,0.792059433947,-0.337457021898,1.39015234056,-0.806364636394,-1.07428837292,-2.55904810633,-0.944504371291,-0.648812947646,-1.31582884405,-47.606367243
off_to_on,3.01943287112,-0.508363072716,1.78331851401,-0.311134228176,0.986476520369,0.881232697587,3.05334954808,1.5802152676,-0.870407826535,0.604634162196,-0.151658825466,2.25218388323,1.35668515472,-31.6268389442
off_to_on,4.30292339193,-0.264661145305,2.56873064081,0.426248031156,0.555547087747,1.45006838822,3.54917792883,3.2456109253,-0.525068383293,3.19984580925,0.48154224652,4.29263910704,3.36695202452,-7.9561453913
off_to_on,4.1680363847,-0.118198099274,2.42195393446,1.04316203495,-0.274841008811,1.30394554098,2.88078943478,3.77893348877,-0.0951205947849,4.5230741873,0.830514465367,4.87686801325,4.15394417756,17.9483048428
off_to_on,2.7017478577,-0.0848074478967,1.46644376352,1.45176784023,-1.10941560862,0.66211509831,1.46952509143,3.17169545054,0.350380756542,4.34201941846,0.880897766248,3.90358054687,3.58794110286,40.0948113391
off_to_on,0.416056006976,-0.118878456262,0.0888534353491,1.60343762122,-1.55020751769,-0.0864543625319,-0.0377512114354,1.78481630009,0.740133506869,2.92977293102,0.713491064567,1.77881194109,1.98390812963,53.3290046328
off_to_on,-1.93247685081,-0.137629074309,-1.20681543095,1.49123309839,-1.35916676877,-0.553376514297,-1.03726599086,0.191109644451,1.01107686,0.927080391158,0.460088518673,-0.739641074004,-0.0330751389974,54.4874487388
off_to_on,-3.59513012743,-0.0589758154026,-1.97596787252,1.14803663367,-0.553740804832,-0.508767643787,-1.20602921332,-1.04395463255,1.11861002589,-0.908806908462,0.249283958485,-2.80752556703,-1.75654877569,43.1016835796
off_to_on,-4.06956684311,0.161382421528,-1.97921373756,0.640805591244,0.599556462752,0.0327991805875,-0.616490567642,-1.56179731351,1.04499419789,-1.97458826703,0.162191453681,-3.77584012987,-2.63909503918,21.5239709484
off_to_on,-3.24779455901,0.506819266253,-1.24994540581,0.0606231095268,1.68819069868,0.827498353945,0.313825718661,-1.32052307781,0.803806626401,-2.0158597134,0.211627043594,-3.39434964276,-2.46313598242,-5.54238865242
off_to_on,-1.43092725253,0.898257424735,-0.0663938744768,-0.49163837932,2.3110315921,1.5079312996,1.01407875341,-0.580815248513,0.438492005157,-1.18417872006,0.347961886797,-1.87318295551,-1.38955211321,-32.0200218463
off_to_on,0.785856575464,1.21454176993,1.15542198141,-0.922950394948,2.22858407951,1.73470343113,1.01414848988,0.219768636764,0.014266755899,0.0538899244415,0.485046151721,0.210466063403,0.123756812229,-51.7625628522
off_to_on,2.71309227387,1.32821581999,2.0060665474,-1.16609737807,1.44939115895,1.33389756101,0.157867149428,0.652024210673,-0.395384287548,1.11344508832,0.53396058097,2.12129184009,1.49704866701,-59.9385412986
off_to_on,3.78270936386,1.14600884672,2.21373264722,-1.19356591056,0.222360226431,0.368416321958,-1.31113708558,0.468640933958,-0.724360551516,1.51712894746,0.432321154317,3.21530550034,2.23264206192,-54.2063338889
off_to_on,3.71131406729,0.642488129679,1.72055376261,-1.02289516982,-1.0583812006,-0.881626008738,-2.82734054068,-0.297774654247,-0.927348723429,1.06853772573,0.161357672072,3.1459264787,2.07788296153,-35.4013568044
off_to_on,2.56524697603,-0.122512149435,0.685109242961,-0.710856600517,-1.99677759499,-2.01907731726,-3.71706359441,-1.34606694347,-0.986976428862,-0.0848127231272,-0.250804654851,1.96255708148,1.09649090563,-7.52749661842
off_to_on,0.716491922792,-1.00792911682,-0.581694759393,-0.337153901737,-2.33080312502,-2.67059057946,-3.46673225463,-2.22042408596,-0.912716500442,-1.51468399988,-0.736375227728,0.0766989478823,-0.368229581658,23.0194064063
off_to_on,-1.28683315597,-1.81725458846,-1.71957705607,0.0179864995498,-2.01147936989,-2.61521972377,-1.94224992641,-2.48339268207,-0.732492949175,-2.67244322609,-1.2007162421,-1.88500732238,-1.8182810431,48.8852002827
off_to_on,-2.88843362172,-2.3414963603,-2.42433151679,0.295408378749,-1.19991846945,-1.85526165251,0.526443231244,-1.88493012509,-0.480695254151,-3.08595306226,-1.53731564964,-3.28697253221,-2.76736197463,63.5484379383
off_to_on,-3.67746470582,-2.41067195766,-2.5242192372,0.470643082312,-0.190114208859,-0.60762483485,3.23139246726,-0.467568532876,-0.187679820269,-2.52396420792,-1.64430359358,-3.68189524535,-2.89323361697,63.0309261743
off_to_on,-3.48612617463,-1.94239830433,-2.01010471005,0.554852598965,0.707100504978,0.775852392591,5.31541748242,1.42857802217,0.12487894469,-1.07452161863,-1.44364844977,-2.93928606158,-2.13023023332,47.057240186
off_to_on,-2.41147685813,-0.97522580129,-1.0194075708,0.582852201734,1.27150007456,1.92598579086,6.06286909201,3.26232249668,0.441094281297,0.883839213217,-0.903207374858,-1.27166986251,-0.679033958069,19.2958479878
off_to_on,-0.765937669581,0.324011993372,0.212511692446,0.592832824504,1.43242706623,2.56814193585,5.14880172378,4.45705579992,0.742355452636,2.80275171275,-0.0582543196764,0.841416846405,1.06190833547,-13.456845778
off_to_on,1.02040634311,1.68495191844,1.41411074937,0.605800347327,1.26229550586,2.5914142516,2.7584130037,4.58169217444,0.998179523661,4.13288547363,0.975090732679,2.80148568634,2.61647930708,-42.9898678853
off_to_on,2.51404305307,2.78931117444,2.33530903794,0.613230011029,0.915747749253,2.05753838014,-0.464314246756,3.489965679,1.16247274651,4.48581302352,2.00409209021,4.06333295791,3.56412419904,-61.8490785015
off_to_on,3.378977755,3.34728403663,2.79084768554,0.578602552477,0.546969665462,1.15570359203,-3.61910276776,1.37601213726,1.17961378041,3.74073379869,2.78832717462,4.28171900135,3.64894957501,-65.3598673181
off_to_on,3.44365539801,3.17674053048,2.68679820207,0.453227768767,0.243812201768,0.127737165782,-5.83144425302,-1.26906685471,1.00081657369,2.06912120538,3.09297085949,3.39503322447,2.83861864164,-52.9053316411
off_to_on,2.72492419267,2.26311070994,2.03218879445,0.200967715934,0.00644192896714,-0.805431875538,-6.51799174101,-3.78545266686,0.606374301571,-0.122775198843,2.75599197013,1.62930765339,1.32323744656,-28.064660804
off_to_on,1.41059892353,0.779855507095,0.938036233272,-0.17762774603,-0.224260273754,-1.49164015231,-5.54917277493,-5.52011792792,0.0255955199249,-2.31017638807,1.75002865465,-0.571685295976,-0.539630078589,2.44629113865
off_to_on,-0.190709564711,-0.941684066851,-0.396319264037,-0.631958642887,-0.507115467016,-1.86038382008,-3.26238423531,-6.00082790695,-0.654723876787,-3.9878582663,0.216538645062,-2.66663336652,-2.31598983206,30.7202392844
off_to_on,-1.72015203454,-2.49015651177,-1.71172184516,-1.06577037708,-0.842881614725,-1.90757418884,-0.332080216371,-5.06252732534,-1.29979205617,-4.7919317814,-1.54510363124,-4.15379637737,-3.59892622622,49.8967098859
off_to_on,-2.84583322466,-3.48149620173,-2.73364162872,-1.36015637953,-1.15004431085,-1.66901934009,2.45022709444,-2.89429895006,-1.75506514654,-4.5764179215,-3.13807337394,-4.69085663544,-4.10098972403,56.0067732409
off_to_on,-3.33263726189,-3.66585741859,-3.22870340808,-1.40907912944,-1.28955137094,-1.19971240153,4.40857287539,0.00380706655874,-1.88711998418,-3.43093491618,-4.16594309066,-4.17023885835,-3.71617625199,48.8685187121
off_to_on,-3.09139275567,-3.00141501604,-3.06244365278,-1.15612280941,-1.12980498507,-0.56758779704,5.15464569641,2.94246396386,-1.62543312585,-1.64186687906,-4.34117466604,-2.73472956332,-2.53938746964,31.7933115204
off_to_on,-2.19653349778,-1.66999554293,-2.24201403855,-0.619749852708,-0.622353040003,0.141436905409,4.65494845942,5.21312786945,-0.991321283986,0.387806012852,-3.57098500929,-0.732650742076,-0.840105456289,10.2580558906
off_to_on,-0.86661647187,-0.0265194293747,-0.927441497968,0.102631740127,0.149193901519,0.818995823381,3.18850906441,6.26506266582,-0.102972608271,2.23743757546,-1.99211210295,1.37421361076,1.00348057205,-9.96308025736
off_to_on,0.589831420072,1.50449702798,0.597960564568,0.85486151446,0.975196455486,1.34302987846,1.22614174206,5.84587133165,0.847664863335,3.56221569283,0.058713191881,3.12589416189,2.59475884332,-24.551605555
off_to_on,1.85114362258,2.55378056526,1.99477411969,1.46155724099,1.58593331659,1.60472439617,-0.718772886169,4.06961381044,1.64147344314,4.16046029502,2.13102823709,4.17324085225,3.61177353162,-31.6975229684
off_to_on,2.66211854603,2.91328163773,2.95508120027,1.7754600786,1.75497745906,1.54638436564,-2.21976484433,1.39266302005,2.08960009838,4.00119917955,3.77727601657,4.35281442843,3.87954592115,-32.1456868707
off_to_on,2.89368539572,2.58811749495,3.28392151686,1.71819056654,1.39794770666,1.19287134389,-3.01675957046,-1.50059033105,2.08488478495,3.20826347735,4.66367218342,3.70886884516,3.40232388498,-28.3128253807
off_to_on,2.5644965716,1.77708106004,2.94777200889,1.30189473275,0.622238172113,0.657236293769,-3.03930313097,-3.8765476679,1.63160497793,2.00784730976,4.64218744037,2.45848219113,2.34690626566,-22.8984772485
off_to_on,1.81793781429,0.789176911286,2.07333540475,0.625286627304,-0.299419943611,0.109754670409,-2.38632433721,-5.15066346465,0.844220587293,0.656049668961,3.76531036609,0.912829210873,0.982637352412,-17.5917260162
off_to_on,0.863291807331,-0.0731882809857,0.897336831983,-0.154297754233,-1.02790885989,-0.284071975018,-1.28260441196,-5.05070418976,-0.0846597357845,-0.631179052127,2.24607198463,-0.618576547098,-0.402244461674,-12.4179754054
off_to_on,-0.0969274060437,-0.621006002462,-0.313780436695,-0.863795048616,-1.29355106568,-0.43397789235,-0.0277438609402,-3.69563918424,-0.937316631607,-1.72343920976,0.384493290053,-1.90819205268,-1.57968197806,-5.9961656165
off_to_on,-0.925762114583,-0.835187577433,-1.34383952269,-1.35895685198,-1.01380158454,-0.372136759577,1.05684428977,-1.56131540566,-1.52881952381,-2.58184591722,-1.50919589827,-2.848343634,-2.4291084371,3.40959845957
off_to_on,-1.57411787547,-0.851123134056,-2.07654256067,-1.55746868148,-0.340432629316,-0.25000906023,1.68527595209,0.663854412507,-1.75257438754,-3.22442629348,-3.16799252319,-3.43567604002,-2.93727549681,16.5090436839
off_to_on,-2.05889909386,-0.877385612031,-2.49750276945,-1.45202541462,0.390780770049,-0.276324807564,1.67072005688,2.2948887491,-1.60081430536,-3.66587709938,-4.38638679527,-3.71249004668,-3.15354043184,31.911630946
off_to_on,-2.40867819103,-1.08142244096,-2.65208556252,-1.10169576976,0.795606402956,-0.613862799311,0.987600112195,2.87279451216,-1.15577072676,-3.8592822617,-5.01060176625,-3.69424459592,-3.12263721436,45.9127730793
off_to_on,-2.60455962246,-1.49022018975,-2.58237985966,-0.606854993355,0.61215601451,-1.27554539432,-0.187570647286,2.32034180651,-0.556680946862,-3.67083591403,-4.92234137444,-3.32090161361,-2.82851887807,53.3763524798
off_to_on,-2.54900361443,-1.95074803083,-2.27709154101,-0.0775344044923,-0.163165123067,-2.06886698448,-1.48347320764,0.973567109059,0.0450313515993,-2.90944870651,-4.04036207761,-2.4627002943,-2.18095881456,49.5096095107
off_to_on,-2.08600308767,-2.17345254636,-1.66376340547,0.394163422604,-1.23721347543,-2.62555093454,-2.40940406959,-0.530896390591,0.527437599109,-1.41248213436,-2.35329747025,-0.989137135206,-1.06016276344,31.9298601334
off_to_on,-1.07438324804,-1.8493535605,-0.654112212489,0.74986554792,-2.10737808276,-2.52252215948,-2.49703379239,-1.48380587116,0.824236296502,0.836981729864,0.0231612608021,1.11948952483,0.591324671036,2.22784711659
off_to_on,0.510022310912,-0.799476332316,0.772625617319,0.966509430539,-2.25310963128,-1.46118661872,-1.4762213672,-1.37395228369,0.929434827849,3.60713317679,2.79225624523,3.66415879168,2.66576247814,-33.6694463547
off_to_on,2.48711552087,0.90285945571,2.4857740723,1.04676203018,-1.36434232136,0.559876820935,0.573748519243,-0.106389070554,0.882589925287,6.38106667516,5.46337336864,6.17897553249,4.82675705237,-66.6580875644
off_to_on,4.44746547422,2.89258974108,4.16441393064,1.00497944048,0.483639462322,3.15370381173,3.16430500876,1.91718820651,0.743016114086,8.42540474762,7.41178729817,7.98620316507,6.52983156937,-86.9277289957
off_to_on,5.81994856743,4.58568131553,5.33796456821,0.855982802622,2.78812146324,5.59062067237,5.47711893355,3.89955090174,0.564087070102,8.96898108741,8.01798016619,8.36368882247,7.14511328979,-87.0300550096
off_to_on,6.02944466719,5.35283439581,5.5115069385,0.611470055625,4.74467309035,6.99079553063,6.58693631849,4.91199059286,0.377105833581,7.45359327777,6.85934099491,6.78851489787,6.16038246882,-64.5462038987
off_to_on,4.70352318241,4.74212198791,4.34470565689,0.284616063788,5.51293430784,6.6168742991,5.77549838394,4.24083896998,0.189196805418,3.78127475436,3.89609675188,3.18076376452,3.403773228,-23.403784828
off_to_on,1.85834333629,2.67344027451,1.82345434413,-0.100795203232,4.53652667269,4.17283696831,2.83723363926,1.69708245343,-0.00652729729499,-1.5336298549,-0.42035121555,-1.94614188281,-0.796538229701,26.7178794344
off_to_on,-2.0118967703,-0.470987590277,-1.64624127204,-0.502752359803,1.8005142954,-0.00231236610719,-1.73951699938,-2.22949436286,-0.215145391316,-7.38377326252,-5.17590035409,-7.50614574718,-5.59153252365,72.847143427
off_to_on,-5.9948970445,-3.90608633046,-5.27529917909,-0.860564224836,-2.07893665296,-4.93471969684,-6.80646739119,-6.44600046042,-0.426802094987,-12.2887258749,-9.17971282953,-12.0613310449,-9.76768821245,102.369667483
off_to_on,-8.97585658132,-6.64991751241,-8.07158917234,-1.10423829273,-5.98572132588,-9.23921134,-10.830319618,-9.56065423688,-0.61272756747,-14.7786955442,-11.2747317652,-14.2039299481,-12.059978193,106.764553148
off_to_on,-9.95900628562,-7.82000434102,-9.12315565864,-1.17201688538,-8.63183112982,-11.5180428276,-12.3492529148,-10.3316649275,-0.732341619955,-13.8415634933,-10.6893873249,-12.9963542057,-11.5404056282,84.2471349334
off_to_on,-8.39988108993,-6.92680946292,-7.90082364974,-1.03049332901,-8.98365403278,-10.8176513743,-10.4760010068,-8.11684112672,-0.748262335457,-9.29509826608,-7.31943360827,-8.32954251181,-7.96096583291,40.4531462325
off_to_on,-4.4364210274,-4.06437681621,-4.47784563684,-0.689875674758,-6.64353463853,-6.9921086632,-5.27666241192,-3.16606168401,-0.642487488835,-1.95179024583,-1.83720773398,-1.06840241709,-1.92813335208,-13.0920841132
off_to_on,1.07158532439,0.0739715742882,0.419067423913,-0.207975129564,-2.04793661449,-0.838769525605,2.12333367884,3.36015275887,-0.426475048958,6.50385773005,4.42860042504,7.09096532852,5.17217396034,-62.2716081008
off_to_on,6.72938209975,4.37214030959,5.5636485871,0.319928918285,3.60173881863,6.06216506797,9.77570518191,9.67693955864,-0.140464809603,13.9195070803,9.82861493334,14.0388822855,11.5047663737,-94.4293293865
off_to_on,10.9815887618,7.61317157043,9.55815187845,0.7833488216,8.67131981901,11.7764514894,15.4450952128,13.8939818926,0.158019057026,18.260997874,12.8563861853,17.8377584554,15.2904506978,-101.927748084
off_to_on,12.5684525117,8.84845412812,11.2426916193,1.08464467656,11.5926659478,14.5914108514,17.2922867817,14.609381827,0.411950999183,18.2115206582,12.6022211951,17.3033190424,15.3398199078,-84.1318846045
off_to_on,10.9226658868,7.6959871658,10.0582742918,1.16433620157,11.3697858817,13.5584797087,14.4880629955,11.3848410543,0.581707589376,13.5968035859,9.05199259481,12.3962809974,11.4466602248,-47.2576974827
off_to_on,6.37528610531,4.46872486298,6.2429705143,1.01585664359,7.92272478459,8.82288537997,7.54686734413,4.93730724285,0.654370388916,5.49179484256,3.12673818048,4.28837293226,4.50535905605,-2.21190171062
off_to_on,0.0944037694366,0.0874191418005,0.789463935226,0.68533906524,2.14796857367,1.62234971013,-1.7503982858,-3.03052911731,0.642032513208,-4.04205026202,-3.56242518853,-4.93538727861,-3.70183340743,38.8215045971
off_to_on,-6.23587873629,-4.19746940816,-4.83202798509,0.256883130353,-4.3339615407,-6.05822559362,-10.8439753935,-10.3204383859,0.570500689975,-12.5236809484,-9.17797546506,-12.8598872119,-10.997096116,65.9310502996
off_to_on,-10.903302253,-7.18696435228,-9.10384001814,-0.171658232224,-9.66834340846,-12.0752821431,-17.1539016791,-14.8999693422,0.463979937654,-17.7579373575,-12.1983794764,-17.4345359177,-15.4348788332,74.0634483212
off_to_on,-12.6717930789,-8.09545020847,-10.909666111,-0.514585654254,-12.3368493889,-14.7739196918,-18.8722336494,-15.5233960891,0.333102357869,-18.4640071312,-11.8693425287,-17.563779681,-15.871741693,63.9192472056
off_to_on,-11.1429516325,-6.77708163278,-9.85910841525,-0.718133221723,-11.6231102584,-13.4860848347,-15.5304923739,-12.1092770505,0.172186967606,-14.630732309,-8.41970668034,-13.4071439384,-12.2977766091,41.0245716826
off_to_on,-6.85938149823,-3.74587633391,-6.38439492809,-0.768856223988,-7.82137620712,-8.71804459683,-8.15107162182,-5.74956242505,-0.0325624614602,-7.48740728659,-2.97214001143,-6.29450470492,-5.82282776859,13.4448435367
off_to_on,-1.11785237124,0.0123985828436,-1.58052930234,-0.689475926273,-2.12223369068,-1.96724782444,1.07378454495,1.65275236355,-0.287378269438,0.898146396699,2.82223433012,1.71260891673,1.67842374642,-10.9891348049
off_to_on,4.44488347806,3.36947726183,3.15495432705,-0.525183485726,3.78239826944,4.76842111853,9.4741728547,7.99582790755,-0.575161035896,8.26187747181,7.30565182882,8.46704068813,8.14730367205,-26.9895807158
off_to_on,8.35672196794,5.41261352442,6.56075074341,-0.326158331788,8.23957117015,9.62404566209,14.738696525,11.6356544892,-0.847932954195,12.816902098,9.32136566203,12.3761466525,11.9592252803,-32.9489911691
off_to_on,9.74056993028,5.71270317323,7.88348596487,-0.132566403183,10.1396065055,11.4331678822,15.6179163519,11.8685640763,-1.03311734342,13.7421444896,8.54286010204,12.8289570146,12.3801051455,-30.6712432715
off_to_on,8.53381618821,4.41818227732,7.06325367553,0.033411416631,9.22004047832,10.0414331455,12.2639082548,9.08338777635,-1.05380721142,11.3366881777,5.52207406472,10.2802299907,9.71921799482,-23.9753001964
off_to_on,5.43444790053,2.15272090368,4.6809073028,0.167095754171,6.07792485494,6.2739441569,6.10038654872,4.54352781506,-0.857086540197,6.80661420374,1.45014613367,5.98209837181,5.14128817301,-16.822097145
off_to_on,1.60556031775,-0.237219470481,1.69865036344,0.274222343106,1.90187839741,1.582622901,-0.720024501709,-0.111438620195,-0.440191777694,1.77673339434,-2.27864738427,1.47592821824,0.216569651201,-11.7212570873
off_to_on,-1.74878978046,-1.98914164631,-0.904119904381,0.361324410998,-1.96908082318,-2.49078225373,-6.07334279148,-3.45881147707,0.136257680448,-2.2895502873,-4.54449768978,-1.96336913089,-3.62567763204,-8.99402476389
off_to_on,-3.78359234741,-2.67540510733,-2.46543828082,0.428098232728,-4.49792952165,-4.84096595568,-8.56803565942,-4.76599047426,0.755054328216,-4.55478241626,-4.85616858796,-3.72927822942,-5.54778807475,-7.08735836568
off_to_on,-4.25096254574,-2.31330306958,-2.82831450052,0.464932786318,-5.25550264271,-5.13049387368,-7.95190629239,-4.17834760692,1.26953545039,-4.99924489864,-3.46448150479,-3.99480500167,-5.50724894457,-3.70622030568
off_to_on,-3.50212990141,-1.30407787557,-2.32248744776,0.456339357789,-4.48241582795,-3.81875154633,-5.0907124228,-2.56478534943,1.54389135063,-4.28865296434,-1.2061610991,-3.50912150517,-4.15641732524,2.77919794002
off_to_on,-2.26776854163,-0.23428118176,-1.56041455388,0.38848909312,-2.9027851509,-1.89428558785,-1.54460482911,-1.09229221108,1.49412202676,-3.3885995023,0.854402365553,-3.17635532413,-2.49413964639,12.2753235242
off_to_on,-1.31211970303,0.377899787783,-1.1367832154,0.257434475945,-1.3766475565,-0.425213654567,1.08594511873,-0.701522263239,1.11599318633,-3.08994164437,1.8473970198,-3.5953012838,-1.41458099639,22.7111065506
off_to_on,-1.10027132272,0.291629358917,-1.3549949313,0.0744173722988,-0.533770989308,-0.106726678486,1.79245478133,-1.69121213458,0.490076723464,-3.63931618822,1.42626196615,-4.75180228856,-1.3324672034,30.6997690923
off_to_on,-1.60900574888,-0.371405391895,-2.09070400976,-0.134082915481,-0.532183629942,-0.981360541622,0.530320365178,-3.57653805536,-0.238631675477,-4.62450949502,-0.116831936402,-5.99403790046,-2.03004812477,32.8501758895
off_to_on,-2.35359938704,-1.19491631499,-2.84696920034,-0.331807418383,-1.03123335776,-2.43847645875,-1.80604533473,-5.28080876508,-0.90052585409,-5.16220733982,-1.98726055647,-6.30778526307,-2.78241831071,27.1969433748
off_to_on,-2.6178224587,-1.65836089704,-2.9791014159,-0.481832302303,-1.38245373834,-3.49044164186,-3.78851917042,-5.59034969907,-1.34809055999,-4.31428763025,-3.22031149376,-4.78667019122,-2.70785352154,14.1674722988
off_to_on,-1.79420257951,-1.37171211244,-1.99900669669,-0.556195870583,-0.955206535822,-3.21526646293,-4.07890599206,-3.69763041052,-1.49471416716,-1.5645666562,-3.08109267655,-1.10850686123,-1.2001642762,-3.3174174953
off_to_on,0.303301907627,-0.259697374908,0.165071970212,-0.542829364192,0.539154110007,-1.18947672521,-2.02458525361,0.382346054084,-1.33372592467,2.84252590438,-1.37856413381,4.18343870351,1.73495822649,-20.6774627029
off_to_on,3.28441535898,1.37977209697,3.06361918961,-0.447690907778,2.86081996554,2.26409925284,2.01086125136,5.69618438714,-0.932719048928,7.85332169761,1.42761657218,9.728976087,5.38395162804,-33.1495034825
off_to_on,6.25763575575,2.96952059482,5.82878995315,-0.291786574711,5.27572887863,6.12089363274,6.71925029292,10.6018013522,-0.406683502913,11.8905788111,4.37154025476,13.741619459,8.52342381213,-37.3679069384
off_to_on,8.12025259076,3.86661935998,7.45889563905,-0.104516849372,6.80706958771,8.98841410802,10.305519712,13.3115950258,0.119621740906,13.3881633173,6.32701335139,14.6200594667,9.85171072492,-32.4701114079
off_to_on,7.96411680656,3.61539478992,7.18613924041,0.0841266302668,6.6141437779,9.6144817881,11.1660999932,12.5421201726,0.546726789417,11.3869275103,6.42928160409,11.5650400354,8.49875066211,-20.3278112177
off_to_on,5.44869446258,2.14253991725,4.79224995992,0.249905786811,4.35487688851,7.38393161134,8.53356499333,8.03421246224,0.82163153115,5.96836818845,4.41666614016,4.96887545975,4.4204964047,-4.83203846778
off_to_on,0.997784092021,-0.183457468363,0.749404394394,0.3774695077,0.388347142944,2.61470994577,2.83914266023,0.74425707341,0.939807363552,-1.65000940722,0.763362322481,-3.5857230279,-1.48207331929,9.48947775573
off_to_on,-4.2651393073,-2.65681816435,-3.87706525864,0.45991395236,-4.27140544296,-3.46822161248,-4.35539889114,-7.38128300486,0.930295991769,-9.41802698056,-3.45073094902,-11.7468559684,-7.58352435157,19.0042650465
off_to_on,-8.8359290208,-4.46995930352,-7.7429197056,0.495773504369,-8.24889213785,-9.08826707474,-10.847198224,-13.9887903134,0.832386563664,-15.0718483222,-6.89219037375,-17.1125235869,-12.034590232,22.0966164463
off_to_on,-11.3034964559,-4.99698457813,-9.6551942952,0.485289412416,-10.2542244871,-12.4887011782,-14.5364190365,-17.0684779956,0.674846076964,-16.8665999916,-8.42630057216,-18.0115755037,-13.376925759,19.4881650096
off_to_on,-10.819240747,-4.02219650746,-8.97187851195,0.427866048381,-9.52955031007,-12.5251440238,-14.1602064271,-15.6186181771,0.466619232242,-14.1704926014,-7.50998253499,-14.07739314,-11.0569842901,13.6790384285
off_to_on,-7.39917379349,-1.82856317482,-5.8308852731,0.321954951725,-6.13528439342,-9.07072969848,-9.75003907175,-9.99233021385,0.202267030388,-7.70783083452,-4.38591955107,-6.40765651671,-5.65200522292,7.76520904282
off_to_on,-1.94967702272,0.889241241603,-1.12468673389,0.16750650834,-0.96900001263,-3.08732768143,-2.64278178635,-1.80273714932,-0.12144824501,0.644459354336,-0.00838885407645,2.75800461426,1.2820101482,4.11696221451
off_to_on,3.99865500806,3.25912108765,3.77564955434,-0.0299812544681,4.49795937204,3.66866390532,4.9639317393,6.58591467254,-0.486662124388,8.44762102149,4.27380046086,10.7440279538,7.6983308657,3.44281707937
off_to_on,8.76426942108,4.53104314258,7.45608836626,-0.255526876144,8.68196347589,9.20957553482,10.7561432966,12.8102513367,-0.843457133294,13.4830868621,7.16627152164,15.2944411523,11.7214235568,4.60087799976
off_to_on,11.0384387144,4.33499465501,8.9080658399,-0.482700050807,10.3919884999,11.9575671777,13.0828415,15.248186801,-1.11410834615,14.4599317154,7.85333825477,15.2881599477,12.2563091972,5.22015457537
off_to_on,10.2852974169,2.80481313694,7.83832008224,-0.675021728848,9.20677364663,11.2446494872,11.4925021846,13.4987584077,-1.21344122308,11.4055717792,6.25137771995,11.0701629668,9.33446044667,2.87356086969
off_to_on,6.88650507728,0.523264383137,4.73719145279,-0.791210918891,5.59673407174,7.50217125282,6.83833657087,8.44539411438,-1.07908506645,5.60723223186,3.00734680467,4.28697879119,4.0763487032,-3.67546675472
off_to_on,1.98683006822,-1.69174081185,0.68675929647,-0.793651053354,0.751404219086,2.07936011671,0.921587550462,1.89345393202,-0.700369617603,-0.870903197411,-0.750406352034,-2.71242853806,-1.71474334006,-13.6663924717
off_to_on,-2.90090441646,-3.08233224024,-3.01976645791,-0.658421144979,-3.82525607572,-3.23983502141,-4.18925019989,-4.07916923034,-0.133823988109,-5.92089472734,-3.81489619022,-7.69752222441,-6.18302222535,-24.3269527689
off_to_on,-6.39257109533,-3.22024454774,-5.31210923822,-0.384524835595,-6.81045490365,-6.84829219033,-6.90855475104,-7.8233515043,0.502764312165,-8.11342944798,-5.31095127726,-9.30934669234,-8.05127168455,-31.7040894985
off_to_on,-7.66128605253,-2.15308758332,-5.67983052338,0.00027739101429,-7.479165228,-7.84072129372,-6.67632344752,-8.62611155417,1.05830901713,-7.15442216583,-4.96900240828,-7.48277638503,-7.03056547254,-32.0705045956
off_to_on,-6.65648911977,-0.374649330194,-4.29949122935,0.43927466583,-5.90288147151,-6.27222726632,-4.09762668339,-6.85547856725,1.39077070031,-3.91850626234,-3.1710508919,-3.3946909762,-3.86728862588,-23.4081096175
off_to_on,-4.04935205205,1.36909846699,-1.91653863604,0.85354314092,-2.87060136105,-3.06886795409,-0.636112202316,-3.71024966365,1.41039611864,-0.0560896269889,-0.7623416539,1.03416575179,-0.0176308447029,-6.42018345755
off_to_on,-0.937636993748,2.36636303362,0.465677938722,1.15544780697,0.429796371824,0.365670825068,2.01278358981,-0.686389520823,1.10915927417,2.67458978929,1.29287710728,3.89543493039,2.92568295954,15.3273011063
off_to_on,1.57413060993,2.21218834492,1.97021434176,1.26699520408,2.84930936774,2.69553686595,2.6229692909,1.02822767524,0.565795071639,3.09956218991,2.27892668652,4.02712680226,3.84073083964,36.2406911478
off_to_on,2.76416075861,0.965900346794,2.16200332953,1.1394544919,3.67649676657,3.14743726512,0.940164872417,0.999419638962,-0.0761467708177,1.08670493024,1.9826264844,1.4544499431,2.49318878989,50.2800566468
off_to_on,2.51487268952,-0.866348054594,1.18160617985,0.769544421928,2.8580640934,1.77479269401,-2.21077535782,-0.331948631253,-0.650626083533,-2.40298913357,0.742657803277,-2.62551470721,-0.390875849412,52.7972056952
off_to_on,1.29483163542,-2.51957247167,-0.34598515415,0.207380547076,0.970273197979,-0.600594403839,-5.25849882874,-1.89027578795,-1.01818201147,-5.69194212213,-0.717871093891,-6.3108031153,-3.42224575212,42.0449092353
off_to_on,-0.0803097686933,-3.2610499997,-1.58664680571,-0.447407261555,-1.03851012457,-2.74108857466,-6.53263222129,-2.46504767493,-1.10576364568,-7.05259150913,-1.60609292957,-7.7421193739,-5.10454947304,19.8705346006
off_to_on,-0.80851061277,-2.67793086999,-1.84801621721,-1.06246985011,-2.23214218742,-3.50323877677,-4.97688767404,-1.26836223521,-0.924525554792,-5.41627432224,-1.39706495113,-5.85453109563,-4.44070281652,-8.63665419013
off_to_on,-0.44191198017,-0.854062841804,-0.870729824773,-1.50018339303,-2.05290587039,-2.3110783235,-0.647763346427,1.67415768843,-0.560388189217,-0.856322032289,-0.0626638421527,-0.851420754248,-1.36047666495,-36.4499052636
off_to_on,0.923758215847,1.63291142948,1.05173350665,-1.65013559671,-0.53478347934,0.587328805662,5.20583841552,5.46030379827,-0.141457277513,5.3448737219,1.8982356833,5.7840808724,3.1968705424,-56.4789409257
off_to_on,2.68287148808,3.89906374345,3.17161372012,-1.45873325738,1.71242394354,4.17989623736,10.5319474651,8.61213449923,0.205904161608,11.0862208839,3.64270313189,11.7594284412,7.58578992764,-63.4707861745
off_to_on,3.96340067852,5.06416202128,4.56886040542,-0.947641054905,3.73934322835,7.04992766822,13.2062122727,9.63618055706,0.397132195735,14.170253622,4.31312897867,14.7690145294,10.0422923482,-55.4041103326
off_to_on,3.98719240461,4.5760130442,4.51240750781,-0.214781583543,4.62439685377,7.90661081459,11.842191778,7.63501865322,0.4123840958,13.1070752073,3.3896772616,13.338992141,9.34778852639,-34.0089988155
off_to_on,2.4088812831,2.43281722337,2.76549160811,0.584217733782,3.83589318528,6.09314505048,6.37957202944,2.73517363287,0.295566278826,7.71212012339,0.931153009163,7.4184596237,5.32676687869,-4.30405000519
off_to_on,-0.498633978635,-0.779855170351,-0.281874080992,1.27094220131,1.45494559966,1.88359969957,-1.78033521467,-3.8431295488,0.131321885102,-0.725397102635,-2.39195021339,-1.50269973881,-1.01025082652,26.6868420386
off_to_on,-3.88922770291,-4.05775856,-3.7088756296,1.68733112762,-1.82409109907,-3.54755349445,-10.1643030178,-10.1216220805,0.00943821083709,-9.7812141692,-5.49402019024,-10.807754171,-7.74443643514,51.672709341
off_to_on,-6.61208532995,-6.30111816592,-6.36167054633,1.73587368306,-4.91891063677,-8.48387194439,-16.0254859462,-14.0040699967,-0.00992523882125,-16.6441282012,-7.23861081875,-17.5730683281,-12.664330684,64.8363098154
off_to_on,-7.61388741778,-6.68590449279,-7.25251108573,1.40571446611,-6.73265634861,-11.2368109301,-17.2818461745,-14.0043358651,0.0822326126412,-19.0308174022,-6.84567799639,-19.5252833878,-14.0144961549,63.1620109767
off_to_on,-6.33307217641,-4.95749868218,-5.92085695273,0.776860673922,-6.54467904051,-10.7329983175,-13.2673203963,-9.80581532452,0.242539349528,-15.961454458,-4.19765984173,-15.8149529443,-11.1199672714,47.0686937874
off_to_on,-2.94284386399,-1.54435702201,-2.62710059361,0.000552450236816,-4.28083578883,-6.91446795947,-5.02507585935,-2.4465322137,0.393808515392,-8.13109474395,0.0682906215005,-7.34307115894,-4.66628937452,20.2473522835
off_to_on,1.65108486047,2.5521695159,1.69480458767,-0.739388397176,-0.566558509646,-0.808025193451,4.97388928261,5.95058480191,0.455771247627,2.25650572516,4.72309286216,3.4760897071,3.47093196968,-11.217120777
off_to_on,6.06847972305,6.06151777866,5.71738530591,-1.27381647635,3.45957771344,5.76914263328,13.6057951891,12.8264469305,0.376368503909,12.1481273925,8.31776125819,13.4457437388,10.8007507733,-40.2202081535
off_to_on,8.88985711902,7.84579163939,8.14369688385,-1.49104718731,6.51201127378,10.7772350365,18.1094008261,16.0050117329,0.152318751037,18.5850124312,9.64642953005,19.5776539146,15.011477692,-60.2064293386
off_to_on,9.12711553339,7.27053031529,8.13600079793,-1.36327783664,7.58276029609,12.6110535987,17.0017733368,14.4116429499,-0.168000394285,19.6283321714,8.14901122501,20.0249076165,14.7241324401,-66.6094493589
off_to_on,6.57159451932,4.42335627037,5.6058460042,-0.949527492641,6.28265190579,10.6305281949,10.5846584426,8.44872955528,-0.499755327051,14.9685944446,4.11952455244,14.6579425034,9.95482602358,-57.8731931299
off_to_on,1.89892820354,0.107365778184,1.26663236516,-0.374903043696,2.9845422891,5.38823860387,0.867825536815,-0.101552032953,-0.749007113585,6.02447873726,-1.35195026054,5.10264113578,2.131105958,-35.8407502604
off_to_on,-3.51158551564,-4.39213784702,-3.57280486045,0.207062069811,-1.28113670009,-1.52413154315,-9.06877237919,-8.62138928557,-0.842402531528,-4.49801271252,-6.69005062973,-5.76656666444,-6.34615462186,-5.41140167807
off_to_on,-7.99197826479,-7.69670158253,-7.41037252837,0.657462113767,-5.14714056786,-7.96465317705,-16.0645792377,-14.4750235,-0.749207549674,-13.4426732606,-10.3029815046,-14.7127224188,-12.8549377797,26.4942559355
do_nothing,-10.1062980641,-8.75911778361,-9.02153804652,0.887772858333,-7.34475011476,-11.911017364,-17.894259872,-15.8371781956,-0.488981808925,-18.1696585389,-11.0646091709,-19.1197673319,-15.3763110018,52.4725248167
do_nothing,-9.11208827086,-7.19137179129,-7.84923168585,0.878382107462,-7.11483019156,-12.0989672669,-13.9781155712,-12.26709115,-0.123542716577,-17.3490463582,-8.66125168014,-17.7683253314,-13.1271145089,66.3594333045
do_nothing,-5.21455990033,-3.3943858754,-4.1890560525,0.675702579705,-4.46324077021,-8.42721919528,-5.55949477788,-4.84715209694,0.262793604364,-11.3399895409,-3.69748838827,-11.1720550671,-6.80171785723,64.7426637318
do_nothing,0.4704056542,1.5508297794,0.889006281955,0.370446952702,-0.178200567694,-2.00126821619,4.70109390095,4.15358935964,0.587271692928,-2.04917612877,2.46994115509,-1.38556827368,1.6492317274,47.8764977338
do_nothing,6.23738382605,6.19790863964,5.85844281023,0.0652612451582,4.39842396609,5.1977216273,13.5755706369,11.9797799935,0.789135141787,7.674010595,8.11866848152,8.64075963003,9.62745260615,19.7260281333
do_nothing,10.3009866841,9.1609316287,9.19561374182,-0.157384391059,7.77767296455,10.9161868318,18.2825842435,16.2310210861,0.840824064003,14.908590699,11.651673688,15.950123386,14.6874145498,-12.9297544753
do_nothing,11.3395523287,9.52407704923,9.84025817834,-0.257091877064,8.78491970162,13.3179091572,17.3427494049,15.5830961792,0.748256036206,17.529103384,12.048943389,18.4403910863,15.2778876965,-42.1566613438
do_nothing,8.90770929817,7.11419366946,7.51809685558,-0.24134914803,6.93614822774,11.5500149964,11.0119510857,10.1731376375,0.542453132122,14.8110169907,9.1515971994,15.4465358762,11.1993215697,-60.8795941622
do_nothing,3.5921149864,2.55742273276,2.83009046751,-0.155096178291,2.61409043532,6.01480212032,1.1721978488,1.54261624074,0.267243278845,7.60636730209,3.70234078536,7.88895058723,3.64598124247,-64.7161197383
do_nothing,-3.13820131602,-2.89476142985,-2.91598539433,-0.0592087818562,-3.0118364395,-1.73279878536,-9.26645317245,-7.83060436034,-0.0319763505036,-1.94351728244,-2.86252649803,-2.03341847511,-5.16746557709,-53.1123970409
do_nothing,-9.34458807342,-7.7178555254,-8.07963989201,-0.00626917644688,-8.30281975829,-9.43019859065,-17.2510485606,-15.259078457,-0.315154333043,-11.0546677443,-8.80528900742,-11.4951908985,-12.6702381564,-29.4427369936
do_nothing,-13.1749860831,-10.54274737,-11.1566542649,-0.0221348368094,-11.6169647279,-14.7625219822,-20.4791281886,-18.6109676173,-0.549639905107,-17.105294203,-12.5515131167,-17.842287586,-16.684806507,-0.0279391464705
do_nothing,-13.4026527322,-10.5386276147,-11.2074347845,-0.0990673752497,-11.7926202579,-16.0371325181,-18.0354701764,-16.8941351864,-0.709257023777,-18.3646130891,-13.1013832814,-19.3092187807,-16.0403322903,27.649526998
do_nothing,-9.7923118279,-7.64427188803,-8.12416585383,-0.201691884871,-8.51031975931,-12.6834397425,-10.6012389682,-10.5044853026,-0.773355892802,-14.4475462573,-10.2820604048,-15.4680022864,-10.8802492992,47.0071449792
do_nothing,-3.18889052441,-2.58618178599,-2.66472969289,-0.282500700455,-2.42735413634,-5.43676273218,-0.20290694614,-1.08804654425,-0.72818333915,-6.38581995029,-4.78200242883,-7.3062071282,-2.59147912455,54.0863546366
do_nothing,4.69678907665,3.31784270495,3.7518406042,-0.300578125338,4.959006186,3.84397135355,10.3954668731,8.92400770032,-0.571029096079,3.68254256048,2.03331046612,3.06405067854,6.60567533945,48.4323583998
do_nothing,11.7458851817,8.51274652351,9.42802742156,-0.236645701006,11.6890698678,12.6723522679,18.4602491444,16.9647799164,-0.315438251988,13.1020750181,8.47023795495,12.9708071422,14.2758994658,32.8967999693
do_nothing,16.0063666736,11.620023022,12.8418164515,-0.0994189207835,15.8615573153,18.6066222684,21.9942099371,20.986109478,0.00558392500026,19.3989895757,12.9288993075,19.8651166981,18.4166381716,12.4808831352
do_nothing,16.2270926691,11.8001841759,13.0494201048,0.0782398125952,16.1588948715,19.9142060123,20.1988260602,19.952967621,0.341306695685,20.907103026,14.2935916788,21.9502187712,17.9620738009,-7.35497305308
do_nothing,12.2059513741,8.96948371184,9.93157729781,0.251160749129,12.2337240163,16.0497185812,13.5979229541,14.0675676654,0.631215657197,17.1692794034,12.1994527639,18.6105866887,13.0220987688,-22.3295165362
do_nothing,4.85850255253,3.81733197815,4.22253579988,0.376875922451,4.84743482629,7.81970572309,3.82844303407,4.68856601316,0.817915892519,9.0290057413,7.1158070754,10.5502348857,4.81396598561,-30.3879552144
do_nothing,-4.01051119416,-2.3758523297,-2.68098787256,0.428318430568,-4.28437785442,-2.80826864549,-6.81211673736,-6.01488028635,0.861459397955,-1.59370044104,0.230938728328,-0.380186367148,-4.67425637693,-31.8544208006
do_nothing,-12.1710342395,-8.06914929438,-9.07709052477,0.400098034888,-12.906992366,-13.2009407762,-15.9258845466,-15.5786757812,0.750499239644,-12.1746553477,-6.83132356039,-11.6193770741,-13.186924557,-28.724777653
do_nothing,-17.5434743138,-11.8522825788,-13.3878501309,0.306953935818,-18.798827897,-20.7292987208,-21.5433862599,-21.8055958113,0.506358772983,-20.1872166105,-12.3954782773,-20.4920539638,-18.7391768024,-23.4525651932
do_nothing,-18.7347614582,-12.7967798828,-14.5507520123,0.175939385817,-20.3527068619,-23.4396669211,-22.5127734316,-23.2508759829,0.178336774504,-23.6926932723,-15.1292953885,-24.8324160785,-20.0637226237,-17.7585216006
do_nothing,-15.3952322724,-10.6795775962,-12.2754244222,0.0359804458353,-17.0117557342,-20.5538325512,-18.6898059223,-19.5335018489,-0.168488815314,-21.7879351163,-14.3585953812,-23.4960335479,-16.8726497163,-11.963986004
do_nothing,-8.30543571452,-6.02623634587,-7.10506042856,-0.0910202636949,-9.44085116675,-12.6714393236,-10.9177996734,-11.4148785604,-0.469177176676,-14.8138890327,-10.2288439179,-16.6446287024,-9.89033526345,-5.12041681859
do_nothing,0.826448902173,0.0321554064974,-0.272039831673,-0.194450802101,0.61720805966,-1.62491402439,-0.824631612619,-0.633444530788,-0.673649231289,-4.28206328199,-3.67517935571,-5.73499641934,-0.665916905069,4.1326255433
do_nothing,9.80039247667,6.04744225842,6.6115699307,-0.27369544461,10.7680716672,9.9739869492,9.51284384667,10.4693724076,-0.755974277003,7.46355497224,3.79359359776,6.79342210205,8.78203659522,16.3687016649
do_nothing,16.4777735479,10.6122456256,11.9483573319,-0.332657274871,18.5657286439,19.3790016844,17.9752203412,19.4559236327,-0.716125040381,17.7747178786,10.4478396667,18.069548458,16.4069453881,30.3944248754
do_nothing,19.3082235688,12.6964667136,14.5358711376,-0.373056444723,22.1290854663,24.3812878326,22.8115167953,24.3276382537,-0.574860545908,24.3005942067,14.7442486701,25.4587787532,20.5687800869,42.9958491099
do_nothing,17.6962739372,11.8803525513,13.8404399388,-0.389764237138,20.6128972308,23.8394402092,22.9876108457,23.974434919,-0.364655327435,25.5276557994,15.6902984264,27.1924080475,20.3748850065,49.6524525804
do_nothing,12.1190194238,8.43106115221,10.1013152835,-0.370430995403,14.4097175405,17.9372616269,18.4089294854,18.4360953484,-0.120507619947,21.1330805864,13.0777759934,22.8039439026,15.8610031895,46.0716273388
do_nothing,3.97322255611,3.21097128745,4.24610575066,-0.299823478143,5.03257406411,8.11061715932,9.96697115848,8.90922108014,0.126238519657,12.0665022069,7.5280244723,13.2584511319,7.97819645365,30.0325786092
do_nothing,-4.79880452721,-2.55151060681,-2.3540411552,-0.167343797405,-5.28526040242,-3.32970123635,-0.615041310069,-2.51181623361,0.349821306547,0.336458482949,0.337677073315,0.733944625484,-1.61082860294,2.83389814758
do_nothing,-12.1997922918,-7.56524215986,-8.22247952702,0.0251215916041,-14.1613305491,-13.7753735603,-11.1233803008,-13.3084701592,0.528707550056,-11.4519118803,-6.83653546302,-11.8980052042,-10.8845577449,-30.2972170057
do_nothing,-16.6544710081,-10.7756045577,-12.1213405793,0.258136393052,-19.6505928421,-20.9467255351,-19.3226927137,-21.1188349568,0.643442585175,-20.6996400704,-12.3748141855,-21.7652687557,-17.892026124,-61.1580334194
do_nothing,-17.3533312943,-11.587764269,-13.318271139,0.494713635081,-20.693423501,-23.4096289111,-23.4538707364,-24.2858768307,0.676360118256,-25.4122244902,-15.0739048086,-26.6858797088,-21.1682690603,-80.7374901191
do_nothing,-14.3857030531,-9.96621770334,-11.7164586271,0.68607759646,-17.3152427181,-20.8604007777,-22.6428065558,-22.2358835579,0.614584959757,-24.6480634982,-14.4159028246,-25.6788792908,-20.0461075604,-81.9877620501
do_nothing,-8.64511514869,-6.39761259236,-7.82717211028,0.782109039155,-10.5413182848,-14.1222068688,-17.1130587926,-15.5901342775,0.455725870382,-18.7090876606,-10.6632160026,-19.1653193104,-14.7951373976,-62.3099545642
do_nothing,-1.55082643723,-1.73894763315,-2.60516540733,0.743975171027,-2.07022880929,-4.87424507825,-8.13888763892,-5.98172889646,0.2137659793,-9.03192620171,-4.76300843841,-8.81394837592,-6.55614700347,-24.8789911376
do_nothing,5.32636900198,3.00076748789,2.80023196057,0.5557557038,6.18784642455,4.79773255707,2.25854863968,4.37142544938,-0.0781677764589,2.18482525504,1.90622287468,2.91682734842,2.91465189646,21.7424707987
do_nothing,10.6298470076,6.88667865714,7.30993222702,0.232022450337,12.5740214839,12.902357174,11.7983811573,13.2204267213,-0.370764854,12.515040945,7.87468957747,13.4081502028,11.6332340798,65.7135303923
do_nothing,13.484501586,9.2393707638,10.1315885951,-0.180816388575,16.0239345035,17.9668091058,18.484182215,18.8161979347,-0.607777735932,19.8616991278,11.9190944335,20.5076050344,17.8182882515,95.1864079501
do_nothing,13.6137263131,9.73750879692,10.8843350519,-0.610297936829,16.2176055542,19.2900004981,21.0612298633,20.2785729313,-0.739517189004,22.8981605994,13.3163993655,22.9908256155,20.2666640489,101.764863708
do_nothing,11.3018044654,8.43285380938,9.61790530184,-0.970245483532,13.5260948228,16.9868062199,19.2681153193,17.7164841974,-0.736504455261,21.2957606035,11.9600905597,20.7518246179,18.5906507926,83.0703075511
do_nothing,7.23970827952,5.69126688328,6.74094381814,-1.17772094401,8.80434415838,11.8452775116,13.824569814,12.0877988122,-0.598591661754,15.7026764473,8.32532110132,14.7000256595,13.2688492301,43.58616955
do_nothing,2.31671402054,2.08750444147,2.8927698872,-1.17151801754,3.11583574963,5.06421422143,6.17459310159,4.86291345321,-0.356076110352,7.5064545613,3.30857461814,6.42557105927,5.50773554743,-6.5195331312
do_nothing,-2.57839301439,-1.71518667387,-1.20125540258,-0.928419810529,-2.52120990752,-2.04244549365,-1.92701171132,-2.39236116649,-0.0619819738624,-1.53589803544,-2.00476931467,-2.24817434691,-3.04518783774,-54.256724408
do_nothing,-6.70139761669,-5.07593022485,-4.85755247314,-0.47333315946,-7.30199414333,-8.29748364748,-8.85768474297,-8.38733609522,0.222216591108,-9.69433427115,-6.58172717123,-9.69067071885,-10.6645470236,-87.4908277276
do_nothing,-9.52601832476,-7.46397104265,-7.52691260043,0.119929167735,-10.6963810083,-12.8223336787,-13.4753992021,-12.3327410182,0.442804674655,-15.5933584372,-9.6368795107,-14.7620113549,-15.9027361702,-98.3126410274
do_nothing,-10.7580542562,-8.52033484693,-8.8490763305,0.738918046152,-12.4245168421,-15.1012505524,-15.2891952917,-13.9836794761,0.566675124688,-18.4109667134,-10.7475540167,-16.9323100481,-17.8631320283,-85.0885944842
do_nothing,-10.3176616004,-8.09624797614,-8.67693826287,1.25326217415,-12.3946812457,-14.9712303447,-14.4329446755,-13.5256258134,0.586828118549,-17.9346682989,-9.88076984652,-16.2358353042,-16.3410789615,-52.6136225524
do_nothing,-8.31698428529,-6.27099959043,-7.08028801695,1.54251067592,-10.6533915509,-12.5753842434,-11.4868540285,-11.3788105625,0.519316072768,-14.4996363243,-7.34547673063,-13.1205414976,-11.8160724187,-10.3981613645
do_nothing,-5.04691372036,-3.34771537502,-4.33429040276,1.52533194427,-7.37733147208,-8.31218530705,-7.23255154194,-8.01238909634,0.39360056623,-8.85543054963,-3.69612401111,-8.2706694237,-5.31100809985,30.2993447003
do_nothing,-0.968065374425,0.178712052656,-0.890600454477,1.18289201877,-2.90429639168,-2.79398169529,-2.43419535348,-3.83940299763,0.240600524246,-2.00788157613,0.384406951597,-2.46488450056,1.84114318497,59.7224918444
do_nothing,3.31295755398,3.68742391325,2.67550013561,0.569572067436,2.22890607245,3.19365301816,2.28928885667,0.782960533674,0.0832564591664,4.9330245063,4.20029218581,3.50422862085,8.27011469089,72.1470292056
do_nothing,7.10284351111,6.53095233216,5.74644794373,-0.193448004556,7.28651419743,8.75344448174,6.48370090604,5.4760133792,-0.0669786580941,10.8891837981,7.14327687644,8.86334734882,12.8266341354,66.9836199364
do_nothing,9.72522495314,8.15680896662,7.76764147949,-0.942134386173,11.4070061425,12.9783265172,9.80201834564,9.75051900953,-0.207078653298,14.9387373503,8.77202162334,12.8834090399,14.7809882931,48.2522408793
do_nothing,10.6563504467,8.22788141052,8.35940914177,-1.50663491163,13.7556388465,15.0958971519,11.930619853,12.9779615434,-0.335126096885,16.4346349757,8.86724704487,14.9356029726,13.9313493284,22.763976415
do_nothing,9.65938837778,6.71075528934,7.40834778892,-1.75276561011,13.7259209481,14.6325775202,12.5600982579,14.4674950174,-0.442945302227,15.1123423478,7.45915944466,14.5937694471,10.6088092183,-2.26930734525
do_nothing,6.87315455298,3.90293042018,5.10871180201,-1.61713963956,11.1305620075,11.5534765111,11.4334287722,13.6448323362,-0.512914259509,11.1656589744,4.82217754505,11.7630535529,5.58382717855,-21.3645869019
do_nothing,2.81693501641,0.382594418953,1.93375297622,-1.12593194991,6.31379317406,6.3273792446,8.4610174426,10.2778153991,-0.521289368432,5.25914658026,1.43275146545,6.78473108485,-0.10488453891,-31.9829653286
do_nothing,-1.70444486556,-3.11453862658,-1.46421262779,-0.391130866778,0.133969876471,-0.120437533115,3.85259153465,4.66098209166,-0.447342324947,-1.55061920536,-2.10900079823,0.458179451163,-5.36475652408,-34.5638029823
do_nothing,-5.7791547976,-5.86419017537,-4.40360400757,0.415860345729,-6.19653401276,-6.57433819729,-1.80275031552,-2.3273436451,-0.284713451842,-7.9924056089,-5.18455050287,-6.0604022828,-9.26455064691,-31.5535025065
do_nothing,-8.60443732601,-7.32465526791,-6.33369768996,1.10693266425,-11.3808617838,-11.7823650218,-7.565995631,-9.34530985636,-0.0498958898562,-12.8321979589,-7.27057899235,-11.4819720122,-11.2068960643,-25.9411988435
do_nothing,-9.67805576965,-7.26266666181,-6.95930329781,1.52499326139,-14.3454292716,-14.7356640359,-12.307421916,-14.8750350483,0.216597563684,-15.1444945883,-8.03663053085,-14.682826821,-11.0226483302,-19.9306861279
do_nothing,-8.90773670594,-5.79786877755,-6.2933816128,1.58359376542,-14.4990307125,-14.8978045928,-14.9659352064,-17.6053986753,0.458210755233,-14.5307249207,-7.40347424664,-14.9929437033,-8.96821607618,-14.249744304
do_nothing,-6.60638350928,-3.35345484014,-4.6233471826,1.28741335929,-11.8691465988,-12.3198525162,-14.8359723349,-16.7975385795,0.617662550162,-11.2184125715,-5.54759428384,-12.3828937357,-5.62965528851,-8.2908483549
do_nothing,-3.37795498278,-0.52906330679,-2.40491669346,0.727966697929,-7.07835776993,-7.60981791371,-11.7904705482,-12.5170146069,0.654622406139,-6.00472901811,-2.85147001735,-7.48352770002,-1.76061080857,-0.920107973113
do_nothing,0.0653023362915,2.06416725379,-0.121160016492,0.056095002956,-1.17242359575,-1.7684191814,-6.36184887294,-5.65312614981,0.559355790593,-0.0537298393295,0.185671640311,-1.42417291833,1.90163536982,8.47523920811
do_nothing,3.09231310772,3.95573980119,1.84507426691,-0.560457980927,4.64486819022,4.05785830809,0.354978563268,2.28922212121,0.357008074096,5.39746948136,3.05155373917,4.46555731436,4.7925635025,19.2077149743
do_nothing,5.28861926658,4.91070181558,3.28420961966,-0.981892969329,9.29106141024,8.83400792746,6.95726733312,9.56836000733,0.100422932374,9.33859491327,5.31200181486,8.99968896061,6.60931939897,29.1525627975
do_nothing,6.50039689843,4.943926916,4.15953756636,-1.13079781396,12.0224304243,11.8346859323,12.0757893114,14.645229502,-0.146384549571,11.2051568486,6.66974263824,11.4201801686,7.31431017436,35.3438830106
do_nothing,6.78597556441,4.25877361138,4.54352176755,-1.00693655418,12.5401856744,12.7393019175,14.7044568713,16.5557116289,-0.328383912093,10.9566693981,6.98433213234,11.5380998084,7.06371887987,35.0801440665
do_nothing,6.30904855918,3.14058011314,4.52566508714,-0.679417865008,10.9761700882,11.6173950716,14.4249426944,15.1122631091,-0.416072303488,9.00180337297,6.26061653054,9.69880438011,6.09565829453,27.0942133514
do_nothing,5.22806233474,1.84878075481,4.13718919751,-0.260198248896,7.78655151,8.83291270728,11.4681901401,10.8875063346,-0.412382806484,6.00885653492,4.6219765938,6.59886972462,4.62473272768,12.3021733027
do_nothing,3.63353990524,0.547920255819,3.32935138405,0.131782298966,3.60453482164,4.91633899929,6.60696007204,5.00110684782,-0.347519325747,2.67563971918,2.2848849178,3.03086855971,2.78446947513,-6.20121865513
do_nothing,1.56040406504,-0.700855958544,2.01787001922,0.404402040053,-0.896099486865,0.45273050319,0.924438880159,-1.21108150061,-0.263895227096,-0.459259505963,-0.456666106404,-0.349398339824,0.63774151052,-23.946130887
do_nothing,-0.934232518425,-1.89269444003,0.175131622253,0.514254754976,-5.09333485599,-3.98599995417,-4.46359659449,-6.53858809193,-0.197222911455,-3.10425613485,-3.2404167845,-3.15587700429,-1.7545002891,-36.4289841035
do_nothing,-3.67062070569,-3.00487841254,-2.07281144996,0.471368945371,-8.45978701859,-7.86483067679,-8.65104633579,-10.1504913145,-0.161384102915,-5.18556132906,-5.65232506592,-5.27335566209,-4.24276135301,-40.5212760038
do_nothing,-6.28162183735,-3.93569998726,-4.39520443214,0.327336444068,-10.575206851,-10.6900016391,-11.0886412022,-11.7039047634,-0.143316593522,-6.73254096061,-7.26608225373,-6.74940783996,-6.52634745332,-35.4445171549
do_nothing,-8.23210388207,-4.4909652656,-6.28860833905,0.152578137136,-11.1381453801,-12.0276378112,-11.6154023785,-11.3029177458,-0.110242330923,-7.74217641005,-7.71355439465,-7.64248844939,-8.16080641474,-22.967098552
do_nothing,-8.93808652189,-4.43219186422,-7.19791116578,0.0112615688187,-9.99887484605,-11.559933856,-10.3937969893,-9.35279901734,-0.0265969620311,-8.09269731492,-6.77826984008,-7.90524127105,-8.65156275859,-6.76326029729
do_nothing,-7.95757376548,-3.57292940286,-6.69492305571,-0.057893394369,-7.21473712313,-9.17713591107,-7.79457061128,-6.38064507552,0.12607481998,-7.55250677292,-4.48685469144,-7.36211604809,-7.61367492515,8.82273249369
do_nothing,-5.18799050842,-1.88602443499,-4.65425213511,-0.0496370532079,-3.10526090846,-5.07523175764,-4.28246789629,-2.89069964121,0.334575333956,-5.88678716375,-1.16281987396,-5.79540883295,-4.94522349198,20.1563959154
do_nothing,-0.990756162899,0.425012530586,-1.35810487186,0.0118940600734,1.73015601854,0.188665745829,-0.338883589516,0.705252833673,0.55152774118,-3.01838092945,2.59019367495,-3.10260049246,-0.946609890509,25.3493690086
do_nothing,3.8201668083,2.92831594579,2.52045506208,0.0861959379525,6.46600210321,5.72879828869,3.5692709568,4.08126003743,0.707165661556,0.829479660773,5.99097760687,0.548272945416,3.67211452379,24.6091476134
do_nothing,8.14551986833,5.05208174656,6.06707374079,0.132701816615,10.1880388346,10.4720086541,6.99096331099,6.94715897183,0.73223492268,5.08077004429,8.25625780665,4.64414563516,7.92007551572,19.8258044348
do_nothing,10.8876388806,6.23890664992,8.37252477305,0.124530099806,12.0935962044,13.3894982565,9.49290242681,9.00338978664,0.584241898354,8.88617299588,8.80714598319,8.38425969526,10.767749985,13.6051252012
do_nothing,11.2728732673,6.11831125471,8.80187495225,0.0556764874255,11.7031487675,13.761801474,10.6886518815,9.94100530199,0.267441019305,11.3261067701,7.44580605735,10.8689631279,11.4359143212,8.15438587624
do_nothing,9.10425072389,4.63821586471,7.19815718627,-0.0594294558142,9.01617633771,11.3967919681,10.3037813442,9.50084840856,-0.161366774634,11.6786406601,4.44206118662,11.3651257386,9.64089646247,4.46280682127
do_nothing,4.85458175943,2.10606709446,3.94890757317,-0.192325614521,4.55278612405,6.72479199798,8.26208200869,7.57333821366,-0.604457078355,9.66283960573,0.491837473104,9.55743971911,5.71205801752,2.08422799445
do_nothing,-0.441037771432,-0.880905628616,-0.113065492832,-0.309606107236,-0.745790377095,0.727470214373,4.75945730679,4.29591385315,-0.949392620039,5.5695223298,-3.45227852024,5.6925495094,0.534022109035,-0.419757809634
do_nothing,-5.46826061506,-3.59901360069,-3.94816968086,-0.381396500168,-5.7398658871,-5.29150720166,0.287719138659,0.0994100355998,-1.10173985146,0.225848085254,-6.43569165662,0.556305338725,-4.67828010562,-4.58416170579
do_nothing,-9.0066393501,-5.40448488043,-6.61332849303,-0.387145081083,-9.37693235976,-10.0336417763,-4.41714784032,-4.32997137453,-1.01370359096,-5.20430475783,-7.76743683491,-4.71832345976,-8.70792210255,-11.0809751333
do_nothing,-10.2747871646,-5.91606626455,-7.53232760419,-0.318358634928,-10.9562201922,-12.5354595095,-8.50298979226,-8.17604301762,-0.699265183326,-9.52565969098,-7.2140702802,-8.95524338549,-10.667640873,-19.1108609737
do_nothing,-9.13695945466,-5.11409638054,-6.64572001121,-0.179192923865,-10.2923280877,-12.402295711,-11.1789164987,-10.6750982513,-0.230864819304,-11.8273045443,-5.05833255879,-11.2536917496,-10.231685901,-26.42554773
do_nothing,-6.10644196389,-3.32466619464,-4.39366959804,0.0138910873614,-7.72982962354,-9.87703228793,-11.8956121172,-11.3022794081,0.281182999669,-11.7102470404,-2.00111390629,-11.218678715,-7.696643626,-30.0145023031
do_nothing,-2.14979727455,-1.09716057941,-1.54239372975,0.232871768342,-4.00937365901,-5.72823528662,-10.4777852805,-9.90491381247,0.719700092861,-9.35924133176,1.06350410227,-9.03273803678,-3.85651575067,-27.2272714132
do_nothing,1.63687863822,0.97987128537,1.0817982959,0.439893242279,-0.0340710943255,-1.00059139469,-7.17099225646,-6.74249864482,0.992066308058,-5.4453216915,3.3274637029,-5.35476375453,0.261212963461,-16.923029174
do_nothing,4.36695983079,2.45931298106,2.85663078247,0.591310596851,3.38439307307,3.28663862281,-2.59034152713,-2.42333092301,1.05238827148,-0.902226790045,4.31041794083,-1.09142205096,3.70702691985,-0.208537993052
do_nothing,5.60358406579,3.15088275342,3.53562286925,0.645148473634,5.71834279997,6.39528459121,2.41305917713,2.23983366068,0.908374828873,3.3412912123,3.98430004042,2.87272664222,5.86464250763,19.5435429606
do_nothing,5.42648612383,3.13559532502,3.27309900362,0.571694625229,6.80047155403,8.00247834611,6.93045961076,6.41007122479,0.612346707602,6.5839183931,2.74127006951,5.89327179475,6.57078378936,37.4594501411
do_nothing,4.3155817273,2.68204421266,2.50318027198,0.3649440707,6.77408436034,8.18562772594,10.1729936874,9.39199736159,0.241077266131,8.46498092031,1.21994910169,7.66699649829,6.07193619562,48.5045499677
do_nothing,2.90806707084,2.10382492082,1.72711669399,0.0509252790968,5.95348105769,7.28536174336,11.6091347591,10.7442683068,-0.12764590942,8.95117363841,0.054494130231,8.20133137335,4.85034007053,48.9889422307
do_nothing,1.72934075349,1.61822093297,1.29556934708,-0.31142186547,4.66061224982,5.71517415092,11.0395131282,10.3231267678,-0.433749048742,8.22867292482,-0.361925609472,7.68995408575,3.39710359841,37.7635521607
do_nothing,1.00273330313,1.26348015657,1.27144601276,-0.639618928042,3.10681074146,3.79934982025,8.60599071739,8.26496206569,-0.64369960711,6.56449157337,-0.0133968387157,6.36534128683,2.0249611891,16.7240323682
do_nothing,0.607709398703,0.906793925497,1.42526690574,-0.846863849579,1.36365803446,1.70104740094,4.74681533085,4.93105190233,-0.748659626004,4.20393164682,0.751743499335,4.40019230454,0.791868343871,-9.54567740329
do_nothing,0.194903887247,0.337272044564,1.36174276152,-0.866794166407,-0.574571986182,-0.541054861555,0.115948801886,0.839608832836,-0.755396131128,1.34517009105,1.37718978977,1.89944968575,-0.441960206936,-34.8955005997
do_nothing,-0.597076455722,-0.597433287776,0.723728582422,-0.676441641387,-2.67579854519,-2.89833195478,-4.51726545216,-3.39939067041,-0.675728601156,-1.81056420937,1.33885844533,-1.02318712767,-1.85757239712,-53.1773250732
do_nothing,-1.91908040385,-1.87155433926,-0.611802323625,-0.309192002872,-4.76535561425,-5.22555046697,-8.37781648122,-7.14548405903,-0.519971243405,-4.97516305471,0.377493571532,-4.13475915275,-3.49759104609,-59.8199054149
do_nothing,-3.58151593411,-3.23447023178,-2.42931736154,0.148307794728,-6.49134796425,-7.19357454346,-10.7981646986,-9.79439144921,-0.29714231606,-7.71834464525,-1.36652535616,-7.01026960903,-5.15042539275,-52.9868710744
do_nothing,-5.07841745235,-4.26475241958,-4.21058859918,0.576618355947,-7.39036220749,-8.32767871321,-11.327824116,-10.8594610309,-0.0209367389233,-9.49362289093,-3.3715667634,-9.05716771609,-6.36016799875,-34.0287193692
do_nothing,-5.76424352289,-4.51251762277,-5.30486964389,0.856762192506,-7.03952183837,-8.1509924232,-9.8260881627,-10.0662434295,0.282714746827,-9.76216762499,-4.90554411168,-9.65493382824,-6.5718078571,-7.14278949128
do_nothing,-5.11858342623,-3.68013699096,-5.17348556142,0.906641503832,-5.23997098618,-6.38352170546,-6.51703626078,-7.44162606692,0.571838289054,-8.18311310204,-5.29109672484,-8.37311270078,-5.3626479618,21.6380019819
do_nothing,-2.99437151799,-1.77168707955,-3.61671739329,0.708816414238,-2.15646308934,-3.11620031784,-1.98327789256,-3.36527486181,0.792310126339,-4.79941058821,-4.16984702364,-5.18693819155,-2.6689749247,45.8530619939
do_nothing,0.254170898775,0.851863819906,-0.893227804595,0.319620496658,1.65272546739,1.11974222418,2.91786971645,1.45045842925,0.890010699893,-0.135594340664,-1.66727026295,-0.595881849578,1.0902525334,60.0753549015
do_nothing,3.82591022431,3.5432272535,2.32083650651,-0.144920369372,5.34409147334,5.43379270946,7.21394487257,6.07122412504,0.827836701466,4.85411870042,1.60739534538,4.42430033431,5.05888906433,61.101706786
do_nothing,6.70366561432,5.55114400892,5.1276943813,-0.543339556107,8.01241691492,8.79798309803,10.0262400411,9.53274563923,0.601341004367,8.99802414064,4.73403266309,8.64809266148,8.16352287364,48.633781874
do_nothing,7.98715478034,6.25773454727,6.6952761668,-0.753024440412,8.96031790811,10.3443587466,10.779361248,11.072909221,0.246372834728,11.2283675304,6.77303478192,10.9484829067,9.44540787323,25.3321853475
do_nothing,7.21063835622,5.39015327233,6.53649890112,-0.710342128002,7.92211990203,9.63881444979,9.35263387139,10.3393944563,-0.165548813692,10.912389501,7.07681025386,10.6563531963,8.39332748624,-3.74789336204
do_nothing,4.52771524714,3.13046840637,4.68070280122,-0.432964463488,5.1612618572,6.83374903183,6.12319873185,7.50533005578,-0.54407504062,8.07816909163,5.51318496711,7.80421492546,5.15637633782,-32.2202036695
do_nothing,0.689713030311,0.0801967989934,1.67392046612,-0.0160913951206,1.40200442317,2.64043546268,1.87823811843,3.24678721091,-0.804380366424,3.44726573836,2.52103562321,3.15812171672,0.550344447821,-53.7250287901
do_nothing,-3.18303863075,-2.91464551138,-1.59516626016,0.397249762848,-2.38618380408,-1.87604041473,-2.38708867098,-1.42333201806,-0.891191646006,-1.75216827744,-1.02421449794,-1.98939709073,-4.15990186984,-63.3198178448
do_nothing,-5.962544758,-5.02320438333,-4.18463546103,0.662829065037,-5.28070550998,-5.61355229804,-5.73162284409,-5.42338873585,-0.794329158129,-6.14247023548,-4.09163124103,-6.20875699204,-7.64068064751,-58.6213546428
do_nothing,-6.8828664178,-5.68862265311,-5.40387345753,0.683655386212,-6.67585148204,-7.75542698956,-7.51312748431,-7.89485908592,-0.550323626441,-8.61203576071,-5.82742457074,-8.38039766101,-8.91028825368,-40.4418962927
do_nothing,-5.78862925436,-4.79925337268,-5.02773780274,0.443971067649,-6.44005671312,-7.99041844108,-7.54129172389,-8.42778937171,-0.229506319131,-8.65220320711,-5.82595440622,-8.04852095964,-7.65850368703,-12.7388431355
do_nothing,-3.17435919469,-2.7145765114,-3.34747611501,0.0169152416196,-4.91048872688,-6.55898197045,-6.0918162274,-7.14841089295,0.0868795521813,-6.50065850222,-4.24705533958,-5.55753434651,-4.3528807225,18.1716263723
do_nothing,-0.000640431419876,-0.137612419887,-1.04421161625,-0.45744753386,-2.73383001676,-4.11749873825,-3.77973676906,-4.64175285276,0.331477112823,-3.04047037534,-1.74107977681,-1.91987757182,-0.0902656841122,45.0179709987
do_nothing,2.64737988144,2.12193610979,1.06598488216,-0.817094376948,-0.616998758503,-1.47731612474,-1.33722205861,-1.73714835448,0.468915180495,0.512446711771,0.790126449243,1.54274631459,3.76117626297,61.3043095354
do_nothing,3.93748100156,3.41264639546,2.32168530629,-0.931455247321,0.917934133752,0.681324450222,0.626790427246,0.76905166437,0.501262032024,3.02675232129,2.51142481056,3.66191363902,6.01122206546,62.9567223536
do_nothing,3.56994746394,3.44476991804,2.43641954242,-0.745596301616,1.68551348154,2.0152924886,1.80263894287,2.35839229231,0.459741439113,3.83390975382,2.94019362334,3.82728104036,6.03692532872,49.4454088396
do_nothing,1.86141598914,2.36506384482,1.57338083964,-0.300329628278,1.8447670017,2.57389004583,2.23354478766,2.92044478826,0.386807672818,2.93628302558,2.10068900926,2.19044771617,3.97988931315,24.0396783028
do_nothing,-0.39367235023,0.681602433228,0.252920412354,0.278710673242,1.76951476678,2.69350405328,2.23409524945,2.72795766968,0.316206369708,0.973769358678,0.494928459866,-0.405509492709,0.684372651729,-6.93599666519
do_nothing,-2.23047357861,-0.930814767661,-0.867376079719,0.819685699585,1.84079039049,2.78470223692,2.21092415263,2.27343603561,0.259164967214,-1.03711443368,-1.09714006856,-2.74720145903,-2.60229584478,-35.7002441253
do_nothing,-2.87639051074,-1.87379968399,-1.25478373291,1.1583061153,2.25020031899,3.10594964809,2.45894384891,2.03391781681,0.202173167041,-2.09714040359,-1.91568209386,-3.70941109127,-4.66415516721,-55.0614257883
do_nothing,-2.03704301089,-1.83162215766,-0.707293371353,1.18917712249,2.8968526884,3.62124043564,3.01489057057,2.25625285923,0.11698995515,-1.60948919376,-1.51083558733,-2.68727039547,-4.73718648285,-60.3468911816
do_nothing,-0.0032098037854,-0.870666223766,0.57190914852,0.898110357779,3.42149560267,4.00301566456,3.62728392807,2.84633462349,-0.0215526787999,0.382625561469,0.078560289038,0.153896675457,-2.77269925281,-50.6532302721
do_nothing,2.45750368701,0.598458679184,2.0561196316,0.365263484404,3.36506887769,3.78099759154,3.85644391211,3.40562147427,-0.21768746002,3.19222113614,2.32115320944,3.90393498222,0.545307509739,-29.0369075712
do_nothing,4.38240496718,1.9780776506,3.09945084583,-0.261248748575,2.38722938572,2.57609155819,3.26701079972,3.40172501953,-0.444756741365,5.7221808904,4.36708661805,7.20472921134,4.03327266394,-1.57608057027
do_nothing,4.96535431348,2.70122674158,3.18577922945,-0.811921739046,0.454048535428,0.320856652723,1.63795641713,2.40789153116,-0.648152858779,6.85568637648,5.34134950465,8.71900988835,6.41121799835,24.4187131547
do_nothing,3.85157905347,2.43273415267,2.12949747358,-1.14692843288,-2.08626781204,-2.63035930541,-0.894131248308,0.318336286589,-0.761089040069,5.86732040957,4.65707126259,7.61012439557,6.73899538127,42.498626701
do_nothing,1.27166183487,1.18516799055,0.154950638417,-1.19513843555,-4.578426326,-5.55758480323,-3.81973397724,-2.54677723868,-0.727958557798,2.7109580577,2.24244186726,3.86638063195,4.73945750805,48.8317267655
do_nothing,-2.02996397481,-0.686710388638,-2.17264168222,-0.969275677968,-6.26576346258,-7.5888140495,-6.3834267004,-5.49364379303,-0.526757619878,-1.91718439394,-1.39632283807,-1.64423520249,0.90238647017,43.0883746684
do_nothing,-5.0430952389,-2.60635281843,-4.13746246847,-0.55394126189,-6.55399608122,-7.99854524879,-7.81427897855,-7.6539319573,-0.181965105394,-6.76505745844,-5.29951107499,-7.41189670703,-3.66247445187,28.2150651274
do_nothing,-6.82651326871,-3.96563355677,-5.11443026945,-0.072492411275,-5.23487524859,-6.48154482097,-7.58095122451,-8.26576329323,0.237528772517,-10.4011125327,-8.32860538596,-11.7398002013,-7.57196766703,9.22480128274
do_nothing,-6.81250137341,-4.31897149454,-4.77556372255,0.354488910763,-2.5835976399,-3.2964681015,-5.58170789655,-6.94007140741,0.635549388188,-11.6578403369,-9.50613925942,-13.2686481258,-9.60086102174,-8.54488089897
do_nothing,-4.97947495225,-3.51827834303,-3.19116242216,0.644443249455,0.710727726035,0.780801964637,-2.20137259128,-3.81877939909,0.915501157596,-9.9993601751,-8.3161836669,-11.4019003565,-9.05949400964,-21.092267285
do_nothing,-1.84124664599,-1.7494368182,-0.795923025549,0.770417122872,3.76041825646,4.68477076802,1.78616876435,0.432509649859,1.00813418174,-5.69729027314,-4.87460307933,-6.49780942921,-6.00132096256,-26.7715917053
do_nothing,1.73311709622,0.534017157166,1.76096086326,0.756787882879,5.76458473366,7.39217149832,5.43733150494,4.79825211234,0.891073376039,0.236580348374,0.0806831302944,0.228043603087,-1.20224487742,-26.3678670294
do_nothing,4.7983855672,2.75111934684,3.82349747834,0.657235264019,6.26234854684,8.24180345962,7.90607388342,8.19790447113,0.593944585687,6.33410515363,5.37479709261,7.05290657327,4.07283083039,-22.2803604359
do_nothing,6.61275582776,4.35842440282,4.92054002556,0.525403163904,5.2638473559,7.12992069532,8.67113571118,9.79065904024,0.188028590642,11.0787073031,9.70132018341,12.2357585039,8.43668191783,-17.2003439123
do_nothing,6.82805407293,4.98863079357,4.87961956938,0.390796877267,3.21505624568,4.51458296776,7.65328792789,9.20448115571,-0.235344115262,13.3125080708,11.9613469522,14.494108008,10.7651685417,-12.8488242958
do_nothing,5.53983509279,4.5268106561,3.83457281126,0.249668671837,0.814823055629,1.23292943846,5.19446837969,6.62217254945,-0.589931041294,12.5263861597,11.5443969358,13.3305570854,10.489724226,-9.29937698145
do_nothing,3.19971921886,3.11255924113,2.13907579281,0.0741316705796,-1.24285104233,-1.7963831505,1.91986873565,2.70640195957,-0.814995632728,8.96027161455,8.48002173843,9.12559945696,7.72159429981,-5.16357763885
do_nothing,0.438605180367,1.08033979132,0.229958500296,-0.16494506192,-2.50238292735,-3.87340298888,-1.45822901901,-1.60235497341,-0.885249556461,3.50227371018,3.42701928942,2.9886691552,3.18755267361,1.44494329201
do_nothing,-2.12744221481,-1.13444319948,-1.50417912452,-0.471604434751,-2.8698188365,-4.71105758502,-4.32332598162,-5.34436081237,-0.808949294058,-2.5669752774,-2.48952449069,-3.56996697448,-1.98837933865,11.5875899012
do_nothing,-4.04296738882,-3.09328565457,-2.80464738836,-0.807202215076,-2.58543342123,-4.45955436111,-6.26810785521,-7.77510461465,-0.61723315151,-7.90166692119,-7.94662351192,-9.03989915106,-6.58470135677,24.4150530654
do_nothing,-5.07460623799,-4.43390206382,-3.55748087141,-1.09071025351,-2.06633204722,-3.56567705428,-7.11742687067,-8.51286940274,-0.350549093733,-11.3994056396,-11.7291007759,-12.2703272712,-9.57889971902,36.8548234656
do_nothing,-5.19110766225,-4.92155284886,-3.75485833299,-1.21931740906,-1.69120522801,-2.53622479407,-6.87915199004,-7.57260386021,-0.0480981564246,-12.4199751275,-13.0013378093,-12.7024260786,-10.3686749859,44.3241550543
do_nothing,-4.49579930814,-4.47420138955,-3.43736079101,-1.10365710269,-1.62102716291,-1.70999154759,-5.66764327168,-5.29877748601,0.256244392433,-10.8783509897,-11.4867780074,-10.4352487873,-8.87566704108,42.3127175105
do_nothing,-3.15668125634,-3.1682598551,-2.65393810814,-0.705639656112,-1.73256898757,-1.13460424821,-3.64768059218,-2.23806132722,0.531851132603,-7.2128335218,-7.5207102488,-6.13564232499,-5.52404536072,28.3003717062
do_nothing,-1.36819127072,-1.22960368418,-1.46103975239,-0.0646729274343,-1.69288676947,-0.596807240011,-1.02629086403,0.999056390353,0.74677844051,-2.25616268448,-1.97004194045,-0.838852187766,-1.11526778635,3.27614428256
do_nothing,0.647471696085,0.991290208562,0.0430004724319,0.69900426646,-1.14213332824,0.212939317367,1.91349125104,3.84993202432,0.86575959753,2.95046500702,3.95941271815,4.29846011275,3.36250568627,-27.8054023047
do_nothing,2.61901420117,3.06551451323,1.67511350824,1.40792817226,0.0959889094702,1.48039849376,4.77293070025,5.86957224715,0.85452549281,7.36157807421,8.98631188707,8.23592122226,6.94694880619,-56.9619126317
do_nothing,4.21919167113,4.55697993812,3.1520987986,1.8729070027,1.87192681785,3.09750191499,7.03946520977,6.76543736021,0.690815415143,10.1186496802,12.0328697633,10.2378319775,8.89650339351,-75.3588489525
do_nothing,5.10173791153,5.11381080796,4.12893349151,1.94750534802,3.70692609924,4.62933376802,8.16349394356,6.41522068972,0.378398216978,10.7048639513,12.4612405391,9.99109746773,8.83605263297,-76.0946481743
do_nothing,4.98808556601,4.5623747967,4.29208332638,1.57475841637,4.94332529485,5.44806717911,7.70816402736,4.88193598704,-0.042375377583,9.04397888097,10.2158727304,7.64543374758,6.83042141375,-56.6858523709
