label,COUNTER,INTERPOLATED,AF3,F7,F3,FC5,T7,P7,O1,O2,P8,T8,FC6,F4,F8,AF4,RAW_CQ,GYROX,GYROY,MARKER,SYNC,TIME_STAMP_s,TIME_STAMP_ms,CQ_AF3,CQ_F7,CQ_F3,CQ_FC5,CQ_T7,CQ_P7,CQ_O1,CQ_O2,CQ_P8,CQ_T8,CQ_FC6,CQ_F4,CQ_F8,CQ_AF4,CQ_CMS,CQ_DRL
off_to_on,2.62705121453,2.66056960392,3.77633665417,6.53982790267,9.10622373492,7.82719273359,6.54063113784,4.33722984963,6.40267979896,5.55934483347,6.36134773383,4.72217888907,5.56776947862,79.0733372943
off_to_on,2.94235968584,2.64845371565,3.55593704694,6.60471868291,9.20375431104,8.12312121007,7.9100420847,6.00641233412,6.84804417346,6.24918342206,6.62693489367,5.28095614619,5.22630368911,53.4526636328
off_to_on,3.25206192903,2.62127225591,3.19262026959,6.39532023109,8.81496945438,7.99601115016,8.74363689671,7.23897628322,6.96868096604,6.52427446149,6.55541610995,5.50592434937,4.65113365697,26.003994593
off_to_on,3.53586809409,2.56194405443,2.70353397847,5.92503834521,7.96705602206,7.45748008763,8.97021088682,7.91826021408,6.75063801237,6.34925042845,6.16042872396,5.3746286708,3.88834404937,-0.500059284089
off_to_on,3.7623097971,2.44939292122,2.11349180163,5.22104543152,6.72528987557,6.55141525429,8.57795072183,7.98479410355,6.20378066667,5.73258451148,5.47805764958,4.8933806805,2.99241167444,-23.5993865129
off_to_on,3.89261389396,2.26232802603,1.45313550669,4.32236023083,5.18808411312,5.35011287849,7.61395280345,7.44134426878,5.36121605644,4.72565836333,4.56259561526,4.09705974217,2.02197860281,-41.3919451505
off_to_on,3.88613933172,1.98315544928,0.756456336836,3.27685617587,3.47768467195,3.94705064126,6.17701607635,6.3508373289,4.27621358359,3.41690159001,3.48063709554,3.04636814362,1.03562339271,-52.7026613836
off_to_on,3.70667344129,1.60153148032,0.0579976224861,2.13753149808,1.72749602755,2.44710873206,4.40478860302,4.82759745187,3.01701990398,1.9217997486,2.30427584616,1.82278470431,0.087978218069,-57.1599783727
off_to_on,3.32872728864,1.11710157279,-0.609897616477,0.958480966635,0.0675636973216,0.955431932276,2.45701813393,3.02310658841,1.66024793108,0.370051975002,1.10426066666,0.521653567795,-0.773529326266,-55.1760313555
off_to_on,2.74292672438,0.541054159035,-1.21944491514,-0.208948818208,-1.3899130961,-0.433652026764,0.49709078361,1.1081111628,0.283700766226,-1.10852960394,-0.0560689309727,-0.756000742557,-1.51112175436,-47.8380796367
off_to_on,1.95967777278,-0.103750823333,-1.74910058222,-1.3193690141,-2.56307600592,-1.64621084123,-1.3258119844,-0.746719142685,-1.04045288781,-2.39768215842,-1.12538822103,-1.91223299218,-2.09821489248,-36.7290477295
off_to_on,1.01048589525,-0.784154978232,-2.18439448254,-2.33557030926,-3.40913883242,-2.63550576433,-2.89176249954,-2.38926510283,-2.25131209091,-3.40632786078,-2.06708436026,-2.86075731055,-2.52006112396,-23.7026136129
off_to_on,-0.053394833887,-1.45947220814,-2.51787184958,-3.22955659446,-3.9280413203,-3.38508641792,-4.12059592677,-3.70141878658,-3.30304227173,-4.07689431973,-2.85987658,-3.53459451178,-2.77356946522,-10.6424042751
off_to_on,-1.16495237878,-2.08537710112,-2.74823681363,-3.98237249012,-4.16037563969,-3.90775243863,-4.97677593975,-4.60980970158,-4.16648031043,-4.38947741906,-3.49648247207,-3.89209262209,-2.86642890763,0.764842954425
off_to_on,-2.24765267019,-2.61847996229,-2.87890584115,-4.58288998678,-4.17971924182,-4.24051892293,-5.46828260697,-5.09069534402,-4.82851690674,-4.36153606895,-3.98071373319,-3.92074253757,-2.81568417658,9.21568503268
off_to_on,-3.22320285483,-3.02105190398,-2.91625833185,-5.02587459604,-4.08030161191,-4.43628499653,-5.63998021743,-5.16865464207,-5.2895514208,-4.04335620829,-4.32357814354,-3.63837918387,-2.64591169078,13.9159597043
off_to_on,-4.01988844497,-3.26531903934,-2.86790247666,-5.30975339128,-3.96162279198,-4.55338316335,-5.56263426663,-4.90948891594,-5.55958493245,-3.51001679295,-4.53906597003,-3.09157119053,-2.38712500708,14.6349880731
off_to_on,-4.5804196629,-3.33677110447,-2.74125317639,-5.43453944614,-3.91212616698,-4.64451153527,-5.3192859463,-4.40843444327,-5.65369408912,-2.85097471893,-4.64029749563,-2.35124611123,-2.07251289227,11.6861927819
off_to_on,-4.86825499801,-3.23602786565,-2.54264967598,-5.40032383171,-3.99423124996,-4.7466716414,-4.99099153774,-3.77533965849,-5.5876861723,-2.15861659305,-4.63660839595,-1.50585612129,-1.73608936422,5.84159121267
off_to_on,-4.87154671565,-2.97896836132,-2.27713542445,-5.20663399272,-4.23291655775,-4.8736287658,-4.64395796142,-3.11879404792,-5.37466785951,-1.51718207871,-4.53196985659,-0.652639241557,-1.41032200734,-1.80457674877
off_to_on,-4.60415326069,-2.59503641635,-1.94889895778,-4.85279369101,-4.60961504482,-5.01208849499,-4.3198559967,-2.53127751619,-5.02307880994,-0.993348035126,-4.32491034886,0.112251001098,-1.12380763508,-10.0023984348
off_to_on,-4.10354844821,-2.12386665388,-1.56225257064,-4.33923100271,-5.06249628924,-5.12228204262,-4.03060704372,-2.07722211236,-4.53647609226,-0.629497930974,-4.00986189172,0.703814060083,-0.899083449827,-17.5198344121
off_to_on,-3.42587506568,-1.61059949882,-1.12292506735,-3.66949774848,-5.49335010698,-5.14303961787,-3.75828614387,-1.78546779313,-3.91504880817,-0.440327328379,-3.57963224852,1.05745526685,-0.750692881165,-23.3006802079
off_to_on,-2.63878290659,-1.10044143608,-0.639382349372,-2.85261647897,-5.78037108749,-5.00078863568,-3.46005303898,-1.64700382777,-3.15854229017,-0.413005021731,-3.0285379464,1.13642661174,-0.683659678115,-26.587810797
off_to_on,-1.81300222471,-0.633151010449,-0.123875352388,-1.90528473946,-5.79529863099,-4.62133105472,-3.07731336034,-1.61819246944,-2.27002484507,-0.510676140815,-2.35564401041,0.936582316124,-0.692550265063,-26.9982692814
off_to_on,-1.01378720662,-0.238171517348,0.407048413648,-0.853456484402,-5.42271118138,-3.9428144581,-2.54771875718,-1.62895883605,-1.25977553622,-0.678710524575,-1.56755514476,0.4878033367,-0.76131093734,-24.543844383
off_to_on,-0.293391429922,0.0689221234949,0.932751118328,0.267109083425,-4.5789012964,-2.92807959086,-1.81821667516,-1.59478937384,-0.148532970826,-0.852809844377,-0.680286433565,-0.148238976037,-0.864043134095,-19.5982623079
off_to_on,0.314398804464,0.28814024476,1.42949472164,1.41159936813,-3.22772721213,-1.57458048494,-0.857209708178,-1.43089043878,1.03057142874,-0.9679190871,0.280106515144,-0.883932213024,-0.966820954518,-12.8190088022
off_to_on,0.796930846546,0.434659822871,1.87215062429,2.5282768483,-1.39115780859,0.0796635695227,0.336000202632,-1.06657919391,2.23187934352,-0.966854183853,1.27826347931,-1.61473596349,-1.03056045163,-5.03723908624
off_to_on,1.16220262539,0.536245444828,2.23643961046,3.5618463894,0.847135686138,1.9551421158,1.7259426667,-0.457945725518,3.39908164349,-0.807652883678,2.27154108521,-2.23052873105,-1.01482711138,2.86739585995
off_to_on,1.43532982422,0.628776257153,2.50141327022,4.45772163554,3.34591699421,3.93536995094,3.24078034546,0.402957861198,4.46900478502,-0.468860386545,3.21305373988,-2.62814558574,-0.882330014889,10.0891984648
off_to_on,1.65250401202,0.750415070358,2.65183014753,5.16669249744,5.9180350676,5.87654559044,4.7773885198,1.48370544538,5.37690624839,0.0477567972673,4.05533022379,-2.72376006465,-0.603717405455,15.9997451684
off_to_on,1.85335198941,0.935166243678,2.68007363343,5.64940727973,8.34838999555,7.62135577723,6.21120065375,2.71255718412,6.06263187962,0.717254145748,4.75411118368,-2.46370310602,-0.162180362361,20.2191479322
off_to_on,2.07285001632,1.20668853249,2.58730643765,5.88007992127,10.4161773155,9.01534975082,7.40965280348,3.984985366,6.4768354078,1.49417455524,5.27181634305,-1.83241147476,0.442689885722,22.6473055042
off_to_on,2.33402627779,1.5732370191,2.38365245574,5.84891789643,11.9187879842,9.92392259143,8.24755618227,5.17495172975,6.58642468508,2.3174178001,5.58028408928,-0.856457392739,1.19234274549,23.4529536917
off_to_on,2.64258623839,2.02449811819,2.08732774577,5.56292870506,12.6944893909,10.2478135339,8.62244201492,6.14959812142,6.37848628797,3.11667937908,5.66251500873,0.395990886806,2.04848249025,23.0240818608
off_to_on,2.98432930124,2.53086288385,1.72278941067,5.04497960432,12.6411294006,9.93516459159,8.46789385669,6.78555069383,5.86213746925,3.81969313057,5.51331158682,1.82043068279,2.95438119597,21.8883001887
off_to_on,3.3258268053,3.04538122053,1.31811299435,4.33122457431,11.7285761418,8.9885824452,7.763113875,6.9847980072,5.0680329625,4.35947419736,5.13887120568,3.2856202613,3.83840268848,20.6154169848
off_to_on,3.61835615142,3.50829051438,0.901924529123,3.46723871962,10.0033695247,7.46625266745,6.53743108445,6.68811775134,4.04557262486,4.6808107184,4.55553174786,4.64659738162,4.61959530058,19.7164196455
off_to_on,3.8046013266,3.85366206417,0.500285152082,2.50337908474,7.58501599789,5.47689176616,4.8690910025,5.88429642304,2.85816733113,4.74538081525,3.78796639743,5.75977258146,5.2149448983,19.5530892294
off_to_on,3.82720661422,4.017404968,0.133942926161,1.48999463397,4.65438049571,3.16909286333,2.87838540315,4.61388040108,1.5771791442,4.53505568402,2.86716283331,6.4984532671,5.54763608112,20.2707043776
off_to_on,3.63797071509,3.94565283211,-0.183675306576,0.473120420376,1.435585635,0.716323503624,0.715894318783,2.96685637232,0.275319969661,4.05316545784,1.82849859311,6.76704446207,5.55548363076,21.7630098237
off_to_on,3.20633900533,3.60246622337,-0.447454595934,-0.508790998097,-1.82640521878,-1.70062396278,-1.4527722646,1.07440353619,-0.979653210808,3.32372654706,0.7101463681,6.51226871471,5.19859842105,23.6743075449
off_to_on,2.5259145754,2.9758300727,-0.660423898686,-1.42671242022,-4.88986400897,-3.91161964795,-3.46390781306,-0.904402594641,-2.13017545815,2.38883382087,-0.448072914787,5.73004745615,4.46536291261,25.4387408767
off_to_on,1.6179588631,2.08110868686,-0.832446739374,-2.26129348068,-7.53923934503,-5.77347547026,-5.17228831706,-2.79941701375,-3.13244871987,1.30458879889,-1.60540214756,4.46715933498,3.37591867665,26.3521719707
off_to_on,0.531257633288,0.96142118496,-0.977946537283,-3.0016025566,-9.60438703691,-7.18261303324,-6.4654223503,-4.44780744213,-3.95801788648,0.136052127699,-2.72055851986,2.81738477368,1.98260448136,25.6680405593
off_to_on,-0.661767821366,-0.315220086067,-1.11297938602,-3.64267530473,-10.9740496716,-8.0827034015,-7.2738029106,-5.71179940001,-4.59331165822,-1.04823246953,-3.75206246113,0.91248994042,0.367105375571,22.7056698429
off_to_on,-1.87229212761,-1.66175543677,-1.25206261828,-4.18237118887,-11.6023216561,-8.46652812325,-7.57600730096,-6.49364459291,-5.037408402,-2.18159599843,-4.65874113712,-1.09098151281,-1.36555520051,16.9579386748
off_to_on,-3.00476384305,-2.98026937591,-1.40520817524,-4.61814624847,-11.5077453756,-8.37206621988,-7.39814900405,-6.74599312325,-5.29853578544,-3.20399208766,-5.40063994161,-3.02763197362,-3.09567205407,8.18518635277
off_to_on,-3.96776909058,-4.17158016122,-1.57558951244,-4.94436162254,-10.76560312,-7.87355519417,-6.80789960786,-6.47640014862,-5.38997694947,-4.0657436892,-5.94049662511,-4.74003581866,-4.69932296324,-3.51639031404
off_to_on,-4.68462883799,-5.14509090188,-1.75819175591,-5.15066008296,-9.49477736227,-7.06890604306,-5.90397671411,-5.7454113039,-5.3261119349,-4.73003003516,-6.24581055292,-6.0945374884,-6.05955722061,-17.6809426254
off_to_on,-5.10229102761,-5.8277246516,-1.93966733816,-5.22176925278,-7.84114635578,-6.06528901536,-4.80254804253,-4.65846045986,-5.11926432797,-5.17400530864,-6.29139510599,-6.99421078693,-7.07710439383,-33.4792844235
off_to_on,-5.1972973924,-6.17088008073,-2.09946023802,-5.13885591424,-5.95979230198,-4.96489158863,-3.62236189944,-3.3525794545,-4.77786052048,-5.38859191329,-6.06216023364,-7.38751292276,-7.67942500126,-49.7666720221
off_to_on,-4.97800027685,-6.15459978221,-2.21209231633,-4.88229616915,-3.99829566105,-3.8527606208,-2.47053483889,-1.97956522642,-4.30616924964,-5.37712875351,-5.55576094174,-7.2716949319,-7.82709657977,-65.1691113603
off_to_on,-4.48272238833,-5.78850618126,-2.25034753761,-4.4354809508,-2.08308536991,-2.7882921616,-1.43079524671,-0.687692295495,-3.70561043038,-5.15316499441,-4.78468840924,-6.69067603398,-7.51682913653,-78.201221577
off_to_on,-3.77411888495,-5.1094810267,-2.18896489887,-3.78908369603,-0.310265139233,-1.80137558937,-0.55561637812,0.395760318206,-2.97734862427,-4.73776163678,-3.77738799642,-5.72777092871,-6.78079759358,-87.4052814363
off_to_on,-2.93053521593,-4.17648548052,-2.00837503871,-2.94510767363,1.25837321016,-0.893512410182,0.136875862817,1.17900421628,-2.12566062819,-4.15668998528,-2.57806666218,-4.49428818415,-5.68241631684,-91.4986132607
off_to_on,-2.03557803241,-3.06328030643,-1.69799864655,-1.92002318071,2.59420220259,-0.0435103778605,0.660992601952,1.6154763791,-1.16142382217,-3.43789530009,-1.24499374525,-3.11551290596,-4.30910570577,-89.5151357856
off_to_on,-1.16736778128,-1.85005890553,-1.25866909457,-0.746403065504,3.69623948497,0.78329924426,1.05702029029,1.7076410161,-0.105034340199,-2.60952816109,0.152714501501,-1.7158831603,-2.76295704115,-80.9268663146
off_to_on,-0.388982294661,-0.615114615099,-0.703841470744,0.527343556054,4.58257811786,1.62386903616,1.38126899654,1.50444767576,1.01186222457,-1.69874290799,1.53963110727,-0.405228588639,-1.15044149237,-65.7323991442
off_to_on,0.258576776759,0.572386897328,-0.0593927215371,1.83928153515,5.28042327184,2.50608525551,1.69415279124,1.09285087885,2.14627118025,-0.731334101086,2.83948644986,0.732245675771,0.42760038023,-44.5018588203
off_to_on,0.759934131214,1.65766076543,0.638014976097,3.11815843701,5.81646746707,3.4390860274,2.04807478646,0.584561419976,3.24557658188,0.26785597943,3.98102773717,1.64495044142,1.88452385979,-18.3713564466
off_to_on,1.12495909685,2.60303405197,1.34386392478,4.28909113345,6.20915247712,4.40681958744,2.47689691145,0.0998131078034,4.25101012494,1.27395538747,4.90364433436,2.31616665621,3.15405935245,11.015689065
off_to_on,1.38458211034,3.38800129367,2.00970516981,5.28008741661,6.46396123985,5.36593433714,2.98853868711,-0.249690169587,5.10249940247,2.26080608888,5.56213024316,2.76150193443,4.19351082614,41.6181952179
off_to_on,1.58349979005,4.00685778643,2.5876591357,6.02862409505,6.57232670343,6.24845458427,3.56180214031,-0.37638503657,5.74430836086,3.19979442851,5.93003755218,3.02213728311,4.98379800092,71.1509640091
off_to_on,1.77091824185,4.46452251882,3.03500384281,6.48747476133,6.51412531244,6.96898979401,4.14792182064,-0.228956173766,6.13074169726,4.05913795381,6.00123377111,3.15500777845,5.52660128437,97.2705227414
off_to_on,1.99077384788,4.77141871461,3.31834804161,6.62906497887,6.26313585681,7.43555026887,4.67667021475,0.200645148529,6.23115009431,4.80394797196,5.78949098749,3.22144879042,5.83925659896,117.777874293
off_to_on,2.27294681634,4.93839459387,3.41693033612,6.44781888698,5.79437688219,7.56249346036,5.06619997882,0.876171045024,6.0335503961,5.39728177778,5.32617641006,3.27600711873,5.94833433378,130.820185805
off_to_on,2.6268326721,4.97262277277,3.32468085955,5.96022303771,5.0919546116,7.28378023536,5.23526339555,1.72212748017,5.54635303038,5.80224869262,4.65634835525,3.35704296681,5.88298221418,135.072380435
off_to_on,3.03828172426,4.87522065934,3.05081770008,5.20263332709,4.15599547561,6.5646288497,5.11609047559,2.63417649839,4.79794195766,5.98505831514,3.83375597539,3.48044689622,5.66909587668,129.88028575
off_to_on,3.47040826487,4.64101691123,2.61891022569,4.22714611006,3.00740557634,5.40983056337,4.66608049348,3.49343834927,3.83414281957,5.91872167011,2.91536747968,3.63731085771,5.32520688633,115.349517384
off_to_on,3.86818512484,4.26050048453,2.0645076365,3.09610256668,1.68956239145,3.86741215167,3.87658712457,4.18271474634,2.71389993563,5.58696284232,1.95609247151,3.79579504815,4.86067266576,92.368545538
off_to_on,4.16616286251,3.72359092661,1.4315852282,1.87596060424,0.266541833376,2.02694043484,2.77744083318,4.60239691851,1.50372052814,4.98779579734,1.00431398431,3.90680945416,4.27636272398,62.5601240448
off_to_on,4.29817319791,3.02452578325,0.768186549832,0.63132771335,-1.18196256414,0.0124795709692,1.4364078544,4.68387093364,0.271600491949,4.13618913358,0.098712800294,3.91257064629,3.56761998073,28.1619943107
off_to_on,4.20756642303,2.16693025207,0.121723938627,-0.580106414963,-2.56834792914,-2.02906438693,-0.0465391225615,4.39858350475,-0.918801946253,3.06529275044,-0.733329246832,3.75668121365,2.7288983524,-8.15510663484
off_to_on,3.85644049558,1.16805590723,-0.465565443187,-1.7111579177,-3.80634358403,-3.94284431623,-1.54955670895,3.7615380552,-2.01303665858,1.8258360001,-1.47568989666,3.39417042771,1.7591962678,-43.5173217479
off_to_on,3.23246086194,0.06126652172,-0.960528893505,-2.72691707181,-4.82044946485,-5.58239577841,-2.94264784493,2.82877125339,-2.96922670698,0.483515551929,-2.122003427,2.79995959221,0.667264427839,-75.1049219545
off_to_on,2.35222495361,-1.10389980813,-1.34196167367,-3.60463942491,-5.55419954632,-6.82534665796,-4.10304243712,1.68920742322,-3.75961255806,-0.885550283537,-2.67306235605,1.97446904472,-0.524412090016,-100.412498831
off_to_on,1.260641235,-2.26438727629,-1.60212440858,-4.331986156,-5.97605269657,-7.5865316423,-4.93025087822,0.452084366932,-4.37023311645,-2.20094853664,-3.13362681414,0.945527172319,-1.77767417911,-117.486101069
off_to_on,0.0263920008419,-3.34884890601,-1.74675607561,-4.90408230142,-6.08206893163,-7.82685040291,-5.35878670831,-0.768223170252,-4.79897239633,-3.38507376758,-3.50919932774,-0.233691833404,-3.0392906397,-125.112426569
off_to_on,-1.26585941351,-4.28485159638,-1.79358317359,-5.32002586534,-5.89501017072,-7.55674966121,-5.3668085568,-1.86777808935,-5.0524290494,-4.37040621694,-3.8032919138,-1.49037078782,-4.24419663235,-122.939044814
off_to_on,-2.5253637909,-5.00709864443,-1.76948561959,-5.57954306139,-5.46003726791,-6.83389963855,-4.97942397329,-2.76678271673,-5.14221797715,-5.10606809283,-4.0156030696,-2.7405118627,-5.32103508613,-111.51098969
off_to_on,-3.66581359542,-5.46547503429,-1.70662506838,-5.68043621051,-4.83767821339,-5.75538226164,-4.26606857339,-3.41939588472,-5.08136720641,-5.56277925528,-4.14135350832,-3.89886432139,-6.19928192221,-92.2173755364
off_to_on,-4.6149427418,-5.63166699884,-1.63795717911,-5.61731920761,-4.09514005378,-4.44541211033,-3.33213833165,-3.81820629111,-4.88142260154,-5.73547827595,-4.17182915162,-4.88881090696,-6.81695513365,-67.1511269125
off_to_on,-5.32179094162,-5.50325080728,-1.59262397813,-5.3819046757,-3.29726990826,-3.04017783481,-2.30581230098,-3.99267608676,-4.55072735115,-5.64313551335,-4.09598009773,-5.65072748356,-7.1277784904,-38.8944655708
off_to_on,-5.76059914265,-5.10447338979,-1.5917476597,-4.96483275158,-2.49850439335,-1.67174687521,-1.32165785395,-4.00175527936,-4.0941264706,-5.32563400536,-3.90275643875,-6.14758379475,-7.10671703294,-10.2513776649
off_to_on,-5.93084218225,-4.48341668726,-1.64511913845,-4.3587564106,-1.73697795729,-0.453073898874,-0.503072915954,-3.92174302111,-3.51409344276,-4.83798895544,-3.58375161768,-6.36700087206,-6.75302071505,16.0451506967
off_to_on,-5.85352686161,-3.7057817538,-1.74919451376,-3.56216517051,-1.03161576853,0.534017576447,0.0541747408702,-3.83121010888,-2.81302652569,-4.24256443438,-3.13568751385,-6.31955477519,-6.09027444643,37.6196539319
off_to_on,-5.56449072986,-2.84606606198,-1.88668639254,-2.58327460204,-0.382568952285,1.24642527963,0.295134380838,-3.79528849365,-1.996255302,-3.60027035079,-2.56231650384,-6.0337284319,-5.16340395962,52.7027464494
off_to_on,-5.10593179914,-1.97735374806,-2.02787547191,-1.443258296,0.225169585583,1.68207520863,0.213776079929,-3.85180100866,-1.07516603862,-2.96193208685,-1.87542560357,-5.54846730986,-4.03305833782,60.3133953545
off_to_on,-4.51770053904,-1.16121934364,-2.13358558219,-0.178161254344,0.81562301466,1.87679517404,-0.145187809811,-4.00151460704,-0.0698179690795,-2.36108029735,-1.09478659038,-4.90470141086,-2.76820732383,60.3533649176
off_to_on,-3.82993976631,-0.439308492965,-2.15958004069,1.16099848,1.41420744007,1.89631808074,-0.691183613063,-4.20426965632,0.989512500873,-1.80928927682,-0.247076080721,-4.13738731199,-1.43808646371,53.6018087921
off_to_on,-3.05845004038,0.17201712989,-2.06196754097,2.51018330991,2.03990374646,1.82460607964,-1.29892832646,-4.3819315432,2.06226625875,-1.29490264378,0.636039954131,-3.26956313101,-0.10474452948,41.6092166914
off_to_on,-2.20371358063,0.682984709187,-1.80307039509,3.79629232926,2.69853590047,1.75014672698,-1.824605007,-4.4281351621,3.09919719371,-0.785553349748,1.52033076408,-2.30959806343,1.18263003523,26.5015944572
off_to_on,-1.25389252953,1.12725568894,-1.35712300218,4.94276970496,3.37830204714,1.75210584006,-2.12513775024,-4.22378107165,4.04555435533,-0.234362248263,2.37153677937,-1.25229738033,2.39069866176,10.716492192
off_to_on,-0.191421120627,1.55457586416,-0.715146073609,5.87625791795,4.04836350812,1.88820151369,-2.07819518706,-3.65633666627,4.84552446297,0.410846429631,3.15762053397,-0.0838685196054,3.50180303612,-3.29902390224
off_to_on,0.997854572265,2.02016713722,0.111611171018,6.5335119725,4.66083030318,2.18589687786,-1.60039410115,-2.64032861373,5.44740192772,1.19646714834,3.85040924101,1.20993693422,4.51068649706,-13.3932268105
off_to_on,2.3145621998,2.57236770639,1.09015337561,6.86772111063,5.15595958513,2.63803567537,-0.661332575903,-1.13608685904,5.80882315557,2.1516927255,4.42643743919,2.63380842309,5.41869707848,-17.981118471
off_to_on,3.73658269346,3.24040214505,2.16646259756,6.85343357218,5.46988325455,3.20343162089,0.708459316263,0.836125814088,5.90136808369,3.27844867841,4.86696489493,4.17273452737,6.2265318502,-16.2493168104
off_to_on,5.21259825334,4.02427483368,3.26855810449,6.48944184392,5.54377766456,3.81225420334,2.4168563814,3.18898651462,5.71390031517,4.54432909193,5.15731660156,5.78366761632,6.9269004432,-8.26870464221
off_to_on,6.65998234853,4.88859767226,4.3117414969,5.7992385555,5.33314219023,4.37542024333,4.31709713764,5.76954349834,5.25417812335,5.8798939086,5.28583658464,7.39081693251,7.49859349163,5.00032429113
off_to_on,7.96802810022,5.76169621625,5.20563117693,4.82896142069,4.81580187871,4.79668566629,6.22177062581,8.36967841892,4.54849837822,7.18118737553,5.24283746332,8.88597968875,7.90330956461,21.8125488704
off_to_on,9.00673227153,6.54064022152,5.86237309031,3.6430660649,3.99740122389,4.98580141156,7.92236563048,10.7448752177,3.63940022469,8.31767893426,5.01994421678,10.134651299,8.0862283724,39.841843733
off_to_on,9.64048005643,7.10200470334,6.20525125187,2.31825319189,2.91349034112,4.87099073879,9.21221058787,12.6394200866,2.58171611084,9.14509178935,4.61016652986,10.9878167248,7.98076178983,56.461454449
off_to_on,9.74513955783,7.3173009934,6.17683314139,0.936391145904,1.62777380248,4.40913099126,9.91018067996,13.8152084895,1.43747628697,9.52186735747,4.00889652776,11.2984307116,7.51724275496,69.0680698575
off_to_on,9.22640387241,7.07124859364,5.7457857514,-0.422712976447,0.226628824301,3.59235829161,9.88240922765,14.0807236137,0.270317449146,9.32741572908,3.21583803077,10.9407755079,6.63462277308,75.4112327187
off_to_on,8.03682425359,6.28050457989,4.9115926784,-1.68784550167,-1.18947373884,2.45030829662,9.05943310737,13.3165680955,-0.859903705351,8.47991266496,2.23766049354,9.83026663721,5.29364753388,73.8882842826
off_to_on,6.18893532558,4.91021939668,3.70658547956,-2.80149321793,-2.51657074438,1.04778964676,7.44670510689,11.4942143403,-1.90164185217,6.95128849706,1.09097214163,7.94096400549,3.48956595468,63.7684992037
off_to_on,3.76220972513,2.98589813448,2.19495742058,-3.72301254899,-3.65846289838,-0.521721177151,5.12716001038,8.68536366754,-2.81483166908,4.77724567172,-0.194940947158,5.31810205074,1.26227745385,45.3179933632
off_to_on,0.902267354253,0.59851821799,0.468729443597,-4.4296274541,-4.5371559437,-2.14585324494,2.25543481018,5.06038682651,-3.57239794486,2.0606315019,-1.57622946624,2.08339400402,-1.2980228047,19.8084800157
off_to_on,-2.18827651179,-2.09835981991,-1.35904519083,-4.91532456235,-5.10111995866,-3.70508830551,-0.955693867564,0.875624872987,-4.16006011577,-1.03276810549,-2.99403482604,-1.56834725754,-4.05118175448,-10.5933440321
off_to_on,-5.26683291673,-4.89974622517,-3.16325457825,-5.18799496002,-5.33029270623,-5.08498670669,-4.25519676616,-3.54930553262,-4.57463199869,-4.28604493945,-4.37592968731,-5.38168567897,-6.81417314687,-43.0447267125
off_to_on,-8.07413431641,-7.56780189941,-4.81705472153,-5.26539217583,-5.2371940612,-6.1874002815,-7.37782500912,-7.86181066963,-4.82122729218,-7.44967003838,-5.63946244572,-9.06138017521,-9.37480436709,-74.3299436376
off_to_on,-10.3612599817,-9.855965413,-6.20256419436,-5.17060509417,-4.8640451665,-6.93937858105,-10.0696514782,-11.7108632783,-4.90992229275,-10.2648711478,-6.69772994289,-12.299647284,-11.5109774423,-101.213053063
off_to_on,-11.9172006124,-11.5359095512,-7.2208861515,-4.92776653024,-4.27632380494,-7.29883345223,-12.1123374651,-14.7818738903,-4.85247915363,-12.4893826512,-7.46658678397,-14.8070147116,-13.0135699946,-120.799583267
off_to_on,-12.5935254458,-12.4240954483,-7.80047294605,-4.55863288675,-3.5536612705,-7.25649077227,-13.3435236487,-16.8278992374,-4.65968960428,-13.9226597423,-7.87280772282,-16.3432792278,-13.71034003,-130.865014507
off_to_on,-12.3229229842,-12.4045853163,-7.90301244083,-4.08049341834,-2.7793303465,-6.83415974419,-13.6712275659,-17.6936210913,-4.33976867335,-14.42759698,-7.86229795568,-16.7448728128,-13.4879066895,-130.111576845
off_to_on,-11.1290372432,-11.4451050215,-7.52626972909,-3.50562818582,-2.02974243174,-6.07981966966,-13.0808505402,-17.3293983451,-3.89803215689,-13.9461120977,-7.40733359449,-15.945200961,-12.3088848847,-118.323177165
off_to_on,-9.12604255383,-9.60408663433,-6.70363539638,-2.84226956804,-1.36534336552,-5.0603990564,-11.6342639581,-15.7938990794,-3.33786171976,-12.5066194156,-6.51183598266,-13.9852309747,-10.2216731142,-96.4001961854
off_to_on,-6.50766516053,-7.02748345492,-5.50047582765,-2.09677396806,-0.824079071274,-3.85335559596,-9.46134997,-13.2452028279,-2.66273395034,-10.2223475163,-5.21384548149,-11.0126986183,-7.36117458505,-66.2700113732
off_to_on,-3.52670529503,-3.93540441309,-4.00771299306,-1.27651566618,-0.4182273486,-2.53823303136,-6.74520480521,-9.92164782819,-1.87890012609,-7.28053965923,-3.58464931742,-7.2696384047,-3.93978453527,-30.683686473
off_to_on,-0.467359557336,-0.59990012578,-2.33334246074,-0.392902413189,-0.134915969593,-1.18927172204,-3.70287512247,-6.11490561454,-0.998181531578,-3.92367629116,-1.72440131008,-3.06935902772,-0.229172568017,7.07745064704
off_to_on,2.38638035826,2.68362011268,-0.592796857359,0.536101899146,0.0598621427508,0.130093128846,-0.563914178418,-2.13864193467,-0.0403099632248,-0.424835159947,0.245499157317,1.23470106387,3.4654259213,43.5512497857
off_to_on,4.78240815649,5.62800731998,1.10084461983,1.48447773163,0.21439700834,1.37035564798,2.45082709201,1.7034405891,0.965699824089,2.93997218391,2.19258257969,5.28476520811,6.83567904661,75.4598882001
off_to_on,6.52834293503,7.98525295416,2.64582120484,2.41803520848,0.382601697879,2.49658613599,5.14792346515,5.14643640812,1.98151815549,5.91927531639,3.98500234468,8.75506275905,9.60195291533,100.049067505
off_to_on,7.51204667515,9.57289174432,3.95898184373,3.29582034398,0.61479031323,3.48687805153,7.37578760846,7.98673438956,2.96097837697,8.31024782293,5.50347719826,11.3845141093,11.5427057819,115.363230372
off_to_on,7.71223843745,10.2927067468,4.98077783191,4.0729313588,0.949179530431,4.32918214171,9.03356654459,10.0958898148,3.85299997871,9.97668515779,6.65213898257,13.0019545667,12.5179340847,120.426882396
off_to_on,7.19787592153,10.1394548482,5.67761832083,4.70440443738,1.4052615998,5.0173142455,10.0740484263,11.4247723532,4.60566277113,10.8588832427,7.36703634308,13.5409865965,12.4837592559,115.313645449
off_to_on,6.1164142868,9.1985725839,6.0415634488,5.14965100146,1.97990599142,5.54698847864,10.5008480272,11.9981828516,5.17094848025,10.9744703238,7.62130347394,13.0428129797,11.4962695341,101.098178317
off_to_on,4.6724891189,7.6332070909,6.08763096584,5.3768308799,2.64664882061,5.91265498834,10.3607985562,11.9013497457,5.50954568717,10.4103855236,7.42639466126,11.6468780996,9.704021093,79.6998983187
off_to_on,3.09981323697,5.66226479699,5.84924467498,5.36654221375,3.3581830751,6.10572860631,9.7329733653,11.2606984865,5.59508137701,9.30730292894,6.82926113863,9.57064164306,7.32999555749,53.6398378534
off_to_on,1.62995811854,3.53230385994,5.37252734811,5.11429954565,4.051632579,6.11451634738,8.71603884525,10.2219079928,5.4172029623,7.83872463622,5.90584472025,7.08113510986,4.64512715754,25.7414923233
off_to_on,0.462090047871,1.48686539332,4.71021831905,4.63144185664,4.65583807169,5.92583432636,7.4156758545,8.92845247805,4.98307994157,6.18758869292,4.75171673268,4.4619348875,1.93657971878,-1.18793087588
off_to_on,-0.262407018894,-0.262859268851,3.91597106276,3.94433577644,5.09965121354,5.52799922151,5.9336115067,7.5035625426,4.31710307772,4.52347781643,3.47103976537,1.97969922294,-0.525371306233,-24.6584420008
off_to_on,-0.47714873832,-1.5623333063,3.03966659577,3.09198131816,5.32014886813,4.91463344284,4.3594170917,6.03787634877,3.45880040879,2.9833433745,2.16522608298,-0.14560494923,-2.517806649,-42.7464830453
off_to_on,-0.197627083159,-2.32994514456,2.12418451579,2.1223512173,5.26975013404,4.08857377312,2.7657164889,4.58409492574,2.45922802079,1.65810343328,0.922682941028,-1.76321005551,-3.88926123887,-54.2660240486
off_to_on,0.483054418339,-2.56331478209,1.20383420518,1.0879663757,4.92142431417,3.06514176536,1.20689199413,3.15884928329,1.37629436865,0.586612866985,-0.189131306471,-2.80421982938,-4.57453621121,-58.8455478413
off_to_on,1.40890571456,-2.33502739047,0.304398497739,0.0413034638194,4.27148233736,1.87412331092,-0.27914709034,1.75089342092,0.269610900065,-0.242542081754,-1.12844328725,-3.28319641709,-4.59848909856,-56.9068720048
off_to_on,2.3841691389,-1.77857836179,-0.555484401362,-0.96936690772,3.33979733928,0.559998630274,-1.66698069228,0.333813812161,-0.80449015552,-0.882057942961,-1.88023882976,-3.28887689301,-4.06847208429,-49.5537030712
off_to_on,3.20166326581,-1.06659164053,-1.36204753172,-1.90320097908,2.16764760045,-0.819769227999,-2.93857732835,-1.11917757722,-1.79717375689,-1.41134620644,-2.45371979999,-2.96564237016,-3.15653667075,-38.3882882609
off_to_on,3.67251002919,-0.384366587254,-2.10377402871,-2.72871448046,0.813665889476,-2.19828185264,-4.07823594734,-2.62103897436,-2.67008666692,-1.91872675666,-2.8766738151,-2.48853174814,-2.07382520839,-25.2822821908
off_to_on,3.65324881795,0.0976129460818,-2.76898268138,-3.42429226458,-0.651426207561,-3.50420173447,-5.06860289639,-4.15978344331,-3.39683154378,-2.48311901238,-3.18769357653,-2.03536875498,-1.04055491423,-12.1321259579
off_to_on,3.06672254845,0.248484638904,-3.34410129617,-3.97736729732,-2.15054489081,-4.66758762886,-5.88851198886,-5.69240283604,-3.96287972607,-3.15796987858,-3.42745428429,-1.75985740467,-0.255539275339,-0.629473662985
off_to_on,1.91398281073,-0.00418519102938,-3.81296531346,-4.38256748255,-3.60572397894,-5.6258295002,-6.51300558697,-7.14494179803,-4.36409843097,-3.95977465324,-3.6303579523,-1.76926654536,0.130784982699,7.92635940526
off_to_on,0.275684108113,-0.664059812742,-4.15728870888,-4.63928125118,-4.9427917538,-6.32892539768,-6.91546580558,-8.41883298435,-4.60426078241,-4.86283740166,-3.81776985947,-2.10960881711,0.0363515176633,12.7536918364
off_to_on,-1.69714712611,-1.66545305438,-4.35824664637,-4.74916770119,-6.09491217397,-6.74343774178,-7.0713877365,-9.40259689752,-4.69203761097,-5.80098528067,-3.99381803168,-2.76012773526,-0.542050361509,13.6401981743
off_to_on,-3.80166747561,-2.8824800358,-4.39891600099,-4.71412276528,-7.00491003321,-6.85465909259,-6.96302419652,-9.98714541447,-4.63801973523,-6.67593141636,-4.14433861389,-3.63759313603,-1.52905897765,10.9196070593
off_to_on,-5.80856965588,-4.14659337768,-4.26716932886,-4.5351120443,-7.62653406969,-6.66677694384,-6.58397046455,-10.0823361529,-4.45228237478,-7.37101879233,-4.23908390696,-4.60955226019,-2.78162899329,5.38143700547
off_to_on,-7.49083741252,-5.27004476267,-3.95853190233,-4.21211005299,-7.92498701377,-6.20111293668,-5.94276081967,-9.63219300394,-4.14288671127,-7.76830906861,-4.23683202635,-5.51447637476,-4.10897350721,-1.87020331871
off_to_on,-8.65210197436,-6.0720396018,-3.47850199008,-3.7451724715,-7.87713712901,-5.49278000071,-5.06471275686,-8.6263700584,-3.71553676058,-7.76651225878,-4.0926151592,-6.18584328025,-5.29883624303,-9.58724485654
off_to_on,-9.15091049326,-6.40402440986,-2.84390219947,-3.1364473749,-7.47180862747,-4.58631040802,-3.9915501414,-7.10596667979,-3.17440105277,-7.29714874306,-3.76597650075,-6.47672166875,-6.14656982559,-16.5537946809
off_to_on,-8.91781902017,-6.17070136944,-2.08296368668,-2.39273970494,-6.71043393702,-3.53092716908,-2.7787130515,-5.16262075143,-2.52390118996,-6.33660463844,-3.22901671629,-6.2814309318,-6.48316819411,-21.7446494645
off_to_on,-7.96322639805,-5.3439756188,-1.23402509696,-1.52811269295,-5.60816260486,-2.37614350107,-1.49065673019,-2.93079252079,-1.77109577797,-4.91234197466,-2.47301916141,-5.55132900411,-6.19858416786,-24.446788267
off_to_on,-6.37512786755,-3.96801966001,-0.342927459963,-0.565963523605,-4.19529711056,-1.16828002336,-0.194789331974,-0.574155872331,-0.928175693572,-3.10236645671,-1.51264375593,-4.30265547936,-5.2573265871,-24.3304775969
off_to_on,-4.30731221516,-2.15484882,0.540624345723,0.459941778854,-2.51871027397,0.0516965127923,1.04505980778,1.73211243768,-0.0145527876615,-1.02801437995,-0.387022638426,-2.61549836293,-3.70438099385,-21.4640443138
off_to_on,-1.95976996687,-0.0710753314347,1.36731104978,1.50585225123,-0.642737610107,1.24885495247,2.17465366336,3.8207421819,0.941925641176,1.15894229927,0.842473133893,-0.624196616943,-1.66078877775,-16.2741456243
off_to_on,0.445943980942,2.08232655373,2.09254426446,2.52000543075,1.35103152686,2.39360945773,3.15392238429,5.55081351591,1.90497750314,3.2930916033,2.09755990983,1.49933787604,0.690422881445,-9.46045754938
off_to_on,2.69306795769,4.09451143457,2.6803721787,3.44611421211,3.36559483411,3.46000673109,3.95940063072,6.82270129525,2.83125865897,5.21377971768,3.29079377497,3.56695760673,3.12602528965,-1.87922423742
off_to_on,4.59426719653,5.77025741885,3.10646472776,4.22804217232,5.29237675284,4.4235190424,4.5841697371,7.58748780934,3.67305172446,6.7826316194,4.33474673701,5.39727623701,5.40918667841,5.58657724511
off_to_on,6.01144754914,6.95313777107,3.35981815608,4.81513063171,7.01716783026,5.25895728655,5.03535380517,7.8496111512,4.38200553181,7.8978877085,5.15141154588,6.83717850766,7.31741999578,12.1519139244
off_to_on,6.86840744636,7.54341440955,3.44298840437,5.16750034496,8.42793279046,5.93909638046,5.32962525373,7.66249447415,4.91348618247,8.5037478852,5.68061436241,7.77899229355,8.66831745357,17.2323783983
off_to_on,7.15503135466,7.50845689887,3.37085643454,5.26060609183,9.42390867993,6.43447776515,5.48751454186,7.11791315596,5.23098943605,8.59365860283,5.88635781056,8.17115710174,9.33988102012,20.5118822506
off_to_on,6.92291123726,6.88452581909,3.16811889469,5.08838395084,9.92510780504,6.71463990607,5.52753339492,6.33075247936,5.31003277535,8.20735608097,5.76030661998,8.02119220722,9.28303878757,21.9677396403
off_to_on,6.27343651742,5.76992502314,2.86585781167,4.66449323414,9.88112941168,6.75076105597,5.46117249595,5.42145537209,5.14099915151,7.42235981285,5.32202118052,7.3908761621,8.52501256985,21.851637493
off_to_on,5.34035926446,4.31066267818,2.49765145927,4.02139711835,9.27811309963,6.51942197246,5.28971033282,4.49876274554,4.73053562518,6.34136625235,4.61598405337,6.38463703146,7.16342100193,20.6310210143
off_to_on,4.26949236744,2.68071332076,2.09573123217,3.20731454953,8.14276117597,6.00695525761,5.00348490419,3.64526415446,4.10129972958,5.07751534466,3.70588840569,5.13306551824,5.35219814732,18.9005923189
off_to_on,3.19845516466,1.05961835236,1.68766204214,2.28136984331,6.54261818418,5.21368359064,4.58387585168,2.90781796706,3.29006652996,3.73972098622,2.66700650345,3.77407581638,3.28142119743,17.2773011834
off_to_on,2.23922231969,-0.389578435785,1.29393237875,1.30752255022,4.58219989615,4.15729148395,4.00778330389,2.29413795697,2.34442770311,2.42014566083,1.57768369849,2.43447220821,1.1538425279,16.293999052
off_to_on,1.46569608246,-1.53921448236,0.926699733224,0.34804018154,2.39506392562,2.87463849183,3.25394442883,1.77589259961,1.31849857169,1.18548403311,0.511080041088,1.21451014066,-0.838772304513,16.3066900999
off_to_on,0.907700066032,-2.31039303332,0.589769206633,-0.542647770757,0.132444933316,1.42150163196,2.31007237233,1.29766791036,0.268173158838,0.0730699685426,-0.47179887782,0.177504358085,-2.53651511689,17.4281684467
off_to_on,0.551812566184,-2.67937109367,0.279712736885,-1.32291777525,-2.05043475262,-0.129991710136,1.17959616507,0.790254550423,-0.753486583748,-0.90795989628,-1.32696202112,-0.654278628106,-3.82693567936,19.4971312145
off_to_on,0.348465544708,-2.67644500494,-0.0121120804929,-1.9671010162,-4.00889584835,-1.69615025088,-0.113236212369,0.186069333918,-1.70017898438,-1.77100357184,-2.02969136636,-1.29717483076,-4.65370781055,22.0871275936
off_to_on,0.223874302382,-2.37784943674,-0.296990816472,-2.46642097128,-5.62249418214,-3.18829864179,-1.52094532954,-0.565791804525,-2.53517478955,-2.54306868466,-2.57408903951,-1.79783115291,-5.01769457562,24.5545651195
off_to_on,0.0947509453416,-1.89209583548,-0.5861266064,-2.82763616909,-6.80621173978,-4.52043310404,-2.97378808775,-1.48730091459,-3.2327535676,-3.25428712737,-2.97018549427,-2.22061634852,-4.97078465835,26.1200808721
off_to_on,-0.116530361874,-1.3428546181,-0.888148776488,-3.06962844678,-7.51772641943,-5.61703459104,-4.38430130381,-2.56403211315,-3.77821075997,-3.92775624841,-3.23920776756,-2.63286966016,-4.60380719377,25.9734695212
off_to_on,-0.468579779654,-0.850847471011,-1.20717990877,-3.21847005752,-7.75978568754,-6.42004582858,-5.65506434908,-3.74371963905,-4.16658876371,-4.57147429726,-3.40783323096,-3.09037473801,-4.03054075394,23.3894888038
off_to_on,-0.991317107424,-0.51722507551,-1.54167893094,-3.30172230023,-7.577307102,-6.89408538181,-6.68879779212,-4.94113615751,-4.40046240321,-5.17373920236,-3.50235154436,-3.62533656872,-3.37022698967,17.8405150965
off_to_on,-1.68119319128,-0.410575348671,-1.88414791811,-3.34283125856,-7.04950370876,-7.02917693676,-7.39949794925,-6.04859989625,-4.48723005641,-5.70276917239,-3.54361666584,-4.23869263255,-2.73104147506,9.09228984542
off_to_on,-2.50172885818,-0.559098908654,-2.2216587628,-3.35647500456,-6.27799512821,-6.84059043977,-7.72306908763,-6.95053596092,-4.43640933995,-6.11058094747,-3.54350329093,-4.89788129314,-2.19667575528,-2.72920742686
off_to_on,-3.38897736044,-0.948699756873,-2.53704355732,-3.34558124318,-5.37242382554,-6.36578093253,-7.62590044514,-7.53987446624,-4.2574047912,-6.34044320753,-3.50331772039,-5.54033246994,-1.8176052353,-17.1086482043
off_to_on,-4.26080496469,-1.52688937681,-2.81051615272,-3.30049280352,-4.4354691797,-5.65881609654,-7.1100562192,-7.7337658147,-3.95811071857,-6.33662338305,-3.41429487606,-6.08206955448,-1.60785428435,-33.1549025819
off_to_on,-5.02838014287,-2.21161436753,-3.02146187029,-3.20044414704,-3.54928049234,-4.78304559365,-6.21417949797,-7.48617981763,-3.54455271039,-6.05476099068,-3.25999041842,-6.43004856602,-1.54724137637,-49.6576675692
off_to_on,-5.6080321123,-2.90349982778,-3.15014947894,-3.01716958566,-2.76520658249,-3.80302946851,-5.00979865913,-6.7954193148,-3.02158191337,-5.47109024865,-3.02009791736,-6.49632204303,-1.58831549148,-65.1830983651
off_to_on,-5.9317065618,-3.49963196505,-3.17917771842,-2.7201422103,-2.09829337041,-2.77686691451,-3.59338410918,-5.70535136192,-2.39444717283,-4.58891583497,-2.67502566149,-6.21187633377,-1.66658833398,-78.2002728034
off_to_on,-5.95458562624,-3.90692297355,-3.09455421141,-2.28268822928,-1.52739798307,-1.7500275344,-2.07513733495,-4.30012279917,-1.67091124122,-3.4411884781,-2.21048170467,-5.53808030911,-1.71230366921,-87.227008999
off_to_on,-5.65898412732,-4.05330429083,-2.88639936489,-1.68807196537,-1.00100633172,-0.751584990235,-0.566006203401,-2.69313449257,-0.863473441337,-2.08866007349,-1.6213473279,-4.47407960469,-1.66190397247,-90.981316392
off_to_on,-5.05428825744,-3.89543463615,-2.54935229171,-0.93462499974,-0.448040875864,0.206588277194,0.835271729615,-1.0119440005,0.00877128173393,-0.613819127859,-0.914258205101,-3.05910609496,-1.46755054981,-88.5237780615
off_to_on,-4.17335565753,-3.42220762021,-2.08281254182,-0.0391036988182,0.207784506188,1.12754148418,2.05324662516,0.618590266514,0.91906285343,0.888499981577,-0.108533100795,-1.36944553593,-1.10348011712,-79.3765171918
off_to_on,-3.06634051435,-2.65400141485,-1.49116851393,0.962311424185,1.03206162933,2.02422533965,3.04332914139,2.09232198046,1.83300794489,2.32238873393,0.764645701489,0.489403209927,-0.568559853902,-63.6060668243
off_to_on,-1.79325802544,-1.63822727921,-0.784136448451,2.01564441529,2.06453532422,2.91250912104,3.79471085577,3.33450143353,2.70985841656,3.60225191366,1.66463071724,2.394156492,0.114963624029,-41.8603143655
off_to_on,-0.416707750591,-0.442213830836,0.0227328341898,3.05329019734,3.30699079491,3.80334707681,4.32815130053,4.3091538686,3.50498781086,4.66251130306,2.5448918086,4.21705818618,0.905939331688,-15.3535169456
off_to_on,1.00397462677,0.855255655602,0.907416311785,4.00027422565,4.71614470612,4.69538831831,4.68891305197,5.01999996947,4.17332630202,5.46408654692,3.35723704101,5.83916265951,1.75097816253,14.2021088393
off_to_on,2.41623947558,2.17238592718,1.840789657,4.78186360435,6.20289287662,5.56932158229,4.93587339144,5.50478786712,4.67335541206,5.99663060441,4.05606835052,7.16176267537,2.59202578684,44.7148787301
off_to_on,3.77514521886,3.4315993425,2.78623512791,5.33158843749,7.63844507185,6.38505142831,5.12845978995,5.82396587917,4.97116120648,6.27618946424,4.60210917525,8.11449966526,3.37353402472,73.8740880561
off_to_on,5.04168603735,4.56471429168,3.69976913877,5.59865951763,8.86694791372,7.08243578285,5.31344895671,6.04555910525,5.04401460225,6.3387139802,4.96516844068,8.65926819489,4.04811799707,99.339975955
off_to_on,6.17936324061,5.51570028608,4.53097463976,5.55383320894,9.72328287668,7.58582185563,5.51376773848,6.22877233132,4.88299493136,6.23055341361,5.1256937705,8.78971628451,4.57995701143,118.947329159
off_to_on,7.15012633986,6.24112888703,5.22496506398,5.19296809087,10.0539521403,7.81206366763,5.72121243397,6.40911708908,4.49429141091,5.9975899127,5.07508200979,8.5268365095,4.9456721158,130.904647456
off_to_on,7.91098204745,6.70886977171,5.72548848305,4.53781408818,9.73844018234,7.68116618059,5.8944815189,6.58769955457,3.89898943241,5.67494032175,4.81491931682,7.91172912299,5.13290699798,133.970122296
off_to_on,8.41249030608,6.89587666376,5.97911463818,3.63393264529,8.70824265671,7.12825539253,5.96316115493,6.72672156821,3.13134934016,5.27910608923,4.35548150485,6.99700637193,5.13726541332,127.586721843
off_to_on,8.60004333994,6.78602004956,5.94025534691,2.54601671764,6.96092375167,6.11528765703,5.83741619243,6.75231803069,2.23578517724,4.80409223329,3.71391211,5.8384384371,4.95854515401,111.961471906
off_to_on,8.41830613772,6.36883663219,5.57657914448,1.35121113149,4.56708833548,4.64083189731,5.42224798955,6.56471366311,1.26292055126,4.22239115172,2.91249796879,4.48829978646,4.59730845784,88.0784504807
off_to_on,7.8185690224,5.63979830639,4.87422560255,0.131282009657,1.6689774472,2.74640523873,4.63441606981,6.05449977126,0.265213762929,3.49092905908,1.97738208913,2.99148824003,4.05272695781,57.6407776864
off_to_on,6.76813093909,4.60230650952,3.84213339593,-1.03538475395,-1.52958441149,0.51820513582,3.41960154443,5.12278737159,-0.707311604132,2.56122473108,0.93790800557,1.38492527659,3.32235562814,22.9435199667
off_to_on,5.26030640761,3.27116450012,2.51479188339,-2.08097822449,-4.78107249282,-1.91638149075,1.76720296547,3.70225103493,-1.6107268894,1.39224647979,-0.1733930564,-0.2998988058,2.40407551891,-13.3136632772
off_to_on,3.3233270428,1.6768545044,0.952820730089,-2.95380623685,-7.81813991538,-4.39746535889,-0.279658733865,1.77576128025,-2.4098487202,-0.0361007229904,-1.32034596457,-2.03198813034,1.2999726784,-48.2588112774
off_to_on,1.02635786839,-0.130370543637,-0.759025918189,-3.62158869953,-10.3808429607,-6.74583937381,-2.62080166988,-0.610524972022,-3.07963633215,-1.71117376069,-2.46253168773,-3.77475019377,0.0214741539558,-79.1042124001
off_to_on,-1.51890445296,-2.07771599061,-2.51656159247,-4.07222051303,-12.2440699162,-8.77935288552,-5.10334069284,-3.3420950654,-3.60528016472,-3.57968084214,-3.55495641678,-5.48025562935,-1.40527848394,-103.402963139
off_to_on,-4.16206083061,-4.06946748843,-4.20338371932,-4.31207330178,-13.2419211579,-10.3307049897,-7.53373739468,-6.24046090082,-3.98111522651,-5.54540071038,-4.54840682777,-7.08535676244,-2.93500850451,-119.28002338
off_to_on,-6.72354205907,-5.98980581177,-5.70007810301,-4.36223434484,-13.2860884539,-11.2646347319,-9.69645676879,-9.07710909926,-4.20865525033,-7.47350509932,-5.39082394874,-8.51090518571,-4.50099161982,-125.613611598
off_to_on,-9.0092791047,-7.70916616347,-6.89458712485,-4.25334469783,-12.3759593314,-11.4924848178,-11.3771670844,-11.5957591053,-4.2941556367,-9.2014992548,-6.02986518276,-9.66480869584,-6.01576335435,-122.146796454
off_to_on,-10.8291232351,-9.09393500042,-7.69269709167,-4.01986086707,-10.5991466722,-10.9823706912,-12.3876877764,-13.540410747,-4.24615869947,-10.5557818284,-6.41660741537,-10.4490130361,-7.37533664716,-109.515550804
off_to_on,-12.0169506827,-10.0186943017,-8.02749520162,-3.69460484421,-8.12229363276,-9.76367102739,-12.5895159418,-14.6857181981,-4.07344817945,-11.371908855,-6.5101089716,-10.7697879209,-8.46688327391,-89.1877851072
off_to_on,-12.4499667095,-10.379709816,-7.86667971788,-3.30438288627,-5.17318436807,-7.92521045498,-11.9128096733,-14.8657403808,-3.78374685215,-11.5159690596,-6.28233466109,-10.5500544198,-9.17926196515,-63.3171600977
off_to_on,-12.0646388126,-10.108003599,-7.21678375123,-2.86725909425,-2.01625126556,-5.60724896393,-10.3681826143,-13.9971714835,-3.3833469318,-10.9041503678,-5.72279492664,-9.74201929477,-9.41526148509,-34.5248065779
off_to_on,-10.8669685569,-9.18021872354,-6.12367987435,-2.39179608178,1.07562686616,-2.98813053551,-8.04951540268,-12.093756242,-2.87769114534,-9.51766240898,-4.84218791241,-8.33816425607,-9.10405227558,-5.63039426494
off_to_on,-8.93543304032,-7.62561016627,-4.66913744703,-1.87826322927,3.84969792152,-0.267081372445,-5.12710879109,-9.26967124489,-2.27275014761,-7.41067976471,-3.67437953174,-6.37871938813,-8.21217012161,20.6397160703
off_to_on,-6.41581556924,-5.5278769495,-2.96365978135,-1.32150938193,6.09891809568,2.3548965622,-1.83174293844,-5.73106455985,-1.57689655036,-4.7098271552,-2.27621215062,-3.95412952479,-6.75142454259,41.9360635703
off_to_on,-3.50818402858,-3.02114407058,-1.13627754479,-0.714945625705,7.68157580885,4.69387696099,1.56859964879,-1.75649990857,-0.802880100796,-1.60482792077,-0.724880699332,-1.2016529213,-4.78243256071,56.5302024754
off_to_on,-0.447321923683,-0.280132276998,0.677640511729,-0.0549208984973,8.53275910544,6.59950042322,4.79660793759,2.33146656274,0.0305224600569,1.66887050217,0.887076196981,1.70397420088,-2.41298836205,63.4916385366
off_to_on,2.52117721538,2.49468013201,2.3492309992,0.655278813472,8.6665061223,7.96731581361,7.59474001638,6.20014715745,0.897570602404,4.85356470339,2.45879621709,4.56503067832,0.208876715537,62.7767109973
off_to_on,5.16630886061,5.09540498763,3.76819420314,1.40251207167,8.16865312015,8.74571607693,9.7519788101,9.54184078726,1.76562134526,7.69605019313,3.88945469024,7.1789180473,2.90660062603,55.218023864
off_to_on,7.29544409181,7.32658187701,4.85269382942,2.16247815271,7.18155371158,8.93689493846,11.1249598414,12.1058377155,2.59632283071,9.97434770972,5.08707722625,9.35776688998,5.49038393831,42.4141517286
off_to_on,8.77355121014,9.02421771385,5.55596461612,2.90031172531,5.88283666329,8.59199125361,11.6509042785,13.7233411291,3.34789808566,11.5210257887,5.97680472464,10.9471368617,7.77439787429,26.5308553654
off_to_on,9.53545666748,10.0717694915,5.8688822045,3.57306865098,4.46107071671,7.80128964034,11.3508549666,14.3222757913,3.97830258848,12.240149934,6.50763499527,11.8414499537,9.59395744367,10.0355860982
off_to_on,9.58964003631,10.4111419928,5.81823930477,4.1338061104,3.09152511562,6.68091879226,10.3229797098,13.930304462,4.44889353493,12.1157093136,6.65682206176,11.9941758782,10.8206888245,-4.60465715265
off_to_on,9.01316298765,10.0473649307,5.46100221677,4.53671538676,1.91511650178,5.35786014647,8.72700247458,12.665946476,4.728154081,11.2104969555,6.4313869098,11.421453917,11.3739596455,-15.2270962535
off_to_on,7.93850126668,9.04639198224,4.87532382377,4.74260095862,1.02313454169,3.95520488543,6.76197192576,10.7192705818,4.79498712552,9.65569315593,5.86654673219,10.198695415,11.2273083186,-20.2426166589
off_to_on,6.53411931707,7.52632339737,4.14949691877,4.72393861285,0.449510860565,2.57946579186,4.64041991187,8.32499573431,4.64113525014,7.63264537852,5.02125581157,8.45064358827,10.4092388319,-18.8382678475
off_to_on,4.98144941468,5.64317775308,3.37028982713,4.468796222,0.171352406153,1.31138626636,2.56238436546,5.73178945688,4.27239048085,5.34937511129,3.97141653631,6.33623858383,8.99845237701,-11.0875230294
off_to_on,3.45139455982,3.57301444454,2.61217823796,3.98305535598,0.117342623891,0.201147017601,0.692714329959,3.17197192765,3.70841405206,3.01502502336,2.80161220777,4.03031953625,7.11426888469,2.04647355821
off_to_on,2.08350133324,1.49264431674,1.92886063199,3.29060670746,0.182571606131,-0.731770104817,-0.855450796767,0.835660129658,2.98116943991,0.815690446562,1.59639248921,1.70459204452,4.90355648262,18.8169008239
off_to_on,0.970540450775,-0.438697495584,1.34813380037,2.43147264345,0.247527752376,-1.49445150054,-2.02905457501,-1.14735000169,2.13215478051,-1.10517551759,0.432181747499,-0.489659021289,2.52585961971,36.8976401208
off_to_on,0.150445669135,-2.09452196027,0.87074886949,1.45809505269,0.198476293977,-2.11311358953,-2.83455723288,-2.71585435087,1.20877672879,-2.65929732405,-0.629225747293,-2.43493263958,0.138550541879,53.6631337213
off_to_on,-0.393493121061,-3.39137360551,0.473326430873,0.430274856891,-0.0536723623988,-2.62372713318,-3.32891288508,-3.87502190682,0.260314316572,-3.81761696314,-1.54485669195,-4.05538117239,-2.11628738137,66.5112928988
off_to_on,-0.724459997525,-4.29319854212,0.114853839933,-0.590574249264,-0.558628468198,-3.06227443378,-3.60376170683,-4.68457490176,-0.666036604542,-4.60564738329,-2.29204212646,-5.31844381893,-4.12187728527,73.1912420995
off_to_on,-0.937368793426,-4.8095693783,-0.254206502247,-1.54711548203,-1.31812141758,-3.45617678023,-3.7654414588,-5.23962911119,-1.52857553437,-5.09120620291,-2.8671818756,-6.23042354283,-5.79280965193,72.0964206557
off_to_on,-1.1398642334,-4.98836495784,-0.681534227934,-2.39100640936,-2.28454164981,-3.81817469024,-3.91396870031,-5.64747308025,-2.29359581536,-5.36668500394,-3.28215434505,-6.82706714339,-7.07688636676,62.4870552305
off_to_on,-1.43196721251,-4.90421906517,-1.20281463757,-3.08645601886,-3.36691169976,-4.14350957134,-4.12422309826,-6.00408214034,-2.93674171106,-5.52876992992,-3.55905138695,-7.1609155707,-7.95308366145,44.6139202486
off_to_on,-1.88742250256,-4.64456550306,-1.83334728809,-3.61204144172,-4.44325183166,-4.41071009172,-4.43217933612,-6.37410887123,-3.44316699746,-5.65885136061,-3.72412821281,-7.28762146203,-8.42647611887,19.7267251656
off_to_on,-2.53952577931,-4.29535014012,-2.56266814353,-3.9606614268,-5.37752983931,-4.58571245487,-4.82822931201,-6.77747932593,-3.80661087521,-5.80719818921,-3.80193425849,-7.25352007711,-8.52131044654,-10.0359365008
off_to_on,-3.37352682378,-3.9284262473,-3.35304610991,-4.13777124545,-6.03877141694,-4.62852636756,-5.25854137946,-7.18464908488,-4.02765626199,-5.98335119143,-3.81052331012,-7.08647660484,-8.27356009535,-41.8640015018
off_to_on,-4.32672667533,-3.59231340862,-4.14218275615,-4.15828247661,-6.31963775386,-4.501273631,-5.63417473517,-7.52119815181,-4.11153921819,-6.15420352154,-3.7584421892,-6.79145882117,-7.72421850713,-72.5766744467
off_to_on,-5.29625097403,-3.30743837482,-4.84985926894,-4.04268658565,-6.15188324539,-4.17622925661,-5.84648635156,-7.68097573531,-4.06592167094,-6.25003212828,-3.64389839149,-6.35148815645,-6.9143219392,-98.9722510698
off_to_on,-6.15335455756,-3.06627565354,-5.38771684394,-3.81304874313,-5.51656881694,-3.64251261462,-5.78640874707,-7.54566515871,-3.89901737337,-6.17750202555,-3.45615441006,-5.73372720548,-5.88228392425,-118.186626982
off_to_on,-6.7621567333,-2.8380716775,-5.67090270814,-3.48950667543,-4.44765675707,-2.91030296323,-5.36458070511,-7.00762623676,-3.61837790134,-5.83757195993,-3.17884380434,-4.89960587177,-4.66364459178,-128.018743777
off_to_on,-7.00006031478,-2.57717662323,-5.63002739426,-3.08780210687,-3.02854360864,-2.01185316419,-4.52916804058,-5.99233910884,-3.23051545692,-5.14544944406,-2.79460464759,-3.81720448999,-3.29287025109,-127.184882295
off_to_on,-6.77686291697,-2.2335163377,-5.22180107901,-2.61818730313,-1.3820673433,-0.999085212062,-3.27853976964,-4.47679981373,-2.74138338397,-4.04939347832,-2.29022450044,-2.47370750171,-1.80645861793,-115.471951622
off_to_on,-6.04975985013,-1.7634801413,-4.4368608776,-2.08581547434,0.3445827435,0.0619071772292,-1.66671904226,-2.50080041554,-2.15757845701,-2.54529866574,-1.66141696195,-0.885680473431,-0.246373408078,-93.771750743
off_to_on,-4.83203445564,-1.13950875486,-3.30364974597,-1.49247737377,1.9979429807,1.09863339924,0.199402485839,-0.169078753451,-1.48799598185,-0.684596637544,-0.916412953905,0.894781002227,1.33721634011,-63.9921622558
off_to_on,-3.19414515538,-0.356930254118,-1.88771560358,-0.839324860339,3.43684897331,2.04107906623,2.17087091119,2.35631192457,-0.745580502809,1.42600831984,-0.0777390010817,2.77937175967,2.8847777429,-28.8556730919
off_to_on,-1.25701430105,0.562937050064,-0.286398705923,-0.130058914513,4.54898732544,2.83031742069,4.07407722509,4.87258897924,0.0512146337209,3.63323788121,0.818160479993,4.64887409679,4.32842208242,8.39124828173
off_to_on,0.821558381494,1.57379518407,1.38051469466,0.626020973574,5.26322888385,3.42552965212,5.73234398287,7.15959507396,0.877611669384,5.75337328158,1.72346423539,6.36400668502,5.59525758137,44.3241429423
off_to_on,2.86545819832,2.60923543605,2.98305667795,1.4116951376,5.55617001535,3.8083431758,6.9886205051,9.00668840499,1.70259721201,7.59369328043,2.58335158782,7.78051291687,6.61282021227,75.7020119457
off_to_on,4.7011996715,3.59063778496,4.39475242938,2.20071271397,5.45214135675,3.98380813166,7.72601645646,10.239363514,2.49003909918,8.97626075023,3.34160773121,8.76646966471,7.31590932692,99.8030033609
off_to_on,6.17834523308,4.43684802931,5.50600586642,2.95819198204,5.01686679006,3.97785447721,7.8831873383,10.7417879199,3.20079487509,9.76070816314,3.94666270591,9.21938279356,7.65385604369,114.696726242
off_to_on,7.18660176983,5.0741624973,6.2355309811,3.64260196361,4.34583830445,3.8316256871,7.46231300769,10.4719959808,3.79561637543,9.86277048815,4.35720764476,9.08058073975,7.59711226254,119.423619939
off_to_on,7.66731266632,5.44516654601,6.53842040544,4.20915032681,3.54919126563,3.59358504089,6.5284767985,9.46752300019,4.23852147646,9.265892351,4.54660150137,8.34473583017,7.14209171785,114.063228317
off_to_on,7.61790158488,5.51521191158,6.40988665647,4.6141803201,2.73532024139,3.31065857033,5.20050222661,7.84063626982,4.50021684852,8.02421095739,4.50547063829,7.06299213755,6.31341615598,99.6865880414
off_to_on,7.08886042373,5.27573372505,5.88428205632,4.82001282181,1.99560692736,3.01985560829,3.63455247272,5.76382203719,4.56112822857,6.25644405041,4.24218150742,5.33906544487,5.16308470001,78.2015772031
off_to_on,6.17395280588,4.74412847057,5.0296222733,4.79958348908,1.39242429895,2.74176230141,2.00285961722,3.44759497002,4.41363194392,4.1315117084,3.78118869995,3.31867541794,3.76653425145,52.1123202264
off_to_on,4.99526609036,3.96045260612,3.9384210108,4.54023238258,0.952068346792,2.47703746569,0.470667091443,1.11379975359,4.06317812655,1.84789960278,3.1595758092,1.17362499611,2.21602080204,24.2231471208
off_to_on,3.68544805441,2.98167086586,2.71611002049,4.04610354864,0.663526981902,2.20658940421,-0.825268676974,-1.03179182892,3.5281382825,-0.390345386085,2.42236528372,-0.917385369317,0.612150983817,-2.67691537207
off_to_on,2.36980760118,1.87450991154,1.46860612088,3.33879053146,0.483132987311,1.89554126496,-1.79350486406,-2.82371555763,2.83837686367,-2.39763941923,1.61733556808,-2.78864705494,-0.94533471028,-26.1121492692
off_to_on,1.15089535815,0.708108762651,0.290657251829,2.4560949726,0.344288463537,1.50048548552,-2.39765229771,-4.15451379715,2.03271382256,-4.02759472866,0.790124888204,-4.30537165562,-2.36632497218,-44.1671586876
off_to_on,0.0977245730051,-0.452413194039,-0.74355469541,1.44901610538,0.170714718729,0.978976739535,-2.65767518799,-4.98353589721,1.15558844696,-5.18767380609,-0.01968379415,-5.37727895289,-3.5775319292,-55.6567956771
off_to_on,-0.758980997,-1.55060753642,-1.58643140951,0.377323201586,-0.108822283158,0.299803511961,-2.64266490976,-5.33582927752,0.253333391928,-5.8459074941,-0.78099731569,-5.96609684683,-4.52726161317,-60.2031704174
off_to_on,-1.42509611229,-2.541098721,-2.21897650991,-0.695752374359,-0.546564735581,-0.547621972614,-2.45628893546,-5.29160665969,-0.629492154767,-6.02901589159,-1.47193910455,-6.08611075755,-5.18729580524,-58.2156948197
off_to_on,-1.93556091319,-3.38972576672,-2.64877415921,-1.7090597285,-1.16472485009,-1.54636954153,-2.21722825182,-4.96818856098,-1.45328491908,-5.81255184127,-2.07894412069,-5.79790637723,-5.55187612786,-50.7818873301
off_to_on,-2.34251320658,-4.07185142265,-2.90445899567,-2.60864090006,-1.94905619282,-2.64891178932,-2.03768544712,-4.4974366453,-2.18575331553,-5.30485848638,-2.59458095163,-5.19642661295,-5.63422710483,-39.4869901831
off_to_on,-2.70125094417,-4.56960659668,-3.02769128068,-3.35182128945,-2.84806046726,-3.7786702119,-2.00335190667,-4.00234244188,-2.80323335052,-4.62751780853,-3.01467540062,-4.39526454602,-5.46141696002,-26.1880967482
off_to_on,-3.05649695248,-4.86901786034,-3.06397706003,-3.90983892956,-3.77803469039,-4.83634227328,-2.15801505319,-3.57651727262,-3.29090676312,-3.8954326661,-3.3354207237,-3.50961909999,-5.06857307201,-12.7726171166
off_to_on,-3.43134908343,-4.95795242201,-3.05379697168,-4.26878322264,-4.63331390181,-5.71045493992,-2.49529071142,-3.26982901156,-3.64202150382,-3.19966124239,-3.55114648736,-2.64047354776,-4.49350714046,-0.931162304332
off_to_on,-3.82082881571,-4.82560882309,-3.02541342772,-4.428849438,-5.30030714696,-6.29092753447,-2.95888060287,-3.08242441919,-3.85635171232,-2.59561553502,-3.65328199134,-1.86230023648,-3.77265747538,8.02855564881
off_to_on,-4.19116397676,-4.46391808688,-2.99043027277,-4.40214257097,-5.67336690175,-6.48391008964,-3.45143974684,-2.96801535558,-3.93823036529,-2.09832454624,-3.63081328048,-1.21598890551,-2.93894832087,13.3068181907
off_to_on,-4.48497862904,-3.87076364518,-2.94272702769,-4.20945055578,-5.67025287198,-6.22587345926,-3.85078920714,-2.84580192148,-3.89452910698,-1.6852906783,-3.47223443405,-0.707835400216,-2.0217525212,14.6647509621
off_to_on,-4.63156665006,-3.05446235633,-2.86084954912,-3.87652624752,-5.24498891288,-5.49491486877,-4.03103045541,-2.61898863495,-3.73294133505,-1.30621800323,-3.16868490484,-0.31444663147,-1.04869711246,12.4033759079
off_to_on,-4.56055281306,-2.03856151848,-2.71339127673,-3.43045420755,-4.39626036346,-4.31751974596,-3.88529070927,-2.19674334226,-3.46085047229,-0.897760085735,-2.71769921492,0.00753042293524,-0.0486517985629,7.27665186583
off_to_on,-4.21663600563,-0.86577609023,-2.46642612123,-2.89662872257,-3.17010826393,-2.76955893385,-3.34648627833,-1.51582992482,-3.08494807949,-0.400602210084,-2.12682166006,0.30871419136,0.945038267466,0.354120205497
off_to_on,-3.57286375187,0.400129437653,-2.09172641677,-2.29674300699,-1.6564601888,-0.971033123262,-2.40269517944,-0.558119577844,-2.61162512044,0.224207556414,-1.41629134176,0.633650211478,1.89211646302,-7.14583082105
off_to_on,-2.64005013673,1.6754989095,-1.5743667578,-1.64800675539,0.0201156943415,0.925092585883,-1.10446218059,0.639233625123,-2.04801686574,0.982664109095,-0.620096355784,1.00923622776,2.74471696399,-14.0286664902
off_to_on,-1.4705022983,2.86154357333,-0.918397722592,-0.963598763486,1.71425491345,2.74880445492,0.437479387019,1.98305752862,-1.40346025289,1.8413429298,0.215078236463,1.43700934246,3.4490537107,-19.2796930876
off_to_on,-0.155084602487,3.85268618093,-0.149561234717,-0.254155588879,3.27643424069,4.33185840278,2.06415899184,3.33349489355,-0.691041214091,2.72847024585,1.03315701397,1.89073724051,3.94970052886,-22.1842692461
off_to_on,1.18630449246,4.54782897419,0.685530121728,0.470072557357,4.57022201722,5.5271922144,3.58860101477,4.52240989169,0.0711186018557,3.54267975314,1.77400489101,2.31985206051,4.19614329425,-22.3990434167
off_to_on,2.41969965098,4.86327689795,1.5237804902,1.19687578249,5.48788687259,6.22645976102,4.82162720674,5.37835387657,0.859156586433,4.16830504481,2.38018111686,2.65825710954,4.15077076826,-19.9682524272
off_to_on,3.41541253656,4.74558329832,2.29303339373,1.91005617865,5.96234570874,6.37338020088,5.59956719242,5.75439860557,1.64358318706,4.49490072543,2.80421613029,2.83708428666,3.79705828694,-15.2867014979
off_to_on,4.06705260387,4.18235465427,2.92150562408,2.5881739452,5.97394064901,5.97107427756,5.80978105115,5.55450194903,2.39032913057,4.43786598916,3.0153356121,2.79923906768,3.14646866016,-9.01797831035
off_to_on,4.30829100393,3.20911199561,3.34786060874,3.20439993632,5.55124372663,5.08229592756,5.4100616351,4.75407855178,3.06269418831,3.9567022123,3.00454191986,2.51316547938,2.24260247827,-1.98186625986
off_to_on,4.12464603982,1.91067536295,3.53040153574,3.72762724747,4.76589702647,3.8223667586,4.43873802776,3.41112630882,3.62402076544,3.06764002965,2.78712271297,1.98327075982,1.16139434548,4.97180665656
off_to_on,3.55820834284,0.416182099831,3.45394249317,4.12478786532,3.72229178702,2.34556578952,3.01355115458,1.66552829063,4.04079343831,1.84810752053,2.4019757552,1.25488048752,0.00664984922881,11.0848256222
off_to_on,2.70420699561,-1.11230733159,3.13321298929,4.36411799156,2.54356297705,0.826591071652,1.31894865397,-0.274162990645,4.28578520685,0.431682713926,1.90757742097,0.412395609604,-1.0991121937,15.7912979554
off_to_on,1.69950597303,-2.49673420322,2.61212822518,4.41894823403,1.35583515832,-0.560623795668,-0.416872680309,-2.15528604786,4.3408452982,-1.00638627719,1.37491925939,-0.429620913887,-2.02780124951,18.784643678
off_to_on,0.704340796244,-3.56373571461,1.95884799917,4.27148810463,0.272841305709,-1.66407892358,-1.95230448862,-3.71403133434,4.19895628796,-2.27151487015,0.878218675358,-1.14154578214,-2.66145994459,20.0432771585
off_to_on,-0.12032390692,-4.16665136059,1.25716685266,3.91604490643,-0.617071927555,-2.37217192592,-3.06599339175,-4.71244908743,3.86527568369,-3.17706867987,0.484601409541,-1.5980290435,-2.90855517255,19.8133109296
off_to_on,-0.636678733904,-4.20598811045,0.595336851859,3.36117046942,-1.25992044551,-2.62708610487,-3.58915309725,-4.97432519436,3.35700636843,-3.57276307674,0.244189979566,-1.69878142063,-2.71857386419,18.5524730719
off_to_on,-0.751738536497,-3.6454729185,0.0538391726608,2.63035847769,-1.64000448366,-2.43136820957,-3.43185913552,-4.41464686176,2.70209260808,-3.36993677098,0.182068826694,-1.38760634856,-2.09265682708,16.8444775504
off_to_on,-0.43351635413,-2.52120834894,-0.306172413911,1.7611023323,-1.77846320673,-1.84682914421,-2.59935156765,-3.05804653303,1.93689146786,-2.55968439435,0.293416841556,-0.666513350846,-1.08836078926,15.2967172757
off_to_on,0.280913476472,-0.942209368788,-0.452069046397,0.802342103606,-1.72689624108,-0.985888853857,-1.19564665858,-1.04297442065,1.10310119378,-1.22067048075,0.54271623296,0.397713810668,0.182691056643,14.4359704905
off_to_on,1.28701032409,0.918349690761,-0.385177887233,-0.189452015981,-1.55715190969,0.00353586929409,0.586544688106,1.38976644848,0.244319420182,0.485202520529,0.867409239452,1.67615136553,1.56460357696,14.6166795162
off_to_on,2.42423814629,2.84064162514,-0.141528838563,-1.15512452362,-1.34887531707,0.957664040733,2.48870591216,3.92333742688,-0.597357894588,2.32941669607,1.18575215474,2.98995332294,2.87375827497,15.9543847772
off_to_on,3.49622407705,4.58270711115,0.212366819846,-2.03804252214,-1.1766656858,1.71847989237,4.21950815029,6.20312833273,-1.38430598494,4.04411560983,1.40799648605,4.1311281928,3.92042396527,18.2934048147
off_to_on,4.29713421847,5.90922007666,0.588296804563,-2.78904813975,-1.09868154625,2.15457699647,5.49371593481,7.8822765341,-2.08559282217,5.35677844402,1.44950023541,4.88951716536,4.5329070174,21.2133383425
off_to_on,4.64082423383,6.62102072228,0.888623425524,-3.37056754331,-1.14826304484,2.17853971863,6.07186873036,8.66855840911,-2.67825313315,6.0278133054,1.24401904712,5.0825560809,4.58118839632,24.0740147102
off_to_on,4.38880727244,6.58166677749,1.02046676423,-3.759399111,-1.32965771744,1.75863811818,5.79534561836,8.36635962127,-3.14755667919,5.88596195517,0.755306158203,4.58378314771,3.9968580902,26.0937386598
off_to_on,3.47310782983,5.73747137898,0.909890927544,-3.94787793191,-1.61831377864,0.923354220289,4.61190244705,6.90787749349,-3.48635696631,4.85648011591,-0.0147107158608,3.3459830168,2.78645582111,26.4516128227
off_to_on,1.91064646599,4.1281934137,0.514127476747,-3.94332785772,-1.96553555049,-0.241811037938,2.58793852819,4.36897241761,-3.69373242326,2.97784377445,-1.02251708196,1.41536911881,1.03604128099,24.4018114067
off_to_on,-0.193141706943,1.88664605062,-0.169922093682,-3.76593575289,-2.30667579428,-1.60480345082,-0.0945453688494,0.967009522838,-3.77322096997,0.404143398163,-2.1851092017,-1.06574891185,-1.09413143219,19.3862009929
off_to_on,-2.65234985861,-0.773143506711,-1.10220941242,-3.4453841994,-2.57155663223,-3.00337514679,-3.15632007163,-2.95963447701,-3.73098821551,-2.60781578137,-3.38762074821,-3.8689143142,-3.3847021028,11.1317667204
off_to_on,-5.21964088783,-3.57813084632,-2.2017507728,-3.01673090689,-2.69552988363,-4.26521512993,-6.25259920487,-6.9882936177,-3.5742543986,-5.7256362678,-4.49573955993,-6.701520946,-5.58062165321,-0.279157747377
off_to_on,-7.61412400062,-6.22635732809,-3.3544446786,-2.51610496786,-2.62954373106,-5.22926687068,-9.01416173064,-10.6606614634,-3.31023912107,-8.57963416297,-5.37148982926,-9.23863003465,-7.42029877919,-14.3750506504
off_to_on,-9.55466696934,-8.42143529216,-4.42566322237,-1.9767915492,-2.34777542837,-5.76552910232,-11.0927569825,-13.5374030831,-2.94577719819,-10.8076811032,-5.89044014913,-11.1609530013,-8.66701036962,-30.3031968278
off_to_on,-10.7944470031,-9.90725202267,-5.27613237647,-1.42619881671,-1.85178486433,-5.79086837384,-12.2049784424,-15.2518758586,-2.4876308052,-12.1009182747,-5.95813052571,-12.1943667627,-9.13867311134,-46.8806641707
off_to_on,-11.1522985891,-10.4986169077,-5.77914947652,-0.884056265493,-1.17067843113,-5.27892107726,-12.1689185827,-15.5561126981,-1.94339307114,-12.2444055777,-5.52353603937,-12.1459377051,-8.73213984406,-62.6849928576
off_to_on,-10.5367645533,-10.1040156196,-5.83696989976,-0.362003904967,-0.357365422609,-4.26295138368,-10.9288029819,-14.3531359637,-1.32276701212,-11.1472916495,-4.58770594599,-10.9317005628,-7.43876075165,-76.1772071826
off_to_on,-8.95965508563,-8.73757617707,-5.3942604225,0.135475253532,0.518447647985,-2.83145184963,-8.56433246755,-11.7113759535,-0.638928809093,-8.85835108184,-3.20629812041,-8.59234920875,-5.34897374768,-85.8463051508
off_to_on,-6.53725088222,-6.51867663449,-4.44685753319,0.609021376992,1.37942705133,-1.11720173492,-5.28343357848,-7.85923973957,0.0903422061809,-5.56457347157,-1.48549639796,-5.29444018531,-2.64503496595,-90.3618951945
off_to_on,-3.47887337024,-3.65916240004,-3.04464175227,1.06165887074,2.15056976081,0.718688165549,-1.39926588792,-3.16041246604,0.842058543976,-1.57266316593,0.428348212925,-1.3165042306,0.41750332349,-88.7203486529
off_to_on,-0.0641743303616,-0.439692362339,-1.28806939752,1.49584118566,2.76850385036,2.50562089099,2.70562889292,1.92706460238,1.58816149244,2.7244716415,2.36418678838,2.97862702257,3.53751035834,-80.3698418478
off_to_on,3.38804973897,2.82190624508,0.681304115826,1.91078707028,3.18883074514,4.08282361417,6.62349974035,6.90283511551,2.29650483452,6.89219549623,4.14500302895,7.18219503472,6.4019242026,-65.3009940873
off_to_on,6.55563109599,5.80640269419,2.69522389628,2.30055952905,3.39054001603,5.31672047254,9.96829853649,11.2808989991,2.93265782065,10.5040965115,5.60750817005,10.8841002912,8.72125970497,-44.0923901707
off_to_on,9.1489371863,8.22868299285,4.576359965,2.6532164594,3.37699108331,6.11430121684,12.4194450014,14.6438964541,3.46236759691,13.1911901024,6.62035487982,13.7183690096,10.2626232325,-17.9039350966
off_to_on,10.9424753826,9.86873027493,6.15706329328,2.95119256588,3.17347985695,6.43101359758,13.7570309444,16.6883771653,3.85440948244,14.6842406613,7.09859860072,15.4040052012,10.8761579274,11.5845365166
off_to_on,11.798362155,10.5943890759,7.29703259937,3.17288098183,2.82191251343,6.27247360339,13.8842305147,17.2556754036,4.08347948716,14.8439576557,7.01260999572,15.7762725549,10.5116520629,42.2870219411
off_to_on,11.6789181999,10.3733206131,7.89782439435,3.29519816015,2.37351865014,5.69011723,12.8344038278,16.3449409004,4.13275891484,13.6753985541,6.39035631181,14.804626711,9.22328002012,71.8700794509
off_to_on,10.6470889162,9.2729572224,7.91255016736,3.29676383629,1.88079316014,4.7716967481,10.7624045944,14.1072187449,3.99581002752,11.3249582076,5.31282705416,12.5951779342,7.16194896303,97.9444540886
off_to_on,8.85497303683,7.44879484655,7.34971735734,3.16123091042,1.38992578909,3.62815010057,7.9216517069,10.8219097529,3.67754070785,8.06056661498,3.90326483203,9.37748982658,4.55629618351,118.273669956
off_to_on,6.5222571336,5.12281970596,6.27090268201,2.8802714628,0.934853853976,2.37876501501,4.63032378813,6.8591485136,3.19409353156,4.2378534415,2.31165598392,5.47745951305,1.68481418436,130.981026928
off_to_on,3.90759856855,2.55505829811,4.78270112193,2.45576831702,0.533780588837,1.13667512699,1.23134644726,2.63331962113,2.57165359269,0.25678409099,0.696530547821,1.27972593443,-1.15731675526,134.735383727
off_to_on,1.27681279417,0.0120162523823,3.02407392256,1.90086973327,0.188587677912,-0.00344091778089,-1.94850287828,-1.44611990673,1.84430958181,-3.48559986062,-0.793562320911,-2.81570390953,-3.69248067339,128.896864933
off_to_on,-1.12799705024,-2.26396248798,1.15073881866,1.23972182581,-0.112898332622,-0.974000306124,-4.63512241089,-5.02024083317,1.05122366036,-6.64033522916,-2.03654038111,-6.43729237214,-5.691682073,113.606280288
off_to_on,-3.1145048381,-4.08065242782,-0.681457203607,0.505876217927,-0.392276934639,-1.73863347255,-6.63477295935,-7.81712502727,0.233450191733,-8.94401500006,-2.94919214463,-9.28101331678,-6.99861361167,89.8064920035
off_to_on,-4.55833686598,-5.31420756924,-2.33219954095,-0.260447090457,-0.674437117176,-2.29159771591,-7.84980704428,-9.67513517939,-0.569220506927,-10.244170606,-3.4940440668,-11.1400686856,-7.543921329,59.1899160345
off_to_on,-5.41144015399,-5.91783757902,-3.68962781954,-1.01590563085,-0.980991487037,-2.65297912604,-8.28105570187,-10.5508095077,-1.32103415818,-10.5098472856,-3.68001183433,-11.9220392583,-7.34818596103,24.0733137849
off_to_on,-5.70010807237,-5.92034123479,-4.67916844655,-1.71794537434,-1.32440889531,-2.86074218519,-8.0173489461,-10.5113672235,-1.99236771218,-9.82668007752,-3.55700890408,-11.6519006305,-6.51364224614,-12.7916193377
off_to_on,-5.51353153707,-5.41529349764,-5.26750558509,-2.32858803354,-1.70384509489,-2.96107216829,-7.21437283898,-9.71386732212,-2.56096098676,-8.37782830026,-3.20549653821,-10.4611601462,-5.20612767391,-48.4563781881
off_to_on,-4.98497663372,-4.5428754656,-5.46156667695,-2.81762972777,-2.10338694863,-2.99861220145,-6.06642321094,-8.37474894755,-3.01222664199,-6.41392934836,-2.7226178256,-8.56510533951,-3.6299902384,-80.0411533075
off_to_on,-4.26858723974,-3.46721128707,-5.3030302345,-3.16487360329,-2.49303193952,-3.0081116874,-4.77542475076,-6.73457584678,-3.3387123253,-4.21655005817,-2.20697466169,-6.23157368486,-1.99952798923,-105.002407896
off_to_on,-3.51526148508,-2.35252455136,-4.85939589301,-3.36115724691,-2.83228338324,-3.0086983463,-3.52174777776,-5.02318002479,-3.53890440872,-2.06028024864,-1.74422742835,-3.7455793125,-0.510874513796,-121.375677063
off_to_on,-2.85100681632,-1.34140281441,-4.21302361854,-3.40810417705,-3.07582158747,-3.00151599758,-2.44087070615,-3.43002648027,-3.61564502395,-0.178557088351,-1.39551048064,-1.37445802051,0.681952469108,-127.96798545
off_to_on,-2.36066357345,-0.537984036677,-3.44970936674,-3.31670294557,-3.1803770643,-2.97091039106,-1.60889342689,-2.08358435972,-3.57447144412,1.2624384348,-1.19019432411,0.662105580427,1.48381908124,-124.478365633
off_to_on,-2.07899015184,0.00196354404757,-2.64830690953,-3.10497262288,-3.11173482041,-2.88878241195,-1.03847242294,-1.04196441565,-3.42217462957,2.17878418249,-1.12385790221,2.21366376058,1.86612941526,-111.531619569
off_to_on,-1.98996367047,0.273173738808,-1.87264869941,-2.79508799549,-2.85076833846,-2.7212459297,-0.685141080053,-0.295306953381,-3.16581494783,2.57136598507,-1.1615601731,3.20998338982,1.86475895715,-90.6191125369
off_to_on,-2.03393791869,0.315483503041,-1.16660776202,-2.4103961995,-2.39754199402,-2.43639580226,-0.462436281758,0.221354826703,-2.81233780261,2.51641358318,-1.24573135371,3.66071527323,1.56902865416,-63.9501638563
off_to_on,-2.12118928221,0.202218072799,-0.552642235581,-1.97275157488,-1.77280908761,-2.01185490401,-0.262997419851,0.607518763255,-2.3688157601,2.14611832687,-1.30735062424,3.64459638854,1.10370235985,-34.2274508116
off_to_on,-2.14952529182,0.0244948242964,-0.0336484758384,-1.50052928391,-1.01662464899,-1.44084183455,0.0179884769813,0.972696401022,-1.84322540855,1.6227157065,-1.27863035835,3.29037915527,0.606897782461,-4.36864491062
off_to_on,-2.0231418497,-0.125946920001,0.402509301374,-1.00756148668,-0.184227386129,-0.735765701762,0.460848278024,1.41212575914,-1.24556546935,1.11016883415,-1.10524764366,2.75266942939,0.207274843003,22.7968188482
off_to_on,-1.66985024998,-0.172711078272,0.776763279745,-0.503090473083,0.660242968809,0.0712347844685,1.10448605712,1.98664040264,-0.589053727316,0.747719943331,-0.756273155365,2.18635784945,0.0038494675211,44.8232602397
off_to_on,-1.05414743968,-0.0671487626049,1.11204732991,0.00732661556875,1.45130079533,0.930900334478,1.93706930207,2.70979109481,0.108884877807,0.629090637759,-0.230324553875,1.72329986842,0.0512896382475,59.9038762783
off_to_on,-0.184306520769,0.204500876436,1.42708807616,0.520173572544,2.12985950594,1.78220769033,2.89571110301,3.54404684823,0.826104026285,0.790101256434,0.44294271732,1.45436658153,0.352665438017,67.0564296493
off_to_on,0.887394991149,0.620058200746,1.73175415132,1.03191602909,2.65005675617,2.55965306614,3.87509352744,4.40639943871,1.5358935101,1.20611099603,1.20618863313,1.41904877792,0.860481532275,66.21759132
off_to_on,2.07115858251,1.12630346679,2.02462702085,1.53691442989,2.98419089686,3.20135661144,4.74358647879,5.18219432478,2.20790478221,1.79916528757,1.98204616618,1.60360088213,1.48558863879,58.233933663
off_to_on,3.25173634678,1.64879486558,2.29306289609,2.02569969405,3.12508540038,3.65677268926,5.36426936364,5.74473921154,2.8098206058,2.45330143271,2.68391274947,1.94743967266,2.11242866174,44.7491930716
off_to_on,4.30419302353,2.10486203749,2.51559887538,2.48394717387,3.08558522846,3.89286979098,5.61752677584,5.97738596302,3.3096242432,3.03531450799,3.22825522001,2.35634795261,2.61817822176,27.9994380293
off_to_on,5.11098977525,2.41761669224,2.6661809483,2.89237930297,2.89531874878,3.89789514042,5.4216671327,5.79446094131,3.67822131959,3.41758101572,3.54660203904,2.72013566154,2.89283958317,10.5387686529
off_to_on,5.57791015667,2.5287481501,2.71941209778,3.22768742174,2.5952656178,3.68222027183,4.74832979208,5.1576677139,3.89209937437,3.49936512894,3.59546149703,2.93189519059,2.85725233246,-5.07321367422
off_to_on,5.64660020133,2.4081388241,2.65587466132,3.46440900145,2.23099353221,3.27621387704,3.63024636892,4.08535169115,3.93568693214,3.22339782853,3.36272689571,2.90590915911,2.47636467765,-16.585802217
off_to_on,5.30205763304,2.05889047103,2.4665902957,3.57755001432,1.8456164278,2.72553646185,2.16007973449,2.65316866577,3.80309968918,2.58534926544,2.86965853041,2.59161774013,1.76584734961,-22.3361643589
off_to_on,4.57418561851,1.5171024006,2.15583788501,3.54562434607,1.47355539008,2.08462893173,0.480402557435,0.986052719934,3.49903277461,1.63496942347,2.16818729803,1.98175786246,0.791139897831,-21.4591425825
off_to_on,3.53340181008,0.846567477264,1.74182709984,3.35370950536,1.13604752557,1.40941741459,-1.23380468768,-0.757278429947,3.03866482814,0.468968135732,1.33396817335,1.11372915185,-0.34086268798,-14.0017647902
off_to_on,2.28113227436,0.129323121023,1.2550781624,2.99610052587,0.839068560692,0.750343382148,-2.79765336757,-2.40491628246,2.44656637338,-0.783055719399,0.456223072357,0.0642733273752,-1.496209828,-0.927307982372
off_to_on,0.936701626633,-0.546402720744,0.734731340169,2.47818413169,0.573954865896,0.146741308352,-4.0406333124,-3.79434595149,1.75473324571,-1.97732778238,-0.37413678787,-1.06147909118,-2.53224900993,15.993230731
off_to_on,-0.377437089968,-1.09896248115,0.223345330432,1.81724718818,0.320587927414,-0.376657367613,-4.82922528623,-4.79366246501,0.999977069997,-2.97633002413,-1.07639268376,-2.14477580377,-3.31726665804,34.3908754277
off_to_on,-1.55005801719,-1.46483946015,-0.239009015463,1.04206435909,0.0526032997509,-0.810674328884,-5.08463537333,-5.31832358006,0.220983003705,-3.66787085873,-1.59021584357,-3.0695426554,-3.74861103283,51.585839792
off_to_on,-2.49320314535,-1.60728781378,-0.62043141425,0.191261746891,-0.256232333316,-1.16008525541,-4.79316728993,-5.34107340051,-0.544620823254,-3.9800263713,-1.88276594163,-3.73782885748,-3.76675959131,64.9185907122
off_to_on,-3.15044630943,-1.52086765502,-0.901744892235,-0.689394461753,-0.625519834405,-1.43987535401,-4.00781918345,-4.89374398804,-1.26285191575,-3.88990265528,-1.95175164952,-4.08225523609,-3.36341867278,72.085427324
off_to_on,-3.50054318681,-1.23134053332,-1.07917392695,-1.55050294555,-1.06267385004,-1.67008711039,-2.8409509888,-4.06088605201,-1.90534956179,-3.42516793324,-1.82411840001,-4.07386594549,-2.58262745597,71.4380306667
off_to_on,-3.55633720353,-0.791107236508,-1.1646808617,-2.34294905695,-1.55925239205,-1.87020621431,-1.44913043223,-2.96639989319,-2.45056380221,-2.6584217213,-1.55067001688,-3.72452818142,-1.51484656998,62.2101761457
off_to_on,-3.35947112813,-0.271031323939,-1.18384525801,-3.02182027131,-2.08982560791,-2.05408310632,-0.0123470310603,-1.75534719806,-2.88409955593,-1.69553232128,-1.19751453828,-3.08384902314,-0.284995621543,44.6430573572
off_to_on,-2.97200620197,0.250001897596,-1.17154470026,-3.54989940735,-2.6136574793,-2.22627572038,1.28946922776,-0.573772834907,-3.19827883004,-0.659923121754,-0.835665346302,-2.23135718945,0.963778115496,19.9924981166
off_to_on,-2.46639928892,0.69616257712,-1.16603605702,-3.9003785791,-3.0790469572,-2.38044322238,2.29937549762,0.450437498666,-3.39109009099,0.324699321526,-0.530364162605,-1.26531757283,2.08827872458,-9.58467244466
off_to_on,-1.91539349848,1.00474477469,-1.20229280956,-4.05853800704,-3.42976650227,-2.5000631067,2.90269872043,1.22291186058,-3.46477003976,1.1505725302,-0.331691698958,-0.289925482926,2.96287663632,-41.2533269401
off_to_on,-1.38323891469,1.13381899428,-1.30558842885,-4.02226284127,-3.61270722299,-2.56134319475,3.04017545049,1.69229653796,-3.42429846199,1.73875170681,-0.267799585334,0.597275605839,3.494221537,-71.806878201
off_to_on,-0.919315622693,1.06650602219,-1.48630720905,-3.80141035523,-3.58564003855,-2.53782099029,2.71338246454,1.85283446223,-3.27607711384,2.04695692674,-0.341672890562,1.31609008326,3.63121525226,-98.0230100939
off_to_on,-0.554749876379,0.811481553134,-1.73681228239,-3.41617089258,-3.32396168011,-2.40584714906,1.98201672107,1.74006196521,-3.02701131113,2.07158655615,-0.531783381177,1.81122960341,3.3691484005,-117.026958052
off_to_on,-0.302082886411,0.399924683278,-2.03092607315,-2.89467225959,-2.8254194981,-2.14998598525,0.95373256099,1.42074201395,-2.68412706791,1.84403881447,-0.796404410477,2.056049361,2.74777033809,-126.619845935
off_to_on,-0.157560568138,-0.120339974864,-2.32621905755,-2.27014631962,-2.11208214146,-1.76736153776,-0.231750123776,0.97900972402,-2.25475138923,1.42236271301,-1.08081824937,2.05239190837,1.84391965813,-125.533547579
off_to_on,-0.105240389646,-0.692371172856,-2.56890836252,-1.57800137086,-1.22920466423,-1.27013497717,-1.42183235556,0.501215821123,-1.74717562047,0.879931186702,-1.3262359807,1.82703909335,0.760066172385,-113.582144227
off_to_on,-0.121912876899,-1.2579976343,-2.70079348952,-0.853123725073,-0.241071114989,-0.685594395572,-2.4707422901,0.0620422120965,-1.1716287824,0.293192929936,-1.4790279809,1.42570890848,-0.389396475648,-91.6922472351
off_to_on,-0.181832808607,-1.7647996406,-2.66735464597,-0.127672076527,0.775677824838,-0.0537252913601,-3.25706145211,-0.285873563919,-0.541324355082,-0.269432212659,-1.49885905012,0.905777344836,-1.49207773029,-61.8087592507
off_to_on,-0.260436246756,-2.17118380362,-2.42595220908,0.570460864815,1.74037140982,0.577451960816,-3.69683422825,-0.517267041104,0.12667986985,-0.755784802365,-1.36453227732,0.328932053336,-2.4498281405,-26.6873086977
off_to_on,-0.336540259497,-2.44896781189,-1.95302036087,1.21844962583,2.57719772809,1.15810977872,-3.75078967709,-0.633928605741,0.811049554412,-1.13420621731,-1.07673303395,-0.245211306273,-3.18777981032,10.4021741412
off_to_on,-0.392915321508,-2.58338989226,-1.24925117433,1.79863527546,3.22348669022,1.64345551593,-3.42514573892,-0.659155226267,1.48634950774,-1.39344574759,-0.657365896312,-0.763830256418,-3.65928345088,46.0260668571
off_to_on,-0.415507833919,-2.57094492417,-0.342004415552,2.29804904693,3.63630738714,2.00010124935,-2.76643257111,-0.6283135599,2.12391573764,-1.5386961799,-0.145713181844,-1.18366938497,-3.84653812347,76.9512184473
off_to_on,-0.391896890079,-2.41583891573,0.71547826976,2.70755214048,3.79653965409,2.21091033309,-1.8516160126,-0.577532859827,2.69340297559,-1.58491308257,0.40786946161,-1.47199877814,-3.75739521952,100.48100109
off_to_on,-0.309736442835,-2.12607740253,1.84807355846,3.02081628278,3.70993474209,2.27747671105,-0.775400416039,-0.532861964401,3.16487685132,-1.54903791639,0.949642038797,-1.60622928454,-3.41937854956,114.725541986
do_nothing,-0.155929094278,-1.71022253556,2.96560107834,3.23336704393,3.40509869477,2.21974256362,0.363138674942,-0.502125804177,3.51122630453,-1.44290361211,1.43029061469,-1.57286051667,-2.87231283705,118.776822576
do_nothing,0.0828991572074,-1.17566583876,3.971721079,3.34187670165,2.92875386161,2.07270082842,1.47252416394,-0.471218643998,3.71060914076,-1.26842814716,1.81161521959,-1.36647158191,-2.16104543448,112.771071825
do_nothing,0.418370203645,-0.528903399265,4.77388650471,3.3438326589,2.33899871776,1.88059453158,2.47778816633,-0.405755713434,3.74862179139,-1.01622840277,2.07106814679,-0.98932936263,-1.32957630411,97.8344727995
do_nothing,0.856914338498,0.222166618113,5.29319179416,3.23763131379,1.6975425918,1.6894421764,3.3253130267,-0.258007758068,3.61990711973,-0.668096128787,2.20349265013,-0.45191745638,-0.417518219756,75.921953298
do_nothing,1.39546282565,1.0643917604,5.47296685474,3.02306768619,1.0620051572,1.53902066234,3.98336893159,0.0219677574097,3.32897862007,-0.202990911094,2.21988730023,0.225660435259,0.540732017883,49.5710611595
do_nothing,2.01713842213,1.9748424762,5.28511379603,2.7021197083,0.479326945439,1.45557332175,4.43888492186,0.472936600337,2.89013642927,0.394539763587,2.14351754871,1.01180151023,1.51432117699,21.6021769714
do_nothing,2.68798677592,2.91676654715,4.73345555744,2.27987280423,-0.0188541006782,1.44645383045,4.69162512234,1.10931905412,2.32646619166,1.12517237142,2.0041335019,1.86172788066,2.47251035534,-5.19846103138
do_nothing,3.35577641713,3.83722231236,3.85372353532,1.76540208398,-0.418313477272,1.49766902639,4.74733852488,1.91085382896,1.66802923009,1.96679743462,1.83136140805,2.71683508463,3.38061670206,-28.3757777131
do_nothing,3.9516737706,4.66741351816,2.71020935147,1.17242919559,-0.721670626806,1.57487640912,4.61154756688,2.81738891535,0.949454698221,2.86957880337,1.64846656362,3.50585257104,4.19661745358,-46.0496157158
do_nothing,4.39519457391,5.32635498756,1.38949357406,0.519597611068,-0.945364267489,1.6278819159,4.28542819404,3.73036434571,0.207216767968,3.75557087187,1.46761638956,4.14838483897,4.86962008572,-57.0796242584
do_nothing,4.60230066808,5.72794562707,-0.0080063669961,-0.169740810332,-1.11474745851,1.59814444799,3.76475449631,4.5215142458,-0.523087710461,4.52368721573,1.28751523438,4.56102502765,5.3410753589,-61.1361928661
do_nothing,4.49593383397,5.7908998864,-1.37769481174,-0.868271234794,-1.25813398832,1.42830615913,3.04222157818,5.04812723119,-1.20915741056,5.05993061195,1.09387804889,4.66575565801,5.54909637918,-58.6742519267
do_nothing,4.01775217436,5.4503941921,-2.62057988456,-1.54596689593,-1.40075587008,1.07240702193,2.11273844769,5.17305218255,-1.82385044719,5.25186230856,0.862723181175,4.39985409619,5.43563223905,-50.8185469833
do_nothing,3.13945364465,4.66982536345,-3.65211926317,-2.17175356254,-1.5595754794,0.505267257129,0.980626440562,4.78670840175,-2.3463305706,5.00546070026,0.565973513021,3.72609260431,4.95563423235,-39.1791963116
do_nothing,1.87191233118,3.45084143951,-4.40921838978,-2.71544157063,-1.7397406307,-0.270435421773,-0.332814398087,3.8278138193,-2.76243872191,4.26193812245,0.178439695925,2.64174826928,4.08685318073,-25.6237588657
do_nothing,0.270461547358,1.83984800737,-4.85471985028,-3.14974450646,-1.93320235795,-1.2206037788,-1.78311089466,2.29948632528,-3.06434325143,3.01185703627,-0.315012150737,1.18487998286,2.83860991262,-12.035867835
do_nothing,-1.56496077166,-0.0704707942407,-4.97903951699,-3.45219082993,-2.11967516087,-2.28043262343,-3.29942291082,0.277833037677,-3.24961958229,1.30406884988,-0.913386808144,-0.56348085532,1.25784867071,-0.0904063477604
do_nothing,-3.49547224205,-2.14548009984,-4.79894697892,-3.60674479078,-2.26975950992,-3.35957169859,-4.78556310175,-2.08892731816,-3.31998060042,-0.752417278732,-1.5957324499,-2.48215005992,-0.568964780349,8.92859213535
do_nothing,-5.35460493585,-4.2188514846,-4.3538117733,-3.60498362024,-2.34971995199,-4.35128809963,-6.12578407964,-4.59148464096,-3.27991262751,-2.99461282999,-2.32039316726,-4.41792391666,-2.51902781494,14.2479896352
do_nothing,-6.96443007299,-6.10797034985,-3.69990431868,-3.44672450508,-2.32716678454,-5.14458754081,-7.19508695149,-6.97982751316,-3.13546431395,-5.21963091172,-3.02771179265,-6.19859823729,-4.44169451056,15.6531027563
do_nothing,-8.15475907311,-7.63290501885,-2.90352165773,-3.14005100271,-2.17675973524,-5.63779146527,-7.87299385895,-8.99082338787,-2.8933893396,-7.20535890968,-3.64601399832,-7.64970970292,-6.17171360196,13.462050077
do_nothing,-8.78316217603,-8.63671577288,-2.0337859892,-2.70074739841,-1.88505550221,-5.75180113707,-8.05903918433,-10.379655322,-2.56076654021,-8.73537539819,-4.10017270559,-8.61320748515,-7.54588569424,8.43540567003
do_nothing,-8.75325945564,-9.00453029605,-1.15593532212,-2.15120435032,-1.45375462523,-5.44125382731,-7.68778845651,-10.9510608563,-2.14512574399,-9.62501824763,-4.32161067574,-8.96584415473,-8.42120331934,1.63729933418
do_nothing,-8.0287943696,-8.67880963809,-0.325800849663,-1.51890436765,-0.900845140818,-4.70200006173,-6.7410742712,-10.5861517067,-1.65500961453,-9.74517852334,-4.25831974334,-8.63494135302,-8.69217624241,-5.73078214551
do_nothing,-6.64140812921,-7.6685944389,0.414033257187,-0.83462718619,-0.259453464012,-3.57377926804,-5.25537877568,-9.26102209707,-1.10081683343,-9.04054031864,-3.88340487512,-7.6093743316,-8.30499957413,-12.5001533156
do_nothing,-4.69075400332,-6.05121934008,1.03613509287,-0.130530819729,0.425450174186,-2.13758624097,-3.3228703922,-7.05433445762,-0.495713556855,-7.53960556057,-3.20081623741,-5.94412050317,-7.26651433911,-17.6867527437
do_nothing,-2.33653668571,-3.96592806623,1.52819664459,0.561736213325,1.10203339682,-0.507920074594,-1.08544242638,-4.14247768899,0.143622423213,-5.35486043058,-2.24729468091,-3.75747397211,-5.64650987455,-20.6061974518
do_nothing,0.216890721079,-1.59988676694,1.89130521613,1.21275073487,1.71757207595,1.17920535284,1.27791635903,-0.782534373422,0.796643281474,-2.67272115728,-1.09007549707,-1.22094391289,-3.57274871775,-20.9396565757
do_nothing,2.74173394332,0.83186924095,2.13693087423,1.7967444366,2.22457586158,2.78103050742,3.56910938447,2.7150594899,1.43912275074,0.265735410217,0.179502858642,1.4571941113,-1.21904494621,-18.7454031218
do_nothing,5.01130948408,3.11015939007,2.283160645,2.29266701964,2.58622279552,4.16375026013,5.59214026679,6.02085904262,2.04397877885,3.19099027539,1.4557427876,4.05287148997,1.21233678268,-14.4184053801
do_nothing,6.8249656508,5.03610072789,2.35074758118,2.68484113254,2.78036689082,5.21715294469,7.17485707671,8.82346869521,2.58270901242,5.83501144224,2.63044189838,6.34927006383,3.51190622004,-8.6070597779
do_nothing,8.03026750407,6.45315521066,2.35950498083,2.96320563791,2.80159664314,5.86633263679,8.18837479144,10.864612792,3.0273206694,7.96111479537,3.60528693316,8.15916523484,5.48521712719,-2.10130612404
do_nothing,8.53962656562,7.26393063235,2.32547445044,3.12317876309,2.66110761034,6.07898977092,8.56155292201,11.9677487695,3.35255076968,9.38995173959,4.30311168571,9.34384991156,6.9734214818,4.29067761493
do_nothing,8.33922863508,7.43954759045,2.2591499981,3.16520169501,2.38446567211,5.86742033566,8.28852514718,12.0565979206,3.53811504355,10.0183169758,4.67648101546,9.82634014871,7.8695426843,9.8594940136
do_nothing,7.48908791444,7.02036234133,2.16487199065,3.09404425814,2.00763333568,5.2850036986,7.42820011388,11.1613130512,3.57070328858,9.82842698768,4.71242629976,9.59729811111,8.12844950453,14.0894163701
do_nothing,6.11420430163,6.1079948573,2.04133850681,2.91796636535,1.57186699864,4.41773598396,6.09574818307,9.4116584135,3.44545908572,8.88660373714,4.43269561892,8.71305910558,7.76933976374,16.7191707849
do_nothing,4.38796776251,4.84979184294,1.88303881342,2.6478316048,1.11823560038,3.37201778039,4.44720043038,7.0183130193,3.16674009967,7.33172866156,3.8895171614,7.28618568174,6.87053598217,17.7618743943
do_nothing,2.50997843933,3.41788894292,1.68231071534,2.29626294005,0.682542015912,2.26039962012,2.6592512643,4.24497969584,2.74804344124,5.35520719194,3.15751396977,5.46994827212,5.5574157715,17.4832595259
do_nothing,0.681190436277,1.98577611903,1.43166985636,1.87691597135,0.291345942535,1.18724693668,0.907031449044,1.37516850273,2.21108605662,3.17530872841,2.32295781045,3.43891082806,3.98520413884,16.343004687
do_nothing,-0.92036399923,0.705606533979,1.1260566563,1.40392397661,-0.0403944798115,0.236271735613,-0.657098132327,-1.32184064808,1.58413757525,1.00946197326,1.47192771518,1.36827112908,2.31901559222,14.90878303
do_nothing,-2.16010638243,-0.310629892404,0.764690384296,0.891542945594,-0.309796818523,-0.538407178294,-1.92083552412,-3.62135077211,0.899796983799,-0.951709687489,0.679087525554,-0.585297591488,0.713858029523,13.7559584071
do_nothing,-2.9610616075,-1.00350902204,0.352299172546,0.353996386377,-0.524662525327,-1.11652996026,-2.82298582304,-5.36603959866,0.192471455632,-2.5651601506,-0.00130691896303,-2.29884697048,-0.702746951073,13.3673600795
do_nothing,-3.3098731912,-1.37051983897,-0.10040474559,-0.194508498244,-0.700511151764,-1.51081683718,-3.35685551122,-6.47847580375,-0.504153725024,-3.74836524394,-0.540902561569,-3.69257234715,-1.84330146412,14.0471515313
do_nothing,-3.25405746101,-1.46188879855,-0.577029167615,-0.739646718303,-0.856556776661,-1.76121210452,-3.56569769671,-6.96216680499,-1.15937488476,-4.4829877778,-0.938508739392,-4.7325097815,-2.66653737717,15.8606240326
do_nothing,-2.89107811602,-1.36864658158,-1.05651270996,-1.26679600517,-1.01128589712,-1.92521576098,-3.53107412904,-6.89160303041,-1.74722798957,-4.80918350948,-1.21702660034,-5.42657374585,-3.1767388407,18.6081488299
do_nothing,-2.35094464043,-1.20482789354,-1.51469250757,-1.76089495348,-1.17833901688,-2.06582501947,-3.35603376964,-6.39331595688,-2.24759212426,-4.81183049829,-1.4166109859,-5.81497276092,-3.41662988115,21.8370208582
do_nothing,-1.774916813,-1.08654853122,-1.92622953677,-2.20642186649,-1.36333698177,-2.23894637523,-3.14576107254,-5.62119027363,-2.64658250839,-4.60111658036,-1.58520231562,-5.9568434499,-3.45519484054,24.8901066464
do_nothing,-1.29340975717,-1.11116002056,-2.26667266969,-2.58756596932,-1.56213886947,-2.48220977188,-2.98870715534,-4.72999071894,-2.93627786743,-4.29069485556,-1.76797124404,-5.91545696559,-3.37250426187,26.9856554063
do_nothing,-1.00626798829,-1.33967145402,-2.51445087675,-2.88864008648,-1.76079526956,-2.80690888868,-2.94112843478,-3.85118349374,-3.11391650168,-3.97690385938,-1.99739222439,-5.74450040725,-3.24400809361,27.3188622262
do_nothing,-0.968203127522,-1.78514872929,-2.65261362164,-3.09475185112,-1.93720282136,-3.194334313,-3.01743095256,-3.07464223909,-3.18076064324,-3.72230859698,-2.28557546353,-5.47769896076,-3.12677715923,25.1731797127
do_nothing,-1.18142231877,-2.40891945648,-2.67018465352,-3.19271214238,-2.06421097598,-3.59712353811,-3.18783045023,-2.43881115752,-3.14086047901,-3.54609000214,-2.62015054296,-5.1234590349,-3.04982248968,20.0281957938
do_nothing,-1.59642284675,-3.12525288758,-2.56304563813,-3.17211907226,-2.11371694007,-3.94551413849,-3.38371842923,-1.93051228569,-2.99994359562,-3.42270500238,-2.96445705881,-4.66536803753,-3.00995453876,11.6511975275
do_nothing,-2.120743334,-3.81391545604,-2.3343157165,-3.02651860664,-2.06113997974,-4.15765883647,-3.50993842768,-1.49404294085,-2.76461439261,-3.288924263,-3.26213648495,-4.06841139721,-2.97376111104,0.161229460655
do_nothing,-2.63431245036,-4.33880869074,-1.99423536752,-2.75451415344,-1.88961137269,-4.15254738186,-3.46210106501,-1.047747205,-2.44197847301,-3.05802784733,-3.44553284629,-3.28981105768,-2.88531627134,-13.942699392
do_nothing,-3.00908630555,-4.56995311835,-1.55959466159,-2.36068202874,-1.59325771529,-3.8636686283,-3.1462625042,-0.505082683643,-2.03972068737,-2.63880012531,-3.44670042117,-2.29259914343,-2.67832702451,-29.7939320042
do_nothing,-3.13005089987,-4.40553028484,-1.05276655772,-1.85615121318,-1.1790855926,-3.25139727912,-2.49788126484,0.203485013085,-1.56657637749,-1.95618604913,-3.20937707232,-1.05953906704,-2.29071559447,-46.211558373
do_nothing,-2.91447339059,-3.79062061342,-0.500416996727,-1.25872593951,-0.667174900485,-2.31222716968,-1.49701776977,1.11154051178,-1.03305774008,-0.970169809781,-2.70008042688,0.395125302933,-1.67922923128,-61.7912851059
do_nothing,-2.32654217331,-2.72969432433,0.0680316740785,-0.592467758869,-0.089127096862,-1.083380118,-0.177247193928,2.20403225978,-0.452243510089,0.310338617638,-1.91655509317,2.01834800966,-0.831628603561,-75.0263541497
do_nothing,-1.38520327386,-1.29077125789,0.62210531997,0.113293337128,0.515040947787,0.358058334994,1.3733508279,3.41314988765,0.159581045585,1.82110401585,-0.892136744897,3.71701697844,0.225661767637,-84.4479326054
do_nothing,-0.163982885841,0.399656045342,1.13206954687,0.825486887445,1.10115142421,1.90157284009,3.01960987161,4.6237154108,0.782632022276,3.44503826374,0.304841823324,5.363478984,1.42589870556,-88.7721739055
do_nothing,1.21725822345,2.17051018532,1.57072226119,1.50927281411,1.62570555432,3.4145405067,4.5943414284,5.68752279329,1.39383214122,5.02359091212,1.57677489034,6.80754406477,2.66692864763,-87.040042042
do_nothing,2.60752911074,3.82710835937,1.91509435444,2.13030067608,2.05066904852,4.75706516076,5.91913120152,6.44461850038,1.96758763449,6.37573555282,2.80706471166,7.89363076329,3.82223451263,-78.7360917888
do_nothing,3.84475774532,5.17644618894,2.14795802032,2.65705870865,2.34757489859,5.79843269925,6.82805625557,6.74836741299,2.47712078942,7.32203310964,3.87370472108,8.48085119044,4.75674849487,-63.8737195227
do_nothing,4.77786808272,6.05331332242,2.25903721077,3.06309079031,2.50041322318,6.43303591913,7.19101058621,6.49047016248,2.8962508871,7.71040817039,4.66439464377,8.46327182587,5.34529369514,-43.0368671125
do_nothing,5.28776775514,6.34356911768,2.2458161469,3.3288615701,2.50694696411,6.59364878459,6.93329616407,5.62199580305,3.20143800958,7.43990943886,5.09114346584,7.78741277926,5.49105119121,-17.3716193774
do_nothing,5.30427225044,6.00122873212,2.11385323261,3.44307874182,2.37830825351,6.26025221902,6.04858694076,4.16698806562,3.37385119097,6.47889952772,5.10232825207,6.46429976819,5.14135294501,11.4746497962
do_nothing,4.81655702477,5.05681365834,1.8765316428,3.40333468484,2.1369630393,5.46318419255,4.60324494161,2.22622549441,3.40120309419,4.87481369308,4.69047738673,4.57403264953,4.29839393772,41.4642606066
do_nothing,3.87563516354,3.61559746898,1.55421484688,3.21600178754,1.81334918489,4.28012961129,2.73113953691,-0.0298820686143,3.27911119652,2.753747196,3.89459742384,2.26179705325,3.02310240102,70.3232616082
do_nothing,2.58847505916,1.84576444627,1.17282361586,2.8953982512,1.44166653013,2.82727972487,0.619428576682,-2.37870059362,3.01179819154,0.309520202186,2.79658874439,-0.274609913837,1.43131752602,95.7269963719
do_nothing,1.1045408714,-0.0420982083397,0.761906508961,2.46232372191,1.05540362397,1.24576563809,-1.51298159232,-4.57100096445,2.61202455652,-2.21666855846,1.51209631453,-2.80450215441,-0.317526250502,115.501978863
do_nothing,-0.40340735768,-1.82153259592,0.352332340397,1.94213590219,0.683211735303,-0.314899750836,-3.44154961674,-6.36148707122,2.10024248054,-4.56356008258,0.176906195522,-5.08901295379,-2.03796675619,127.826286659
do_nothing,-1.76162546865,-3.27925866406,-0.0262165910129,1.36259053715,0.345679992157,-1.71423864232,-4.96338212142,-7.54012234242,1.50305871447,-6.48068102898,-1.06938139583,-6.90779077801,-3.54020266945,131.409595601
do_nothing,-2.81776124201,-4.24284431736,-0.347735067265,0.751690463865,0.0534347747377,-2.83683889323,-5.92209340874,-7.95995676991,0.85118022157,-7.75873429866,-2.10028354443,-8.08434309811,-4.65316223047,125.634618547
do_nothing,-3.46025672025,-4.60325249314,-0.592137194292,0.135780952007,-0.19319990445,-3.60494229079,-6.22695511986,-7.55757116165,0.177078446378,-8.25555623244,-2.81775118875,-8.50679515331,-5.24596671818,110.644175624
do_nothing,-3.63217192278,-4.32918958183,-0.74702577148,-0.461911176601,-0.40296104806,-3.98599987078,-5.86380710778,-6.36322510999,-0.487363081369,-7.91421165573,-3.16385397535,-8.1413737815,-5.24496108044,87.3623409955
do_nothing,-3.33761675862,-3.47127646679,-0.808797387259,-1.022163318,-0.591022574559,-3.99428167411,-4.89630431835,-4.49918258731,-1.11296095502,-6.77081565689,-3.1272954674,-7.03683518475,-4.64402472003,57.4438172455
do_nothing,-2.64001297285,-2.15543713762,-0.782948604018,-1.53002024716,-0.775377691888,-3.68642690871,-3.4573689888,-2.16629665712,-1.67488994966,-4.95101584049,-2.743910271,-5.31920737863,-3.50672686517,23.1524303834
do_nothing,-1.65253806121,-0.566360214948,-0.683523757139,-1.97447717233,-0.972755926328,-3.1516309447,-1.73202249489,0.379466151782,-2.15374400324,-2.65555474424,-2.09109989594,-3.17745699491,-1.95993858121,-12.8231986369
do_nothing,-0.522168377584,1.07676645147,-0.531730552468,-2.3477086197,-1.19467203223,-2.49787785684,0.0660938279846,2.85751718805,-2.53594541332,-0.136754775084,-1.27697422162,-0.841848246941,-0.179616217274,-47.601892092
do_nothing,0.590409381585,2.54900467211,-0.353836186552,-2.64403378989,-1.44419428791,-1.83614489212,1.72138962136,4.99617050514,-2.8135396097,2.33106626747,-0.425668953286,1.44231674828,1.62951901415,-78.3693624064
do_nothing,1.5322266534,3.64905674516,-0.178534040761,-2.85884518142,-1.71393233948,-1.26475861021,3.04269185983,6.56483683438,-2.98349508059,4.48348811178,0.339189710487,3.44232487299,3.25789796788,-102.640169858
do_nothing,2.17788445673,4.22538494281,-0.0340298806049,-2.98772891874,-1.98559061667,-0.856038080998,3.88591200544,7.40074428598,-3.04668841307,6.09618496422,0.910671377252,4.96366367582,4.51565683469,-118.495868643
do_nothing,2.44519293041,4.19560868749,0.0548702138242,-3.02597124858,-2.23123147697,-0.64702568623,4.17017817093,7.42683113602,-3.00678447529,7.00971282467,1.21224623138,5.87054760117,5.2548007301,-124.774128422
do_nothing,2.30460595565,3.55665817483,0.0693843411567,-2.96858017494,-2.4161675354,-0.635527606456,3.88552724167,6.65869132961,-2.86921778225,7.14594899085,1.20723298082,6.09899538711,5.3862771721,-121.187537526
do_nothing,1.78136169041,2.38442917951,-0.00116758704047,-2.81086306746,-2.50318281391,-0.781943887829,3.09141888279,5.19995568322,-2.64044457304,6.51439042323,0.902807984704,5.66109462561,4.88992800373,-108.35727675
do_nothing,0.950272547221,0.823109092698,-0.158038729436,-2.54950284183,-2.45759461531,-1.01656402829,1.90657052069,3.22704565515,-2.32757257972,5.20786803716,0.348139062387,4.64024130623,3.81620756379,-87.7553336149
do_nothing,-0.0758789322407,-0.934268698462,-0.392613977854,-2.18398147297,-2.25253594608,-1.25124831516,0.491747390266,0.965622979157,-1.93839730896,3.3886016952,-0.372998814586,3.17828833861,2.27959961957,-61.55856378
do_nothing,-1.1625313174,-2.67132660584,-0.68689708292,-1.71812457108,-1.87377905188,-1.39381074003,-0.971979506354,-1.33791330807,-1.48179260427,1.26672002794,-1.15403617918,1.4565239299,0.44469681742,-32.4276610634
do_nothing,-2.17174370724,-4.1764123678,-1.01488188694,-1.16149673273,-1.32344301122,-1.36304829477,-2.30648653219,-3.44599624562,-0.968332349732,-0.92575686046,-1.88018823904,-0.326899548652,-1.49320980096,-3.23284950225
do_nothing,-2.98020466475,-5.2694617599,-1.34468139994,-0.530372508694,-0.622031797487,-1.10227383426,-3.35826238105,-5.15666092289,-0.410970772989,-2.96203239888,-2.4438028201,-1.98013767729,-3.33055838563,23.2452113542
do_nothing,-3.49440587037,-5.82411325996,-1.64122193298,0.151955168948,0.191576173468,-0.589416758018,-4.01573435067,-6.32420489489,0.17441115637,-4.64534165219,-2.75842134425,-3.33855339833,-4.87819512357,44.6071002377
do_nothing,-3.66103032292,-5.78224616892,-1.86926433736,0.855691677663,1.06233855691,0.157771326578,-4.22021802518,-6.87142339586,0.768772945954,-5.82853455322,-2.7697195335,-4.28092172805,-5.98160529902,59.0865056073
do_nothing,-3.47135924411,-5.15919974479,-1.99649369062,1.54593998448,1.9233557085,1.08219492994,-3.96941628934,-6.79237988001,1.35013139317,-6.42636829909,-2.46196100136,-4.73926896988,-6.53640315714,65.7334680834
do_nothing,-2.95939944639,-4.03923388941,-1.99642259573,2.18491907804,2.70191455977,2.09358313714,-3.3134638043,-6.14603672654,1.89429491728,-6.41952594318,-1.85923785454,-4.70160999565,-6.49746646432,64.5071951752
do_nothing,-2.19433975529,-2.56212774751,-1.85087895659,2.73481798854,3.32668593096,3.0795690831,-2.34453445241,-5.04232287231,2.37610140705,-5.85053081321,-1.02149554129,-4.20782715361,-5.88095559732,56.266462381
do_nothing,-1.26872940194,-0.902995666431,-1.55189188641,3.16099964928,3.73532353392,3.92022025775,-1.18185883694,-3.62317690491,2.77106239979,-4.81278426508,-0.0360426778795,-3.33982152489,-4.7593672123,42.6571542207
do_nothing,-0.284322872865,0.751730688634,-1.10284329416,3.43519991912,3.88162357255,4.50407483808,0.0454737457914,-2.0416464597,3.05724487069,-3.43477392677,0.994166265498,-2.20774208316,-3.25061809211,25.9084508711
do_nothing,0.662218628998,2.22876394206,-0.518811396978,3.53834259428,3.74140672293,4.74351665508,1.21539227211,-0.442184746143,3.21717320787,-1.86197824094,1.9637949457,-0.934476808602,-1.50282854898,8.56011255348
do_nothing,1.4916654201,3.38951521971,0.173909745762,3.46261654466,3.31638323993,4.58739097239,2.22707399972,1.05512612576,3.23951586468,-0.23908210227,2.77810638463,0.359365668268,0.323102530945,-6.8480957306
do_nothing,2.15088875088,4.1458932763,0.939077973006,3.21253478404,2.63545027393,4.02911576907,3.01073829147,2.3644959975,3.12033691226,1.3051719418,3.36394049997,1.56803224546,2.07090922778,-18.0886735567
do_nothing,2.61678835448,4.46838806963,1.73247668779,2.80480909978,1.75313114997,3.10913153092,3.53198475987,3.4376148747,2.86374039241,2.66877664691,3.67731002386,2.60934710466,3.60429884197,-23.5232522642
do_nothing,2.89517863433,4.38561651366,2.50447744208,2.26701376467,0.745173385047,1.91127805184,3.79053523532,4.26036352052,2.48180833467,3.78198633701,3.70675939688,3.42887365097,4.81858152651,-22.3104587999
do_nothing,3.01512552016,3.9757320282,3.20304737674,1.63515974843,-0.298356881891,0.553490008411,3.81409186549,4.84433403465,1.99382112084,4.60754647694,3.47225415518,3.99956993193,5.64755187757,-14.5187923126
do_nothing,3.01991578342,3.35123520642,3.77703770811,0.950437055837,-1.28184730191,-0.826042770004,3.64872359437,5.21522300905,1.42483891661,5.13641085521,3.02000067744,4.31768315155,6.0652782074,-1.12944886462
do_nothing,2.95632701991,2.63961266825,4.17957548334,0.255488776403,-2.11389967759,-2.08549940146,3.34764102633,5.40056328011,0.803802204633,5.38035735988,2.41414812743,4.39615195071,6.0831403023,16.0729988976
do_nothing,2.86408088775,1.96275518783,4.37137147349,-0.409358705104,-2.71704465048,-3.09670958931,2.96035728784,5.4192392122,0.161366734997,5.3632659062,1.72672019758,4.2570663607,5.74304116528,34.7106719463
do_nothing,2.76727826976,1.41819881147,4.32375204492,-1.00947808717,-3.03633193893,-3.76086857155,2.52405080704,5.27479986778,-0.472284538025,5.11286056473,1.02731246025,3.92474258254,5.10812966083,52.0994410169
do_nothing,2.66925201773,1.06489048828,4.02122296343,-1.51855387311,-3.04579259787,-4.02065473288,2.05848458233,4.95382375443,-1.0694162553,4.65445328613,0.374051570184,3.42071486205,4.25256475547,65.5794907664
do_nothing,2.55169172084,0.915460681779,3.46338021679,-1.92014213918,-2.75196298903,-3.86717790621,1.56517660721,4.42962845381,-1.60630428553,4.0077171721,-0.192941695676,2.7614824554,3.25181698355,72.8500942545
do_nothing,2.37818817701,0.935999382741,2.66599965837,-2.2080301813,-2.19395516876,-3.3408496249,1.03076684862,3.67061854033,-2.06425457581,3.18685805333,-0.654768922445,1.95926030714,2.17476054079,72.2681566702
do_nothing,2.10162290484,1.0532240455,1.66116624478,-2.38540417301,-1.43992638723,-2.52604738137,0.433807537112,2.65169040663,-2.4300238888,2.20385989454,-1.01336278744,1.02536950705,1.07840963783,63.0738378855
do_nothing,1.67420064466,1.1678574123,0.49634688714,-2.46298662578,-0.580202491768,-1.5402414586,-0.246372167058,1.36650613014,-2.69567324387,1.07386975002,-1.28775385346,-0.0246289473703,0.00566434220442,45.5148236491
do_nothing,1.05848493247,1.17215047402,-0.767630906775,-2.45643668599,0.28229865561,-0.518961885646,-1.02042111421,-0.161790112609,-2.85796038687,-0.178637676994,-1.5077565278,-1.16531781121,-1.01406864712,20.8526363549
do_nothing,0.237613263783,0.968911766994,-2.05966071271,-2.38339728538,1.04336306384,0.401486632832,-1.88109882207,-1.87366973458,-2.91743349011,-1.51444905926,-1.7062017867,-2.3567216388,-1.96195198186,-8.75164427998
do_nothing,-0.777035080111,0.489213667297,-3.30238373762,-2.26061146289,1.60927893739,1.1013696743,-2.79832123867,-3.67183422883,-2.87741669712,-2.87638328233,-1.91103158742,-3.54180217911,-2.82537625234,-40.460429682
do_nothing,-1.94208512427,-0.29384126044,-4.41695936651,-2.10151056876,1.90781490879,1.49273252096,-3.71818388758,-5.42619639133,-2.74307554665,-4.18930921329,-2.13855506186,-4.64708819404,-3.59323956042,-71.0664608694
do_nothing,-3.18312403394,-1.35733288275,-5.32829750214,-1.91460228284,1.89709875007,1.53055483667,-4.56638334609,-6.98505941822,-2.52071800114,-5.36391620076,-2.38895671951,-5.58685466642,-4.25186477362,-97.3482119625
do_nothing,-4.40047694651,-2.6278982872,-5.97040228246,-1.70286679203,1.5713104733,1.21844970499,-5.25574412375,-8.19129982767,-2.21743057256,-6.30408094159,-2.64477745367,-6.27065204065,-4.78238914365,-116.432572848
do_nothing,-5.47919537751,-3.98844256882,-6.29143080126,-1.46422166148,0.962430966718,0.608198559404,-5.69688482053,-8.90149026453,-1.84107830184,-6.91701893479,-2.87261815575,-6.61337867698,-5.16015551087,-126.12241151
do_nothing,-6.30202537114,-5.29133929685,-6.25805472032,-1.19296042094,0.13771540175,-0.206809383835,-5.81052875502,-9.00532247258,-1.40062365651,-7.12486834068,-3.02781480289,-6.54658776935,-5.35625864983,-125.150604774
do_nothing,-6.76367017208,-6.37638430072,-5.85873276947,-0.881928283887,-0.806956950572,-1.10340197892,-5.53966079998,-8.44250361024,-0.90665465597,-6.87601848263,-3.06137746598,-6.02940652157,-5.34101536659,-113.330740486
do_nothing,-6.78444887041,-7.09112589296,-5.10556034598,-0.525090423077,-1.75722312517,-1.94422993737,-4.85969973482,-7.21453634069,-0.371967114723,-6.15442176459,-2.92814023032,-5.05737478903,-5.08879199791,-91.5868861192
do_nothing,-6.32150675153,-7.31088569138,-4.03445697869,-0.120088884716,-2.59280978275,-2.59520916092,-3.78509846622,-5.38942603535,0.187972870807,-4.98533236443,-2.59488344512,-3.66770009704,-4.58338695379,-61.8590984098
do_nothing,-5.37604454039,-6.9558412168,-2.70357731641,0.329618175201,-3.20116834696,-2.94264060922,-2.37126599315,-3.09829810825,0.754849054304,-3.43636993696,-2.04718867854,-1.93985363173,-3.8230608819,-26.8959703053
do_nothing,-3.99555530255,-6.00294790111,-1.18997662533,0.813386321379,-3.49063822797,-2.90790388898,-0.711352732673,-0.524019243792,1.30772140177,-1.61344473015,-1.29396757972,0.00896132017547,-2.82434407751,10.041306
do_nothing,-2.27071337362,-4.49117048297,0.415285448306,1.31303044322,-3.40161710299,-2.45793492539,1.07184144741,2.11696403642,1.82372075399,0.348193727301,-0.368939507807,2.03323744001,-1.6239196316,45.5287321153
do_nothing,-0.327255900544,-2.51937169608,2.01327365959,1.80359286571,-2.91440902365,-1.61022818187,2.8378948938,4.59739162618,2.27919946724,2.29681842594,0.671231339538,3.97256600113,-0.278152326787,76.3426171522
do_nothing,1.68616252851,-0.237147652734,3.50408621338,2.25518476906,-2.05277417896,-0.431780781532,4.44323805626,6.70371571545,2.65124994676,4.07945590895,1.75195489269,5.66751093616,1.1398354291,99.794483627
do_nothing,3.612664526,2.17022186762,4.79400461429,2.63570133422,-0.882680502323,0.967866440675,5.75624837667,8.25926900075,2.91943761271,5.55758556536,2.78826297677,6.97606568905,2.54529798333,114.000217209
do_nothing,5.30262561327,4.50083703092,5.80230405144,2.9140868805,0.493697043783,2.44862913674,6.67106286473,9.14312121656,3.06755010201,6.62131660338,3.69390923145,7.78867220892,3.84866599364,118.054307945
do_nothing,6.62811175197,6.55694226387,6.46715575874,3.06374535034,1.94813260039,3.85546894147,7.11839181297,9.30224506411,3.08514758572,7.20024641133,4.39083671858,8.03992457186,4.96324358905,112.091747036
do_nothing,7.49464633001,8.16494387661,6.75011790552,3.0656648152,3.33957360461,5.03571615039,7.0720373451,8.75551595366,2.96871298251,7.26965337561,4.81778913151,7.71548002451,5.81292112418,97.2336914695
do_nothing,7.8490643914,9.1924111087,6.63882548363,2.91085571421,4.5289759343,5.85609597801,6.55040970827,7.589170821,2.72224396711,6.85131490324,4.93697210116,6.85330304036,6.33902645342,75.4267001776
do_nothing,7.68274396178,9.56024243907,6.14764257195,2.60178685685,5.39409034578,6.21750120914,5.61300505064,5.94449130441,2.35719502564,6.00897307016,4.7379495447,5.53908989561,6.50555613366,49.1975072203
do_nothing,7.03010006366,9.24883320627,5.31621821464,2.15262913137,5.84253201495,6.06585710801,4.35246403724,3.99949342058,1.89175794307,4.83918856968,4.23834349463,3.89646244452,6.30223876026,21.3544833256
do_nothing,5.962803294,8.29784280588,4.20607301018,1.58826710424,5.82165389028,5.39791521019,2.88337919051,1.94715707431,1.34955152236,3.45892425878,3.48133775533,2.07317830258,5.74515306507,-5.32789548918
do_nothing,4.58066570624,6.79992678138,2.89551929961,0.942192881113,5.32411004516,4.26142667587,1.32938673861,-0.0268876701669,0.757864210758,1.99159721418,2.5304041685,0.225091171147,4.8749146483,-28.4046207136
do_nothing,3.00046393054,4.88947351538,1.47336623334,0.253534055098,4.38849440678,2.74980597404,-0.189779009784,-1.7643316498,0.145646274068,0.553478854715,1.46201711261,-1.5001546825,3.75271819876,-46.0026530967
do_nothing,1.3441097701,2.72788795251,0.0319672112121,-0.436429811627,3.09501331811,0.992021630075,-1.56968495749,-3.14936075565,-0.458526167248,-0.757808516172,0.357351035702,-2.9777280893,2.45474291483,-56.9849330636
do_nothing,-0.272472929207,0.487244745016,-1.33977942458,-1.08785301568,1.55672791484,-0.861030538491,-2.72977513806,-4.11733938231,-1.02829786002,-1.87132760049,-0.705960458246,-4.11682069854,1.0655732558,-61.0209438429
do_nothing,-1.74862709357,-1.66582781185,-2.56287041022,-1.66560221467,-0.0925861472313,-2.65206229673,-3.61831171197,-4.65628046951,-1.54100883875,-2.74658447202,-1.66099322894,-4.86726235056,-0.328656995125,-58.5607153345
do_nothing,-3.00560428794,-3.58435897273,-3.57353489162,-2.14187053837,-1.71253100202,-4.23307266748,-4.21341898053,-4.8014150894,-1.97867166166,-3.37285641988,-2.4568216186,-5.22097713493,-1.64672134574,-50.7208628404
do_nothing,-3.99018826384,-5.15203816558,-4.32703979625,-2.49786746747,-3.17049233771,-5.4794651155,-4.52051812003,-4.62412287652,-2.32839964123,-3.76458836222,-3.06142492809,-5.20840380103,-2.81778928891,-39.1013776971
do_nothing,-4.67533268023,-6.29019537543,-4.79968810728,-2.72445221837,-4.35471194149,-6.30114515585,-4.56691045658,-4.21721055569,-2.58231115939,-3.95390657493,-3.46206579206,-4.89065046088,-3.78554010544,-25.5592353649
do_nothing,-5.05820401634,-6.96048188435,-4.98891346419,-2.82171820361,-5.18457182439,-6.64954740888,-4.39459327968,-3.67893080223,-2.73700450363,-3.98166591687,-3.66335162767,-4.34867049639,-4.510684418,-11.9686666445
do_nothing,-5.1562795488,-7.16348403019,-4.91155944528,-2.79766890584,-5.61700038079,-6.52004798884,-4.0525347818,-3.09816938672,-2.79274936221,-3.88858178463,-3.68349502392,-3.67106798889,-4.97186668413,0.00216055743708
do_nothing,-5.00228433177,-6.93392490153,-4.60060447151,-2.66623339279,-5.64840364518,-5.94976123946,-3.58958368259,-2.54290305539,-2.75256794366,-3.70788721389,-3.54949992938,-2.94222999874,-5.16508933301,9.07208296552
do_nothing,-4.63875673334,-6.33340000571,-4.10073605389,-2.44493884092,-5.3120812854,-5.01123365675,-3.04896433002,-2.05340568616,-2.62137730729,-3.46062343585,-3.29209162646,-2.23233655777,-5.10192591567,14.4663510531
do_nothing,-4.112925711,-5.44173206138,-3.46327669307,-2.15257973985,-4.67163689054,-3.80297375041,-2.46495506309,-1.64086091723,-2.40533594406,-3.1541769462,-2.9411723963,-1.59044732176,-4.80686658101,15.9641764297
do_nothing,-3.47239680933,-4.34801930592,-2.74100830703,-1.80719760455,-3.81136622261,-2.43804965783,-1.86192942043,-1.29115693645,-2.11148711936,-2.78409991321,-2.52243334365,-1.04136422307,-4.31416292474,13.8737108941
do_nothing,-2.76191902827,-3.14231333673,-1.98342841064,-1.42461649975,-2.82494662452,-1.0321199907,-1.25552649638,-0.972830499848,-1.74772749047,-2.33868662078,-2.05551469621,-0.586398489097,-3.66451678357,8.94290360773
do_nothing,-2.02128382615,-1.90863340964,-1.23290132598,-1.01767979321,-1.80391482948,0.307768313675,-0.655374342561,-0.647514416758,-1.32306252913,-1.80531602742,-1.55382254744,-0.207611415502,-2.90190042416,2.2222241448
do_nothing,-1.28422725409,-0.719748688741,-0.522049383826,-0.596217711718,-0.82739115659,1.49246432259,-0.068570410465,-0.280914237991,-0.84805115561,-1.17728137329,-1.02582541286,0.125370432018,-2.07071836398,-5.09970845836
do_nothing,-0.578091544287,0.366117389521,0.127424452386,-0.16766069367,0.0457071824266,2.45723169808,0.496944693384,0.147661855643,-0.335300246638,-0.459755659649,-0.477413360871,0.447181171438,-1.21343862013,-11.8644977334
do_nothing,0.0760366596438,1.30674786716,0.70446276479,0.261883246492,0.781090933801,3.16503279637,1.02989560862,0.638880079129,0.200147938954,0.326304430791,0.0852582286843,0.788524230768,-0.368746270403,-17.0942923746
do_nothing,0.662963381621,2.07582440891,1.20707943938,0.686334380497,1.36976291229,3.60651505486,1.5146158022,1.17114975896,0.740682926034,1.14316089891,0.653076641611,1.16923167371,0.429786240152,-20.1058354788
do_nothing,1.17296949231,2.66162131978,1.63978590848,1.09840307153,1.82503649496,3.79701860933,1.93166582397,1.70293095823,1.26636007779,1.93855414411,1.21201817646,1.59358913477,1.15455535934,-20.5759711942
do_nothing,1.60140155639,3.06490259547,2.01043120101,1.48866308132,2.17650988586,3.77123938771,2.26001796556,2.17914897228,1.7555581943,2.65101626059,1.74237273402,2.04855318037,1.78436997008,-18.5535250498
do_nothing,1.94823446789,3.29639314591,2.32693058188,1.8451357204,2.46199276144,3.57639795657,2.48037809954,2.54058743113,2.18604977612,3.21750710367,2.2193686664,2.50502687436,2.30454409367,-14.4198825979
do_nothing,2.21750060021,3.37412495556,2.59436044488,2.15349806786,2.71863568433,3.26486299879,2.57897659708,2.73462813715,2.53640408003,3.58222731656,2.61516738986,2.92189509299,2.70669195727,-8.80724168857
do_nothing,2.41646134334,3.32087130077,2.812840502,2.39792579089,2.97459392248,2.88715677008,2.5510440385,2.72547249888,2.78758336718,3.70522606068,2.9019512056,3.25212079881,2.98826714164,-2.48858073409
do_nothing,2.55443289726,3.16179841374,2.97651426879,2.56247729297,3.24245806346,2.4861401706,2.40321357646,2.50205082015,2.92455166754,3.56940187375,3.05562755424,3.44992194376,3.15187930303,3.74370306123
do_nothing,2.64126125165,2.92239970456,3.07378800557,2.63283638772,3.51541993003,2.09296124095,2.15425604797,2.08218801872,2.9376995714,3.18469771389,3.0595502148,3.47792128267,3.2044209281,9.1930324862
do_nothing,2.68555218974,2.62674051386,3.08881455197,2.59816850168,3.76675102311,1.72508527524,1.83382910011,1.51218854417,2.82390083998,2.58868632154,2.9076319669,3.31319975579,3.1560438752,13.3521537678
do_nothing,2.69287418648,2.2960307746,3.00403314969,2.45281948229,3.95270545219,1.38644334777,1.47926220461,0.86173471653,2.58705562955,1.84327033856,2.60629799262,2.95137555244,3.01903944227,15.9630988832
do_nothing,2.66423645566,1.94755132244,2.80342155765,2.19760000609,4.01848237595,1.06947388127,1.13074909466,0.214746234607,2.23803546919,1.02780342569,2.17489322927,2.40814147089,2.80669255453,17.0369655649
do_nothing,2.59517627356,1.59397494414,2.47600293559,1.84045014178,3.90645729456,0.758618766248,0.825619653705,-0.342493569471,1.79401825732,0.229485833307,1.64438476785,1.71807327939,2.53219536966,16.8326481321
do_nothing,2.47575347028,1.24313258376,2.01909315418,1.39636023626,3.56557241265,0.434692896408,0.592563872838,-0.734179272005,1.27727697974,-0.467682549359,1.05445731151,0.930914392245,2.20771314613,15.7992532557
do_nothing,2.29164303386,0.898267741824,1.4407838731,0.886524142752,2.96060434235,0.079484934753,0.446745927753,-0.906836529852,0.713552809352,-0.993862242677,0.449346426031,0.105891155971,1.8436917391,14.4916481078
do_nothing,2.02635089304,0.558792297557,0.761234336266,0.336804588851,2.0800235553,-0.320031983124,0.386662538176,-0.838338825711,0.130192213498,-1.30269291566,-0.127046792952,-0.695128887298,1.44847970127,13.4718557865
do_nothing,1.6643779818,0.22150554488,0.0124831611978,-0.224316549014,0.941323114176,-0.768407587768,0.393375722716,-0.542630634945,-0.445748144899,-1.37761821526,-0.636095336125,-1.41468839639,1.02830921363,13.2104931616
do_nothing,1.19495773474,-0.117827535065,-0.763324905559,-0.768061216155,-0.40699821586,-1.259719434,0.432416998518,-0.069314780893,-0.989228691628,-1.23426456658,-1.04875210159,-2.00605531559,0.58764185332,14.0020436273
