label,COUNTER,INTERPOLATED,AF3,F7,F3,FC5,T7,P7,O1,O2,P8,T8,FC6,F4,F8,AF4,RAW_CQ,GYROX,GYROY,MARKER,SYNC,TIME_STAMP_s,TIME_STAMP_ms,CQ_AF3,CQ_F7,CQ_F3,CQ_FC5,CQ_T7,CQ_P7,CQ_O1,CQ_O2,CQ_P8,CQ_T8,CQ_FC6,CQ_F4,CQ_F8,CQ_AF4,CQ_CMS,CQ_DRL
off_to_on,2.293546267,2.59576203179,3.96625513692,1.99875274055,0.414223034361,9.44298376671,-1.90492549992,-2.22008687676,-0.00921902642075,-0.513942304829,3.0481265436,-0.0345003236767,1.28985456479,-10.7036824298
off_to_on,2.713052172,-0.153867332824,1.24339993512,0.188304564477,0.489245676583,-6.32459913755,-0.0621547313228,3.24698397221,-0.00842748391871,2.66518148609,1.11402246146,1.34388404415,2.1976385065,-58.9548053887
off_to_on,0.509881719146,-3.02981674681,-2.94204868407,-1.1997711033,-0.166902629605,-16.0978277767,0.175931959844,3.42099711156,-0.00447839023966,1.79110292863,-0.845374283647,-2.39429479182,-0.993565810544,-33.9450930537
off_to_on,-0.022281624902,-1.37811426482,-2.4337430427,-1.40444691473,0.538387139693,-4.31045751983,-1.86362306047,-1.10813187905,0.000917022964893,-0.969837132627,-1.67169494585,-5.37043863163,-3.7970232374,17.8267418926
off_to_on,1.86151309654,3.75498109524,2.80895854867,-1.12098384267,2.0219176674,14.2096546543,-1.90591727041,-2.79140205528,0.00596775710091,-1.02609349576,-1.41027061776,-1.58614479455,-1.13078733,20.2881924374
off_to_on,2.16179964903,5.92300251469,5.84603119068,-0.750766747242,1.4625462446,13.8297478997,2.15305971298,0.611843075889,0.00888800429039,1.82842929649,-0.631897517546,5.62193432899,4.4785404298,-10.1307660906
off_to_on,-1.42322897769,1.0636338206,1.44177821149,0.161554921185,-1.53672424768,-5.00157145989,5.12608227798,2.57484984215,0.00826278860672,2.90569743724,-0.0504987016966,7.61279196027,5.30040750601,-7.05812509451
off_to_on,-4.96543967536,-6.25768693324,-6.17293883788,1.50413403064,-3.440566398,-16.301123579,1.68626953733,-0.919078293938,0.00413749029807,-0.136357718056,-0.0105244716345,2.24330478341,-0.399584781348,26.4418402479
off_to_on,-3.28400741804,-7.36617685321,-7.62930163746,1.9923823388,-1.47833886339,-5.71978465032,-4.35665794127,-4.07671442087,-0.0015850056655,-3.36244298477,-0.0481618930895,-3.84272269696,-5.22845084495,30.3620375991
off_to_on,2.23136582872,-0.490799328373,-0.48419309596,0.820545524084,2.12515750812,10.5007256963,-4.53858907941,-0.623344734242,-0.00635656651028,-2.44291189412,0.422529852426,-4.83307459558,-3.33839366173,-2.93476639017
off_to_on,4.84889287731,6.33655441289,7.07328092064,-0.95544929092,2.9078700867,10.7330957601,1.47464436267,5.24548908102,-0.00850127395222,0.772075894621,1.07610122233,-2.30147344075,1.22814744995,-20.8809616023
off_to_on,1.64241482961,5.39772380269,6.53133190799,-1.64908512328,0.18802083964,-2.15976087796,4.81252004905,4.63276510429,-0.00752697817133,1.44366527368,1.131998553,-0.483665295935,1.55499608028,-8.57420579056
off_to_on,-2.68284643691,-0.979903344269,-0.445733310215,-1.02462040862,-2.21492776376,-8.72905838762,0.548168865492,-2.293436465,-0.00373751335175,-0.581049108887,0.611222066377,0.150813710046,-1.19995496881,-8.38116462064
off_to_on,-2.70684199999,-4.37541731768,-5.28105896676,-0.179662286988,-1.32257432915,-2.22388003118,-4.91949251362,-6.31657833916,0.00167960382303,-1.01129553192,0.0918396988477,1.37282085581,-0.560868465224,-29.0918328455
off_to_on,0.593531011104,-1.67712576889,-3.76262835806,0.260326051156,1.29931649493,5.22747743346,-3.46228710442,-2.68554967532,0.00653258812694,1.51921617956,-0.526381529531,2.68914197693,3.74843426666,-19.5368223568
off_to_on,2.48473986585,2.23134958217,0.479557982519,0.650200845225,2.14029802661,3.74308287221,3.06045957128,2.90099493193,0.00859179894558,3.21815196913,-1.62937049489,2.26287037534,4.75902838848,34.6364889012
off_to_on,1.43431900215,2.55808990604,2.74655737298,1.06221636835,0.320688747531,-1.65982411454,6.07171377776,3.66367011138,0.00706710858679,1.31909081708,-2.35996245678,0.470186971691,-0.512225651638,63.7954383196
off_to_on,-0.315300720949,0.23505768653,2.45908694176,0.808186231718,-1.89012324662,-2.98425209974,2.26792124724,0.655266834688,0.00292478506894,-1.77607082234,-1.2271692092,-0.882920424542,-5.83142022299,15.8642662171
off_to_on,-1.41743395862,-1.68015671031,0.862644870621,-0.264676201955,-2.21002137516,-1.74374333583,-3.28503271788,-1.10472448601,-0.00209870573369,-2.64680882739,1.3553834297,-1.597146236,-4.77174166384,-53.5646840302
off_to_on,-2.39878602757,-2.55711536684,-1.68408230661,-1.05168847182,-0.56808257065,-2.42850699696,-4.98603187826,-0.472093483088,-0.0063259993166,-1.69442062916,2.88667941404,-2.29414470452,0.450859806577,-55.0095510804
off_to_on,-2.5033051912,-2.62854062538,-3.88761698481,-0.634718163428,1.45670966494,-2.19072516257,-2.58980844022,0.143400614241,-0.00824888105443,-1.10808610357,1.9463344896,-1.98168005239,3.27596353263,10.3649856956
off_to_on,0.0120962549952,-0.660610545914,-2.78685637307,0.248677787937,2.24285858835,3.59169301016,0.920976880508,-0.24564023299,-0.00687362331459,-0.690865936432,-0.0160027110677,0.232937630189,2.03559748787,61.958228088
off_to_on,3.75005156701,3.33538610903,1.99878162909,0.232689599777,1.23211882131,10.1726161207,3.13807003815,-0.716697701044,-0.00259157262395,1.03345530016,-1.01606581282,2.2171744393,0.250325274863,47.918630337
off_to_on,4.45194865947,5.65440893862,5.82656667972,-0.544838588213,-0.66823056438,7.69707166435,2.97700237776,-0.942658143646,0.00265716913675,3.23939391577,-1.04530132006,1.47913417082,0.146883918684,-15.3721655566
off_to_on,0.972260454618,3.00849195634,4.1427201033,-0.560587777739,-1.73866543603,-4.15684751313,0.845807135456,-0.748826462288,0.00657512923455,3.58532560149,-0.969180096549,-0.127475688609,0.614678063679,-83.8545786321
off_to_on,-2.61327556292,-2.32292423442,-1.49857227872,0.714490284486,-1.13220684882,-13.8867629688,-0.995759865984,0.933987404627,0.00782018031334,1.71377237238,-0.58103162832,1.0166619832,0.549917722904,-103.574509359
off_to_on,-2.84855406512,-5.01890700532,-5.43977353821,1.73497064733,0.172608362344,-11.8511203913,-0.774146863283,3.41378371115,0.00619611151412,-0.822483307259,0.387973485236,3.25136703087,0.0623712166126,-21.6791514132
off_to_on,-1.37721204886,-3.51833495798,-4.68219943665,0.886231149436,0.6530579047,-0.490282768059,-0.158656468869,2.83040320565,0.00225234240355,-3.27660625056,0.697582796756,0.903449414452,-1.22078890874,133.980310812
off_to_on,-1.00431832813,-0.862496225676,-0.901513090091,-1.16842787886,0.169512780234,10.3280415999,-1.86247226047,-2.44020258208,-0.00271441557981,-5.38884398278,-0.602893294203,-5.86145553901,-3.35061501248,208.623610659
off_to_on,-0.760349112062,0.630230485507,2.92562983082,-2.12885360352,-0.180995349917,13.1184132227,-4.15198331301,-6.91633349001,-0.00667968845246,-5.100171102,-1.69288417227,-8.53157941056,-3.84576142726,70.0227517539
off_to_on,1.35137090686,1.71259033992,4.70567516775,-0.897467651161,0.152976114746,6.83997222339,-2.00568230532,-3.8450302022,-0.00781748640546,-0.309050332452,-0.0295739367099,-1.61306396547,-0.145485423264,-180.086074641
off_to_on,3.46481930344,3.00451191374,3.09788073877,1.09150542682,0.609368134528,-3.57015165204,4.67121395498,4.6492738956,-0.00572528357169,6.60375757441,3.30839825928,8.26041632435,5.4131623569,-268.791122989
off_to_on,2.39745289198,3.17621063255,-1.11641900958,1.6613727185,0.665764915602,-9.78966893321,8.47303375689,8.8614037498,-0.00154312199081,9.45974333349,4.15197232359,10.1254858255,6.9184295558,-85.3552306756
off_to_on,-0.573960751945,1.48280269972,-3.92088607199,0.44036513947,0.387178568062,-6.96904851689,3.65108008219,3.89359339575,0.00301765804113,5.03623145588,0.725475017907,2.69884824236,2.31793296981,160.988672022
off_to_on,-1.50460686545,-0.826130067728,-2.0797242055,-0.906769854368,-0.289803262684,-0.00796507283168,-5.32588069898,-4.39917085521,0.00643053522615,-3.09368845946,-3.83100911513,-5.32848297045,-3.758477815,208.221947047
off_to_on,-0.513070002965,-2.73364054264,1.73172198312,-0.824661689076,-1.48217470128,1.7919138639,-8.77839193348,-7.69221190147,0.00747001508669,-8.60285886724,-5.37896650457,-7.35438879743,-5.97223935306,66.2832281108
off_to_on,-1.24351863546,-4.32376347089,1.84395033432,0.328780336766,-2.20517227653,-1.95186392683,-3.79480196408,-4.64649598286,0.00551729824971,-8.25263799593,-3.14117495355,-4.79544151367,-4.00229484425,-54.7153640665
off_to_on,-3.47862784817,-4.46680156274,-1.93623105646,0.918826869564,-0.871897887062,-1.45110490214,3.16848549867,0.546469086113,0.00123163386413,-3.00850050865,0.814850202153,-1.15560038092,-0.720230901111,-63.0794348405
off_to_on,-2.40116825328,-1.01080420236,-3.47192235281,0.169116152108,2.10402016322,7.27332975361,5.20725506148,4.53436147248,-0.00347094069155,3.82986140966,4.20942277751,2.89628966488,2.13540164281,-54.2051708094
off_to_on,2.93936355944,4.86178794202,0.475868558339,-0.923892399848,3.69872681106,13.0152480583,2.32610547604,5.89546892394,-0.00656177618605,7.99907167784,5.23177819343,6.36377123421,3.9737055054,-79.2530830709
off_to_on,6.3802445191,7.75263811707,5.03039205668,-0.979606081449,1.81583211197,4.33380346136,-0.799975412158,3.49378133351,-0.00701768188331,6.47425777216,2.79089543338,5.84503072254,3.68119327705,-47.6463424961
off_to_on,3.37431232665,4.31959271906,4.31764826812,0.0001257331626,-1.64379779237,-11.5558489059,-1.00345333274,-1.59975904006,-0.00490247729413,0.754571588874,-1.74237153904,0.565506894794,1.05911277994,74.436622136
off_to_on,-2.11482518348,-2.05722580685,-0.417769630268,0.820590770167,-3.09241843318,-16.1464728268,0.871493113731,-4.82195943994,-0.000953298278764,-3.83273001123,-4.54263102399,-4.55929396636,-1.62216092527,144.308328038
off_to_on,-3.97151518101,-5.70140646478,-3.89756006405,0.774195464072,-1.86528186398,-4.63410727082,1.60095141599,-3.2424708299,0.00348945373342,-4.1826402245,-3.31844661085,-4.93833135479,-2.26438100907,48.333609097
off_to_on,-2.71420370511,-5.28191870086,-4.41062629662,0.322875682752,-0.307676713997,8.12825244686,-1.09532650312,-0.186667221308,0.00660276961908,-2.73641094734,-0.232269188062,-2.32577175231,-1.82856510058,-96.4365837429
off_to_on,-2.21113044894,-2.87318575417,-3.35144439193,0.0242236690598,0.339688658287,8.91553366633,-5.31685241763,-0.216487769258,0.00694307382389,-2.50749143459,1.20180264973,-0.878614852881,-2.00343627132,-100.371896855
off_to_on,-1.42747277596,0.757801121629,-0.248022960106,-0.310228986856,1.28848548626,2.18039708269,-5.48590356156,-1.4354557215,0.00443859177937,-1.65641612252,0.848535486824,-0.191322200492,-1.61579551482,16.5214909037
off_to_on,2.95147725484,5.1853088411,5.3004504694,-0.857197021869,2.81260638726,-0.788387639285,1.14839397979,1.30658739664,0.000346299871005,2.78999234253,1.00142921289,2.66572929061,1.22031689334,69.9855261205
off_to_on,7.51077845703,6.68259574845,8.37690054746,-0.96807730927,2.54541672019,0.971438927876,8.83679749824,6.39572908307,-0.0036901749526,7.70377045146,1.83344466412,6.05307404511,4.46197734737,3.96916197136
off_to_on,4.64270172625,1.76769336091,3.12186486092,-0.0506857635349,-0.768865365739,0.675534429943,8.39682551761,5.92813026741,-0.00632119812575,6.14457487241,1.23345156231,4.75401315722,3.80363163798,-45.1060704921
off_to_on,-4.71666277439,-5.59532286645,-6.86154112301,1.1420083786,-4.03673931249,-2.84205061453,-0.829274544239,-2.04472099619,-0.00659840760111,-2.3928352523,-0.931581265442,-1.62217275736,-0.800606333072,5.34811853419
off_to_on,-9.48308960563,-6.73173978156,-10.1112463753,1.20436998362,-3.27883312411,-4.50109050633,-8.6733537269,-8.70884978929,-0.00422835410692,-9.28483922153,-1.98916887574,-6.64861440638,-4.21742474209,53.020322658
off_to_on,-3.42511190261,-0.0499904605783,-2.36193170735,0.0505531153634,0.659616881435,-2.79278939241,-6.71980502022,-6.09323864322,-6.66269070245e-05,-6.96726522965,-0.777606897433,-5.34792101132,-2.89990130682,1.55829068685
off_to_on,5.48002325569,5.78511856753,6.74034005774,-0.869466864675,2.96626820473,-0.846745281687,1.01916476035,1.90707599502,0.0040450149149,1.79049679629,0.468181463719,-0.309851490184,0.772075357298,-68.228078252
off_to_on,6.37594478598,3.67482091837,6.65731626279,-0.592621554026,1.4334338784,1.00737517658,4.53425479791,5.58156078631,0.00635524688289,7.78217558363,0.0118751014943,2.79563656098,2.4882696666,-36.9279479849
off_to_on,0.410726228529,-2.3371658891,-0.122893254566,0.141677588225,-0.883413589149,4.76614205018,1.58938020564,2.67566566121,0.00613830036147,5.9876182395,-0.619662487318,2.47284096274,1.36704401474,50.6425159386
off_to_on,-3.02467001445,-4.01908245155,-3.57346336263,0.239259781622,-0.578405951104,7.240464966,-1.21620608483,-0.759191754525,0.00367905691012,-0.627762649833,0.201550278659,1.32207280861,-0.619268220743,61.995359395
off_to_on,-1.01912130952,-0.889743721177,-1.12246790775,-0.136505175492,1.2737711823,2.58098243718,0.180053652163,-0.761770906026,-0.000152058334588,-5.8820982877,1.05900691899,1.11627501435,-1.91429262541,-6.75171649922
off_to_on,0.646406883632,1.19555620961,0.999164592445,-0.169030357618,1.28156121616,-6.29432863797,2.11252823891,0.2078468222,-0.00402565580382,-5.79735804936,0.230727618132,1.11745061503,-1.75884868384,-39.3500162416
off_to_on,-1.09733595732,0.509150305529,-0.454027735431,0.124339244026,-1.02490565881,-8.54224048791,0.81870824439,-0.427693797454,-0.00634175623188,-0.649966198195,-0.750717703115,0.241647187365,0.39959728148,-0.440138601241
off_to_on,-2.00640186523,0.871533511201,-1.47711432565,0.132775440946,-2.72099106088,-1.16311497309,-1.35440255193,-1.07762005542,-0.00601102332767,5.19768971957,0.336486716638,-1.52807868657,3.25924942675,19.979918562
off_to_on,0.740146698393,3.01323471975,0.4885048376,-0.0391078577046,-1.73787096835,5.41044006783,-1.04643626892,-0.113416701498,-0.00323620663296,6.19947278995,1.92298367248,-3.32295421619,3.38699206235,-22.1224806626
off_to_on,3.00228415611,2.29616118097,1.6827724086,0.226901809504,0.724362148517,2.91526957635,-0.0639666730899,0.649420165311,0.000660343024193,1.16772838647,0.701097442939,-3.48702444334,-0.468168827726,-47.5184786967
off_to_on,0.952679666304,-2.69522662847,-0.599934233615,0.64516202535,2.27412265489,-2.4895189828,-1.47707139985,-0.458058272749,0.00413726130198,-4.57737438275,-2.50809866304,-0.656694097467,-4.36049836456,1.42913943352
off_to_on,-2.07022609508,-5.93931694932,-2.30863069917,0.187210102471,2.009354304,-1.43161272011,-3.05944622373,-1.50284276454,0.00603766148533,-5.09617828574,-3.20146325158,3.68727895162,-3.68116816806,55.5820562846
off_to_on,-1.1698780369,-2.49846675821,0.587811404886,-1.02661828322,0.568612131267,3.09920608154,-0.492474838404,-0.226727318207,0.00567613206063,-1.00785395591,-0.0250077083144,5.31837251352,0.473178246878,35.3459879919
off_to_on,1.8684588684,3.5775001398,4.38275207924,-1.36893440292,-1.02368054298,2.11943819202,4.54205602592,1.8942453431,0.0030338010884,2.19328572125,2.90306099778,2.10833640411,2.99049042256,-18.2363066878
off_to_on,1.72012927872,4.84859436909,2.76423548746,-0.0280520671886,-1.76418267412,-2.79221311115,5.56192297533,2.00185090507,-0.000901612838369,2.02983063023,2.05713690569,-2.58042585885,1.97914841987,-20.4826234727
off_to_on,-1.64688322405,0.82704218154,-3.08898011778,1.46712532526,-1.05292296311,-2.25705054264,0.788758042178,0.28672740885,-0.00440218292298,1.11513800289,-0.647741044305,-3.8822074151,0.278961744064,14.126222782
off_to_on,-3.20052333011,-2.5016244177,-5.81374156209,1.22867387129,0.414856285796,3.41066545766,-4.07122829905,-0.941177173422,-0.00599384976887,1.31967748194,-1.41599003422,-1.60681235968,-0.0969069583984,8.47910590179
off_to_on,-0.93551447982,-1.73451665877,-2.36739569722,-0.285181970208,0.963130761292,3.43577098669,-4.0521018032,-1.04594216512,-0.00522164480413,0.752778162376,-0.10640647578,0.552583576671,-0.461247048752,-36.3285605946
off_to_on,1.80378009666,0.596201205013,2.54993659363,-1.00014816968,0.0245898132293,-4.49587944283,-1.08690527827,-0.973302166648,-0.00255129984376,-1.65325070838,0.730845014508,0.931585400946,-1.41638892605,-43.4675582156
off_to_on,2.26625178091,1.30249837253,3.95506897694,-0.280179736202,-0.841029276102,-8.23311990244,0.538382189675,-0.663541333251,0.00106319992155,-3.023413737,0.303489508848,1.12151313984,-0.963482045433,6.29161785953
off_to_on,1.53348369843,0.394836592338,2.28529868384,0.39109605122,-0.0559511925494,-0.341445676006,0.634755924486,0.399488182887,0.00434760751117,-1.13212286556,-0.162217780484,1.49736290486,1.14304722792,44.392628541
off_to_on,0.846396832348,-0.90470209951,0.296165955163,-0.0495701865088,1.50356206927,8.72891967445,1.3631252366,1.06199549247,0.00593554493766,1.3967025114,-0.379534340825,0.139544148506,1.45560779588,29.5436905978
off_to_on,-0.673537641404,-1.95426349551,-1.18548864014,-0.659501422792,1.53138220008,6.39490513526,2.15254623638,0.0764883470141,0.0050586877872,1.24037262995,-0.998103851,-2.48688827392,-1.45170707061,2.39792380373
off_to_on,-2.84565718199,-1.59223647386,-2.16500295418,-0.224318292062,-0.408888457162,-2.51514614355,0.860716800983,-0.97960571989,0.00214007462826,-0.109716835312,-1.25802604079,-2.37629267035,-3.14674411853,-1.00866927555
off_to_on,-3.02757373772,1.07284624858,-1.73942899739,0.732647657176,-2.10576869666,-4.40712469443,-1.47107801754,0.222678379352,-0.0014781181024,0.599037538763,0.185767334846,1.66386287381,0.279876171996,-6.20423032594
off_to_on,-0.296620292617,3.71157850353,-0.0630406868725,0.874571343671,-1.60467021651,1.00068405699,-1.50733167426,2.27770584586,-0.00438334251343,2.02170058661,2.19856562704,4.46090826506,4.91713853779,-28.9540078185
off_to_on,2.30101025878,2.42653333097,0.689259001209,0.152668171947,0.357061996919,1.82810509489,0.846231004909,1.54649758056,-0.00561830875154,0.325056658485,2.0415188125,1.42976581807,3.80932049017,-25.3974986753
off_to_on,2.23709453281,-2.05064102343,-0.215093511953,-0.369222058202,1.56458113959,-4.5588553357,1.78323460805,-1.70795574479,-0.00473982345601,-3.2600777939,-0.307486334565,-3.8192491197,-2.32035064457,24.0374468235
off_to_on,1.13914630629,-3.85601884912,-0.241035651791,-0.365051468743,1.06797787614,-6.73764906276,-0.656058105514,-3.01401015475,-0.00195340413559,-3.11822124406,-1.74980618598,-4.06397606347,-5.45620687225,46.5144972003
off_to_on,1.06720196337,-0.310052255007,2.05107812525,-0.492459885919,-0.207392732013,0.983109546812,-3.47403388455,-0.658033612997,0.00167741798313,1.56728363039,-0.805016331225,0.759920223745,-1.95346243487,-21.1116809606
off_to_on,0.368833288327,3.25282719907,3.44170936935,-0.809332517142,-0.987804980379,8.15879519393,-2.89690203084,1.48550638236,0.00456807324239,4.33391715732,0.294088868015,3.38266686448,2.48587523718,-101.053732456
off_to_on,-2.7200476976,1.0874386755,0.540162806861,-0.39116828666,-0.768546734497,5.0410786064,0.741005494983,0.384510981326,0.00551436897961,0.962071758271,-0.335040748952,0.352291913372,1.99799367213,-51.0026805187
off_to_on,-4.93475807132,-3.72608671837,-4.03370001925,0.97563256657,0.278005222598,-1.81334616029,3.98318981683,-1.1414340838,0.00430193250168,-3.73579490311,-1.05239540203,-2.78134880298,-0.927248044616,120.255207088
off_to_on,-1.77609039243,-3.35308128254,-4.42075809512,1.90179380588,1.42723948934,-1.38671450647,4.37102150387,0.515055421041,0.00153747205159,-3.01935481137,0.150498976796,-0.399161084366,-0.555756849615,212.25228196
off_to_on,4.46440518934,2.7567949608,0.0425186531862,1.06587583967,1.44762175725,2.89468620183,1.99129816883,3.14247119111,-0.00178560678394,1.77451667619,1.82213481313,4.15733652308,2.52101611866,67.7515361266
off_to_on,6.1708503786,6.32844427509,3.66788252834,-0.919008834594,-0.348847620181,-0.501002756243,-1.63116466308,2.02224551695,-0.00448227388295,3.79010839648,1.34632403079,3.55573075193,2.71246798537,-202.708158411
off_to_on,0.863003894708,2.04852613696,2.42653525804,-2.16499462544,-2.68156037713,-10.0330377655,-4.44237388236,-2.14493961555,-0.00542098815629,1.00155458573,-0.607534788433,-2.32851520346,-1.33134897152,-309.27738023
off_to_on,-4.90344448581,-4.78407656702,-0.993742192071,-1.64510239435,-2.91349147381,-10.9118627248,-4.57638170858,-3.93430512453,-0.00411792094455,-1.93518735101,-1.19581708996,-6.04660481429,-4.54414379321,-106.391233817
off_to_on,-4.3921802209,-5.72278832877,-1.90721228553,0.0259472035285,-0.000534124323817,2.33062471123,-1.81374427815,-1.36267372955,-0.00116530500506,-1.7097502211,-0.063785477232,-3.11565455949,-2.9478333873,221.175458909
off_to_on,0.727921396251,-0.345356950656,0.00874530197876,1.56723136036,3.62179553339,15.7941115329,1.90812531401,1.69859326235,0.00211394650074,-0.400859731798,0.457832038282,2.4163077567,1.26858817617,339.779578628
off_to_on,3.82668934861,4.30678961575,1.61449325309,2.03037181299,4.1580032475,14.2434529242,4.22827491145,1.89085164239,0.0044549830995,-0.356364329424,-0.395363384829,4.43611292353,3.59577350907,130.196700546
off_to_on,2.20019960703,3.40521645216,1.16386314507,1.11653996283,0.667454750777,0.134037079244,4.12222745353,0.480411162401,0.00509924367284,-0.274653693267,-0.752733054378,2.41429884602,2.64941041089,-177.680323817
off_to_on,-1.20592241317,-0.807144212564,-0.494936989485,-0.609406032147,-3.54406782748,-11.9237544937,1.77139063804,-0.27690493709,0.00382038041258,1.14955884787,0.205344809021,-0.143473865963,0.0833170379747,-267.501605569
off_to_on,-2.93443727018,-3.34061862061,-2.03087697279,-1.82270138718,-4.26843050307,-13.0510175869,-1.800475272,-0.547476555692,0.00100016872392,1.93401189539,0.736573544713,-1.56685854299,-2.13819890197,-94.5342720864
off_to_on,-2.05074338867,-2.06154445278,-2.38218415178,-1.53359570023,-0.898034256479,-5.55863216594,-4.27775699113,-0.64980118068,-0.00227022870307,0.406792708531,-0.105992891907,-2.5094303911,-2.5309623494,96.7841172284
off_to_on,0.842654590844,1.44866264754,-0.564251326511,-0.213486303604,2.91809505104,4.1809395049,-3.28103740755,0.57407477207,-0.00456991824385,-1.19343059634,-0.571721285489,-2.36714637042,-0.462849259128,106.422572523
off_to_on,3.89402072787,3.93523920129,2.7160551636,0.772827728616,3.23817371068,10.3772131563,0.382416756076,2.42859987722,-0.00495112900239,-0.377999522496,0.552049058065,0.335809174768,2.30270542515,11.1461920215
off_to_on,3.78849963504,2.72892128591,4.12824010481,0.866802267875,0.0808384133327,8.45817061048,2.58272337578,1.31252814488,-0.00340773736818,0.894455983243,1.40717866514,3.82135728342,2.36921970446,-4.64033687581
off_to_on,-0.967915349966,-1.86234103129,1.18684668533,0.692651791935,-2.72699201138,-0.741112200936,1.06276991474,-3.36483771881,-0.000649205084905,-0.621770262105,0.119588499071,3.46070117521,-0.9378933107,60.5209081358
off_to_on,-6.2551868025,-5.73042694338,-3.60304568386,0.663834573286,-1.94806793034,-8.25617697269,-1.12031106078,-5.76934679221,0.0023296506503,-3.28204264768,-1.69980226972,-1.72458071742,-3.68311615279,52.4716156319
off_to_on,-5.57091362653,-4.46134086497,-4.81699013053,0.248451583812,1.39589491046,-5.68780437921,-0.14809796919,-1.07679986309,0.00445778287916,-2.28954485133,-1.32076972799,-5.92897444925,-2.06900742004,-62.6008822493
off_to_on,1.6269753995,1.48202807271,-0.756197438252,-0.825683601645,3.28949584967,3.2550852188,2.40332817427,6.13672867443,0.00483205210515,2.64488432023,0.667278122584,-3.11981951498,2.31222717639,-128.958320498
off_to_on,7.93965262534,6.60056843444,4.25899196679,-1.55500056425,1.40259206061,6.65269383405,1.9803499361,6.84615725649,0.00321491759455,5.96060003706,1.34094851125,4.4795688378,4.48472987811,-47.8894785912
off_to_on,6.38979267717,6.12628787018,4.94405731512,-0.848087554828,-2.31347057731,0.474307171099,-1.38316508088,0.0688411405526,0.000320754641609,3.5894353069,0.0971410953059,7.9509166422,2.37105717267,65.7161119937
off_to_on,-1.44528417295,0.642045338396,0.631579978027,0.720472481202,-3.96242780992,-6.37812863046,-2.94056323445,-5.78351179365,-0.00257924141443,-2.0730245797,-0.833273123967,2.39433761401,-1.52679163562,67.6484878647
off_to_on,-7.67037950566,-5.34437629919,-4.6907109814,1.41580733597,-1.93177684007,-5.24968778557,-1.04490547543,-4.71400644095,-0.00437968017134,-5.92600708368,-0.360023148959,-6.61591259806,-4.00204710773,0.227848844032
off_to_on,-6.76155213893,-7.5495631914,-6.20997902814,0.571190158642,1.78193418722,1.19696439633,0.439851264002,-0.130926396982,-0.004513496491,-5.61270374016,0.16810963016,-9.18206743207,-3.84551247066,-5.81032205208
off_to_on,-0.159784594347,-4.20467025948,-1.93477525438,-0.616309928581,3.94937990861,5.14274501444,-0.551673666158,2.17359180378,-0.00294290224981,-1.69288999868,0.0678222855596,-2.35483309847,-1.07708492796,42.3169456469
off_to_on,6.24134181514,3.03847161627,5.25968596627,-0.737886958853,2.99952989654,4.57295813497,-0.368964131196,2.10081088701,-0.000181007634803,4.07910679246,0.523435047586,6.85338673638,3.17684082724,28.4479080062
off_to_on,7.14535578995,8.78877146246,8.70945176624,0.129526835064,-0.16323077186,2.37178413721,3.06483477073,2.24490455408,0.00269347555556,8.13124638946,1.5721940442,9.44290339147,5.60335747618,-55.3829849071
off_to_on,1.74154737525,7.16184986766,3.83345963069,0.776451196455,-3.14828992164,-0.660042790418,4.52825939218,1.69629448172,0.00443541312501,6.02831769866,0.995041237444,3.51218546218,2.99407037141,-85.919748532
off_to_on,-5.1555680657,-1.57729771542,-5.65524849494,0.411022582626,-3.68445199855,-4.8324043347,-0.626476149695,-1.48567890341,0.00433526806443,-2.10295080226,-1.83339206682,-4.99666701889,-2.89701384153,-15.152455247
off_to_on,-6.78691428581,-9.13015422118,-10.0856047136,-0.57925310026,-1.26792095998,-6.56365681791,-6.80900229272,-4.55090404988,0.00256197860563,-9.0605464036,-3.66171913318,-8.84333858341,-5.83998543436,51.5235459043
off_to_on,-1.51799696378,-7.46725495258,-4.61080125356,-1.16499899567,2.09639729116,-2.07171834507,-4.68449530405,-3.01169268846,-0.000107783835155,-7.6655913287,-1.60170074649,-5.56937604593,-2.61468025992,32.2623606929
off_to_on,4.60909972249,1.41339668644,4.6443933154,-0.684533296029,3.38996185351,4.75613555486,4.03188091337,1.78706122421,-0.00270944628676,0.364972528699,2.28015916537,1.67897641227,2.59054827722,-8.31769801532
off_to_on,4.76024174979,7.56359916365,8.02460510201,0.512873619215,1.56211228479,5.72910854317,7.49444386601,3.95842353947,-0.00430232596396,6.49852263412,3.62212649206,7.34145621109,3.85505294351,10.4333260684
off_to_on,-0.237737292653,5.1699294738,3.8237132661,1.30724665029,-1.28142097622,0.368970887798,0.979634495178,1.88543762656,-0.00419919318765,5.92948086412,1.72084193992,7.38679074727,1.17885714679,43.2512687851
off_to_on,-3.50218250842,-1.26691091736,-1.4942648409,0.927917107722,-2.25885395356,-2.81076425013,-5.96313263323,-0.119301424388,-0.00237028871917,1.80325423748,-0.423619161758,1.9256728206,-1.00142864915,9.68700134577
off_to_on,-1.64578684092,-4.1748067396,-3.09356310401,-0.135270411888,-0.903853455037,0.581682231555,-4.07134112467,0.156252467865,0.000390250763604,-1.32089654234,-1.21818448916,-4.80395028824,-1.04138672441,-54.6196384347
off_to_on,1.43786329838,-2.35098651157,-2.59017164553,-0.720256785003,0.769575236441,3.73471211237,2.20971940868,-0.573961284048,0.00288893706203,-3.10053952775,-1.87731447139,-7.57701161913,-1.18880511951,-54.9039679259
off_to_on,1.33090450448,-0.0270412436234,-2.53168653253,-0.494745934368,1.03822203914,-0.471234723895,3.1787651317,-3.79697196596,0.00418481518381,-4.3206207966,-2.56450969499,-4.46038448635,-1.92367766415,2.64005870542
off_to_on,-0.662406572366,0.541295176214,-1.53931151315,-0.232620449106,0.205457603956,-7.40797116424,-0.631528803121,-4.60934919652,0.00388653158818,-3.03133336271,-1.19831985113,1.61455624756,-0.494963544897,27.7557875249
off_to_on,-0.826223902245,0.939377607799,1.91023395418,-0.406445249061,-0.48655988067,-6.71585371468,-1.17035063156,0.620820178277,0.00210903348373,1.8051420939,2.29464514554,5.65575293989,3.26605376765,1.91269791244
off_to_on,0.696701520496,1.90178452512,4.78693528224,-0.374167581268,-0.504282691015,2.45799820874,2.31677510252,6.56119270661,-0.000528155216943,5.80696390494,4.07659844544,5.00031361162,4.48417250608,-2.59217406421
off_to_on,0.915082337705,1.47873769172,3.10612127567,0.401413293278,-0.0609385343633,9.75183068091,2.33488199183,5.38700589154,-0.0029124622312,3.70843294648,1.48651397647,1.07524558192,0.08697512455,35.9673165842
off_to_on,-0.488632303557,-0.955351580909,-1.56932291645,1.12843336568,0.540682034494,7.24106917826,-2.76628954927,-1.45262163379,-0.00391648528583,-2.47456486569,-2.47457287529,-2.58908755543,-5.28181854282,44.9952869217
off_to_on,-0.912052031107,-2.57825474121,-3.69416570224,0.744373355752,0.842759468379,-1.4066842453,-4.84328662424,-4.99087823408,-0.00332005870403,-5.06104160347,-2.98991835302,-3.59212280811,-4.76024466958,-11.2302732933
off_to_on,0.273592883187,-1.21676014518,-1.4840111832,-0.29440913627,0.245610277964,-7.11441724255,0.226350496865,-1.86017857338,-0.0021591970399,-1.15793842277,-0.15445789683,-2.1667264081,1.03474096066,-59.7776095499
off_to_on,0.646699321539,1.04422052933,1.00728969945,-0.597972560944,-1.01171176873,-5.95445195689,4.7080000319,1.60442070483,-0.00135680722739,3.38496328397,1.71355961255,-0.136422827545,4.7383394183,-35.0122708256
off_to_on,-0.739480457104,1.03026883476,0.341813562816,-0.0780306548132,-1.47643111445,-1.02137400604,1.49856497305,0.15157231081,0.000450246325763,2.55761055479,0.735967639799,1.16819314156,2.52613529393,16.9936104726
off_to_on,-1.39199403631,-0.520389293854,-1.45310998425,-0.079953777507,-0.197666167504,2.83741251395,-3.71501069922,-2.44869789199,0.00601277055017,-1.56187993292,-0.48276964266,1.77490036294,-1.29534343877,20.3520394619
off_to_on,0.423711842028,-0.311136935633,-0.554141294391,-0.947771382537,1.54820805211,3.27491552108,-1.76559585754,-0.56648094939,0.0133737971262,-2.76963660668,0.0649208677797,1.97508900125,-1.54042368076,-9.20109870404
off_to_on,2.45695752281,1.85493728496,2.64488969522,-1.08417929057,1.56489117488,1.24676322166,4.26298313923,3.55871285211,0.0117467179146,-0.0169907894154,0.577517542658,1.1566819634,0.507929504063,-6.05969128751
off_to_on,1.72628434515,2.28520726679,3.94874052076,0.531533781527,-0.237417983563,-0.275262664803,3.67034274219,3.4795765998,-0.00835523338635,1.99024404621,-0.783774037604,-1.19672619441,0.384070094878,26.9295229764
off_to_on,-1.02155799202,-0.877766010738,0.995190224261,2.22969470799,-1.54313089917,0.591428982767,-3.7965666448,-0.895323325848,-0.0347051120022,0.569102625756,-2.05450125936,-3.48822454928,-1.93968167418,30.5227431694
off_to_on,-2.55296197621,-4.11537378773,-3.6712121923,1.67452035551,-0.796420419575,1.96516348532,-6.53315670732,-3.20621022789,-0.03250357756,-1.33879072136,-0.437867484214,-2.74084580654,-2.27625525622,-2.81784407134
off_to_on,-1.59372765858,-2.93022293401,-5.34815585851,-0.704852624476,0.712055421046,0.390357090165,0.497077628031,-0.748288983695,0.0165606880251,-0.452020443751,2.67457856183,1.45396211608,0.74800401262,-21.0729763757
off_to_on,0.265313234715,1.80606930083,-2.05633256999,-2.13219377926,0.862349233453,-3.68747746182,7.21163584698,1.7728816807,0.0723184647769,1.75396241621,3.10037444604,5.00264475973,3.31254571552,-9.40029272286
off_to_on,1.30816698653,4.56702749222,3.32516681847,-1.24189558739,-0.292206313515,-5.44974847923,3.77652458415,0.289392158227,0.0607089701437,1.68280726948,-0.0834182223564,3.45566255519,2.09446371722,-9.46085402675
off_to_on,1.20013235906,2.12714067305,5.53897787523,0.380471880709,-0.90922521285,-2.22242014223,-4.57517072329,-2.36558705494,-0.0347262828342,-0.888155811257,-3.05817248974,-2.11455741353,-1.07255129412,-29.6223320901
off_to_on,0.286589265295,-2.46555195851,2.20644833416,0.837141747297,-0.169957497585,2.60704891293,-6.21195497556,-1.64796491094,-0.123284901293,-2.74345817214,-2.53529008967,-5.66079294576,-2.28996416847,-19.2015450536
off_to_on,-0.609616651335,-3.81100106427,-3.14854179403,0.381101831037,0.811965350625,4.63408463055,-0.36389699027,1.34317376623,-0.0921845937357,-1.81700697819,0.101217133381,-3.33727230355,-1.00234534003,35.4833290803
off_to_on,-0.162137226389,-0.598554878134,-4.51754724816,0.239699532079,0.885976630806,4.23977107755,3.89596721127,2.23463474019,0.0504066859224,0.591515026442,1.40636746305,1.90754250404,0.304223512174,64.6919843356
off_to_on,1.60233423896,3.29466126511,-0.455488922375,0.380343129075,0.274599280482,3.67616039298,2.69733264469,0.688263158285,0.159816567194,2.16201011874,0.704002186343,4.38348923054,0.469328959785,16.4867917013
off_to_on,1.93668210916,3.56485870335,3.85423297197,-0.0228481095191,-0.317504463153,1.37445578593,1.07553235021,0.231248652203,0.11407428604,2.10775382658,0.150081886918,2.56553695726,0.683177241078,-53.5835801181
off_to_on,-1.44036975212,-0.0664777856314,2.92793065079,-0.685058461899,-0.812144588262,-5.0208187426,1.70189756268,1.4397766853,-0.0396893763016,0.892460565868,0.829118718947,-0.343210140233,1.25767341921,-55.8201262443
off_to_on,-5.73600097058,-4.1577800015,-2.09448757872,-0.497337587799,-1.21564212485,-11.0682627282,0.138615207258,0.602257974046,-0.141763897104,-0.927418735107,1.18171018624,-1.65453970898,0.467918257719,9.40679338942
off_to_on,-4.94299940789,-5.01593287585,-5.0077320904,0.438727306841,-0.87204153859,-8.19232015409,-5.2969703083,-3.40846023353,-0.107873215297,-2.49537013352,-0.20282485857,-1.85442363687,-2.04531402044,61.9177425431
off_to_on,2.22003404624,-1.51463032252,-2.27969297172,0.692756063159,0.637741144304,3.84302026077,-7.62699895136,-5.60184237488,-0.00607152875569,-2.36366137878,-2.02605060071,-1.76731890208,-3.15984130245,48.8915503543
off_to_on,8.99677501836,4.15726805986,3.16727179396,-0.243130743138,2.20845222696,13.3043027574,-1.2981595541,-1.57538541925,0.0575543913164,0.083329182143,-1.87885447015,-0.413670771056,-0.136547917661,-14.7667819977
off_to_on,7.80704661364,7.54291022367,5.91465845116,-1.01260147011,1.9883472482,9.99094722776,7.72745115022,5.18240596242,0.06480422107,3.03383226453,0.317779359704,2.34015332939,4.46954887179,-84.8976881944
off_to_on,-0.686357087475,4.95608816458,3.60666273008,-0.427473246995,-0.277758340489,-1.61191769471,9.15177819422,6.98189258915,0.0592803026731,3.39989492616,1.97652365918,3.47558683764,4.84877464471,-105.515233095
off_to_on,-8.31445498914,-2.59498518693,-1.77577848431,0.718336614765,-2.47836784524,-8.25361310164,2.26030963696,1.93124633016,0.0479625450026,0.232540750102,1.17453568885,0.343569904659,-0.536771659884,-22.1582340353
off_to_on,-8.56120458758,-8.84011082029,-6.09122038977,0.910275427863,-2.3225182674,-4.86848462707,-4.47918858807,-3.95322521884,-0.000408874370086,-3.65637166304,-0.873559270196,-4.40423946759,-6.11091756912,136.209584675
off_to_on,-2.58294762651,-7.750136419,-5.82917261651,0.174555310024,-0.00737081210287,0.701216488385,-5.87406769437,-5.00535028582,-0.0728840275979,-4.33305699543,-1.53455617679,-4.81751563486,-5.642291414,211.849878564
off_to_on,3.74365165336,-0.198154114439,-0.776085933263,-0.21122370295,1.93466412458,0.276821109402,-4.47006175803,-2.23764763052,-0.100641238679,-0.92503950834,-0.220208889175,0.723002444062,0.203560578912,71.0866201838
off_to_on,6.21636867552,6.63697703693,4.98004092709,0.10081252589,1.57005478674,-3.56916321495,-2.65222936429,0.305123010233,-0.0497720666301,3.47312028484,1.17645496273,6.59158646322,5.14133619553,-182.387303583
off_to_on,4.81694274932,7.24562335817,6.32612707832,0.0628866690692,-0.214642437578,-2.59723777693,1.47866000127,1.75423674206,0.0279031737098,5.0822879326,1.18390801897,6.25663759122,5.1024797747,-272.323849097
off_to_on,1.71439993851,3.13660723593,2.51607722328,-0.834598366414,-0.987379048361,4.4837322059,7.35947224254,3.41871422261,0.064288758703,2.89928548969,0.49992024861,-0.165251118088,1.83866236269,-86.9853254687
off_to_on,-1.36716697061,-0.954527861481,-2.14497779709,-1.43395654077,0.00296053135243,9.55088402293,8.30230863049,3.95461706225,0.0556185116043,-1.22066476535,0.155360748608,-6.45126072746,-1.2845941034,162.11177348
off_to_on,-3.80230628354,-3.41236244099,-3.77298063622,-0.493101171631,0.892173398108,5.48626097437,0.445730331021,0.490794044706,0.0385279173014,-4.72755876905,-0.487334021345,-7.25187771461,-3.51073378816,210.316845546
off_to_on,-5.02493936731,-5.21906335999,-2.90658008366,1.35159617604,-0.0311882708822,-4.4133714823,-8.96271713008,-5.28654677029,0.0200351440046,-5.6751893601,-2.19641505452,-2.7149705618,-4.90853518028,67.5452377024
off_to_on,-3.788641439,-5.18061415426,-1.7073241145,2.16631141941,-1.62496724527,-9.82625278126,-9.0674938499,-6.90457285087,-0.018633729021,-2.9703316545,-3.27207858183,3.09564284558,-3.54825074388,-54.2984182286
off_to_on,0.491356910942,-0.741330924569,0.00546364378144,1.06499069687,-1.3191962358,-5.41313695891,0.279177222042,-1.28163338478,-0.0640082452595,2.57523406458,-1.01866384344,6.23051391763,1.75718391193,-62.8576470184
off_to_on,5.45111659779,5.95084184589,2.91256709906,-0.813717435423,1.03912536258,3.00604188319,8.03307373413,6.08746946236,-0.0707280215066,7.26012937354,3.76003213676,5.20719752007,7.12774666832,-54.5137482035
off_to_on,6.53065903445,7.89394832213,4.52529226286,-1.75508706577,2.5071426393,5.66753974506,6.17842822603,7.30951881183,-0.0266892207215,6.71274028549,6.16140748164,1.30324467493,6.42457190203,-80.6373650285
off_to_on,1.87206978512,2.04618361505,1.73403105214,-1.28159316816,0.924546381667,0.793786336051,-1.24144214173,1.64279797281,0.0252896594896,0.602286700002,2.7923507553,-2.54298269865,-0.65607635402,-49.1305300003
off_to_on,-4.32111983196,-5.32151507825,-3.36591217828,-0.245520252186,-1.94639746802,-3.7385774447,-5.23721514949,-4.3934096574,0.0455243595878,-5.93577575643,-3.45335321971,-4.02873270506,-6.83304219579,74.5511796007
off_to_on,-5.72035762552,-6.0109244465,-4.70124288976,0.449846697882,-2.5553791661,-1.22010239814,-3.15056384181,-5.42574608972,0.0413779545802,-7.19573000542,-6.34823750799,-3.28655672866,-5.72218216059,145.807080722
off_to_on,-1.32585438962,-0.391032775465,-0.42735484282,0.711637738373,-0.113344233,4.92997357771,0.706285893244,-2.23560563283,0.0345845492492,-2.83496052233,-3.53249685222,-1.91884890913,0.440312636623,48.9877635311
off_to_on,3.3290396934,3.86609691399,3.99588643084,0.863981268209,2.54481658226,6.08468496886,2.42692772713,1.42678061277,0.0193748180823,2.36148513374,1.31662209783,-0.495635773232,4.2444712814,-97.6241081725
off_to_on,3.12542740734,2.38634291638,3.06567587492,0.857935109411,2.52701760702,0.0837273495044,2.04182163964,3.23634377703,-0.0162692814245,4.15839324537,3.53609340246,1.62845501494,2.54165398264,-101.436666736
off_to_on,-0.777495891752,-1.41461540053,-1.59905871071,0.306481974121,-0.049662240473,-6.45109632697,0.76453485123,2.50437369742,-0.0516549728507,2.65606155443,2.505261922,3.93028341352,-0.886613168961,17.6615465338
off_to_on,-3.35487964057,-2.68361523238,-4.14538665293,-0.693318965846,-2.71739334568,-7.16263825617,-1.06599487116,-0.451918210513,-0.0526843639518,0.530100906707,0.749793762931,4.15727463826,-1.55114848195,72.2374765333
off_to_on,-1.96516109612,-1.121817172,-2.1805455937,-1.2588283568,-3.17792293506,-2.74119453741,-2.54898380576,-3.0888267017,-0.0206531914452,-0.46784237106,-0.0658443077608,1.34365737104,0.352566092615,4.50039529884
off_to_on,1.67963100684,1.05091564628,1.57060392578,-0.712606141358,-0.904994956492,2.42542475143,-1.79081481726,-1.75903813676,0.0110156389245,-0.428221470449,-0.417517186336,-2.15565484366,1.69489153324,-46.8093455977
off_to_on,4.26068181657,2.8068455524,3.73517550251,0.322995852705,2.52750387011,5.8361724538,1.37028816742,3.1109547399,0.0248959403602,-0.242717353646,-1.00755560101,-3.35460723808,0.86234516604,3.67736049922
off_to_on,3.52362293847,3.26119892114,3.17713307862,0.527417786653,4.20789023874,6.5109825487,3.82468539879,5.38893640142,0.0325480224234,-0.791277390423,-1.47535716331,-2.33044879929,-1.17960115415,52.8520814362
off_to_on,-0.555906480451,0.621057348337,0.345260489689,-0.254165002763,2.20673096298,3.07474828907,2.24405881971,0.529704810675,0.0385299815092,-2.14893307294,-1.22054315807,-1.3038756814,-2.60494609452,1.8085378274
off_to_on,-5.04338897054,-4.15754105775,-3.03284786181,-0.556837541468,-1.99791058679,-3.5614458706,-2.58565726426,-6.95092603101,0.0257738812994,-2.7126786623,-0.308256577181,-0.801387363223,-2.01497194077,-68.6431859085
off_to_on,-5.52393732032,-5.6807062989,-4.02184501238,0.636757429766,-4.38572120285,-7.98259792378,-5.73768561978,-7.82709969242,-0.0104871667665,-0.436735942536,0.794779754362,0.705744094478,0.690110066067,-36.9443577203
off_to_on,-0.858163457286,-0.745318427602,-1.36055941449,2.03656068397,-2.67786936134,-5.40912875625,-3.09240615797,-0.132353098049,-0.0423306524414,3.7645285882,1.59607755052,3.18324118265,3.35395538476,52.2483099742
off_to_on,4.29482968737,5.33077195114,1.90404594086,1.43812180225,1.03463759207,1.68313276956,3.73026052088,7.72718355946,-0.0424138602926,5.3765725353,1.50202107304,3.82636004741,2.83974682453,64.0040994803
off_to_on,4.55448269015,4.5789217041,1.85640195962,-1.12669614233,2.96140146565,6.04101873509,7.99411892358,7.49637951401,-0.018898598295,1.41865575417,0.229785177879,0.967545234862,-1.00239010173,-6.58495733344
off_to_on,0.829589877831,-1.96938687922,-0.360743827693,-2.98504904509,2.03037431219,4.39080277793,4.49789500968,0.84003743713,0.00206595448159,-4.5408266026,-1.33615499132,-2.72861641097,-3.85940769618,-41.0413490291
off_to_on,-1.29190796694,-4.812045542,-0.0293746056395,-2.10444956517,0.228625101761,0.0577702297636,-4.09131821205,-4.25800083554,0.0131052757399,-5.55661868224,-1.54224903927,-3.14779764942,-1.78334418582,-1.95107214692
off_to_on,-0.0757690550229,0.301386869086,3.13680613305,0.381208952111,-0.73011869818,-2.76198941547,-9.03642483198,-3.91206928989,0.0232236782964,-0.0800078282192,0.0623806331747,-0.0735348825515,3.08945573615,19.6323993092
off_to_on,0.150309933907,5.58389616352,3.37486816538,1.88941120076,-1.06162331788,-3.14216287039,-5.03651660697,-1.22745965932,0.0304232617859,5.34052442972,1.68126596318,2.37186264763,4.41582146636,-22.2520000441
off_to_on,-2.97839018324,2.44493332812,-2.13981246254,1.68750049323,-1.21798299655,-1.62814912558,3.33669214919,-0.110598089176,0.0222219339754,3.97593920634,1.1189001356,0.836363453894,-0.237752854728,-47.9212540869
off_to_on,-4.68546970734,-5.44866506364,-7.27662973752,1.04324967517,-0.673653979617,1.13424994508,7.00562845379,-0.420394355241,0.000428497601525,-2.54186599996,-1.37240850587,-3.07256824259,-5.7055345944,1.8363402076
off_to_on,-0.235391042476,-6.98665247564,-4.6712961032,0.624428807627,0.661022874732,2.84846279543,3.37165909686,0.00439791013339,-0.0174646933488,-6.27860996643,-2.95745774189,-4.40394946341,-5.27792590102,57.3295752329
off_to_on,6.22159147869,0.476376255714,3.33787737692,-0.322680556784,1.41076618694,1.10593439746,-1.49338045258,1.5219468274,-0.0230782433248,-2.81805260489,-1.39241106111,-0.400321270621,1.10300278356,36.9258718009
off_to_on,6.09917337197,7.32591585671,7.24984289348,-1.87121836706,0.503807670914,-1.91703473404,-2.04622212688,2.54222227444,-0.0235998899572,3.76727761847,2.12877899051,5.8261194546,6.73953471938,-18.3997057485
off_to_on,-1.21115069402,5.11804821305,3.16210765386,-2.39796328996,-0.959983428796,-1.07498290406,-0.314493561398,1.84365462607,-0.0210789333199,6.29934421823,4.01567940533,7.6425393301,5.87745929372,-21.8002385875
off_to_on,-6.66204470971,-2.4092681953,-2.77061224083,-0.87302826503,-1.01533392457,3.12214270151,-0.944956795111,-0.132341100081,-0.00622110806206,2.68448137635,2.23795258824,1.92300164106,-0.217499054108,13.2546091011
off_to_on,-3.80650452458,-5.56444591751,-3.72237849051,1.19310872681,0.437823392101,3.14053868927,-2.96201174913,-1.78824816506,0.0196839311914,-2.67937940914,-1.39844301864,-6.36206959413,-5.28543305513,8.22845876476
off_to_on,2.7353818998,-1.82459571546,-0.718271947072,1.69715275397,1.49589110397,-3.94499722404,-1.64094939118,-1.84914971345,0.0358655503141,-4.53429434175,-3.38861159622,-8.51489625719,-5.0099904851,-36.8766476432
off_to_on,4.45838122709,2.52129602243,1.06485883388,0.935318005122,0.77697611687,-9.05496434294,2.84412273119,-0.745337372066,0.0275333565458,-2.10274696969,-2.4243219905,-2.10245856654,-0.930017698277,-44.1591076647
off_to_on,0.539926206622,2.35631674147,0.332772122906,0.722031644638,-0.951915156312,-2.70293769691,4.65022842448,-0.152031551298,0.00598499823205,1.19222096473,-0.258240823124,5.49224728722,2.32446385949,6.67890270668
off_to_on,-2.59654113564,-0.16091829479,-0.219200578191,1.01388847358,-1.8387768182,9.44692932046,1.18606935191,-0.537958326329,-0.00955183038191,2.01560653166,1.08133065793,5.69351421392,2.45252598641,45.9759043828
off_to_on,-1.27133686465,-0.730575591732,0.449441363743,-0.104502980352,-0.962346967967,11.9801513105,-2.71220557558,-0.274435769153,-0.0171495989853,0.26851769057,1.47996751509,-0.778347949257,1.04350604394,30.8391895017
off_to_on,1.24850508669,0.298973079928,0.525993141149,-2.60587070496,0.847696015693,0.775837026188,-2.33435918013,1.43597857275,-0.0238817947542,-1.61075293899,1.57488064213,-5.29886606796,0.22989328505,2.40243135137
off_to_on,0.926144174723,-0.290904600459,-0.616130674918,-3.34261744734,1.80938671885,-10.6972878363,-0.0224838125995,2.30864929748,-0.0241023611487,-1.4371941934,0.997801512912,-2.50485861908,-0.123594558965,-1.64516122497
off_to_on,-1.21300169627,-2.28081698539,-1.07507211894,-0.431796265292,0.910534670511,-9.44183783611,-0.177221888732,0.36442843125,-0.00740846929733,0.962503411556,-0.591817055882,3.81987748548,-0.814821097141,-6.64997418536
off_to_on,-1.61164258956,-1.85240731525,0.135235621988,3.18199366556,-0.847419049435,0.73892691254,-1.26132690938,-1.73412207613,0.0162377572018,3.84366633709,-1.73574561968,6.60073822665,-0.896420253007,-29.5068012609
off_to_on,0.319603516845,1.97833498271,1.28231986512,3.18296830444,-1.34467903302,6.76790421006,1.0061762006,0.0208172595082,0.022703265507,4.47679776061,-0.750219498628,3.4013616942,0.585639742679,-26.4362891295
off_to_on,2.01932050853,4.67998437336,0.831026835332,-0.0921376337092,0.026404091166,4.1392701764,4.55150260072,3.48112703051,0.00909213687027,0.862491558007,1.11877263161,-2.99586380163,1.59754939319,23.3146293017
off_to_on,1.8112165653,2.26286536594,-0.117089415413,-2.12750593014,1.31707005407,-0.495562837086,2.65971829473,1.7517652636,0.00164365133133,-5.59450935781,0.766062502847,-8.22364163117,-0.570091434702,47.1118987756
off_to_on,0.532478108256,-2.60720998377,0.0413963511741,-0.746219165716,0.563308562123,-1.54788312538,-4.44239145911,-5.70008984684,0.0162829654241,-9.28065062099,-1.83905665106,-8.2021836993,-3.91323446849,-19.6130748376
off_to_on,-0.660879659363,-4.04154611223,0.474063702154,1.09107714658,-1.31005713702,-0.850929740926,-7.41982264337,-9.27144145897,0.0281269337946,-5.00939792169,-2.63394208115,-1.15229756061,-2.9060696387,-100.02761656
off_to_on,-1.86457890995,-1.26194742166,-0.769940709862,0.272947463747,-1.6592489336,-1.30242916493,-1.00149459,-1.78654293566,0.00123160725855,5.03559198582,0.702624194146,8.50919230977,3.08909680302,-51.0329785742
off_to_on,-3.0447172247,0.799377296163,-3.08808066126,-1.65876343631,0.0654290018317,-1.32060680609,7.0959531519,9.53406623834,-0.0556071530807,11.4232566761,4.40143236036,11.4204669962,6.86488519171,119.692693172
off_to_on,-2.68477256099,-0.33461755261,-3.14686610505,-1.29012549103,1.5723536214,1.1857603754,6.43853529301,11.1171235652,-0.0843352639265,7.39952681266,3.26954121471,3.49196872753,2.65032042635,211.692089911
off_to_on,0.538339524107,-0.788496138136,0.813084809235,1.05461833173,1.16523869947,3.7746564886,-1.35226966893,1.35658421269,-0.039010059179,-2.67331333135,-1.73166420248,-7.00183571046,-4.87019214646,67.3244499093
off_to_on,4.94078284046,2.58467682298,5.69445507353,1.90866639555,-0.0337804918527,2.34266933263,-5.61768545469,-7.39502555702,0.0569054034049,-8.20339352936,-4.47816169483,-8.3488366952,-6.20098527785,-202.818394351
off_to_on,6.29739209599,5.53490836596,6.13404256132,0.261274787107,-0.323497713303,-2.67964491191,-2.35775369987,-6.14778251092,0.124224394628,-5.10552911303,-2.13790247619,-0.659043341982,-0.198807784793,-309.012164942
off_to_on,2.27080847415,2.14691176056,0.705581708542,-1.02361621937,-0.0902250064386,-6.03717825526,1.55408976355,-0.188360870778,0.0988892664075,0.485744162103,1.45786164741,4.54856871994,4.64114154413,-106.344694913
off_to_on,-4.15301562201,-4.95206269583,-5.64659509454,-0.0751090682554,-0.55352203222,-3.57963148569,0.604798203186,1.25300786848,-0.0103614082335,1.8487720498,2.06842888769,0.928377824512,2.58773420568,220.494705547
off_to_on,-7.14194648251,-6.79001504685,-6.70879762315,1.00346056881,-1.17985096832,2.81286417062,-1.36427951084,-1.25824424231,-0.12556922654,0.141259352691,0.673300798735,-4.24307597937,-2.03681526665,339.188852699
off_to_on,-4.31328687059,-0.979890806636,-2.10853885712,-0.117509400589,-0.526342609942,6.71738318962,0.67710228719,-0.947839818869,-0.155681078852,0.273466345512,0.264465587262,-2.15875703851,-2.68804280711,131.081750272
off_to_on,0.795662521838,4.28973798737,2.56956056555,-1.87328836172,0.952567356467,3.97811108042,3.69407316767,2.70242106525,-0.0652217857531,2.39039865161,0.414899089448,4.05037800922,-0.0164602108983,-175.62159658
off_to_on,3.40820874887,2.26319399161,3.09440847096,-1.22399892659,1.25559974182,-2.06972711215,1.8797746496,3.77534644366,0.0882288912929,2.52783782007,-0.952899978954,5.07726935767,1.23951392388,-266.437786383
off_to_on,3.08558136429,-2.41092557073,1.43487611749,1.30942482952,0.0488677578414,-4.09321820464,-2.99774933493,0.751232579857,0.184090209418,-0.0414838245134,-2.45462884767,0.184443133759,0.591128169858,-95.7734098602
off_to_on,2.66833106511,-1.3172739019,1.49056644485,2.22464348863,-0.682242505108,-0.445921919017,-3.88137263854,-1.05654402824,0.134785869149,-1.64478798299,-0.775667136687,-2.6832361582,1.017589608,94.5631603992
off_to_on,2.83010152901,4.29759131313,2.55491466271,0.335097908727,0.181595331439,2.02865009536,0.386014210429,0.778577854167,-0.025763994358,-0.64352241466,3.00650136949,-0.297554585059,2.06803710283,105.347866203
off_to_on,1.04492825338,5.32340642396,0.853550511137,-1.59274743345,1.0641943354,-1.77459670529,3.26034227148,1.27810942007,-0.160593996829,-0.0027703895845,3.57653467656,1.4277988147,0.280061301492,11.5594802703
off_to_on,-3.37680071672,-1.05871659048,-3.39964814272,-1.14911709717,0.224412726043,-6.04189660787,0.716980015963,-3.13189876387,-0.158439442775,-1.72885386683,-0.746870218016,-1.70489716349,-3.65065260695,-3.86371426232
off_to_on,-6.55094690162,-6.88805758738,-5.24161836166,0.466287016122,-1.46251935222,-1.94344105718,-2.88982675818,-7.29490693912,-0.0407708635129,-2.99379684729,-4.6126285451,-4.93212447059,-4.33047335996,61.1316641305
off_to_on,-4.67293834946,-5.09458706811,-2.29309726103,0.893770518208,-1.80656722798,7.26617791562,-1.83548638342,-4.1589297003,0.075718931198,-0.674788819382,-2.85533208145,-2.51855467273,0.0856870471635,53.2658413911
off_to_on,0.650412964087,0.945777259251,1.56785068774,0.157503790543,-0.404005993545,8.75446394672,2.6068343046,4.48616215834,0.110946941336,3.27323287848,2.14857700395,2.98278050865,4.3254457542,-61.807218961
off_to_on,4.48244248109,3.5604173445,2.28379646064,-0.190708715505,1.14593023017,-0.510996743571,4.38524539546,9.61334964306,0.0826278110863,4.33669636998,3.97175982599,5.02285479084,3.35064807875,-129.037343587
off_to_on,4.71230232244,1.65414464063,1.42811004678,0.0135372598772,1.59604103583,-7.56017421388,0.826503168324,6.11988902724,0.0400148379845,1.57843479655,1.00592058132,2.67401502636,-0.824044352112,-48.9545905111
off_to_on,3.15197566832,0.177720272196,2.25305417116,-0.240965338587,1.13622103792,-2.65049570292,-4.50978578997,-1.99055895696,-0.00935102078463,-1.80577446729,-2.20028590938,0.164548167177,-2.80388466372,64.6925242878
off_to_on,1.258515024,1.45357075341,3.20191974029,-0.766267082276,0.336242576691,5.1934468117,-6.02582278818,-7.23733594938,-0.0732703391174,-2.96300528095,-1.88744468885,-0.698064102487,-1.11066126591,67.4077812078
off_to_on,-1.54123494725,2.571309162,0.540146136815,-0.332524897161,-0.598831843108,2.21059733785,-1.40754270564,-5.9915230538,-0.115407409844,-1.74743594221,0.522143114199,-1.71118079295,1.49772738134,0.40768568662
off_to_on,-4.66311710002,0.854746498502,-4.19917529976,0.888534345456,-1.35929523559,-7.73182089475,5.92110357813,-0.317476587133,-0.0823031714506,0.447696229621,1.65578741603,-3.02124436118,2.48913370933,-5.6828469224
off_to_on,-5.12835927419,-2.58087542971,-5.27830676046,1.19159891058,-1.39695777606,-8.58096961937,8.70491168486,4.47277425928,0.0139119318737,1.71499021693,0.655880526213,-2.43196794745,1.09195951066,42.6387041148
off_to_on,-1.59983541337,-5.04965704247,-1.45812336416,0.0488868233406,-0.597291302995,2.77591985549,2.62194965284,4.03736197917,0.0923776117199,0.481016338409,-0.98086625429,-0.0587764977772,-2.36418851781,29.1768401611
off_to_on,2.77237645514,-4.71313818674,2.03705025964,-0.959870643816,0.514211890549,11.7199138448,-7.37670917917,-0.739180853385,0.0970669989717,-2.12254964915,-1.79394180899,1.38536131003,-5.29725075203,-54.8205607478
off_to_on,3.97537054076,-0.813506972395,1.77107752781,-0.644102101745,1.29663084847,8.09483293398,-10.5525462509,-3.96456539503,0.0524577446228,-2.06692980237,-1.13108282969,1.43215306301,-3.43860315256,-86.1198052003
off_to_on,2.07438772753,5.07356428665,0.813756725847,0.113943121006,1.29452313472,-0.890759570693,-2.8369472264,-1.57080285266,0.00814044456832,2.16427139271,0.812976100836,2.1185880849,3.37121041147,-15.7809494775
off_to_on,0.217342712639,8.04356252702,2.2869831118,0.179409765171,0.379865932409,-5.07546266128,7.20188336742,3.04933678342,-0.0284568109494,5.44379726396,2.45206301582,2.80378380639,8.1072604474,51.1757889242
off_to_on,-0.0891664749058,4.14916538806,3.32298958966,0.0368122763379,-0.752600409054,-5.55895364981,8.62350689772,3.55552365808,-0.0691858388481,1.96295728742,1.80075934309,0.302378178227,4.43392669369,32.2127080449
off_to_on,-0.138638876696,-3.5092213958,0.167194518214,0.435248316861,-0.840050482424,-6.40319646767,1.70303952099,-0.1844875544,-0.0905886376437,-5.18505437654,-0.763764371506,-4.13240269156,-3.66174592096,-8.4973061702
off_to_on,-1.03604641515,-7.03584979093,-4.43225055124,0.583739114601,0.192280204273,-3.95245315249,-3.91731437743,-2.27231161458,-0.0554626562906,-6.40682329497,-2.26336084526,-4.12091332654,-6.22444993275,10.2159578986
off_to_on,-2.076622436,-3.55601905444,-4.70639297623,-0.426645334226,0.515302004768,4.29532674401,-3.05107555587,-0.348169223084,0.0208748923644,0.803827703777,-1.01208676155,1.90999733823,-1.26719439716,43.480185261
off_to_on,-2.17896530521,1.34258564288,-0.711245725447,-1.39842625323,-0.973681572345,9.57982589798,-0.264051074142,0.891091705045,0.075530632376,6.99978316569,0.886315906964,5.8888606793,2.66687151459,10.2843942915
off_to_on,-0.988764740139,2.11681845106,2.23319725136,-0.484367734439,-2.10792261649,4.07205839574,-0.597225624868,-1.82392047467,0.0746150901551,3.63061031687,0.727713892655,0.969694335621,-0.132911088782,-54.2932249701
off_to_on,1.34662923248,0.601945411553,2.05744553436,1.524385058,-0.105333304597,-3.84831423926,-1.96120476009,-4.0889312639,0.0440443963965,-4.58529408055,-0.701620649598,-7.0979496757,-3.95463613399,-55.061377636
off_to_on,3.62409281293,1.0461071635,1.68468552181,1.81710637979,3.37532945657,-1.65226975706,-0.414080961175,-0.867757513664,0.0151622491262,-6.45767155028,-0.696989847864,-6.92538063476,-1.27394355988,2.45509196182
off_to_on,3.30390967095,2.14564113407,2.0357157331,-0.228043154975,3.28985059433,5.11024595585,2.38883756999,4.53349535335,-0.0169396205726,-0.173633590695,0.815643398906,2.22467132696,5.03982988301,27.7949201266
off_to_on,-0.585438961244,0.0133807439968,0.074322593406,-1.87897649882,-1.3712924064,0.699722822594,2.3299647145,4.91730043843,-0.0586622874587,5.28466926144,1.33102034931,9.21575401217,6.24251877142,1.82913715681
off_to_on,-4.4326589391,-3.42233800394,-4.03193663472,-1.08181714395,-4.80766026263,-12.1904176704,0.116312080784,0.328031027974,-0.0803930280964,3.82919241098,0.0944410271231,6.51733757885,1.0213715047,-2.99582665194
off_to_on,-3.30694166129,-2.24649739456,-4.43698332305,0.576646441497,-2.05275591428,-12.6086354419,-0.270892810209,-2.31757634061,-0.0513384129656,-0.486892156672,-0.790093283438,-0.930030662544,-3.57332584448,35.6785304761
off_to_on,2.00942299661,3.21010307405,1.40779310597,0.628699934851,3.43640531949,5.07398325216,1.22736720629,-0.41962980718,0.00915351810121,-1.76398019152,-0.153849129616,-4.82947010048,-3.46246714152,45.2071442521
off_to_on,4.90039081762,5.196564786,6.69993245593,-0.380008218976,4.21440504246,18.6257020321,0.804421460532,0.787145470875,0.0520301624157,-0.75143781297,0.355846730938,-4.34021457698,-1.99819058112,-10.826061455
off_to_on,1.61774421443,-0.0992116563132,3.99189227154,-0.143830015548,-0.563327165432,10.2123267363,-2.19884283435,-2.19723162439,0.0590207189959,-1.02841090999,-0.510687740682,-3.22174899712,-2.08627416738,-59.6651156719
off_to_on,-3.51032601375,-6.29400298686,-3.75413422729,1.2970644979,-4.18344201478,-7.04682607676,-3.79041563542,-4.87107311173,0.0485395115804,-2.03573967519,-1.21880466518,-1.9404062261,-1.2471017949,-35.0984492641
off_to_on,-4.4053719351,-5.78647465288,-7.22975870423,1.49243431012,-2.29891000916,-10.8805259343,-1.83193636219,-2.15758893943,0.0301670774175,-1.11187916432,-0.207843462216,1.13645205967,2.35444468601,17.0800734919
off_to_on,-1.34858211585,0.0715263039745,-3.55928401735,-0.37958112556,1.55854969605,-3.14176676895,0.860443026642,3.17101386909,-0.0060060633612,0.953216281106,1.19421090126,4.14815096862,5.04284008574,20.5242286148
off_to_on,1.28812503491,4.58314322104,1.8050899439,-2.04741136992,2.46583801235,-0.534235950045,1.73147150889,4.92163004,-0.0511490540208,1.63296562898,0.984366897529,3.84461823829,3.2379086997,-9.3216921898
off_to_on,2.46026918332,5.30424787476,4.65045406026,-1.55381478958,1.13882472916,-2.9668107393,2.22936498208,2.76985302083,-0.0689427251033,1.55676586646,-0.123416499722,1.54645422964,-0.526189048576,-6.41302052652
off_to_on,3.98702074661,4.16562497408,5.76327458141,0.062123857773,0.683872221364,3.15812297257,3.5928500354,1.07751355141,-0.042329956743,2.46771372867,-0.197241377009,0.918232281108,-1.92625271045,26.7833682972
off_to_on,4.33763232664,1.20788776406,4.8159703693,0.830798941825,0.342367705465,13.9036404607,3.11916368547,0.594150985493,0.000230361124311,2.26069272853,0.350848520293,0.9029090592,-1.6150822645,30.6581256882
off_to_on,-0.101564998331,-4.46357135838,-0.947260994767,0.801005553593,-2.14724740267,8.61478177114,-1.28012364965,-1.86500634839,0.0246821307605,-1.88257292615,-0.227870925836,-2.50230303818,-2.47546000523,-2.76529375695
off_to_on,-6.87099411593,-8.66633748315,-8.90057139471,1.08821609257,-4.31416676622,-12.8886129001,-5.8701852854,-5.69811466536,0.0327650163737,-6.37616653662,-1.27016597536,-7.40992140388,-3.09180208255,-21.1805443621
off_to_on,-7.82361578663,-5.21282623559,-9.99124505843,1.25767169379,-1.51386912614,-21.4825198927,-5.36354143277,-5.49663179311,0.0411908407554,-4.32853973656,-0.496999801953,-6.42513104697,-0.212644897095,-9.2996597854
off_to_on,-0.777797961842,3.67175925478,-1.07179046871,-0.016744026828,4.44784529049,-1.34390138191,-0.763455388259,0.179446465837,0.0424122858818,3.2543930325,1.46289326573,1.80961318837,3.87984821236,-9.101684343
off_to_on,5.73556011924,7.74552874421,8.17945667878,-2.07413417753,5.80142286951,21.7205971042,2.18825137967,5.0810082996,0.0173876743783,6.68301791924,1.21904975914,8.4195679112,3.44893261283,-29.5377144435
off_to_on,4.32004015863,2.86940677339,7.65865151523,-2.41813104126,-0.0371976639081,15.8290666137,1.82594059956,4.00857312593,-0.0244713484366,1.23713097186,-1.62876752716,6.07393968549,-1.03867195035,-19.6034854323
off_to_on,-0.410531960876,-2.52530362004,0.950368417222,-0.264124070851,-5.6327241997,-9.64788123795,2.21410572354,0.400930755478,-0.0502558972055,-5.13237959889,-2.74825354459,-0.70660964125,-2.44065598365,35.2738948949
off_to_on,0.183456114232,-0.437814699187,-1.45625397116,1.99198178115,-3.69851873197,-18.6083809102,4.95380853451,0.334531905152,-0.0461093388848,-3.1810813619,0.520679179923,-2.85471274641,1.78638096609,65.2442406941
off_to_on,4.22382282882,3.89678572615,0.914899874778,1.89821718544,2.51591859246,-1.80056056292,5.10450276744,2.62667829404,-0.0272913173308,3.93865458734,4.27696998166,-0.0396382478729,4.65643128908,17.0910237989
off_to_on,2.23389297766,0.566014690003,-0.640013306106,0.110575584974,4.31539779058,12.9010945888,-1.18385112748,1.15167855769,-0.0060466887904,5.73083261099,3.12852309136,0.637555909603,0.200155176332,-54.1701826209
off_to_on,-6.43112364441,-7.88787665245,-7.07896567209,-0.92281622233,0.116309908765,5.33322122534,-9.07166655295,-4.52722905372,0.0213792258371,-0.0336129775176,-1.91835334103,-3.00123960107,-6.69489147422,-57.432695581
off_to_on,-10.4858118958,-8.70832366425,-7.97258204484,-0.455078724406,-3.3586148471,-9.10588180018,-9.96237652284,-7.53943332612,0.0494448084488,-5.18927388192,-4.7564304644,-5.23007366515,-6.969802349,8.62363414337
off_to_on,-3.11667246734,1.56565818011,1.32882364663,0.0675841857466,-1.69594805267,-7.42368562428,-2.37297369623,-3.64818603054,0.0540819091419,-4.16976963889,-2.58434307718,-2.24439450466,-0.301756479804,63.3322626147
off_to_on,7.43913344844,10.5875547744,10.1075559072,-0.3065467949,1.71077492431,6.29250480102,6.4982172754,2.91357336439,0.024683623592,-0.649767618279,1.15077664459,2.41209302552,5.38262012964,51.448985435
off_to_on,9.49013843907,7.45915302785,7.47821839214,-0.63896449189,2.16810708955,11.0870107917,9.53213762961,5.92300207609,-0.0153124964892,0.783426353718,2.53582675059,4.49853422405,5.54921130348,-13.6177818625
off_to_on,3.31308241987,-2.29216263806,-1.44560557235,0.0659222439847,0.275633691439,1.39407057781,6.12675915377,4.81435650459,-0.0369365135521,1.70263018857,1.87212630023,4.73863291242,3.2042825077,-86.4291542764
off_to_on,-2.24883181407,-6.02923750208,-4.45502773016,1.0028200133,-0.863185403421,-8.69262971743,-0.0246331482676,2.57896206893,-0.0385206939847,4.21267461214,1.12183232306,4.4108995407,1.35737884703,-108.379699681
off_to_on,-3.62474479328,-2.03682408994,-1.18241175389,0.702195569484,-0.906045160077,-8.05733357347,-5.34314976847,-0.040835071545,-0.0330707323369,4.72376814728,0.247250797489,1.10963925143,-1.48568686657,-23.8743498266
off_to_on,-4.16252986334,0.838286681814,-1.10935596245,-0.598099040384,-1.09614813385,-0.341864833,-7.25715589138,-3.69612342163,-0.0196228482758,-0.288807752996,-1.3740845501,-5.96048110204,-5.82503930674,136.86166227
off_to_on,-4.44949768982,-1.37418467065,-5.38457076517,-1.05711364269,-0.720126580652,5.69334139323,-4.43813707461,-6.13694215986,0.00887315813824,-6.393432939,-2.40834511091,-10.7395223053,-7.23410718106,214.067576141
off_to_on,-0.812681208972,-2.68227143108,-4.22660144039,0.137979255935,1.23023553034,5.9680690844,1.21745961123,-3.98685829159,0.0390115431265,-6.103588772,-1.37080193032,-6.65530198766,-2.36224594965,73.2049543807
off_to_on,5.59280256037,1.40720981034,5.31017889034,1.38108243059,2.67273891471,1.06911169554,4.99001695254,1.48541319782,0.0452842861315,0.17150628685,0.554362582385,3.68087790815,4.86661517325,-181.507291347
off_to_on,7.19164558284,5.98609764275,11.5769285013,0.709079188627,0.894328328369,-4.78868886196,4.12820342466,4.82903017404,0.0245679847473,4.73204518656,1.2293301227,10.7469861367,7.59830756193,-272.949048335
off_to_on,1.04780522121,4.41241935899,4.93613713002,-1.33065328277,-2.43327194388,-5.05044871199,0.836937398294,3.36432166715,-0.000398057281637,3.57628676731,0.913919887428,9.23304005702,4.40104385958,-88.8223421738
off_to_on,-5.55013146713,-1.90626013546,-7.20969024057,-2.07617951403,-2.84896227269,1.59614834762,-1.26800205505,0.0557619206997,-0.0141016284047,0.3222730558,1.1191381031,2.07433441209,-0.620243373019,159.847130822
off_to_on,-5.17737502662,-6.17868778963,-10.624758357,-0.220987489422,0.24490351916,6.55109239007,-1.71001038523,-1.46109380102,-0.0229356256338,-1.26063790178,1.17940533453,-5.41632365184,-4.02868029063,208.94503953
off_to_on,-0.207020905918,-5.03445446352,-3.35400871893,2.20920311896,2.54905380984,2.05201515075,-1.81474568936,-1.15440242632,-0.0317130246943,-1.92873149347,-0.631845251455,-9.68843640275,-5.08816775305,68.2566627155
off_to_on,2.6022440032,-0.367840699002,4.48271451489,2.25995772593,1.33087574674,-5.94200775684,-1.06254778044,-0.454246057167,-0.0285604034827,-2.27774878469,-2.9575598437,-7.80260993196,-3.18691584279,-51.6709181337
off_to_on,2.35129671132,4.64794679706,6.10044331973,-0.160376104365,-0.928128872634,-5.51592000725,1.4614570993,0.587579466311,-0.00616340723509,-0.049049573146,-2.2483561464,0.746350544375,1.57919257013,-60.1522661222
off_to_on,2.2556936743,6.98191040531,3.68029620546,-2.17128752597,-1.05540001054,2.41591402036,3.26316369526,1.61260596336,0.0196359778752,4.13370938638,1.43199285728,9.40969092854,5.37531898321,-53.7760911852
off_to_on,1.61771573377,3.72788910981,0.336071953195,-1.65686621337,0.128856607612,5.38894337931,0.820421327111,0.561850404379,0.0288387941647,4.28760313076,3.37617166113,8.78486009719,3.4509630543,-82.2284153121
off_to_on,-2.33954930681,-4.16680312825,-3.69657145998,0.230834069885,0.234932721284,-0.0703036349197,-3.97295308136,-2.82705346091,0.02295710592,-2.15852197119,0.921173296426,-0.945039586557,-2.65198762402,-51.5551093214
off_to_on,-6.37701611365,-9.52782030022,-6.0474559836,1.03771387292,-0.391940701264,-3.23735208999,-4.69472701096,-4.55960553245,0.0157267242892,-7.74219254793,-2.30918454801,-7.91393358325,-5.40125178592,72.9770088784
off_to_on,-3.77210215163,-5.75454019512,-2.55172649698,0.37472519562,-0.0248525401587,1.41733174237,0.485831540557,-1.2424003593,0.00832759637287,-4.07503311977,-1.77262512831,-3.81835537448,-1.09867102943,145.557039597
off_to_on,4.2521101821,4.03765462888,4.56372260409,-0.0625074356262,0.724049695744,4.2433403684,5.29029105667,4.19276418956,-0.00733326544432,5.19754427869,1.21446033971,4.37599435353,4.72405204324,49.6338869435
off_to_on,7.95035553402,9.66234818331,6.7029718482,0.586844292151,0.096022122551,-1.79240440646,4.10362235048,5.77625994222,-0.0262138551836,8.3691438438,1.94652730091,4.68212310042,4.88848791366,-96.4229718997
off_to_on,2.71149953095,6.17208862064,0.993625295198,1.06248677784,-1.03514762095,-6.89965898067,-0.099155889192,2.594656951,-0.0312911581021,1.92700497592,-0.24860793533,-2.50733563706,-0.0200438141476,-99.8831399811
off_to_on,-4.15821068539,-1.35492126394,-4.67571933906,0.0846437221359,-0.320505496375,-0.827061705211,-1.38464181369,-0.941049639154,-0.0179429897024,-5.25774147629,-1.64048521791,-6.14783100152,-3.90563439624,18.9108421932
off_to_on,-4.58168249153,-6.09990755575,-3.42324946389,-1.54553964815,1.51369730771,7.48495376529,-0.729796474708,-2.55493239198,-5.14127545471e-05,-5.37034422913,-0.640383072331,-1.66356295138,-4.02432255068,72.2767365275
off_to_on,-0.871079218109,-6.80656846019,0.651024628361,-1.95762070976,1.20387621734,3.23285366363,-3.22310938727,-4.26533855736,0.0112464535488,-1.23365313142,0.168744137431,3.67268452126,-2.48535968994,3.19000313827
off_to_on,0.274026466891,-4.61048970346,0.618861972901,-0.662296849049,-1.44596111918,-8.03476644831,-6.9461232192,-5.89505821877,0.0190325805543,1.18762724553,-0.522156502009,3.652391444,-0.431248145916,-48.5301815531
off_to_on,-0.744682965682,1.05102359292,-1.35038235322,1.04927367089,-2.46645324609,-7.03735052555,-3.5457129774,-2.79113852562,0.0257768518277,2.31633923988,-0.0925312508695,1.61965487201,3.25045577335,2.61262580726
off_to_on,1.0371111309,8.42453969424,1.06282029881,1.85917389218,0.151854598016,7.46433674416,7.59848796169,5.82312020596,0.022917105334,4.64213439818,2.67582780789,1.87001015493,6.81190462896,52.7290886532
off_to_on,4.47745584187,10.377705574,5.53291132666,1.56128165363,2.85118315169,13.9626650776,14.0981308496,11.3986146065,0.00523603734607,4.65820479502,3.77751248221,1.19547040221,5.18035110593,2.3508273978
off_to_on,3.31974726854,2.38606345398,3.6774164655,0.513275391035,1.71632658362,0.826377324245,5.88120614471,5.64778697962,-0.0160121909126,-2.07407322362,-0.354762452937,-4.02537015281,-2.45348299793,-67.6449652128
off_to_on,-2.56571143212,-8.74243721952,-4.34749342064,-0.928043658304,-1.55230456097,-14.8226833198,-9.43855242362,-6.66110419372,-0.02577229073,-10.2305673774,-5.97600657477,-8.52884236022,-8.9166345716,-35.6878642995
off_to_on,-5.63438507541,-11.3054728284,-8.27744859599,-2.03712015737,-2.38492910964,-12.0959854482,-14.7172219651,-11.7507777001,-0.0230782311424,-8.69112407272,-5.83060700827,-4.65503158044,-7.01495739425,53.1972736397
off_to_on,-2.18881348246,-3.5026395066,-2.9522111791,-1.77407843767,-0.254722947091,3.9190711196,-5.02280557974,-4.22469846659,-0.0158191998672,3.40213638749,0.792084663757,4.90609502628,1.17328840057,64.0021942793
off_to_on,2.23170757452,4.90669347807,4.18912797691,-0.0535248930791,1.18228226815,12.0733647931,7.01013609015,6.13850739497,-0.00526438192344,12.8447098357,6.56683269152,9.47411877363,6.9101981486,-7.53964010769
off_to_on,2.23408046798,6.33728492189,4.99012271301,1.58249105011,0.291251013675,5.73890142096,8.58443958301,7.56413225981,0.0112988027107,8.73017185516,5.5656278045,4.88070145309,5.42766533942,-42.2724445394
off_to_on,0.432785605501,3.65090555566,1.81041640735,1.53191087789,-0.387071667353,-2.6268529093,1.81128196732,0.757440388816,0.0270598339601,-3.45848246644,0.106112722639,-2.07316110098,0.201544566901,-2.82858499573
off_to_on,1.17083762278,2.2407026307,0.901067476193,0.202886844501,0.932695976137,-3.46067463862,-2.5378995851,-4.28625576678,0.0290451421864,-9.61662230592,-3.66081196502,-4.34599935538,-2.93773924214,19.2740622637
off_to_on,2.2777730154,0.998883290401,1.29650502518,-0.48387957035,1.92906169119,-0.837018250484,-0.502623030203,-2.36119177385,0.0152758680655,-4.96227250889,-3.54340442548,-2.69686995198,-2.29603203116,-22.0833552161
off_to_on,-0.473471087345,-3.36752587895,-1.73930251845,0.199850379202,0.00568677540308,-0.633116279138,2.13795641468,1.84357315082,-0.00274394124998,2.19207609172,-1.82203398464,-1.07051064691,-0.236203311875,-47.1476855314
off_to_on,-4.63251743643,-7.89177561173,-6.30935501413,0.697062193176,-3.03088712246,-1.49077038084,0.145953468778,2.09107115561,-0.015582709418,3.25949961419,-0.369866807309,-0.412313210935,0.554310886702,3.02658353154
off_to_on,-4.0522507992,-6.2341086556,-5.61167767075,-0.485103694795,-3.06447280171,-1.09021715291,-4.17921596234,-1.17598417798,-0.0231992434096,-0.467345787442,1.08750757915,-0.17448566909,-0.538796559365,58.2801715432
off_to_on,1.11532104616,1.55215082454,1.06484565186,-2.21192468098,0.501086207619,-0.955251132822,-5.25395945101,-2.88331524839,-0.0252798443299,-2.12335789997,2.49290530238,-0.68190122389,-1.80627675626,37.0343816259
off_to_on,4.37693301893,8.12412931503,6.66520016849,-1.8945717725,3.67495741573,-0.963443728678,-1.4951529487,-0.627882241356,-0.0165007183254,0.828842636786,2.50686359075,-0.695112651356,-0.797569578628,-19.0785402504
off_to_on,2.6982692577,7.81027864175,6.15760747452,0.841135458779,2.88859052945,2.16443876066,3.60712048529,2.71682852738,0.00282074353176,4.37185547222,0.700118378659,2.48275163457,2.49803765006,-22.7219716637
off_to_on,-0.10478793576,2.02851103523,1.7627831785,3.13016273838,-0.763116327287,6.93218147075,5.82639865989,3.05845225283,0.0208305091195,3.93940886663,-1.36336630074,6.95597411497,4.35479514421,12.5061434105
off_to_on,-0.682390387385,-4.24233743282,-2.36869396711,2.29440884609,-3.09144575435,6.0069170185,4.02209311222,0.00977317062473,0.0262624484902,-0.249412024284,-2.03112060853,5.6315637533,1.48988511275,7.76854277918
off_to_on,-0.694185956812,-7.1388512167,-4.78321662115,-0.713038346034,-1.72922342091,-2.27879967543,0.30823273391,-2.8524806451,0.0201713888344,-4.13876599674,-1.27536891326,-3.38260051009,-3.58328176851,-36.9454696782
off_to_on,-1.89247889162,-4.90139371505,-4.69412082376,-2.52025851725,1.37361362273,-9.23203989661,-2.60851895293,-2.35369329933,0.00963369167693,-4.6298447377,-0.0729332722274,-10.8067184901,-4.66293499318,-43.7034482718
off_to_on,-2.22369630372,1.20101823296,-1.15354829076,-1.54030226693,2.3733639665,-7.83705664975,-3.94921798399,0.433546771594,-0.00317004577723,-2.41220073596,0.74705651359,-7.42011109469,-0.278509792015,7.52147444634
off_to_on,-0.13131523437,5.8662033118,3.41665048429,0.468666158006,0.074585796962,-1.88474863402,-4.37269023796,1.73015836985,-0.0176458785185,-0.0935230802784,0.698355797777,2.41494992523,3.64119264526,46.7655512305
off_to_on,1.78071510219,4.06437405121,4.0525782649,1.15781885383,-2.55984069843,2.62504407064,-3.38813566127,0.263515394581,-0.0265942751133,1.39175617443,-0.123711099335,6.61174059294,1.90226128218,31.2253028652
off_to_on,1.196589127,-1.95488968218,0.39486223459,0.420636403478,-1.99159738739,6.67955165795,0.602433828926,-1.02834442576,-0.0218158540159,3.06061219428,-0.614615163498,2.69549896854,-2.46908959409,2.34089108114
off_to_on,0.362385748345,-4.20249406341,-1.84220041002,-0.297117326915,1.31962454116,10.890972477,6.38132720248,0.386594261908,-0.00607876159715,4.72104479936,0.317187889754,-0.244231994756,-2.75716537049,-2.10814927204
off_to_on,1.62956029609,0.248453520968,0.341820563863,-0.314215658903,3.33351521056,7.76771523434,8.47122177306,2.4110049143,0.00927738439371,3.89467093795,1.84614584033,2.57606679561,1.54993076622,-7.49414795596
off_to_on,2.19577385974,4.54840260846,2.18254756338,-0.0515920036967,1.61444953412,-6.54151000299,3.01122264472,1.30392139735,0.017788120986,-0.517324133335,1.69553777765,4.20597607069,4.28608052293,-30.4500437465
off_to_on,-1.32393094492,1.86601286552,-0.696457134256,0.257195267851,-1.62483145375,-18.8287205385,-5.79015972071,-2.27618081274,0.020878419213,-5.28885738255,-0.72340501757,-1.29447103747,1.7466237607,-26.8273500029
off_to_on,-5.52569035851,-4.2892857625,-4.16606020829,0.688864099777,-2.69838579163,-12.2366322691,-9.07041428711,-3.65234331294,0.0186405430729,-6.12100971549,-2.96477606625,-7.80221560345,-2.55418676992,23.923216298
off_to_on,-3.88089686973,-5.1458886834,-2.01615631333,0.676974943547,-1.09754030668,8.2329301198,-3.87943893992,-0.817695443692,0.00775537001038,-2.94794794224,-2.51173549107,-6.36316919609,-3.64647227776,48.3112928367
off_to_on,2.80613331444,0.412222947984,3.20033571789,-0.470318543046,0.760200143572,18.8490907768,3.32729246873,2.61829461055,-0.0091717703614,0.691060297999,-0.0152635068012,0.745409477922,-1.53050772932,-18.8587249984
off_to_on,6.2532337067,4.70441040201,3.61436522804,-1.85956914897,1.283054207,8.36378786042,5.29154238503,2.6156663243,-0.0213300530381,2.9251306281,1.85638483165,4.17475124895,0.63418817105,-100.377644975
off_to_on,2.33830895204,2.85924961043,-1.22750341393,-1.45910414896,0.942993854814,-8.11256870415,2.39194942785,0.0316623391831,-0.0213838072899,4.71456453794,1.96464761652,2.21016835453,1.60907550896,-52.0838358408
off_to_on,-3.21942752917,-1.1196921783,-3.55235289127,0.941445613016,0.268920393121,-11.8097509584,-0.27472911996,-1.48965118497,-0.0130187269534,5.55936833242,1.33455267719,1.51742606077,2.10155962867,119.091718988
off_to_on,-3.63729915883,-1.88977231763,-0.014743959524,2.68850721604,-0.844539062786,-3.5143048616,-0.902723469635,-0.873687162375,-0.00299540714569,2.46088629086,0.688925068181,3.95908422081,1.73256787644,212.453827709
off_to_on,-0.188291180467,-0.456391120193,3.23398874323,1.51746081081,-1.56255002162,4.23919811685,-1.53622955368,-0.00529797474075,0.00740308904143,-4.44530746303,-0.501409799395,2.9804758291,-0.369952475208,69.1761907676
off_to_on,1.65483944037,-0.436122666953,1.17344197503,-1.2299371692,-0.385692011737,6.2506161729,-2.30812972357,0.116868080062,0.0177083571475,-8.86451796815,-2.09017770114,-3.95520612224,-2.64303140271,-201.593599041
off_to_on,0.942737606405,-1.09570811303,-2.02587654775,-2.32979953998,2.01055822302,4.62248566953,-0.626277865621,0.481695998219,0.0218140481925,-5.11176712962,-2.39000238639,-8.49373598734,-2.18144900292,-310.479227675
off_to_on,0.650284667286,0.578237712595,-0.809335988797,-0.967685112469,2.50653366065,-0.801376997475,3.12359956538,1.27723511227,0.0142845176845,3.64042738933,-0.504034440603,-3.23396898477,0.86252742985,-110.59796166
off_to_on,0.938495449464,3.2123308502,2.01835502813,0.672093220372,-0.262578625783,-8.48947312571,4.02426540889,0.854937066244,-0.000298195110372,8.1102213899,1.76995716675,5.7798055614,2.74725291386,216.746927996
off_to_on,-0.780286986483,2.20605262101,0.405982371208,0.959864025367,-3.28146894958,-8.72851582976,-0.494149537579,-1.4154719797,-0.0117768030939,3.95565513748,1.9439749748,6.50404949628,0.99578478198,340.440109821
off_to_on,-3.55668579427,-2.5476636386,-3.92756781165,0.697727696805,-2.82483852726,3.67838132972,-5.65261131077,-3.23339530581,-0.0161598038765,-3.44715789537,0.162844445093,-1.86508297836,-2.25835855853,138.055475516
off_to_on,-2.76044595449,-5.22414221059,-3.6090145072,0.80899807783,0.516432883429,14.7700954107,-4.87082077573,-1.92914791867,-0.0161403016786,-6.07578989801,-1.02431908531,-7.42368402207,-3.01064248986,-168.3302096
off_to_on,2.31291896017,-1.96409648526,2.34211933178,0.417960794682,2.82203778939,6.93364791315,1.41521019735,1.88818614747,-0.0122233498897,-2.12644573575,-0.171405503468,-2.08164726508,-0.171515189516,-265.936882743
off_to_on,5.77921367777,3.59713230385,6.28571812281,-1.16467040712,2.12458794482,-12.093793454,6.19366788226,4.57296563807,-0.00202351402268,3.56588666506,1.21850291195,7.49629876834,3.43953889408,-103.32023823
off_to_on,2.93581416456,5.15030029015,3.07856376564,-2.25913239766,0.188439973433,-15.5062758902,4.71661167009,3.28219658275,0.0113322940718,5.55015012452,0.88882003681,9.00632082281,4.09105918667,85.5192183704
off_to_on,-2.9815628264,1.59543295975,-2.95950934813,-0.90583901981,-0.846406430344,3.11490431935,-0.471782468065,-1.00689098882,0.0186901865576,2.37294326948,-1.13135753567,0.206553669226,0.616515557296,102.527627924
off_to_on,-5.19156073465,-2.55355482542,-4.85946443167,1.70926034006,-0.983307067665,17.4281859588,-3.87442899495,-4.35066661166,0.015594654782,-3.13303606867,-2.56891538861,-9.10459872034,-4.19561403927,16.1370598261
off_to_on,-2.07671507495,-3.27619488908,-1.86819777764,2.40331468601,-0.931879479688,6.66806460985,-3.42777254334,-3.68787505322,0.0070799244115,-6.21469108474,-1.63969636427,-9.33666945273,-5.51020996783,2.84833993303
off_to_on,1.99836468268,-0.995740164826,1.73217511831,0.50091905427,-0.519127860808,-12.6219605844,-1.07367679667,-0.00255786209006,-0.000895669338524,-3.87020665292,0.988436808416,-1.29153086603,-1.20945365078,65.0026480171
off_to_on,3.08640763812,1.18589819856,2.90856471328,-1.26827859803,0.255240762328,-11.9449635307,0.843130836564,2.68919271474,-0.00819749081962,2.05115315601,2.97502481956,6.4302073808,4.80165168353,53.8322891098
off_to_on,1.35547146162,1.14492570428,1.51227096786,-0.948226265849,0.437612396861,5.56450911352,1.56091103044,1.93914261715,-0.0150101013902,5.95938026488,2.59672948157,7.35752095888,5.93096110075,-62.946598884
off_to_on,-1.01088090108,-0.612749537903,-1.47917964742,0.00875730202847,-0.1843328342,11.5603050554,1.2312100434,-0.306523947332,-0.0163829533713,4.15602706523,0.193521177088,2.61015250917,0.648840537818,-131.733853778
off_to_on,-2.26947365432,-1.72685230231,-3.78458835271,-0.330319076788,-0.169821668945,-2.2524093243,0.301261044693,-0.624556672558,-0.00858656109284,-1.09254635888,-2.28216290519,-2.39190381924,-5.02371700164,-53.3845244276
off_to_on,-1.32120175213,-0.299447755741,-2.17671820443,-0.984724830986,1.18200375117,-12.1146585365,-0.397768351302,0.970707872459,0.00337221507881,-4.28960313796,-2.93388602264,-4.16716631571,-4.65290915674,60.8544326076
off_to_on,1.54675874383,2.7377493063,3.18647081241,0.0834437837075,1.95962143622,-1.01995304312,-0.215554876342,1.28508432544,0.0110482363094,-2.86170027199,-1.38762329222,-3.06480377673,0.648032208021,67.564090165
off_to_on,3.49649655193,3.90682125926,6.53276640755,2.02994737296,0.243455181904,14.4908879919,0.473916899122,-0.825318206172,0.0125917177285,0.81597600394,1.01619376138,-0.598678644221,4.13869776603,4.68853828554
off_to_on,1.50413183708,0.99613565392,2.80907127059,1.9171452005,-2.41013092752,10.6395473224,0.724895420957,-2.34864978268,0.0114866959933,2.93962159691,2.39463797088,2.33188890838,2.40872833922,-1.00360305147
off_to_on,-3.01432272497,-3.64644851402,-4.63204635395,-0.678774284793,-2.59605452164,-7.57365246783,0.225901371579,-0.769630615102,0.00807807235351,2.03664217854,1.88295499032,4.14350254676,-1.07995267102,44.4975722119
off_to_on,-4.64261345092,-5.16161242643,-7.20443372922,-2.5906654883,0.0549316817657,-15.6583040741,-0.645072393754,1.64920556773,-0.000100601040791,-0.700069482244,0.209484585932,2.38938104813,-1.89115622358,28.5130848311
off_to_on,-0.878526597113,-1.86146795143,-2.1955669529,-1.44888543966,2.17183494211,-5.88676088936,-1.64570615373,1.0159299983,-0.0103524341884,-3.01852663165,-1.21924109405,-2.73341450662,-0.500316692459,-56.2909275682
off_to_on,3.76560883878,2.59194741434,3.79077115484,1.06618188507,1.35207199835,5.61353022028,-2.470300818,-2.06979804902,-0.0150180644502,-3.0282422617,-1.65222843435,-6.38474459612,-0.090593666018,-88.1667684687
off_to_on,3.36769294206,3.5916814579,3.97880825764,1.81950858693,-0.744187436384,6.08031773845,-1.90049294326,-2.86385612936,-0.0112197055048,-0.401611489027,-1.23507373413,-3.83028411719,-0.964804504771,-18.6836181982
off_to_on,-1.21731563194,1.03549704543,-0.0863406570757,0.459101462613,-1.18069555284,1.96066664441,1.20934879322,0.855920743452,-0.00407728329998,3.01867145743,-0.227523749461,3.08694188168,-0.51170253855,48.9478588714
off_to_on,-3.37886763928,-1.08471896747,-2.02135058088,-0.78502924098,0.24142844574,3.20771330283,5.35305438581,5.31734813467,0.00165769491733,4.50330852199,1.21517445725,7.32725611688,1.88568649124,32.8466098704
off_to_on,0.0352174856532,-0.132506417499,0.359795157148,-0.608696332699,1.39520831005,6.38051677998,6.28358825245,5.19773547595,0.00686367070847,2.83705184982,2.25985491379,4.98386724567,3.18278248644,-5.31962351545
off_to_on,4.22808223052,1.88146555968,3.18114673569,0.067248016985,1.01561059657,2.24432662538,1.38151134629,-0.15923979458,0.0121140179442,-0.832992587741,1.47849851096,-0.699899748391,0.956882639163,13.1946936862
off_to_on,3.01282275406,1.2407898228,2.45783375211,0.139115496574,-0.295520419101,-8.18386081824,-6.12138530139,-6.17067409814,0.0129455289147,-4.23023422507,-1.18025117806,-4.48336468904,-2.78975565049,44.4735322985
off_to_on,-2.76961586382,-2.3300270189,-1.45023855335,-0.136539498881,-1.55130999662,-14.2098540534,-9.21795450976,-7.63089572682,0.00615769830083,-5.26457263402,-3.18318657312,-4.99827735385,-3.88382797378,9.95101602128
off_to_on,-6.36995011013,-4.96800851236,-5.21945983268,-0.0776057333838,-2.12475892034,-8.81818722334,-4.44221541483,-3.16575474027,-0.00365502367121,-2.8250837026,-1.90240313181,-3.61230413344,-1.17277946873,-55.005964916
off_to_on,-3.69190365941,-3.25294374481,-5.75671514033,0.23391929091,-1.31966483884,4.34096425048,3.90039404911,3.81320685112,-0.00939117467354,1.97936085801,1.61127266002,-0.744385141188,2.23201771581,-56.5283439432
off_to_on,2.2922926365,1.70347197889,-1.87907698795,0.331726010985,1.03939872346,15.1942336889,8.09309849655,7.78970315041,-0.0101320289993,5.48458832535,3.26293772224,3.27863943321,2.92393576539,0.0848647261509
off_to_on,5.94813117861,5.52238320018,4.63584244591,0.131269470461,3.35521529673,15.0301476492,5.18586567416,5.7388272888,-0.00920186842207,4.51603980456,1.14671832319,5.7578122153,1.01614104643,26.0708623697
off_to_on,5.05108848817,5.19715671959,8.94370329742,-0.180575258462,3.14164434954,3.10476269962,-0.566484672137,-0.0884785148117,-0.00651843257628,0.335312059009,-1.76435952211,4.01900231154,-0.750613016844,2.3413897251
do_nothing,1.24099977461,1.47977612397,6.48678073695,-0.430096514367,-0.0621955355624,-11.1191348275,-3.4345455454,-4.50939940974,0.000433456602126,-2.51820812587,-1.79496189342,-0.349025439341,-0.821778668328,-0.842882727351
do_nothing,-3.10255291389,-2.80336677549,-1.78776554092,-0.343611887471,-3.54554422717,-15.2912360879,-2.53953484476,-4.7348921249,0.00919834050284,-2.08660797851,0.261851344197,-3.13262864439,-0.352338180568,37.5662208479
do_nothing,-5.95583284918,-5.24788688928,-8.86976283913,0.205987947193,-3.98654629643,-6.86469265253,-1.22798332738,-2.34882045523,0.0129440966605,-1.15530283817,0.78387562527,-3.07566838935,-0.787577669663,46.0740764675
do_nothing,-5.11104015691,-4.60663696211,-8.27494665163,0.636193253989,-0.869768194387,4.41844454998,-1.52661343188,-0.0693053229856,0.00935455747806,-2.05845924744,-0.789001108,-2.37921167298,-1.37749628808,-10.4488714894
do_nothing,0.0202912212023,-0.982190460739,-0.947104204857,0.167163708403,2.97642477872,8.83960163738,-1.68747182854,1.35302363292,0.00310878202507,-2.37263906491,-1.17466402262,-1.83039868996,-0.410425080283,-59.7805242032
do_nothing,5.7589651703,3.45024400186,5.78230598977,-0.786560554493,4.01676170668,6.67793425054,0.411883323369,2.15842402184,-0.00178818165602,0.917044094199,1.11294424631,0.307454317162,1.71271544782,-36.4238351159
do_nothing,6.45625634318,5.21482317664,6.09943046592,-0.747278347731,1.23230487345,2.74586724339,3.56891693763,1.88483018773,-0.00631393711828,5.14595207164,2.86793129562,3.59288121944,2.46239797118,14.8825199663
do_nothing,1.08873817566,2.80783223208,1.31822167058,0.660304000936,-2.77098982195,-2.19667878664,4.52472910902,0.608355609194,-0.0108553933628,4.588309703,1.0010616288,4.10529310333,0.65364261026,19.1711380396
do_nothing,-4.62673073461,-1.24854852125,-2.70309119017,1.69096329258,-3.96040022657,-7.75467095191,2.01193118311,0.0210047166438,-0.0112983493325,-0.929437028169,-2.44402271418,0.37927987987,-1.6715942669,-8.81556119744
do_nothing,-4.77133240469,-3.09666044992,-2.4138436447,0.689913810403,-0.936273729051,-7.73474123654,-1.95823275268,0.840349240508,-0.0049538998693,-4.8836732326,-3.08471156364,-3.10219098802,-1.91955893021,-4.96588410826
do_nothing,-0.244424822083,-1.90390170687,0.397452103177,-1.41650921028,3.19259873264,1.88915621961,-4.47838929594,0.718505343448,0.00385364873906,-2.91549208192,-0.442095433639,-1.88106127371,-0.303314728594,27.8358704838
do_nothing,3.14985196187,-0.0303946389815,1.87876559606,-2.16600611202,3.92022360609,11.7754341065,-4.11681690947,-2.23325460598,0.00882141778455,1.45450700806,1.91767948919,1.76332420698,0.918291943897,31.244471823
do_nothing,2.31852703598,0.636081184763,0.671109350429,-0.759529715848,0.484730757401,8.13586191787,-1.23422397234,-5.0781314429,0.00926272614051,2.51670597884,1.83001900109,2.18125611805,0.70017148192,-2.14082794416
do_nothing,-0.502986439914,0.388476160248,-1.56726147268,1.13716823343,-3.23523367121,-6.41125635234,2.43681146286,-3.18883845268,0.00811603902599,0.146534854941,0.684972240522,-1.32999180773,-0.0520944115409,-20.8650607799
do_nothing,-2.17285006055,-0.14620281289,-2.85399302596,1.75925804191,-3.40575875698,-13.3523842327,4.33131389104,2.45131090309,0.00528807316777,-1.65798845185,-0.0418478433785,-4.00548657405,-0.522499171301,-10.018500651
do_nothing,-2.03505895033,-0.908350047749,-2.39724706002,1.07770677656,-0.505883125932,-3.85184021365,2.86866404204,5.56958639593,-0.0012233474449,-1.28045220814,-0.895333109562,-2.68938668731,-0.71659673447,-10.515402268
do_nothing,-0.382169921682,-0.823139174858,0.0382084732079,0.0289127830495,2.04715279989,8.24591168365,-0.452507924471,3.30117120193,-0.00894457727429,-0.210201350135,-1.90890119924,0.911950619178,-0.197323054224,-30.4856490191
do_nothing,2.61170293273,1.67012248697,3.89962291828,-0.796453582314,2.27991209934,7.02353419751,-2.16261653321,-0.0499824062229,-0.0118400418642,1.07572524109,-1.24864107445,3.99592570396,1.56427721561,-19.7147511457
do_nothing,4.69873195679,4.8256281484,6.32400374263,-1.12586934778,1.04644161543,-2.42510973788,-1.06264802174,-0.354559882087,-0.0081455187738,3.10326608047,1.44502739672,5.29628843286,2.99013819637,35.2992714538
do_nothing,2.10671363188,3.51566890528,3.48568515388,-0.740174073059,-0.224077038145,-3.75273785886,0.0671858669604,-0.119420513093,-0.00219087928338,3.7514907441,2.99738550062,3.46276500936,1.15811876196,65.135757939
do_nothing,-4.53087026131,-3.70514074784,-4.14789880899,0.0229717630695,-1.11113486048,4.46500734158,-1.38890937498,-3.20381253267,0.00244929402775,-0.131701014207,0.842700714555,-2.32254288963,-3.59885239551,17.7423116345
do_nothing,-7.96364715029,-9.80322539238,-9.62118145612,0.315564447099,-1.42973203031,7.41603895672,-3.37809761801,-6.64169748903,0.0065131076549,-6.35213502795,-2.59555305627,-8.33024823799,-6.18343957886,-52.1245058829
do_nothing,-2.68827954603,-6.41040751841,-6.18905342134,0.0133252107957,-0.76988751756,-1.87123795101,-1.56155536478,-4.02265541163,0.0101522919248,-7.63416616596,-2.8895940132,-7.70360130764,-2.5445409213,-55.2103540448
do_nothing,6.24991700719,4.56305428618,3.70987240513,0.084691402621,0.455827542231,-11.7515778788,3.94604462829,4.00814060454,0.00983126294218,-0.987377485965,0.104455552124,0.72548680567,4.33526215869,8.66373621864
do_nothing,8.35270254716,11.5689580131,9.83010690648,0.963981949571,0.928189499699,-9.62569403416,7.33230474006,9.09794934453,0.00360134598002,7.13320191628,2.38646538315,8.77920201573,7.38251618283,60.2715329362
do_nothing,1.48779423572,7.25942122229,5.99795193162,1.45963891254,0.274465989843,1.17017324281,4.04877091012,6.18544797147,-0.00440105591126,8.50770509075,1.84141696988,8.20130770517,3.9580263181,47.4189069206
do_nothing,-5.29353479639,-2.77424649217,-2.55088162316,0.392341556597,-0.185593544511,8.96125215112,-3.2065145408,-0.462402044459,-0.00865225503812,2.97897085014,0.422787888317,0.799415352565,-1.71200983405,-14.9229347132
do_nothing,-4.50068280073,-7.93981707795,-6.30480051932,-1.38982333239,0.449004071008,9.45760086898,-7.5899240949,-4.47269890712,-0.00868148986655,-3.18696714007,-0.143727389505,-5.05501156755,-4.77696105444,-83.4158776049
do_nothing,0.186765820423,-5.45668630766,-3.24665209152,-1.98642769,0.961806674861,5.81643016409,-5.84547737003,-5.3350344615,-0.00709178839831,-6.01904930524,-0.947563372078,-5.53555628986,-4.82881602063,-103.748825483
do_nothing,1.13096016221,-0.944717939806,0.536718198838,-1.0221342823,-0.144123600082,-0.261917253606,-0.68917123284,-5.38930874873,-0.00390974162157,-6.01933339104,-2.53425930983,-3.47605876865,-3.42837132894,-22.313651526
do_nothing,-1.41081316454,1.13018013105,0.658655877865,0.190182807103,-1.92485578772,-7.86507751207,3.59663404069,-3.50556794059,0.0022499153117,-3.44796135354,-2.52011105702,-1.02747634569,-0.360718235403,133.808551266
do_nothing,-1.09312729009,1.91447727449,-0.328145101773,0.842451589725,-1.89909537455,-11.1911225645,5.18594608806,2.36910557734,0.00889426533402,2.31153340063,0.59435741093,2.81652005119,4.38212990746,210.081111889
do_nothing,3.24523667703,3.28036194208,1.30974660992,1.33513619704,0.445678213337,-4.83977594928,4.30778360883,8.63894680273,0.0108408992526,8.13528550582,3.82288773065,6.59969754514,7.32173327808,72.9914018156
do_nothing,5.45786860805,3.90148551271,4.01331445161,1.64803690918,2.69621311558,5.81235389606,1.66335889464,8.48321937333,0.00692913058108,7.94602599566,3.32805769399,5.3665826618,4.55425298976,-178.002975735
do_nothing,1.82742471592,2.11713681863,3.4717870954,0.841479497964,2.44173507069,8.81472047982,-1.49612974968,1.20220557847,0.00118325200423,0.78646743749,0.0229670257044,-1.47232912141,-2.23499934894,-270.395078642
do_nothing,-3.52591071768,-1.03333213927,-0.828304654465,-1.04112551883,-0.0676881372942,1.71300956012,-3.52983536167,-6.06953189146,-0.00321931268469,-6.38890775281,-2.03689361595,-6.85320751217,-6.62775285708,-90.3619865582
do_nothing,-5.31417834394,-3.77356526303,-5.02777910935,-2.18474629029,-2.59754311971,-4.72304907614,-3.94744188653,-7.30985927413,-0.00678568605554,-7.15744131735,-1.78070628136,-5.09434113298,-5.11160682677,156.52285442
do_nothing,-3.79281115685,-5.58367644049,-5.79272170413,-1.34975382025,-3.17295336723,-1.79761217834,-3.53533165524,-3.90184464017,-0.00947593861462,-3.12696792191,-1.59958006738,0.153616745937,-0.761630794236,208.088097184
do_nothing,-1.48304195026,-5.2623674792,-2.92320645147,0.219224887284,-1.26580807075,5.33916651268,-2.17996359526,-0.290588436926,-0.00835806843629,0.431599184574,-1.98653770933,2.08034233229,1.84045522765,70.322331227
do_nothing,1.95466291784,-0.497841321907,2.0558057095,0.663148855252,2.00177850952,5.98648202843,1.45759092602,2.23569363576,-0.00221814612761,2.52980338503,-0.371914825469,1.04842178203,2.26591951172,-49.9765050823
do_nothing,6.66149007041,7.34000499573,6.74831623248,0.276580568418,4.11024887924,-1.44152960587,6.54295319062,4.34920911348,0.0049889963907,4.97820882071,3.38400590443,2.20787032366,2.66340293594,-60.7718005388
do_nothing,8.02060404936,11.0140161863,7.62696252369,0.626623046371,2.81152420765,-8.79695319027,8.46464422731,4.80342880932,0.00849947981457,5.90474537915,4.8143399895,5.06643054532,3.05511124133,-54.9279413407
do_nothing,1.67342492361,4.91701330838,2.54631123099,1.53730169174,-1.25098030023,-9.0841947702,3.60087230025,2.03202536887,0.00807747964228,1.58207381423,1.11689878319,3.37638265805,1.49131312491,-81.7159911488
do_nothing,-7.95631454556,-6.31422124208,-5.35515335322,1.13700853915,-4.35099617059,-2.5907162317,-5.03612910118,-2.03113807005,0.0060427279296,-5.60136614105,-3.74132052687,-3.90627240229,-1.9661276713,-50.1386829755
do_nothing,-10.6737863203,-11.6214055408,-9.18172401621,-0.913516074686,-3.41136238501,5.90612868623,-9.92999418062,-3.73122933207,0.00254852981623,-7.80649474949,-4.03206259118,-8.97870840884,-4.4606968558,73.0719799717
do_nothing,-3.30966343777,-6.4202046029,-5.5581780344,-2.35715540891,0.440398463307,10.9596442349,-7.16462671034,-2.69654835679,-0.00322997357809,-2.34800373522,-0.262925625743,-5.60283093602,-3.83791116167,144.077307642
do_nothing,5.82101053479,2.639196056,1.53672213568,-1.44089553991,3.21399324522,8.5739155679,-0.074750763122,-1.60044602683,-0.00881421572478,4.00176053517,2.08609562223,2.41170411507,-0.853281344882,48.3650985725
do_nothing,7.58575992759,6.86337884102,5.77762889948,0.553800196448,2.65742787453,-0.382371566982,5.4738960247,-1.24305971545,-0.00983918154074,4.39711203378,0.798397883362,6.9760581007,2.37000482037,-96.4259651352
do_nothing,2.68147088726,5.06468701533,5.33179612547,1.23422184606,0.241382279831,-8.67704513754,6.83728436075,0.418697005651,-0.00571582097532,0.793146162456,-0.72494016839,5.65913011319,4.21402489554,-99.3259123719
do_nothing,-1.65682020546,1.63060728999,2.73201757174,0.421223936417,-1.34713790061,-8.98165617048,4.79551803798,3.70607231642,-0.000191744927173,-0.723030050016,0.257971149343,1.71714870098,3.62265034816,19.2845422282
do_nothing,-1.92774527589,-0.821323853984,0.0203383118936,-0.0776133697516,-1.21353340663,-2.4130765865,0.866610175017,5.24043033187,0.00393050706545,0.480644760775,1.67624635563,-2.10786772554,0.418232158848,72.7938746448
do_nothing,-0.798172175842,-2.72691229598,-2.70997672372,0.519577441152,-0.321743238339,2.90999475934,-3.34203547246,2.38227767615,0.00697727750623,0.23074329213,0.708280258881,-4.8192415157,-3.43271530616,4.12320223397
do_nothing,-1.03857961676,-3.76850636338,-4.65916353811,0.931046908657,0.204345218089,2.55616578908,-5.65063034655,-2.6985510907,0.00876832436098,-2.24663905363,-1.47352820058,-4.65102901562,-4.56587135095,-47.9305842778
do_nothing,-1.77264443399,-2.4268185702,-3.79870440504,0.0137294025283,0.0281754580304,0.701679597756,-4.54691759077,-5.39628939656,0.00693318114493,-2.82840752589,-1.82839803658,-0.734486050093,-1.69953621831,2.09898943774
do_nothing,-1.14833919116,0.739660125397,-0.0440165495333,-1.39113455599,-0.450127325589,2.35148999834,-0.770701474562,-3.76261754845,0.00091146981416,0.450376507856,-0.138632901382,3.58585591187,2.47620018088,51.499646598
do_nothing,0.621562970789,2.83589681774,3.42776837915,-1.57801445116,-0.437288225004,5.01570740642,3.25845963127,0.207649334093,-0.00552500460135,3.80732618503,1.26195923526,3.82628923732,4.00830765776,1.41877911127
do_nothing,2.002130988,2.30120033585,3.56708477862,-0.228972259748,0.471219352006,2.64320243021,5.04573642692,3.15298339487,-0.00831203559608,2.89334206458,1.13698870544,0.497403883356,1.73891854844,-67.9122188022
do_nothing,2.03166068524,0.515160566285,0.961659078872,1.22490599887,1.47809412204,-4.19249741655,3.05409054534,3.01312805771,-0.00744282963602,-1.62133501597,0.158047689331,-1.90368274147,-1.97015274014,-35.5660611581
do_nothing,0.82114091029,-0.644190758277,-1.19970353953,1.31144842391,1.22495922457,-7.56042770277,-1.78642796784,0.397233855089,-0.00500370794089,-5.16912408381,-0.97189483282,-1.50745861715,-3.74629119064,53.6247745745
do_nothing,-0.595231573469,-0.813873792127,-0.9461629279,0.109922365969,-0.350206685051,-2.87762251364,-4.99283968703,-1.61488306429,-0.0012663430956,-3.93564740907,-1.72831941523,-0.29192468762,-1.88714078606,64.8617189257
do_nothing,-0.915077400261,-0.46922312238,0.569477838901,-0.923175661435,-1.629421639,3.95214300677,-2.15763209049,-0.443593593276,0.00411411001931,2.02693305668,-0.907668751378,0.743098472942,2.26366110192,-6.56974801163
do_nothing,-0.239000885181,-0.169417750522,0.696783980562,-0.601623067179,-1.37381748707,3.87625872048,4.29675112838,2.24570454423,0.00869908426059,7.98080020206,1.73418812849,2.27241956802,4.77678252422,-41.8774269807
do_nothing,-0.395369078063,-0.622082425558,-1.49535052807,0.591595234277,-0.259472426296,-2.56674215307,5.67837162359,1.82547833959,0.00886384379013,7.14337493553,3.47648086519,2.39981874516,2.41316119494,-3.23945130472
do_nothing,-1.97614493188,-1.59993008902,-3.56188151956,1.00421586973,0.447983466981,-4.97092566529,-1.66738144564,-2.67652049411,0.00453228352272,-2.09578709835,1.33913120662,-1.84552088379,-3.19702120938,18.4811766877
do_nothing,-2.30627303535,-1.0490544289,-1.99653632297,-0.0911963939051,0.743000204428,2.56311786024,-8.97346677433,-5.78917109139,-0.000781405450679,-11.3469434611,-3.02244301613,-7.10766033203,-6.07870929797,-22.8333980844
do_nothing,0.829826523323,2.16460145072,2.90541619623,-1.35201112154,1.16220459189,11.2747732855,-5.34789386293,-2.43957795444,-0.00459922458372,-9.58864393024,-4.34761365282,-4.97851065218,-2.56607600682,-47.7609798906
do_nothing,4.45617308513,4.84577491404,5.82540352699,-0.998351523141,1.12295248986,7.7308986942,6.13262967845,4.3542455617,-0.00710699496514,2.71066273956,-0.730316710542,5.21639475237,3.71451611454,2.70463831232
do_nothing,3.48804856796,2.46726922214,2.495480605,0.668727913717,-0.2141941001,-7.13881577103,10.8396817537,6.750503547,-0.0080386679213,12.0402374737,3.45380135146,11.6679582805,5.93572546096,58.6047238561
do_nothing,-1.3645325602,-3.62094649481,-3.74312486641,1.46990311467,-1.80826772277,-16.5481919303,2.54260158757,2.37017332052,-0.00554422009353,8.09778649889,3.35526401979,4.84318042451,2.34048267982,38.0179583776
do_nothing,-3.67224248764,-6.25358821889,-5.18595210464,0.322883734327,-1.56604766379,-8.83023516578,-7.6994215788,-3.16235113025,0.00035812995436,-3.20192773822,-0.192572918591,-7.95944855826,-2.47764088406,-18.051416033
do_nothing,-0.871277498318,-2.04139521282,-0.239641209537,-1.15733707964,0.410658212442,6.7520372524,-7.36196879433,-4.43403392729,0.00605923101958,-8.34858300354,-2.68344677621,-11.284090163,-4.17204156418,-22.3136324982
do_nothing,1.54296408336,3.31177636201,3.81800321973,-0.896141690856,1.5007775783,12.3539013298,0.557212906593,-2.33577147727,0.00811453128948,-3.88370528194,-2.0452449622,-2.19434919656,-2.91065838895,12.2194509297
do_nothing,-0.961040313104,3.18096814124,1.23493464079,0.69623158524,0.363102823783,5.29262300648,4.29266903137,-0.194948380454,0.0067495323799,1.9069246248,0.0987273312738,7.00035165103,-0.515291650366,7.1433031219
do_nothing,-3.7799762496,-0.223110776434,-3.44065539363,1.36077610411,-0.934379150833,-1.00526521636,1.46376260815,1.54755967264,0.0039022898227,2.83843529056,1.83515960568,6.59169430148,2.47882085303,-37.6140797938
do_nothing,-0.227464100811,-0.0791523421727,-2.15946133166,0.235754527216,-0.139483383029,0.740628469185,-0.12649233395,3.36032014311,-1.52375958251e-05,1.50421426493,2.43851676478,0.530660217779,4.77096061008,-44.2506356993
do_nothing,6.45263990309,3.30497756462,3.85537899147,-1.06623056699,1.48907321261,1.30965148213,2.18571224943,3.06336305417,-0.00494446810413,1.18874599802,1.18229334057,-2.9170582808,3.22760852692,7.29287513576
do_nothing,6.26746738723,2.55493753571,5.30033996374,-0.948135360484,1.01525672428,-7.18129215866,1.71660227269,-0.904856628273,-0.00853017356525,-0.0287481593779,-1.92028683007,-2.66014962091,-2.36917848558,46.957111303
do_nothing,-2.33299513516,-4.20950077954,-1.0339750059,0.0140128945412,-1.46012367477,-14.5608279721,-4.04149022843,-4.74302394586,-0.00783702150974,-3.12926725817,-4.14412079364,-1.76454289205,-6.28210523948,31.6642062877
do_nothing,-8.72364257192,-8.56326506097,-6.75251022649,0.32224197258,-2.57856423596,-6.15495172243,-6.76996259045,-3.17783998468,-0.00327167757464,-3.54413992067,-2.26143879631,-0.161638134876,-3.27043789612,2.80265570402
do_nothing,-4.70165356191,-3.53210622805,-3.91702241009,-0.0587981993893,-0.528731860662,12.5222272416,-0.500306266866,2.33778463094,0.00181969813194,1.32298141111,2.4310465891,2.74748484936,3.32403006633,-1.62191150722
do_nothing,4.08463835249,5.68245638144,3.47333493966,0.0572976606637,2.26456372539,19.5264993415,7.16676928764,4.60868118454,0.00523510173902,5.52000397905,4.56266943797,3.31843178056,5.16558273927,-6.98204311917
do_nothing,6.61668801773,8.57450522825,5.72622247458,0.845998709607,2.42600599731,6.08139197185,5.74428980282,0.810354263511,0.00709536505574,2.62620006902,1.71559951425,-0.927820736241,0.502827752012,-30.2743688051
do_nothing,1.47466843227,3.34528865964,1.26713113274,1.00769358394,0.00174948453679,-11.0653614731,-1.99355496967,-3.42129564958,0.00715466843855,-3.46260796809,-2.06439667561,-4.62383925558,-3.46776441264,-27.4439924341
do_nothing,-3.34583765768,-2.49189163855,-2.72637631139,-0.127195242925,-1.99356720793,-12.7669216697,-4.66159665613,-2.35954207813,0.00407521443903,-3.89494644202,-2.10598887415,-1.397614203,-1.41404112039,22.655527365
do_nothing,-2.89872918264,-3.81065504746,-2.04273527111,-1.30833044861,-1.57114123482,-2.03375910091,-0.146629825887,1.74365715104,-0.00162917416934,1.1186995205,0.314331950484,4.74987033455,2.55405888769,47.2510604714
do_nothing,-0.26573698089,-3.0442124088,-0.364400787118,-1.05550574478,0.23052456353,4.12051321079,2.22283167748,2.72234626393,-0.00653253052138,2.69007600169,0.632233190502,3.94673330294,1.88181067628,-18.8425226892
do_nothing,0.751512462664,-3.00060759838,-1.16969038931,0.178532682994,1.20186322005,0.137515465358,-2.10085341147,-0.372709181258,-0.00777733252774,-2.01012482775,-1.61884840422,-3.79836684965,-2.25789463499,-99.1451792486
do_nothing,0.9961524674,-1.51735785488,-1.5296224227,0.689791863186,0.604927992028,-3.17927757998,-5.39817054767,-2.76859426513,-0.00585685789012,-4.76415069046,-2.33626627133,-7.06499327856,-3.30407346586,-50.3697010511
do_nothing,1.9081535591,3.16115600068,1.9493142236,0.0405209310317,-0.408036089176,2.26111585366,-0.660372918063,-1.37489446929,-0.0026538258755,0.45931734431,0.447587190114,-0.0491772306044,0.354209148309,120.028088042
do_nothing,1.64345102891,6.74568541719,5.70947983479,-0.400657375052,-0.452953818542,9.6385606967,6.79203329787,1.63969377543,0.00127823216672,7.33962809584,3.48926385674,7.96756574368,3.3702199327,211.558343135
do_nothing,-1.24122320609,3.89394557666,3.44352573958,0.314383402296,0.408643637037,7.92835013697,7.3392688553,2.79652606243,0.00560159086706,6.27836848942,3.16127240346,5.90467321459,1.8517458869,66.6835317829
do_nothing,-3.90996806764,-3.37351502016,-4.02365118996,1.16019427025,0.759156177617,-2.82011528355,0.778957825043,1.31184582798,0.00814360646482,-1.84023362333,0.1550431566,-3.35816911359,-1.53929950642,-203.614841552
do_nothing,-2.83528967192,-7.20148135757,-8.43338486055,0.67046096743,-0.265139896697,-12.2149648181,-5.19455700839,-1.44990476469,0.0066360952884,-7.75977995743,-2.39745129077,-8.0006880267,-2.48843994958,-309.524739411
do_nothing,0.973018002754,-3.61262908106,-4.31555231467,-0.76360085496,-1.47397652014,-11.7067669815,-6.29321239983,-3.54710616387,0.00191612202532,-6.44354329519,-2.99436839977,-3.66075179742,-0.776494529837,-106.607284436
do_nothing,3.6383813511,3.09553291804,4.28048619186,-1.3595948722,-0.92884980241,-1.98069066761,-4.10526320686,-2.79291660812,-0.00283082999262,-0.933830810424,-1.94989428837,3.12724960299,1.2064018651,220.223262823
do_nothing,3.57137260376,6.14213069166,8.76358952606,-0.511415976974,1.14604396903,9.23659328788,0.00811691568957,1.45067859975,-0.00568391573538,4.30053014799,0.340300351842,5.70678544069,2.30758390608,339.251481854
do_nothing,1.81395687507,3.42754898029,5.30655565067,0.417984650848,2.1020329003,13.3746241871,5.45698871514,5.64398212505,-0.00679746083672,7.05889878718,2.83488452885,3.76256226384,2.18882202778,132.245893177
do_nothing,-1.04872353146,-1.92243967234,-2.2934982744,0.246488349431,0.398364541747,7.07761916997,7.84693888812,4.37582448114,-0.00604529356434,5.29143591908,3.12176412288,-0.471763808357,-0.163100671337,-173.589138945
do_nothing,-4.51856131688,-5.53037645556,-7.33728774473,-0.272807197336,-1.88105714548,-4.53204219923,2.40687353674,-2.53248498497,-0.0025651075851,-1.56276478165,0.139608990117,-5.04206564526,-4.10333287013,-265.298654279
do_nothing,-5.73642431061,-4.85369436366,-6.20578092018,0.199482403424,-1.68198144823,-11.5009076889,-6.63416251391,-7.85275759811,0.00276492420543,-8.15083716476,-3.14046903219,-6.33646678863,-5.45396995033,-97.0129030592
do_nothing,-1.8418677517,-0.281561684337,-0.602860439332,1.26078518884,0.643915265964,-8.37968569157,-8.20796727407,-4.95043610901,0.00677560091178,-6.80460931618,-2.67640662373,-1.21351039023,-0.950759525987,91.8091430106
do_nothing,4.73289182936,4.91546724743,4.58213676281,1.1653520998,1.79703133799,0.580803313224,0.551665686618,3.56000052486,0.00718614800737,1.9245342361,1.07892966357,6.60262381955,6.02503892431,103.581771565
do_nothing,7.37804149126,6.55658948875,5.60509109861,-0.509924266461,0.344947926233,6.76080770355,8.51841093638,8.47986155248,0.00476204117272,8.01570706483,3.39515502068,8.25450508842,8.00412629001,12.0588263957
do_nothing,3.29884649194,3.0969680433,2.75105852977,-1.9473452632,-1.31114601641,6.14502455686,5.12859556955,4.87739670387,0.00136125124757,4.60231536598,1.54474576499,1.09259078398,2.34943643655,-2.25333902958
do_nothing,-2.80960725242,-2.72261199138,-0.844218081814,-1.41808828562,-0.721121979807,1.48580221048,-4.96066025461,-2.85643483578,-0.0023682019491,-3.13600470542,-1.85184620515,-6.8170914078,-5.3868662627,62.1970009443
do_nothing,-4.99922522457,-6.33389378582,-2.80607395613,0.426684658836,0.982487183777,-2.38598505667,-8.67622772786,-7.05733083163,-0.00594755854291,-5.81863149603,-2.8887619542,-7.14733393924,-8.01828175142,53.6641249246
do_nothing,-3.0773890305,-5.28091944499,-3.15009613269,1.49011582507,1.04718783806,-2.91253669306,-2.33676320362,-4.92125975859,-0.00747576231488,-2.14915128352,-1.28857490436,-1.53022429714,-4.14602289922,-61.3617331123
do_nothing,-0.812003739995,-0.731128530209,-2.59371826681,0.916166507275,-0.650855200398,-0.813144959873,5.25036695069,0.454613764437,-0.00530331789189,1.92917470378,0.572561171732,2.98274339797,2.04939070993,-128.785324258
do_nothing,0.328705101844,3.93273630983,-0.94734675929,-0.18552748609,-1.55945199346,0.909250572396,6.30946358109,4.5355010161,-0.000599856700226,2.97231023693,1.54398218016,4.07588150594,5.91263465626,-49.7864072593
do_nothing,1.87401935557,5.50489384587,1.81411729374,-0.563419088051,-0.297082488424,-0.101191624182,2.66560464493,4.87486087243,0.00365299027421,2.52375722531,2.10553464299,3.96651630457,5.434245959,63.06795941
do_nothing,3.78911974094,3.03013706111,3.99690452454,-0.304240373076,1.50116677165,-2.15578848705,-0.578624768555,1.78048716868,0.00583868237812,1.4596077933,1.98816588702,2.58651775808,1.34337296181,66.5371225491
do_nothing,3.31345073207,-1.34051337668,3.35769737487,-0.139762384317,1.57636352297,-1.10834635295,-2.66541087629,-2.23566961582,0.00621007435076,-1.37618361088,0.164395011065,-1.74101967024,-3.40882302049,1.02699669705
do_nothing,-0.597204508763,-3.9148510533,-0.0415188845433,-0.129418033914,-0.159971542107,2.96147259671,-4.68185368789,-3.99305444357,0.00480312833806,-4.46118476907,-2.67597231788,-6.11206451379,-5.1145034039,-4.59999155171
do_nothing,-4.50798112083,-2.78033660453,-3.19744387286,0.192333943071,-1.82192437665,4.22075219844,-4.69694140386,-2.26212156379,0.00115523395267,-3.67829359966,-3.8640519589,-4.96878009129,-2.47475030024,43.0438315407
do_nothing,-4.16433817701,0.44995166582,-3.07861294915,0.700768505215,-1.66707591865,-0.24579923897,-0.576956084958,0.952303291458,-0.00363360157653,1.03729832522,-1.79909745098,1.03591966738,1.74032483868,29.1677321694
do_nothing,0.22684411426,2.50821416461,-0.0461531874504,0.576336201153,0.318912023658,-4.34325217201,4.86111123087,2.50598169325,-0.00672049383375,4.24579348698,1.9520284355,4.70857369958,3.52164824651,-54.5126018785
do_nothing,3.98630774134,1.69274370733,2.21665628944,-0.47152936972,2.26662156607,-1.59277449181,6.23389904598,1.35426241289,-0.00637122946758,2.63854028623,4.20870326063,2.60221020133,1.8419410925,-85.8184294285
do_nothing,3.11751889915,-0.981565121167,0.81150155114,-1.44445273133,1.89778493132,3.55577688266,2.4431593235,-0.828998870065,-0.00358401616053,-0.38530885109,3.12423333765,-0.527755143617,-0.975777871571,-16.2854514371
do_nothing,-1.33154318906,-3.02704677454,-2.49662850995,-1.05483504218,-0.883160751508,1.78120408052,-2.27154070458,-1.76884123163,-0.000173479925798,-0.732185339776,-0.467005595884,-0.196655618502,-2.36940159556,50.167491483
do_nothing,-4.31706246822,-2.3828381753,-2.85997676468,0.600402557191,-3.06503601259,-5.08816178188,-3.87304435271,-0.623174617565,0.00318028222034,0.0864074858026,-3.71383803663,0.969901267819,-1.60090408601,31.8352382741
do_nothing,-2.21943318172,0.955217239589,1.34615300521,1.86926875302,-1.68872115472,-5.1951998246,-2.41092727711,1.54409637441,0.00596525580936,-1.25179074262,-3.80122228922,-0.882952789448,0.589323543907,-7.9925006768
do_nothing,2.96739798935,4.36686221367,5.45258667156,1.34877730314,1.98756332347,3.98274626763,-0.405239317429,2.51692363014,0.00659527019812,-3.22262408916,-0.528741733443,-3.33671012845,2.58728208547,10.7008724343
do_nothing,5.58341453599,4.55339969619,4.04586336304,-0.403749592379,3.4565108335,9.45627546953,0.384538076272,0.781825772379,0.00396053274395,-1.75465909091,3.00084444127,-1.83024613146,2.48728745662,43.4304599836
do_nothing,2.68770285342,1.03218479592,-1.48880674949,-1.46683193741,0.824481517308,2.46587940199,0.211957464588,-2.40607456395,-0.000549717342997,2.54210687873,3.40445175938,2.15536292335,-0.0807518855447,10.2503053942
do_nothing,-2.68935284991,-3.12871642433,-4.59339251483,-0.877157638504,-2.49297729104,-6.91189199592,0.626666889894,-3.56594473318,-0.00420732606419,4.60751733917,0.816408952856,3.24054184937,-2.76818185204,-53.8997845455
do_nothing,-5.50468854202,-4.90727212053,-2.83144785872,0.267345379999,-2.5291118302,-5.58332025026,2.36601222033,-0.967848107673,-0.00570900557028,2.11721863789,-1.6243564152,0.605170011868,-2.90176895917,-54.7954211965
do_nothing,-4.309783317,-4.27984514078,-0.833538938733,0.41424898322,-0.115820426093,1.54215858374,3.40201270444,2.61329239934,-0.00542824647769,-1.934279559,-2.00534029411,-1.66312787029,-0.904761708947,2.06113903858
do_nothing,-1.11010363936,-2.31352565503,-1.81737937629,-0.323533867539,1.11922154198,1.07717265138,0.711512269181,3.00264096707,-0.00355929483716,-3.98981193759,-1.36896234941,-1.65712843446,0.677837712583,27.2192887573
do_nothing,2.58337798432,1.45687237295,-1.47191322599,-0.50456417507,0.532187453528,-4.4567575645,-4.5747548604,0.153022454139,4.995580157e-05,-3.28007724281,-0.810726297385,-1.12508898762,1.26924857433,1.79770004615
do_nothing,6.08355322429,6.65993168694,4.36295481099,0.404855229474,0.611884935988,-0.532769019969,-6.28733822215,-1.8411519971,0.00419760131528,-0.220295553681,0.492612072573,-0.269011274153,2.43792887702,-2.66150208932
do_nothing,6.66995288643,8.77813889446,9.8553574644,1.22968056484,1.7370747393,11.4916913749,-0.79593142404,-0.635555373841,0.00640515970394,4.14802689617,2.69266277385,2.47518949947,3.61761538249,35.7232719692
do_nothing,1.32499373721,3.22593753858,5.3508949854,0.843013699481,1.03221637779,11.4292735672,6.38334112256,1.22833080456,0.00543046607688,6.22274010801,3.19124020288,4.78156448342,1.53093754051,44.9890661638
do_nothing,-7.02497154267,-6.61921727514,-6.9676062111,-0.265496325742,-2.19951649606,-7.19960628364,6.367488804,0.602269564967,0.00244284989209,2.13559661288,0.0982739663447,1.54898980828,-3.94902499738,-10.7413292028
do_nothing,-9.71086637124,-10.6899329112,-12.7639696661,-0.887346931924,-3.86294491247,-21.0536272959,-1.02374796515,-1.39855089966,-0.000821027058938,-5.73458080509,-3.70853651073,-5.84194858742,-6.9947954606,-59.2642067301
do_nothing,-2.65025036499,-4.4245905037,-4.51812358033,-0.79710700819,-0.851505757698,-8.62241219385,-6.45448341729,-1.5309602018,-0.00370098950053,-8.88808159192,-3.55232350334,-8.20541362098,-2.87327672134,-34.9843759842
do_nothing,6.69381367005,4.53551311243,7.15339621409,-0.584256551467,3.43166978904,15.8438379572,-3.75270723034,0.204309397093,-0.0057195816069,-2.85447349093,0.350255371524,-0.994081215624,4.39710704884,16.7287857386
do_nothing,7.66460526591,6.07724171904,7.82579123307,-0.308963121143,3.32041698733,20.0979762145,2.19644694856,0.84276390636,-0.00560888973054,6.09080816414,2.88013611169,7.6562376803,6.32516140081,20.2523574837
do_nothing,0.161238924848,0.780410440334,-0.938537123503,0.428251203474,-0.824418164533,-0.823161350698,3.61923156563,-0.251395711981,-0.00270800159109,8.42047439836,1.35681068478,7.36707560524,1.32599008696,-9.16922218317
do_nothing,-5.50991792582,-2.2909915134,-5.25485463747,1.19698497612,-3.04391464066,-18.5043999687,0.850307543652,-0.198203370639,0.00147551777976,3.06597040456,-0.902739202938,-0.244215136422,-3.32953520453,-6.20796334618
do_nothing,-2.66714046166,0.729610048161,0.302181248684,0.898030406353,-0.532984075631,-11.4757941629,-0.361378014295,2.14231463288,0.00449991729849,-2.9167511279,-0.249124707701,-4.91053904725,-2.01898506342,26.6663240273
do_nothing,3.6057096208,3.90453918142,6.10310295078,-0.397667042984,2.51223773673,7.99372616579,0.862360727288,3.2300942152,0.00536420707164,-4.57522832093,1.56872948794,-2.69829453697,1.81189957938,30.4685332232
do_nothing,4.60401258967,1.59181996657,3.17813454473,-1.04139798209,1.45577698074,14.9280725283,0.0772017014539,-0.122401874148,0.004556639683,-3.47018157872,0.671069924977,0.463186545237,1.72793738194,-2.66579326909
do_nothing,-0.517488837339,-3.34941170199,-4.14834273682,-0.0729653744394,-2.10017489776,4.3318671707,-3.34523363157,-5.01778890221,0.00240440534757,-2.12497147466,-2.27198858101,-0.0822452228014,-2.1225770367,-20.9800372195
do_nothing,-5.28554229612,-4.91060085995,-6.42134139216,1.11406936947,-3.13672743082,-8.40999729584,-3.96179854161,-5.36430040846,-0.0010158493769,0.0464378823526,-2.86720690431,-1.35511711931,-4.00766537496,-9.35846245923
do_nothing,-4.90579394486,-2.59050986713,-2.66482653455,0.582569027309,-0.379504630595,-10.4209168971,0.781334144923,-0.0118890872474,-0.00448761104867,3.28765181647,0.110478947078,0.156973331809,-1.28015123792,-9.24029754695
do_nothing,-0.467473626515,-0.0133442992618,1.11972356079,-1.25944538294,2.69616271889,-2.92819100481,5.39298234225,5.35472562144,-0.00590506490201,4.72458897683,2.81346654144,2.16971049285,2.65579978359,-29.3281606755
do_nothing,4.24716874725,1.747760394,2.46739511515,-2.02052148968,2.99273018731,5.52851200267,3.96809391387,5.26270070407,-0.00445258864885,2.33941039951,2.0916908581,1.52932775891,3.90838699291,-19.2617436591
do_nothing,6.08560356214,3.96944515493,3.63132615877,-0.559688475169,0.87053597238,7.92086777451,-1.32939171577,0.74422395186,-0.00140853679337,-1.31330519843,-0.3740628362,0.0633971704517,2.5161690873,34.9849537554
do_nothing,3.38469241454,5.11897898823,4.32261313931,1.51361069307,-1.62960484385,2.73882466654,-3.93082983462,-2.97298861787,0.00159954643648,-2.62211326171,-1.3812847491,0.576757328673,0.35014162908,64.255398644
do_nothing,-2.52781930279,1.89029882407,1.29208439695,2.04180282475,-2.92824631702,-4.25755811404,-2.12328983981,-3.10398509823,0.00396737891073,-1.93334236041,-0.782448567361,1.05659558825,-1.92675839309,16.6022677593
do_nothing,-6.58687129836,-4.22085737569,-4.29682327075,0.90625424635,-2.091381899,-4.59520435594,0.251161496124,-1.369443594,0.00529025057733,-1.79448281501,-0.400496979053,-1.60307082763,-3.90844212854,-53.0171737655
do_nothing,-4.41836421958,-6.78532825183,-6.16053081074,-0.378392140743,0.641477976463,1.77831155733,0.751672707284,-0.28661165835,0.0045996564363,-1.99718426286,-0.428363913637,-4.81945125222,-3.93499445896,-55.3922828567
do_nothing,1.76741329326,-2.84404490445,-1.89575384204,-0.844974431965,2.94653069921,4.43339315626,0.822374148924,0.0645821093603,0.00159643280666,-0.186227625074,0.272412045606,-3.2538094583,-0.956702665754,9.15682535368
do_nothing,5.03673257112,2.78478258893,2.99777411405,-0.797891907439,2.2650808965,-2.45482507885,1.40902858229,0.950725259107,-0.0021738823855,3.29786949223,1.34013649133,2.54128478325,3.21047243719,61.040081262
do_nothing,2.47135215275,4.18626236814,3.19582608895,-0.720325471589,-0.647677607943,-8.95575575517,0.979236700747,2.34040634511,-0.00457092103341,4.95967675162,1.18669768087,6.11100363243,5.35944999802,48.2427702822
do_nothing,-1.42138958086,1.7957375962,0.746005873408,-0.551250284897,-2.1537914874,-2.88032860082,-0.805969010165,2.67754892026,-0.00487389183867,2.89611351234,-0.154936245142,3.93966395355,4.04682979484,-14.1456842972
do_nothing,-1.69520296867,-0.115082167208,0.204857061252,-0.16175307523,-0.698454429845,10.0631992513,-1.52364838418,0.896133608669,-0.00366848089472,-1.02124791829,-0.960934538505,-0.736539612905,0.217562602314,-83.1436833288
do_nothing,0.308810180814,-0.464029960733,0.838137835641,0.279931749154,0.971247946389,12.2573522553,-0.121149151268,-2.16485450361,-0.00138301513695,-4.17888600236,-0.725549374348,-3.69819868163,-4.13774009714,-104.42116934
do_nothing,0.32784992014,-1.43040442621,-0.886297044114,0.695680419646,0.172305270992,-0.288335118239,0.781593298911,-4.3148261248,0.00174702834728,-5.49407445947,-0.721858376122,-4.38434093518,-6.51840930471,-23.4005421983
do_nothing,-1.61090675432,-2.88663240016,-3.63575681985,1.20115542078,-1.44815172968,-11.7431408646,-0.685307334005,-3.65017273748,0.0045516516005,-4.05606349412,-1.1470291912,-3.25990436785,-4.53046317058,133.434879395
do_nothing,-1.70922566844,-1.73642277719,-2.42679576564,1.48669127221,-0.67390635543,-9.14875834665,-1.83969346894,-0.0389783960072,0.00528679286414,0.946014940906,-0.265017265056,0.426769802388,1.52760910965,210.450946912
do_nothing,0.999716797194,2.42442530443,2.72839788577,0.735144775008,1.85345510699,1.068858512,0.450204853957,4.32610286395,0.00349663146155,7.01308181565,2.27179831083,5.25656476665,7.07312111389,72.7884473925
