label,COUNTER,INTERPOLATED,AF3,F7,F3,FC5,T7,P7,O1,O2,P8,T8,FC6,F4,F8,AF4,RAW_CQ,GYROX,GYROY,MARKER,SYNC,TIME_STAMP_s,TIME_STAMP_ms,CQ_AF3,CQ_F7,CQ_F3,CQ_FC5,CQ_T7,CQ_P7,CQ_O1,CQ_O2,CQ_P8,CQ_T8,CQ_FC6,CQ_F4,CQ_F8,CQ_AF4,CQ_CMS,CQ_DRL
off_to_on,-2.67967298261,-2.42063483004,-2.70262200889,-1.48902200276,-0.849173951909,-0.224838901648,2.96085383302,0.60118040554,-1.51740973594,-2.5290725816,-2.7793566686,-1.54113439059,-3.00902939856,56.3980478406
off_to_on,-6.44494661921,-5.24144511,-4.62324190837,-1.67445083153,-1.19893313996,-3.36574854442,-2.81388171767,-1.58092481913,-1.27045557776,-4.94347770182,-3.33253762003,-4.83076931765,-5.6519347002,20.1338159501
off_to_on,-8.79500997826,-6.91008412585,-5.51507163101,-1.54386936716,-1.29963508408,-5.38799568832,-7.62689517159,-3.54195009398,-0.803133591676,-6.26800960758,-3.13078094694,-7.08802931322,-7.12077228444,-25.64691855
off_to_on,-8.89004028449,-6.80429761789,-5.06370821411,-1.0901314951,-1.11069724835,-5.83551561259,-9.97940206284,-4.56393186529,-0.202780536476,-5.95422804128,-2.12713126013,-7.50599009979,-6.77548094638,-69.8251941116
off_to_on,-6.51890487917,-4.796058538,-3.31415901688,-0.389137990268,-0.670513167257,-4.72433406702,-9.14081216492,-4.17527731232,0.415606675121,-3.91137972539,-0.503161474399,-5.78451584084,-4.47106131679,-100.311494413
off_to_on,-2.20967092611,-1.32780990845,-0.675232528376,0.414979670401,-0.0835594435268,-2.49623384498,-5.38481248987,-2.33961334088,0.935234632965,-0.579831932372,1.36226399497,-2.26943149776,-0.666017299407,-107.570018462
off_to_on,2.89401474376,2.69108277141,2.18544186933,1.14654635022,0.512447953289,0.144801543931,0.0905526046068,0.490365085357,1.26436704442,3.16562564397,2.99046265236,2.11227926317,3.66384331255,-87.7370422524
off_to_on,7.36131248139,6.14287789596,4.52696264556,1.6454409525,0.987374981795,2.4556074077,5.53788554271,3.48438066091,1.35639732714,6.26242498044,3.93962654106,6.11295453371,7.29385498224,-44.2794047466
off_to_on,9.90766264633,8.03727055253,5.74604086499,1.80959937803,1.25337109639,3.86623617037,9.21396882361,5.68522814038,1.2173062848,7.78374581565,3.93859762379,8.54415728006,9.12348175326,12.4668083843
off_to_on,9.79476947637,7.81803166598,5.54878395673,1.61967557841,1.28244571043,4.12103950085,9.93579430751,6.32128430666,0.898713523788,7.23536137999,2.97413731465,8.6546608753,8.53412713034,67.8892183748
off_to_on,7.06557900408,5.54031581008,4.0304388644,1.13892552375,1.10290385725,3.31422791701,7.46010182456,5.07667959877,0.479463240305,4.72609830359,1.30151817432,6.3801870844,5.6098959841,107.140325675
off_to_on,2.53463863464,1.85870920739,1.63894147193,0.48985146889,0.778733636445,1.8200076262,2.56300166701,2.22350608314,0.0423710284119,0.950688403753,-0.627468004687,2.37730759596,1.14008504318,119.436097188
off_to_on,-2.46580734896,-2.17259036615,-0.965102211005,-0.183327370614,0.3821011608,0.148693839797,-3.20716016481,-1.4366530441,-0.345985712588,-3.01514823591,-2.29788103257,-2.17549246752,-3.60678138611,101.283340304
off_to_on,-6.50253088103,-5.42414775591,-3.10672165672,-0.753370010459,-0.0291926387861,-1.22056956913,-8.02439753545,-4.81095470435,-0.646203048201,-6.044427685,-3.28449649928,-5.9478901966,-7.27000853717,57.6013143215
off_to_on,-8.48495742017,-7.03550583909,-4.29018874881,-1.137730074,-0.420670898451,-1.97747379137,-10.3672170589,-6.85975342215,-0.84539876806,-7.30721899962,-3.37531080741,-7.87786560826,-8.82061424454,0.345692236629
off_to_on,-7.99102120634,-6.66803108863,-4.32801157925,-1.308209479,-0.774677103878,-2.04947120189,-9.50011112335,-6.93443184787,-0.947310478602,-6.52349196959,-2.62624409213,-7.50215052471,-7.88220616384,-54.9706288836
off_to_on,-5.37061767478,-4.58606390621,-3.36803602358,-1.28259428894,-1.073932525,-1.58760739679,-5.69984882298,-4.99448838225,-0.959022055339,-4.03743326734,-1.33038354812,-5.08666412335,-4.84138752931,-93.7941727658
off_to_on,-1.5973767499,-1.54388251311,-1.81573085684,-1.10472755244,-1.28557643621,-0.88223624922,-0.156274804727,-1.62819106617,-0.881212794752,-0.689853335318,0.0864329932305,-1.51462924837,-0.710250721607,-106.688160335
off_to_on,2.07584321153,1.47905243646,-0.183038438723,-0.822805739707,-1.35631282446,-0.242910855351,5.41594997393,2.13326474842,-0.706893847283,2.46671957251,1.20752147947,2.02678160863,3.21264604845,-91.8554108536
off_to_on,4.53749501192,3.60234669664,1.08217568847,-0.474888368181,-1.2244994256,0.114250680419,9.32470938892,5.14780765006,-0.429492368815,4.51293760395,1.75668004813,4.45130144474,5.76792867156,-55.2872955755
off_to_on,5.17082183936,4.31862609532,1.72846436132,-0.0862903852827,-0.847037970727,0.133933492806,10.4276022103,6.53001831097,-0.056547099183,4.95108650478,1.67552950981,5.12937343055,6.30375367543,-8.56900757036
off_to_on,4.02373671314,3.6277294092,1.75351059955,0.322357731678,-0.23101658101,-0.0764493379117,8.47028354901,5.93083413157,0.37787281665,3.84176153396,1.12293487435,4.07326282551,4.86372275486,34.882397107
off_to_on,1.74462453297,1.9922872013,1.3655462364,0.722554088449,0.544322948753,-0.306888918247,4.13336228713,3.63620174683,0.809206781203,1.74722112128,0.399986734035,1.89154940368,2.13468123713,63.8963571517
off_to_on,-0.684435481818,0.138595578142,0.874330998152,1.06905058648,1.32830804031,-0.341982976725,-1.21662265174,0.453840512382,1.15121790592,-0.492703220591,-0.170284716347,-0.464464917888,-0.821537683266,72.6432087713
off_to_on,-2.31649162703,-1.22058277156,0.556292809637,1.30112368547,1.92800366311,-0.0577446779858,-5.98003515733,-2.56985968718,1.3168729018,-2.06897568365,-0.364285535692,-2.0662572005,-2.95388300874,61.8256729674
off_to_on,-2.57781497306,-1.64029705348,0.545264679697,1.35579461697,2.16080745132,0.518692176851,-8.82600161587,-4.50308366214,1.24530787333,-2.4857083033,-0.136959958366,-2.35090483685,-3.58785001168,37.7196705142
off_to_on,-1.45756506856,-1.08574815171,0.78826802214,1.18916286406,1.91514102286,1.20949195677,-9.07974620965,-4.82995177675,0.925535192252,-1.7183693682,0.368623169523,-1.31712313352,-2.6437262399,9.54067536565
off_to_on,0.512690613369,0.0831194477268,1.07988802596,0.797761252654,1.19823052979,1.74772048156,-6.87797579961,-3.59863114805,0.407583874821,-0.196260788696,0.882936379749,0.494267397166,-0.634738351963,-13.8602386037
off_to_on,2.47514276371,1.27231360639,1.15878390037,0.230780808795,0.151677481538,1.87853201322,-3.05805153946,-1.37066904895,-0.204556119645,1.37852437049,1.11895202718,2.22441847693,1.54772513511,-26.8080699199
off_to_on,3.57420233877,1.89525799146,0.826867344726,-0.413314639504,-0.975245178281,1.46296691914,1.16309084594,1.00326406441,-0.777677132155,2.30543529776,0.88769555592,3.03894941187,2.97887008908,-28.2109905327
off_to_on,3.27643278446,1.60326071503,0.043968030233,-1.00681024702,-1.89060443688,0.544989067776,4.59829449959,2.69585508002,-1.18487934259,2.15124468891,0.177768779784,2.45974927454,3.04758302806,-21.2042456681
off_to_on,1.56764125602,0.420056433339,-1.03909374265,-1.42425295362,-2.34510901396,-0.645714883379,6.44557985152,3.19015610235,-1.34072898251,0.911040063662,-0.830399675098,0.561692925505,1.68014526778,-11.3205597883
off_to_on,-1.04023861823,-1.266914171,-2.1222830213,-1.57579388044,-2.2108030605,-1.76017684008,6.47744090975,2.44047752286,-1.22450496064,-0.991740499515,-1.82109935907,-2.03963135531,-0.63796890108,-3.98497244219
off_to_on,-3.69033461051,-2.85191093149,-2.85778267709,-1.43159799231,-1.52621970371,-2.44544244876,5.01887216129,0.855377987091,-0.883749636278,-2.86297860761,-2.45074027573,-4.40553190125,-3.04614509712,-2.32400248725
off_to_on,-5.48133486557,-3.73629053992,-2.97348652172,-1.02933990908,-0.490580556175,-2.46913071284,2.74686703056,-0.88287417233,-0.417002150983,-3.99307034265,-2.46807795316,-5.61748761977,-4.62785431942,-6.0990024908
off_to_on,-5.77847746549,-3.54916500308,-2.37285861044,-0.462465748218,0.594032594667,-1.80799635757,0.404290625948,-2.08900321605,0.058222061653,-3.91552374421,-1.80484445423,-5.11986654149,-4.74678288042,-12.1028096336
off_to_on,-4.42614012321,-2.28243409376,-1.17448593046,0.146640815175,1.41582665168,-0.66591932867,-1.45740785626,-2.33183158293,0.441069839398,-2.5756587596,-0.605064058445,-2.93582979445,-3.27780602013,-15.7822377076
off_to_on,-1.79169434399,-0.292831732155,0.322816169048,0.679558325863,1.75206970484,0.589198857558,-2.61487894467,-1.58275424565,0.674410615656,-0.35061077224,0.816925815426,0.323497521492,-0.651294956318,-13.3846725315
off_to_on,1.36775022316,1.82627500347,1.73604990639,1.05018621628,1.54046616813,1.55080424153,-3.15306229939,-0.204290076321,0.754500123726,2.08327163261,2.07483496124,3.6609650864,2.30149122099,-3.74527305644
off_to_on,4.16182928164,3.45290441451,2.71991454272,1.22017536663,0.898139494081,1.91838133192,-3.3188803343,1.21084190079,0.721011786328,3.98467349353,2.83106968004,6.03392556487,4.64203149305,11.0072700077
off_to_on,5.85254457231,4.14624340748,3.07073160036,1.1981179179,0.0803296544987,1.60889304618,-3.32821187265,2.08338127282,0.632533073651,4.79731267062,2.8987584722,6.71079516051,5.64863684354,26.1127659382
off_to_on,6.07022656234,3.78235525559,2.77662723194,1.02513093549,-0.608517325049,0.791737737338,-3.22051581962,2.07738442514,0.537945201345,4.32696423174,2.29187190031,5.51609755344,5.05453061538,35.9561403712
off_to_on,4.89181642535,2.57037904042,1.99930624289,0.754041729697,-0.921644487142,-0.169964312317,-2.83005690768,1.22725595675,0.455389589247,2.78615632434,1.20912722826,2.87800093391,3.11812738349,36.2685549983
off_to_on,2.76670213495,0.950166897332,0.998727662852,0.430928587548,-0.758029919811,-0.854820490201,-1.88833084743,-0.0856426231053,0.367268556716,0.697072617775,-0.0393842138404,-0.335165709819,0.507214661429,25.8937316221
off_to_on,0.330426574811,-0.583339945791,0.0328199084194,0.0858444450832,-0.20019023231,-0.948423297267,-0.211525863902,-1.29522972495,0.233158656441,-1.3053121666,-1.13477358918,-3.12642969269,-1.95310064537,7.42092268695
off_to_on,-1.81686570113,-1.65820301189,-0.727834241331,-0.264944144916,0.513002937246,-0.377106824373,2.11516534458,-1.88606870087,0.0151487260007,-2.69371956411,-1.84468580379,-4.71435533706,-3.57127879835,-13.5858428648
off_to_on,-3.28483719307,-2.1379007918,-1.23841925306,-0.608062701498,1.07083411751,0.643435570684,4.6499668628,-1.60776245809,-0.295188821487,-3.21180425411,-2.07987424771,-4.78523583277,-4.01174960993,-30.4997190493
off_to_on,-3.96350634916,-2.1289785036,-1.55989417786,-0.920131997737,1.20444370619,1.66993469817,6.66252317083,-0.582490090985,-0.660112033032,-2.92468779449,-1.89641160197,-3.56532573956,-3.37178705206,-37.9854108408
off_to_on,-3.97850671728,-1.88838330634,-1.79363212686,-1.16041027585,0.790286681367,2.1890674252,7.35398333045,0.738547243572,-0.997633700675,-2.14640246291,-1.44854569463,-1.69360619573,-2.09373442474,-33.921917913
off_to_on,-3.56590362823,-1.67553339824,-2.00261585035,-1.2741625769,-0.0939056107276,1.81866078926,6.15970720051,1.75483873865,-1.2033294116,-1.28099107695,-0.914781882936,0.0500124105305,-0.756403678274,-20.1718084145
off_to_on,-2.93051225349,-1.61573897183,-2.15667538231,-1.20729568758,-1.18259817583,0.479763216564,3.02202382419,1.96351429675,-1.18541665843,-0.645307880691,-0.427937487763,1.05356477609,0.166541669052,-1.8988041632
off_to_on,-2.15285813376,-1.63564263968,-2.12911664409,-0.927703466962,-2.10377392903,-1.52845948865,-1.48110799858,1.17664990381,-0.900781604894,-0.34555501745,-0.0360120287343,1.10012174359,0.484627463992,14.3266048551
off_to_on,-1.18391611434,-1.50030679246,-1.75011633251,-0.445265968529,-2.50274986652,-3.58868137483,-6.22231790287,-0.378809339868,-0.378356185971,-0.255425040101,0.293307905239,0.427870256952,0.337336323525,22.9412755729
off_to_on,0.074893869457,-0.937876536351,-0.897137150601,0.178026514773,-2.16739183526,-4.95131376035,-9.82213280567,-2.12294449218,0.279948610611,-0.101324760959,0.630128652947,-0.396496229562,0.0964674882267,21.4322141543
off_to_on,1.64867034977,0.201001520281,0.415465752353,0.833508354339,-1.11161527987,-4.99054700834,-11.0741875193,-3.32953941502,0.922921647132,0.383714569481,1.02303006736,-0.738279225221,0.169493633162,11.2467548505
off_to_on,3.38631342146,1.81971953861,1.98882064819,1.38732274242,0.41315957442,-3.44462973352,-9.36046118472,-3.40395331218,1.39177642501,1.30405643317,1.45087873748,-0.184445483764,0.78889764471,-2.77904039813
off_to_on,4.93513122224,3.54806559287,3.46156673366,1.71276345186,1.98538266638,-0.553164030914,-4.91048515129,-2.12854947789,1.56669556991,2.51163220295,1.80899325957,1.25397330744,1.87774599636,-14.2783175952
off_to_on,5.81816255265,4.83401566847,4.40334087385,1.72416958941,3.13989137958,2.96600047633,1.19754410469,0.219604830048,1.40285962507,3.62482809069,1.93861700019,3.11021112203,3.05082462865,-17.8240880959
off_to_on,5.5953176074,5.1305225045,4.45287849433,1.4020216185,3.51348579205,6.10552198706,7.31281902846,2.92960702424,0.943908173415,4.15555129714,1.69040993419,4.61896260924,3.75573682006,-11.1024693397
off_to_on,4.05043414939,4.11169462686,3.45354591668,0.801303435401,2.96222239386,7.87093272887,11.6900428481,5.08230479521,0.308338661531,3.69999653593,0.997593331853,5.00746546534,3.50100164366,4.02857851782
off_to_on,1.32889880233,1.83515435641,1.5355038312,0.0402482461833,1.61163492043,7.6021301354,13.0220587262,5.86543004636,-0.34650089732,2.12085289108,-0.0715199736904,3.81218518203,2.08097425298,22.020530711
off_to_on,-2.03731097875,-1.21857431098,-0.890831201541,-0.727455179254,-0.177270036074,5.20754473977,10.8549269581,4.86787823669,-0.870688606255,-0.351931834679,-1.3060151176,1.09962254772,-0.294790052703,35.5296489416
off_to_on,-5.24187937457,-4.25694332165,-3.2356203287,-1.34905152346,-1.91586929677,1.22862765343,5.74690726742,2.24696891544,-1.16297884788,-3.14737633288,-2.39852065858,-2.49788320336,-3.02588681159,38.0854467811
off_to_on,-7.42762402896,-6.40891688439,-4.89673987616,-1.7075361276,-3.13509684205,-3.29443785918,-0.885760474687,-1.29470729657,-1.19396226015,-5.50667743172,-3.03363161802,-5.95409282174,-5.29933847615,26.5965250606
off_to_on,-7.95110246207,-7.00592488448,-5.44010794359,-1.74574551306,-3.52473565383,-7.1198032576,-7.19108526276,-4.71997913149,-1.00480258091,-6.71633258132,-2.99038262722,-8.17508964661,-6.362325019,2.78963112246
off_to_on,-6.59819262045,-5.81295531423,-4.73303982071,-1.47428595728,-3.02068016714,-9.17288363438,-11.4379580027,-6.98636416312,-0.683935605025,-6.34295411139,-2.22329063226,-8.36835008784,-5.79142920506,-26.9727304552
off_to_on,-3.6728963165,-3.12541364384,-2.98474603603,-0.962897868494,-1.8136574443,-8.87054114109,-12.5293730961,-7.38280030342,-0.331631983068,-4.38807980331,-0.891882492676,-6.32493675469,-3.65831874178,-53.5028876092
off_to_on,0.0769757918678,0.308205257287,-0.679145641949,-0.31948111199,-0.279035036813,-6.29679386344,-10.3096464267,-5.75962771852,-0.0259549750544,-1.30714449018,0.674843365793,-2.51350469056,-0.52744060276,-67.6750486524
off_to_on,3.67760328579,3.51714170633,1.57783023041,0.336197287404,1.1469230172,-2.17393594011,-5.57243201928,-2.57463573862,0.197812670362,2.11706228139,2.0705073188,2.05009472759,2.71813031793,-63.4587146559
off_to_on,6.22041825411,5.61688244054,3.24460942954,0.896792088751,2.10232302529,2.3605607897,0.224039977303,1.25822794359,0.348036045294,5.00611031272,2.93162043594,6.11544033992,5.16351751243,-40.0983138656
off_to_on,7.13045027821,6.09026024956,4.00073868694,1.28429061839,2.40223652856,6.0981245371,5.43246754275,4.66321370033,0.459555620083,6.64644714048,3.04713173332,8.58672488699,6.16049157805,-2.70017329337
off_to_on,6.32289434978,4.94388919481,3.8218811383,1.45738076876,2.07714862352,8.11293924638,8.72159262458,6.73837003205,0.567075489204,6.69308856608,2.42105358358,8.85690041696,5.53161345042,39.0074315597
off_to_on,4.19798983682,2.6855982732,2.95076025116,1.41030488913,1.33866718409,8.01397158171,9.44666473673,7.01961230168,0.681075822785,5.2514381442,1.26721315745,6.97583884236,3.60835809204,73.3944380054
off_to_on,1.48073974918,0.131575904203,1.77953283448,1.16632094958,0.488831413663,6.02031211545,7.77351856176,5.58919526373,0.776802321498,2.81501184753,-0.0621820765248,3.60091123297,1.09224778386,90.3140641352
off_to_on,-1.0344007827,-1.88743656665,0.690892850347,0.769368416439,-0.192290269641,2.84563244842,4.53305174507,3.00165256858,0.801332071913,0.086410516482,-1.19023576579,-0.245277097012,-1.20726150546,84.1290806644
off_to_on,-2.74225903298,-2.8153968395,-0.0807474628876,0.276564699222,-0.540385226809,-0.559193118502,0.875571610566,0.064585730821,0.696219981569,-2.25247256102,-1.83325610956,-3.51947975818,-2.659842285,55.4676616902
off_to_on,-3.39929020691,-2.55187904119,-0.515714210905,-0.247562775313,-0.550365602643,-3.31220590966,-2.14120219753,-2.44009747409,0.426711856564,-3.7407542706,-1.88370705353,-5.4822865425,-3.02026217614,11.1865462868
off_to_on,-3.15375231322,-1.46028862674,-0.779793246689,-0.735788080728,-0.357243372146,-4.85182744765,-3.88240451319,-3.99359159531,0.0054927768068,-4.24368319353,-1.43140762664,-5.89262007996,-2.47916345698,-37.4424075618
off_to_on,-2.43139062033,-0.202147738799,-1.11382977608,-1.12327294692,-0.165171552557,-5.05600816483,-4.27550911601,-4.45726265062,-0.499401746806,-3.93426971771,-0.717635853676,-5.01380931568,-1.54420374724,-77.7875317299
off_to_on,-1.72739826627,0.539698675264,-1.68948779632,-1.35413265847,-0.153797716164,-4.20262029063,-3.72637720482,-4.04002030506,-0.977156857812,-3.16918200997,-0.0399170355287,-3.44339725615,-0.801971379527,-99.2750658987
off_to_on,-1.38863527654,0.344510804274,-2.49313380948,-1.38944055987,-0.398389041575,-2.80208407314,-2.86394266803,-3.14447542484,-1.30423007571,-2.31442785719,0.357983370122,-1.84236070552,-0.65665821873,-96.2123789587
off_to_on,-1.47141652012,-0.764330111372,-3.29038131381,-1.21526648709,-0.834089997184,-1.37599752806,-2.22727063231,-2.16439723693,-1.38218826143,-1.592169565,0.371779098239,-0.672728158663,-1.15037030188,-69.2578156631
off_to_on,-1.72945969487,-2.31051901895,-3.69319025055,-0.848428511755,-1.27765464035,-0.268858438102,-2.02508269521,-1.31996786525,-1.1704045391,-1.00855750888,0.0681536669213,-0.044115291219,-1.93853184645,-25.1789689951
off_to_on,-1.73550662923,-3.53760249627,-3.3106376145,-0.337612880483,-1.4983938764,0.439693107214,-2.06383070621,-0.596820129682,-0.702136712373,-0.388488542219,-0.34833537476,0.276451257565,-2.4336426986,24.981111619
off_to_on,-1.08786877468,-3.70381782025,-1.92889417582,0.241560406099,-1.31175192851,0.89853942439,-1.86981610252,0.191311013134,-0.0781058094455,0.500262422593,-0.62017527841,0.702850190338,-2.06423522142,68.7926702514
off_to_on,0.380736463984,-2.39187650857,0.350490799787,0.797405441112,-0.660428225452,1.35161688736,-0.95108057053,1.2496708033,0.560610816203,1.78756395436,-0.542342191722,1.58806100061,-0.548448094133,95.596818276
off_to_on,2.47745207636,0.282988708093,3.07489827178,1.23723367132,0.347770882664,1.97196869702,0.913437917715,2.6316604968,1.0715596068,3.37578936071,-0.0495291796254,3.00594046849,1.92836322226,99.1178997828
off_to_on,4.66242636991,3.65060296996,5.53437435749,1.48371937864,1.46078909736,2.73869399192,3.48408813397,4.13170496464,1.34914872249,4.90741312927,0.747316220165,4.6517884517,4.7104224916,78.8986191326
off_to_on,6.20530491273,6.66867212401,6.96496395563,1.48930343017,2.35642199146,3.41239472514,6.06061097112,5.29886030794,1.35020133535,5.84930674471,1.58981408185,5.9110562988,6.85789073485,40.2536041336
off_to_on,6.4352562211,8.25706677278,6.79925524427,1.24580567045,2.74523281031,3.62271443429,7.68958561567,5.57906063261,1.0996528998,5.67253821098,2.15785986008,6.07946207409,7.46633194594,-7.18326961377
off_to_on,4.99738163653,7.67324354553,4.87922789207,0.787421580807,2.46748470936,3.03407030418,7.51360669249,4.53913978505,0.67623470474,4.06715342131,2.1833304615,4.65627653875,6.00931293108,-51.9068617189
off_to_on,2.02185864727,4.79921951213,1.553329219,0.186509717992,1.55106058141,1.52146012541,5.13527385558,2.08700045933,0.184637666707,1.11268914083,1.55235030298,1.59899527041,2.57906647117,-83.3566365344
off_to_on,-1.86066158878,0.236108521923,-2.38508013698,-0.457262093684,0.21047400641,-0.719140774102,0.853661329839,-1.40446242818,-0.275426413196,-2.66532370064,0.359719363258,-2.56470394764,-2.06981833936,-94.4157152945
off_to_on,-5.67226778842,-4.8353868548,-5.90842120058,-1.0328971726,-1.21313883018,-3.17856994423,-4.33095239173,-5.13269528288,-0.632911973928,-6.38716566254,-1.10522200904,-6.8246524716,-6.70310564397,-83.0116752245
off_to_on,-8.36640198906,-8.99193803062,-8.05359423386,-1.43693042913,-2.35162106985,-5.16881886922,-8.96876858183,-8.06711555464,-0.855292414124,-9.0435388717,-2.43901923747,-9.96207948806,-9.96685461417,-52.4687879957
off_to_on,-9.14443605021,-10.9980630451,-8.21480781051,-1.59235309951,-2.91691873024,-6.04295493858,-11.6000715075,-9.2615184141,-0.943826109845,-9.79022193137,-3.24604838408,-10.9276449072,-10.8114960227,-10.5636552327
off_to_on,-7.70785882802,-10.1927453309,-6.33495642944,-1.46439559202,-2.78197211195,-5.42425604725,-11.2411636169,-8.17581683678,-0.919031626532,-8.2217483119,-3.26285463443,-9.19953956968,-8.84055421764,32.4587821247
off_to_on,-4.3633304491,-6.70691652141,-2.93080628405,-1.06990326197,-2.01110179921,-3.36051236369,-7.74946078419,-4.8942555195,-0.804321028533,-4.5341285889,-2.44441924051,-4.99782508229,-4.46559261676,66.4113098478
off_to_on,0.0547524179826,-1.44019537924,1.05918436992,-0.477565346629,-0.83265483079,-0.34298990356,-1.93356491821,-0.15610907885,-0.615417930735,0.482427889674,-0.984005670194,0.725354519216,1.18912408417,83.6126018029
off_to_on,4.42057505615,4.19742036291,4.55725255614,0.202418638581,0.434730911461,2.82384696228,4.64397383648,4.82471440352,-0.35972408917,5.62842777918,0.740287445356,6.52762800238,6.60686412845,80.6625569221
off_to_on,7.63787894897,8.69805980832,6.66859018661,0.838533684601,1.47697469637,5.26289687962,10.1200785347,8.70322086128,-0.0447668273369,9.6097471023,2.27550426983,10.8813430227,10.3241273745,59.119641554
off_to_on,8.94578621932,10.8936073219,6.94003752718,1.30474693325,2.07033266856,6.29642598668,12.9003831705,10.4044292052,0.309587173006,11.3923525928,3.22562899839,12.6174320424,11.3612620333,24.9322019228
off_to_on,8.11700480867,10.2835035684,5.4733925328,1.50834148613,2.13305213069,5.65832738266,12.1603409025,9.45327902594,0.662463127984,10.4929586357,3.36406085409,11.2693975118,9.50294394973,-13.2061943941
off_to_on,5.49279737217,7.15531166757,2.86053048363,1.4120003846,1.73060000606,3.57518361878,8.11243732902,6.12484952095,0.952877099888,7.11914610841,2.69261413774,7.20957536931,5.34323729578,-46.1298631694
off_to_on,1.8523216674,2.46828438892,-0.0328816810065,1.04390796323,1.0377675198,0.689426309029,1.94851870024,1.36382481054,1.11216866407,2.11681180586,1.43070317259,1.53596351761,0.0867275163205,-66.4943053725
off_to_on,-1.83453836135,-2.45495045093,-2.3585770403,0.492166968491,0.274035976422,-2.14837422041,-4.52724021734,-3.50248340975,1.08476647863,-3.2600041033,-0.0591105240576,-4.25295762612,-4.82506951668,-70.4857845926
off_to_on,-4.68865382541,-6.32584297253,-3.55239785316,-0.116126075204,-0.364910180317,-4.14736695647,-9.45699690987,-7.16554737175,0.84994250807,-7.68959316763,-1.38331392129,-8.6920454958,-8.13990203559,-58.516111549
off_to_on,-6.15038471774,-8.25131255481,-3.48860509504,-0.646340794264,-0.758193148755,-4.8152016198,-11.4986739866,-8.72250365531,0.435849455074,-10.134635479,-2.23090797198,-10.7571990682,-9.14000742529,-34.7665300256
off_to_on,-6.09174997713,-7.95222652343,-2.47522901393,-0.990037777072,-0.880174978022,-4.0910548222,-10.2227096236,-7.92578956236,-0.080763292584,-10.1057868998,-2.45331867309,-10.1247511887,-7.80501255326,-5.77591110792
off_to_on,-4.79013271059,-5.78327698071,-1.10030392907,-1.09149347567,-0.788629948245,-2.33452079699,-6.21129794033,-5.21985909351,-0.590879697218,-7.76520301065,-2.08871562616,-7.21147367341,-4.75454322225,21.4643247775
off_to_on,-2.78715927455,-2.56420228894,0.00964213043184,-0.959267162072,-0.589401710544,-0.181810704072,-0.834910483142,-1.56074019316,-0.981454420233,-3.84722817867,-1.32787624504,-2.99582571253,-1.00473643011,41.3263099039
off_to_on,-0.690312518111,0.709669832608,0.428768597192,-0.659346004002,-0.39240950229,1.67571034929,4.21257422049,1.91450754269,-1.16679940176,0.572703593519,-0.437636277419,1.3107578095,2.37050121068,50.755706399
off_to_on,1.01313105433,3.17744091793,0.0824916833078,-0.292040049581,-0.274255808696,2.71308283255,7.46142276045,4.25433852356,-1.11278745568,4.38746183869,0.329654423864,4.63112454916,4.55933577593,49.5854494865
off_to_on,2.07227212082,4.34548511265,-0.742485731107,0.0400385142546,-0.258088837383,2.7210362726,8.11496743121,4.97377406796,-0.845690359748,6.75362212447,0.810135965915,6.31235068884,5.21446102684,39.9741053114
off_to_on,2.49125088311,4.17896349663,-1.52841600982,0.262664622661,-0.314134928537,1.84009401474,6.25726552305,4.16218277716,-0.442625971657,7.29004603969,0.963583060288,6.25565452386,4.48648203679,25.276861933
off_to_on,2.45895082377,3.03925101609,-1.74559851566,0.349543602159,-0.377314217229,0.478523631865,2.76228177639,2.39218911948,-0.00690013950331,6.13029896571,0.8624698894,4.861269079,2.89660795292,8.82050815002
off_to_on,2.22779086098,1.50541221912,-1.07704875231,0.324648751757,-0.373864731796,-0.847922719907,-1.05070068246,0.472651799077,0.363304763027,3.82577474232,0.644107604133,2.82505945231,1.10915262585,-6.96279181404
off_to_on,1.99294270318,0.151505856257,0.435916705531,0.247172574208,-0.247868133561,-1.69393726799,-3.8874646947,-0.860137224736,0.602307135796,1.14067661172,0.446928425141,0.868824198909,-0.308528125403,-20.7748227947
off_to_on,1.81723490633,-0.641773830443,2.38260753294,0.18491503154,0.0195035484375,-1.81994518302,-4.91028286298,-1.20204790332,0.691442887221,-1.19096154111,0.35561423686,-0.499239520996,-1.05615182731,-32.0787701843
off_to_on,1.62538876031,-0.78264961478,4.11273886894,0.18594775702,0.4017691841,-1.24532633706,-3.98640800786,-0.602724687114,0.656617557875,-2.67020091998,0.374373906774,-1.11636363874,-1.15113348859,-40.3976235335
off_to_on,1.26301325072,-0.45018524859,4.96219639796,0.258953813921,0.83036867152,-0.212289392988,-1.67889394127,0.487297837872,0.550977706844,-3.14184824699,0.435762163961,-1.15558205094,-0.857245244022,-44.7106176704
off_to_on,0.591515844896,0.017324037671,4.49490883337,0.369484592599,1.20757699578,0.916040595696,1.00288754375,1.4173184253,0.430056961027,-2.7831253922,0.438675805629,-0.993007638435,-0.532366224025,-43.3330710092
off_to_on,-0.421882781962,0.277420391059,2.674489815,0.453571986748,1.42642411036,1.78104005426,2.9934015803,1.60665443012,0.329188702165,-1.98818439439,0.298633745616,-1.0123788656,-0.4612915339,-34.4471583498
off_to_on,-1.65610145275,0.122120762521,-0.0965086347189,0.443741872075,1.394688706,2.13383079381,3.55792177703,0.783363343033,0.251730665585,-1.19617620822,-0.0102138527278,-1.42526390636,-0.738521470917,-17.1393003418
off_to_on,-2.8501015381,-0.447934697718,-3.08586359814,0.297807680094,1.05962385319,1.89076378521,2.5402690463,-0.895750478851,0.172240575058,-0.725185369347,-0.4377287376,-2.17450337346,-1.24139305411,7.48020691148
off_to_on,-3.6751676066,-1.23450099715,-5.45413722847,0.0196090791529,0.429103959226,1.13170556268,0.390407060552,-2.88695464204,0.0528617984526,-0.667948565908,-0.871384330702,-2.9542134265,-1.69654500957,35.6256892156
off_to_on,-3.84064642011,-1.92659223625,-6.51617719139,-0.33640278435,-0.416275197857,0.0543415128366,-2.02768951993,-4.44793214607,-0.133967015179,-0.880985734798,-1.17514133854,-3.33517887336,-1.80707454571,61.1053154895
off_to_on,-3.19642320394,-2.22279141641,-5.95471669282,-0.67908641352,-1.32592199142,-1.09078947966,-3.76958950738,-4.90537795566,-0.38586420255,-1.06526011146,-1.23853826269,-2.94585477442,-1.38675536019,76.6567793265
off_to_on,-1.79672330217,-1.94453107808,-3.91633469629,-0.908692709968,-2.10088318817,-2.06033428611,-4.16001004221,-3.90697581222,-0.662248810718,-0.905038517346,-1.01751759791,-1.63978032127,-0.448053193373,76.0793458675
off_to_on,0.0968949070662,-1.10091510653,-0.960668544985,-0.949547417269,-2.53422574131,-2.65901282222,-3.03238032712,-1.56868176687,-0.891601821614,-0.212477688237,-0.552070000765,0.41394485115,0.789109278248,56.5208378331
off_to_on,2.07534724189,0.114227912816,2.11676761832,-0.775951389878,-2.46384735065,-2.76023339851,-0.77645898367,1.53526903941,-0.992579898657,0.975437416056,0.0452803478245,2.75230102506,1.96947449976,20.102962369
off_to_on,3.6866484167,1.38739993211,4.52678811501,-0.422183056317,-1.82520688185,-2.31468858529,1.81615592399,4.53819833125,-0.902061065582,2.38375962451,0.625328305412,4.74731480532,2.72669078125,-25.8194440957
off_to_on,4.55402404712,2.38624733938,5.71362127273,0.0269635679481,-0.687818653909,-1.35660563443,3.84604361887,6.54846835827,-0.600386696608,3.57709361176,1.04896856734,5.79996894704,2.81260512112,-70.0794437172
off_to_on,4.47325736935,2.86011379064,5.49578209512,0.46184904559,0.739490973523,-0.0110591945011,4.62919265862,6.9307335492,-0.124692700064,4.10306451768,1.22819372131,5.53429139479,2.18437665074,-100.559908628
off_to_on,3.46266106651,2.7078792291,4.08218215423,0.780991072342,2.14275272372,1.50378332201,3.93260678493,5.50931341841,0.434945603749,3.65376605865,1.14756937406,3.92687256402,1.01922300961,-107.725815952
off_to_on,1.7540661988,1.99480194896,1.968612484,0.920138461759,3.17338889241,2.89213940977,2.04101886819,2.62864004468,0.956163404394,2.18988924097,0.860293224539,1.32881494056,-0.34625360071,-87.7414868644
off_to_on,-0.269598766457,0.918798690977,-0.241126310476,0.86783773115,3.5395937618,3.82502554346,-0.363077521785,-0.947001482643,1.31583569541,-0.0166742312584,0.462507167131,-1.62731561577,-1.52834075001,-44.1197436846
off_to_on,-2.17049821118,-0.257103476477,-2.02390474151,0.662992052098,3.09366923003,4.01440854943,-2.456230658,-4.26049342985,1.42306242394,-2.44000218082,0.057140095089,-4.20582313286,-2.21929748638,12.7535931709
off_to_on,-3.55899196806,-1.28083821283,-3.07313178621,0.376468928582,1.8880111069,3.30230383683,-3.57045726944,-6.442562484,1.24380997272,-4.44291231688,-0.278555359148,-5.77531997469,-2.27886399015,68.2272085526
off_to_on,-4.17765886667,-1.97168880682,-3.34365594202,0.0844044769418,0.17887795511,1.7364331465,-3.42134263,-6.95860513631,0.810170807579,-5.46280486682,-0.510296269539,-5.9815198144,-1.76523939038,107.436197552
off_to_on,-3.94789800521,-2.24984091345,-3.00336492963,-0.156571292362,-1.62870413274,-0.400117601774,-2.18837800692,-5.74805552204,0.212050645726,-5.18302527957,-0.644351236105,-4.83461462264,-0.89926636525,119.604880813
off_to_on,-2.97214409138,-2.13262601884,-2.32259982493,-0.323292556968,-3.08353054756,-2.62837719174,-0.424285778842,-3.21910082087,-0.425659104626,-3.63549838278,-0.709131870183,-2.68888337262,0.021116043293,101.27128093
off_to_on,-1.49623885007,-1.70626781946,-1.55154092193,-0.424942874059,-3.81089198126,-4.38366555133,1.16723292079,-0.107724687166,-0.973417829219,-1.2011217372,-0.730779757254,-0.126186242564,0.723411683188,57.400050552
off_to_on,0.154869813022,-1.08803827089,-0.834332930633,-0.488719715541,-3.61950245377,-5.17140338365,1.99954184766,2.74914494349,-1.32636381625,1.49394631871,-0.714573586282,2.21651861839,1.04426773627,-0.00536617654534
off_to_on,1.65082599969,-0.39331479053,-0.188839354877,-0.539330093149,-2.55951064613,-4.72214021389,1.81731061706,4.65368854878,-1.42527415542,3.75547359008,-0.640798628423,3.82122384866,0.968091194757,-55.3937178655
off_to_on,2.7222308729,0.283576211269,0.448637976544,-0.581656191642,-0.912045347217,-3.09278401501,0.780055185667,5.22871373714,-1.26495793496,5.01821586302,-0.476949240208,4.41360189317,0.612177097112,-94.1916236348
off_to_on,3.20705449002,0.87354932384,1.14151303629,-0.59444102613,0.888582256515,-0.673704625998,-0.612044150969,4.49178138908,-0.889807865664,5.00314434525,-0.200632335594,4.00652116814,0.169054428213,-106.965293027
off_to_on,3.07047098819,1.32718588998,1.87599469978,-0.538182121037,2.37773265628,1.90939308149,-1.71883798528,2.80915372467,-0.379595471588,3.78780804016,0.177568055648,2.85779970197,-0.169693222073,-91.9426131557
off_to_on,2.39770918976,1.60730473271,2.52727936421,-0.374420812797,3.19144795319,3.97377236918,-2.01086277809,0.753870054922,0.169550431552,1.77016352265,0.602576422631,1.36407750431,-0.28011185297,-55.1564703022
off_to_on,1.36470026055,1.6861382341,2.88725646463,-0.0886361610872,3.16573738093,4.9831567782,-1.27688906887,-1.08114125704,0.663975798303,-0.460548958121,0.981707160978,-0.0700617447014,-0.141409650838,-8.24088861981
off_to_on,0.194780687131,1.54931273156,2.74478606568,0.293026200983,2.37418561926,4.70947291722,0.287289488986,-2.25516113277,1.0274831249,-2.30381422071,1.20954876897,-1.14520089689,0.168136877253,35.3416615364
off_to_on,-0.888741862942,1.20413138319,1.98591773497,0.701104017085,1.0936628196,3.29756756088,2.14034963814,-2.58728043556,1.21076882787,-3.32195907634,1.20282002121,-1.73024006225,0.508783791828,64.3887975846
off_to_on,-1.70464778891,0.686782222405,0.670989691985,1.0371045668,-0.289058525262,1.20982142871,3.58440688857,-2.17394453116,1.19537403653,-3.35516916789,0.932434126194,-1.86289675048,0.733623482514,73.060152318
off_to_on,-2.14287793095,0.0632246190857,-0.947332598033,1.20119614072,-1.39836816588,-0.930750365117,4.01370389495,-1.32048600612,0.993195087041,-2.54457984195,0.440175621957,-1.69642378301,0.739315295006,62.0720443317
off_to_on,-2.17615287165,-0.578674964211,-2.47899897037,1.12445224962,-1.97920914054,-2.54435077951,3.13527367385,-0.416278763439,0.64273328121,-1.2609245794,-0.167453092513,-1.41786764751,0.496999750208,37.736193933
off_to_on,-1.85354978094,-1.1442222869,-3.5100159711,0.794564716949,-1.96073778954,-3.27395674603,1.08499222221,0.202586875989,0.202860718733,0.0335444658733,-0.747415269837,-1.16965881445,0.0562085101314,9.31879520751
off_to_on,-1.2793510811,-1.5495044126,-3.73617881766,0.265687993877,-1.45672627376,-3.07861818176,-1.60023905296,0.359436459997,-0.255548529449,0.94180860896,-1.16136229665,-1.00161197589,-0.475334363317,-14.2746230991
off_to_on,-0.583572520765,-1.7359574193,-3.06915781239,-0.351780732023,-0.707059325517,-2.21079007011,-4.14385410934,0.081543974088,-0.659802261003,1.25540337089,-1.31593822489,-0.867085367206,-0.965819471985,-27.3236213017
off_to_on,0.107927624335,-1.67798690095,-1.67526737746,-0.918972036882,0.0157713895628,-1.09132609417,-5.76986955947,-0.426175366252,-0.94657978559,1.0053790968,-1.18842165168,-0.660278859285,-1.29482132187,-28.7112864526
off_to_on,0.696439047759,-1.38299533002,0.0693657347326,-1.30546842613,0.500776012999,-0.133801378944,-5.94310707431,-0.865374872517,-1.07254280001,0.42760894298,-0.829305371466,-0.277309694755,-1.38011699466,-21.5751112942
off_to_on,1.12175908456,-0.886325691705,1.69364422883,-1.42399742451,0.660737290616,0.412090441356,-4.53341167944,-0.956739308721,-1.02218627576,-0.141547648636,-0.341849997364,0.323621806804,-1.19125823205,-11.477905545
off_to_on,1.36108086001,-0.245081698879,2.77752595986,-1.25241197126,0.543507587344,0.537386341816,-1.85542102528,-0.54410066137,-0.810787633983,-0.400101638878,0.153075866891,1.08606578801,-0.750780055087,-3.896052524
off_to_on,1.41856359729,0.46617891559,3.07920907823,-0.836852549794,0.292698837361,0.443188188716,1.42315470334,0.342382726939,-0.481197395861,-0.197364838317,0.55362371708,1.85688544455,-0.127142467572,-2.01624634364
off_to_on,1.31150926185,1.15770957742,2.60042262817,-0.276195120322,0.0765681939718,0.418760987192,4.47108493308,1.48345617075,-0.0947738303653,0.408151358353,0.802088195756,2.42576302068,0.576416848331,-5.65350702857
off_to_on,1.0596225308,1.72773970668,1.56924523833,0.306290847913,0.0145753191906,0.682438688933,6.52045719956,2.52975246116,0.281513531493,1.16973028723,0.89082264148,2.58986986161,1.23516784757,-11.633555196
off_to_on,0.681907469658,2.07099696733,0.349445066047,0.79469411999,0.130315017475,1.25556490173,7.06444869933,3.10582139059,0.588554101467,1.74443760263,0.849318013427,2.22261012355,1.7189474353,-15.4060744288
off_to_on,0.201996650581,2.09573023827,-0.688960991058,1.10617129087,0.347952474625,1.92721695355,5.9744853621,2.92928551788,0.785659378057,1.82340436118,0.720378569415,1.32408641755,1.91257025996,-13.1899791541
off_to_on,-0.341501074976,1.74832551318,-1.29076729107,1.20421751137,0.531567682584,2.3305350466,3.51347757363,1.9101976011,0.855677459136,1.25424959975,0.537283767791,0.0367121294602,1.74046672971,-3.76800346077
off_to_on,-0.886048156513,1.03936999161,-1.38617574364,1.09792115231,0.54983195415,2.10431050135,0.252860021731,0.20015430892,0.803918936464,0.111854146916,0.312563134472,-1.379960919,1.19165933919,10.7930675363
off_to_on,-1.34449760379,0.0610538114138,-1.08915308369,0.830318470082,0.338683344244,1.07496273648,-3.07492638705,-1.82635221737,0.652164657117,-1.30896800259,0.0430835598372,-2.60908108846,0.337323961946,25.786667563
off_to_on,-1.6170298186,-1.01456760369,-0.629356184516,0.461858357656,-0.064206178795,-0.619649971055,-5.74598486586,-3.65761334953,0.430490787664,-2.57891629909,-0.271911404075,-3.3550159285,-0.668327408475,35.6270390543
off_to_on,-1.61520597435,-1.96259759504,-0.247782470463,0.0552454627355,-0.527914286011,-2.5250594277,-7.19661651378,-4.77767896944,0.170014106579,-3.27111285546,-0.609861085771,-3.4195311839,-1.61052360345,36.040932973
off_to_on,-1.29213152632,-2.55555248453,-0.0983684812176,-0.334190003971,-0.87715232336,-3.99979699324,-7.12910886056,-4.8121675014,-0.101189575829,-3.10482686042,-0.913384773634,-2.75547128369,-2.25973915882,25.8343756546
off_to_on,-0.66866435525,-2.62539043202,-0.193343572166,-0.661780083798,-0.962623089764,-4.44167528319,-5.5587881054,-3.64629440802,-0.358438517362,-2.04806351792,-1.09717313184,-1.48391389996,-2.43191180541,7.53646795219
off_to_on,0.155212010579,-2.11892203661,-0.411407640589,-0.892656491916,-0.72486317045,-3.52965734379,-2.80226312444,-1.47929789234,-0.578341022478,-0.34360733264,-1.07429561678,0.129761822742,-2.04647919458,-13.3527701139
off_to_on,1.01151469683,-1.12697727319,-0.562321864395,-1.00035690186,-0.225433380338,-1.38642655594,0.585308294661,1.20521184566,-0.73668312362,1.55254714171,-0.793614635565,1.73521864423,-1.16267743154,-30.2532407647
off_to_on,1.69893712893,0.126387714832,-0.479287228985,-0.967896419271,0.368498280745,1.41045951398,3.91244142095,3.75097064974,-0.808766699698,3.10318013834,-0.273261853006,2.97772751841,0.021563258615,-37.8420229024
off_to_on,2.03406741558,1.33649479341,-0.10009177978,-0.792096302319,0.84220477508,3.98814704922,6.47944592943,5.49706125494,-0.773462477043,3.85200756515,0.385802535654,3.58083129274,1.21335999102,-33.9688976518
off_to_on,1.90535571032,2.20014403807,0.496735818451,-0.489336270457,1.0132670278,5.46391429724,7.71572763385,5.95819682185,-0.620318724985,3.56540334981,1.01623536047,3.41154417477,2.10250213756,-20.4316306741
off_to_on,1.31308209467,2.50341084647,1.11593082859,-0.0991679077732,0.803229127262,5.26007969851,7.30479852059,4.96654549916,-0.357220736422,2.30873756989,1.42987357979,2.51252836129,2.45143822233,-2.31221575834
off_to_on,0.380941823097,2.18706303903,1.52036039769,0.317715182102,0.273112243797,3.33377256145,5.27126043658,2.73212414628,-0.0151471870916,0.432357166286,1.47947538706,1.09320501229,2.16945719645,13.8909579325
off_to_on,-0.667665264897,1.36674243849,1.52683441702,0.688739571989,-0.392283005991,0.230845494991,2.00418068952,-0.200055943962,0.352988957331,-1.52975746791,1.11538497351,-0.518795207647,1.345510025,22.6506708541
off_to_on,-1.56497940234,0.298760188964,1.08426509478,0.944546343155,-0.947404735119,-3.06743702671,-1.80054094537,-3.08876069942,0.680643197239,-3.01837679311,0.415030067107,-1.95503489377,0.225988330094,21.4359799574
off_to_on,-2.07176750085,-0.699688437265,0.30224992256,1.03575307906,-1.17443924477,-5.46192076989,-5.27906703924,-5.1951231562,0.901784208262,-3.61620820095,-0.429112107089,-2.89443833864,-0.85852718412,11.6205825553
off_to_on,-2.04686329873,-1.35100550215,-0.582473626919,0.945932547151,-0.965175771386,-6.11192487951,-7.59708123241,-5.98550133867,0.967236669454,-3.17260398426,-1.16336174619,-3.14078817833,-1.59588407766,-2.07206413625
off_to_on,-1.49186932491,-1.50517992493,-1.28979248483,0.696206143264,-0.3657074293,-4.73847674278,-8.16127123496,-5.27957043946,0.858341968821,-1.84736051864,-1.55321504371,-2.66982342899,-1.79138769463,-13.394576327
off_to_on,-0.555807533503,-1.18503510608,-1.59835898795,0.339597536002,0.433619776688,-1.74298710737,-6.78801490841,-3.2991004318,0.593470110887,-0.0599672757896,-1.46376961885,-1.63304317856,-1.429829664,-17.0074736599
off_to_on,0.503885754276,-0.572265646873,-1.4267162902,-0.0531157153071,1.16087017239,1.9080782493,-3.77638450152,-0.601667192535,0.224926758639,1.64024318957,-0.911472649656,-0.316029111535,-0.678320130112,-10.6188553216
off_to_on,1.39411574696,0.0619433952728,-0.861876024144,-0.411317568515,1.55636064089,4.99976467575,0.145521200803,2.08183896512,-0.173242511952,2.74316389683,-0.0667094702418,0.938783907487,0.172689060973,3.97341205812
off_to_on,1.87160846306,0.458135014844,-0.124088850175,-0.680323050688,1.46452115826,6.48062037587,3.99677650279,4.05742184779,-0.523160515858,2.93410054463,0.796876521623,1.82466362315,0.811373106368,21.3549244807
off_to_on,1.81511862638,0.465899890652,0.518636708052,-0.83021622544,0.890851275311,5.82731588631,6.80016775668,4.86245184638,-0.76154450553,2.1887841222,1.39149852302,2.15291278619,1.01493634606,34.3570652488
off_to_on,1.26152137289,0.10177793629,0.853048099707,-0.855930924093,0.003270705115,3.23257461183,7.848609266,4.38585162453,-0.853368833098,0.777665955745,1.51328386838,1.90116138689,0.729715871806,36.6752614161
off_to_on,0.393604122194,-0.454703266745,0.800204611185,-0.770295281886,-0.92303184743,-0.452663672464,6.90309255653,2.87904004547,-0.797135646046,-0.822031578036,1.11505292943,1.21277036348,0.0916650187633,25.3217503722
off_to_on,-0.517573171368,-0.92753218823,0.44095911785,-0.594391350194,-1.59795744019,-4.00579503922,4.26072070192,0.857547050644,-0.620916670184,-2.07931901077,0.327046673555,0.346623192481,-0.621873482493,2.0255324323
off_to_on,-1.19817427291,-1.05099517675,-0.0225754096649,-0.350174223062,-1.81354876592,-6.24945078028,0.669092441706,-1.07200688576,-0.371264511534,-2.57976056156,-0.583687886654,-0.408111970104,-1.09390812103,-26.9611473885
off_to_on,-1.45786128459,-0.678635551553,-0.354232537668,-0.0586050388492,-1.51176474004,-6.45331927461,-2.88964579721,-2.40171670157,-0.0991496913617,-2.15945900175,-1.30297444298,-0.825978185043,-1.08802875247,-52.650251792
off_to_on,-1.24883542967,0.14636677051,-0.384828089135,0.25666260805,-0.799787634033,-4.58005267016,-5.48070580954,-2.86736730968,0.152413728009,-0.95981972416,-1.57800642772,-0.817750484069,-0.544014668358,-66.1518574455
off_to_on,-0.677933382834,1.18806373082,-0.0862074024731,0.563278822546,0.0913232780239,-1.28943988141,-6.47901328672,-2.50381754951,0.355524149736,0.615410585426,-1.30675293614,-0.45695459352,0.387252960967,-61.6387927036
off_to_on,0.0327882904185,2.08740142147,0.412401301193,0.816895040995,0.888587385894,2.29908644914,-5.73280730993,-1.59767446838,0.498063141065,2.02869127167,-0.57610900405,0.0499037105459,1.38536688876,-38.4624792494
off_to_on,0.624367325991,2.48392572803,0.873935038902,0.964912627847,1.36955286889,4.99970944775,-3.5812624578,-0.55957443146,0.579108397179,2.78323282765,0.365859813309,0.441058804732,2.06741542239,-1.70166718814
off_to_on,0.892030490424,2.14865683823,1.05087872916,0.958603587203,1.43225998188,5.96861074228,-0.725968035071,0.234722937674,0.602106132184,2.58839455637,1.19497900011,0.499823043513,2.1253157226,39.0764352258
off_to_on,0.757854455362,1.08082861759,0.792612259488,0.770713016042,1.1189329396,4.98295638558,1.99762989901,0.57622903938,0.569282156586,1.4623357426,1.62403760442,0.142833806625,1.44567161281,72.4939812998
off_to_on,0.299184241033,-0.468622519639,0.119453893156,0.41207912384,0.587270016417,2.49418975985,3.87277427053,0.481320390043,0.479818392338,-0.263035407071,1.50400994648,-0.53642064783,0.168134292471,88.6752164792
off_to_on,-0.278485240271,-2.06002607475,-0.768361498025,-0.0604075032887,0.042625661807,-0.558137223569,4.49800566987,0.159091347757,0.332412626765,-2.03942560663,0.8771844006,-1.28774155773,-1.34221223064,82.1919564431
off_to_on,-0.716420159657,-3.19788066368,-1.55412985155,-0.550169940057,-0.341676048664,-3.09922759673,3.87063297078,-0.0960847993364,0.130778611691,-3.27367402692,-0.037271511295,-1.7855886105,-2.6038379674,53.7554464711
off_to_on,-0.800409937113,-3.49188203078,-1.91972084051,-0.942492513644,-0.485289509818,-4.30692161897,2.34044126509,-0.0425053473471,-0.110741653593,-3.52044325166,-0.920716757078,-1.74709670244,-3.17574133934,10.1531529818
off_to_on,-0.447138365788,-2.79248357991,-1.67020823065,-1.13617224014,-0.420722768133,-3.89295279302,0.460712767474,0.395712957505,-0.364462007006,-2.6344493342,-1.46809579108,-1.04701409062,-2.81064138647,-37.5441234347
off_to_on,0.252844580197,-1.2537371839,-0.82030392667,-1.07545402869,-0.266384267433,-2.17805512578,-1.20482338715,1.08571912459,-0.59147764175,-0.8314674533,-1.49623606887,0.212417504084,-1.55145086449,-76.9757840319
off_to_on,1.05395222695,0.700964043564,0.392847801694,-0.770944243204,-0.16549313443,0.0604928064493,-2.25142444802,1.73149831149,-0.748716434862,1.36503360465,-1.00839366628,1.70618568228,0.264804777193,-97.8254840876
off_to_on,1.63372967332,2.50261833117,1.57962547125,-0.30091727589,-0.216773973995,1.90551910165,-2.52661207197,1.99176627013,-0.799081970326,3.27869211224,-0.191653652684,2.97151164647,2.10135204187,-94.5656450052
off_to_on,1.70663669518,3.61184787528,2.32895821256,0.209289255724,-0.42581922599,2.65754588929,-2.12700655664,1.62528133077,-0.721611506126,4.29034529957,0.651980118989,3.55104715501,3.38687489389,-67.8790974609
off_to_on,1.13544403318,3.68940760058,2.35497735738,0.624359386484,-0.697596503115,2.09711018649,-1.31478273577,0.606554546186,-0.518450405852,4.03779214681,1.21587908525,3.14995713908,3.69916938468,-24.4152704907
off_to_on,0.000333745966243,2.70608941585,1.60619510687,0.840785924339,-0.874063827248,0.553985336439,-0.396520543279,-0.835625785753,-0.21644329002,2.5406814881,1.30039319622,1.75408010018,2.90690090784,24.9993284524
off_to_on,-1.40233603965,0.955275869376,0.295880339151,0.819141911782,-0.802611902545,-1.23972322528,0.384975528719,-2.27653286626,0.137159221169,0.207992932858,0.885094189683,-0.334503360178,1.22131994293,68.1746482155
off_to_on,-2.63726284868,-1.03692265721,-1.16038252386,0.595272543804,-0.408157242443,-2.45285264911,0.907836057692,-3.23408176948,0.483632581305,-2.27790744521,0.135262836289,-2.56336319048,-0.861507490927,94.6344228237
off_to_on,-3.26327652306,-2.67538863727,-2.28080155068,0.265906577934,0.260754605687,-2.49563125228,1.16543159261,-3.33979299591,0.763922753477,-4.16705847286,-0.659781659926,-4.28302709567,-2.71156119466,98.1707891201
off_to_on,-2.98151523479,-3.48078220091,-2.68101622444,-0.0467452726998,1.03237253207,-1.2643907991,1.21419466088,-2.47998648942,0.929301122961,-4.87411720392,-1.19395152814,-4.94342831527,-3.76140866367,78.2637136896
off_to_on,-1.74991928753,-3.23591584393,-2.20826332396,-0.239056786558,1.66182836747,0.805298714853,1.10963473896,-0.853536517189,0.949413763062,-4.1635236963,-1.25793727084,-4.27215710529,-3.68531989128,40.0655613321
off_to_on,0.176771447242,-2.04730477769,-0.998488468957,-0.262846272717,1.91482516035,2.89921382663,0.866411456754,1.07874386956,0.816684141781,-2.22774211508,-0.81733496875,-2.37577012246,-2.50291623008,-6.98582813794
off_to_on,2.30018007071,-0.303746887531,0.564639563567,-0.141392674564,1.65513752357,4.13859857813,0.462731733793,2.73915430694,0.547083771539,0.367923216333,-0.026592370053,0.272281194786,-0.573624730213,-51.5390184614
off_to_on,4.01366113921,1.45239367149,1.97560711717,0.041646589761,0.903239374874,3.92797071491,-0.115462397036,3.62380175233,0.177910351564,2.85780889013,0.826464061717,2.9581911473,1.51626486205,-83.0865176229
off_to_on,4.78138647453,2.69757377519,2.77489678285,0.176710035493,-0.157329402399,2.20250718343,-0.817483680304,3.47227183021,-0.236726833945,4.5115195191,1.42528554737,4.93287754984,3.13723468325,-94.4449575196
off_to_on,4.30647461156,3.08666311478,2.70127004617,0.173596913657,-1.23093051041,-0.522316473211,-1.49453242209,2.35569841449,-0.632336157924,4.85777312475,1.54016043931,5.6333111789,3.81149490733,-83.38371042
off_to_on,2.63449086248,2.54946615539,1.7766552197,0.000463865975921,-2.00245877141,-3.32200823993,-1.91800734905,0.650967378884,-0.942323962256,3.825137716,1.11242929431,4.8512078218,3.3569432573,-53.0415491898
off_to_on,0.157140970678,1.29648072162,0.295603466411,-0.298698376669,-2.24039795061,-5.19476637926,-1.85408977279,-1.09064778095,-1.10798739014,1.75539276954,0.27667198611,2.79596766946,1.935368224,-11.0593188562
off_to_on,-2.48853417825,-0.262984024802,-1.27544348526,-0.61575658967,-1.87447630445,-5.43148901102,-1.17059350049,-2.33399735625,-1.08945701748,-0.71305363039,-0.687009822249,0.0320136057116,-0.00791775389811,32.3437043292
off_to_on,-4.5973289058,-1.6588604553,-2.45298366849,-0.816199900366,-1.0203545213,-3.88579768872,0.0688710083319,-2.74164963262,-0.875833537726,-2.85180385377,-1.4528832433,-2.68942621891,-1.890383509,66.8760754354
off_to_on,-5.59676334408,-2.50667407242,-2.8917334218,-0.789916827057,0.0579376036039,-1.04148880075,1.57124936225,-2.28152831617,-0.49187798153,-4.07032945827,-1.76496846328,-4.65073683714,-3.17483900211,84.6524822861
off_to_on,-5.21097244817,-2.61485524323,-2.48832010251,-0.496481364914,1.03528448861,2.15065754453,2.87021109547,-1.22244663011,0.00158414242042,-4.09054386866,-1.5259169208,-5.37150550525,-3.52873193062,82.0401609779
off_to_on,-3.53804234703,-2.02206279663,-1.4010371683,0.0123038831121,1.63243772904,4.60914026813,3.46712827618,-0.0205130687472,0.515492900503,-3.01303884853,-0.827574752906,-4.73328543593,-2.91083678211,60.4235693939
off_to_on,-1.01815424119,-0.959276045189,0.0164923882138,0.602174973152,1.70568052616,5.50871451324,3.01471654527,0.860316712919,0.948584314445,-1.25771237118,0.0867614752978,-2.99062763813,-1.5620884978,25.7074833772
off_to_on,1.69616828128,0.24304485763,1.3402823368,1.09658678076,1.28845351645,4.57609839308,1.47658435653,1.12575373756,1.20900332469,0.595541777125,0.913142994489,-0.671164144195,0.0900692318807,-13.2989013895
off_to_on,3.92648545683,1.26596417703,2.21359914732,1.33427961152,0.571295915034,2.18546766095,-0.80446650497,0.759556790638,1.23655344393,2.00725275578,1.39631360554,1.59711844909,1.57664915245,-47.1822767284
off_to_on,5.15404983722,1.89227041084,2.44994724543,1.22449866404,-0.171685508009,-0.781612104766,-3.16986672246,0.0213886430705,1.01949690356,2.64917315569,1.41695653461,3.27213257899,2.53052265032,-68.2948619061
off_to_on,5.14952480588,2.04870132018,2.06968779633,0.780391905278,-0.682830804254,-3.26029084706,-4.83492984198,-0.66551155669,0.600507265226,2.48801951,1.02533810414,4.03793378258,2.7818138754,-72.5646430517
off_to_on,4.01159238732,1.79348248441,1.26443561603,0.118376272792,-0.811440476055,-4.39114391567,-5.15012795015,-0.894239324122,0.0689472071927,1.75809821257,0.410661331817,3.85926494526,2.37893905416,-60.2806794675
off_to_on,2.10947338736,1.26334255595,0.309572926108,-0.576986274148,-0.56273971631,-3.83033537685,-3.84601404622,-0.452219821556,-0.459533157483,0.839956523538,-0.180037618471,2.94282551917,1.53680930233,-35.6852828104
off_to_on,-0.0453247987966,0.607541178074,-0.53795473048,-1.11100447927,-0.0885963491746,-1.867357588,-1.17047067647,0.573290066252,-0.871166664948,0.0961047101159,-0.540726541401,1.63015198199,0.539008810127,-5.55003893254
off_to_on,-1.95242648848,-0.0623005600426,-1.11766498629,-1.3401351746,0.375538840007,0.692147979844,2.1424189973,1.80699804217,-1.0824042061,-0.270932701903,-0.584108546363,0.268188474784,-0.365491242778,22.7995051127
off_to_on,-3.25158375491,-0.688315123462,-1.39362001827,-1.21578182592,0.603664602865,2.83399542517,5.07671890901,2.71584961181,-1.06034623466,-0.283602760393,-0.368318418318,-0.893530749055,-1.03270696929,43.4056150901
off_to_on,-3.79046299272,-1.24755110565,-1.42888016386,-0.796082976889,0.467842021651,3.71864689244,6.65481364775,2.81336703328,-0.829278460433,-0.154083635914,-0.063091688093,-1.74571839162,-1.43917125091,52.9941990871
off_to_on,-3.61865546117,-1.71391814136,-1.32458180019,-0.222439265387,-0.010128698038,2.99746897916,6.26996268938,1.8631394879,-0.461392751053,-0.165768827106,0.130040577682,-2.29592331703,-1.64443810255,51.3588536471
off_to_on,-2.92184332854,-2.02551058935,-1.15498528133,0.330194660815,-0.662931848069,0.94464834638,3.91591655225,0.00304287547477,-0.0545867647745,-0.52211847351,0.0706454882801,-2.6002356793,-1.72395048564,40.8102186383
off_to_on,-1.92927511593,-2.07926096924,-0.929194819513,0.711356486728,-1.23655718187,-1.64414411437,0.22705944979,-2.26250763168,0.295779823809,-1.2275828717,-0.252977184991,-2.68871435325,-1.70664954036,24.9951905016
off_to_on,-0.833137359587,-1.76180006564,-0.59660164991,0.841228208484,-1.4827385829,-3.7488248034,-3.6960696385,-4.20852100916,0.522480678536,-2.05388948292,-0.710122085803,-2.52338284981,-1.54800269843,7.57537282963
off_to_on,0.251137090593,-1.00738085641,-0.0924084310369,0.729579287237,-1.25195639684,-4.50780352026,-6.62737999671,-5.12908177188,0.601675266879,-2.61188915542,-1.07549967736,-2.01110529904,-1.15245163166,-8.74726100422
off_to_on,1.27467612925,0.141526079882,0.599390461508,0.462432252222,-0.553695455617,-3.54513283582,-7.61331749156,-4.58952410941,0.553628776115,-2.50662528887,-1.12147506869,-1.06731240122,-0.436481039551,-22.5527335828
off_to_on,2.20850259994,1.50098659046,1.3974507441,0.163122259513,0.437817716197,-1.1208352699,-6.29519014514,-2.60130992128,0.429557056059,-1.51760003526,-0.719131308955,0.298618574297,0.596077540305,-33.3611492467
off_to_on,2.98949584378,2.76257080945,2.11627229355,-0.0566491103112,1.43506489998,1.95168597628,-3.04356329957,0.346810336189,0.289807109146,0.26839745469,0.0925127878342,1.9188349362,1.80307162657,-40.9007072913
off_to_on,3.49090416704,3.56541035727,2.51166571268,-0.137235972591,2.12866374628,4.59190013267,1.14648393196,3.41973699622,0.181296810726,2.43136135885,1.09912724366,3.46117311068,2.90689266379,-44.4254995969
off_to_on,3.53819829728,3.60591378648,2.36653351962,-0.0883991124967,2.28787984587,5.83848002418,4.96982178973,5.69122987719,0.122095535054,4.32120200238,1.97280012208,4.49822701146,3.56053534684,-42.4976642984
off_to_on,2.97040108896,2.74978425044,1.58595552861,0.0217249132583,1.83648597982,5.19591788705,7.23352266444,6.4409432535,0.098267839791,5.26372363163,2.38372024983,4.63687300147,3.46038373059,-33.4363693391
off_to_on,1.72514267671,1.10499541291,0.26296072459,0.100426262949,0.878980836891,2.81647413416,7.24619615112,5.39389343698,0.0736061097461,4.80161878985,2.12254517224,3.6660984197,2.46776691369,-16.3174015094
off_to_on,-0.0884401409294,-0.976278452494,-1.31605692026,0.0728972934494,-0.330776272382,-0.547456278278,5.04290877459,2.82021758122,0.00822734167628,2.88394627139,1.18818060909,1.66766666541,0.692970798566,7.88963896595
off_to_on,-2.16500120191,-2.97642478277,-2.73670135814,-0.0836511842471,-1.46719873253,-3.80251847291,1.36897182307,-0.540909699341,-0.121166055039,-0.0699559340439,-0.193527260676,-0.95838457908,-1.49566238037,35.6059009478
off_to_on,-4.04774319912,-4.3535441438,-3.57682452396,-0.327664431166,-2.23072820134,-5.8915370761,-2.5722835324,-3.71022202705,-0.307154489825,-3.26548655538,-1.6306996372,-3.57455776006,-3.55090714426,60.8277731037
off_to_on,-5.23901019392,-4.70312526263,-3.54363324085,-0.567495442503,-2.43403759041,-6.15415046374,-5.52200986001,-5.77538509349,-0.509203590222,-5.76480317278,-2.68782307717,-5.47688440912,-4.89644905289,76.3894416572
off_to_on,-5.34705470817,-3.88811062374,-2.58032854564,-0.696686938623,-2.05024636217,-4.54443490018,-6.58161848212,-6.17482182017,-0.664412461515,-6.78361674611,-3.02872255254,-6.10568958275,-5.10272201257,76.0605878773
off_to_on,-4.2220213369,-2.09271461372,-0.902630389304,-0.636647235665,-1.21042021823,-1.63209566103,-5.5008831578,-4.86511331067,-0.708093173245,-5.95373738808,-2.53068577017,-5.22749915496,-4.03147906631,56.8498039073
off_to_on,-2.03273244367,0.221189155865,1.05191148062,-0.370258325031,-0.154707190384,1.60800530503,-2.74226017882,-2.3185352589,-0.597259367542,-3.4597483558,-1.32944360454,-3.02488076426,-1.8986140981,20.6897887181
off_to_on,0.748165213283,2.44452462309,2.7491993536,0.0466143372592,0.844056309909,4.13857977706,0.696812354582,0.645055771269,-0.328868259959,0.00162437545902,0.221600180687,-0.0592770866316,0.770375979237,-25.2237550369
off_to_on,3.45445180332,3.99853258563,3.71950297935,0.500427507617,1.55826786324,5.21113628048,3.63829543926,3.13226891036,0.0537722782341,3.43120652374,1.66466159309,2.88624665747,3.28303770223,-69.784652066
off_to_on,5.40387789167,4.50323381796,3.70165827535,0.856786309783,1.86103506144,4.60295590235,5.12926711402,4.46220846522,0.469189799674,5.83945387317,2.58487231024,5.03648832172,4.97848745497,-100.807402776
off_to_on,6.09089042333,3.88318814811,2.72280032873,1.00555084021,1.74501482332,2.66179770721,4.75804079378,4.36908258519,0.818497546089,6.55781831533,2.74138005517,5.85257954332,5.42001333931,-108.57874701
off_to_on,5.33493677234,2.37757642573,1.08710520234,0.898031570455,1.30393726106,0.151287431205,2.77359143312,3.05723998093,1.01254898559,5.44524687228,2.13812196487,5.18565976759,4.52081865806,-89.0376702168
off_to_on,3.3368801615,0.453471521109,-0.722479674282,0.563130742935,0.688361289634,-2.0392032673,-0.0280020773204,1.09694746447,0.997228526024,2.92087019965,1.0116668824,3.30684184368,2.56328409016,-45.5079172902
off_to_on,0.624218091112,-1.34685474891,-2.19642877254,0.0970869735283,0.0540177100039,-3.21112522655,-2.60407043066,-0.795822086469,0.769187846679,-0.186628754636,-0.257330621719,0.806262109752,0.106742471391,11.7043459891
off_to_on,-2.09921237278,-2.57270844535,-2.95412444525,-0.368957008538,-0.47934041763,-3.08638257082,-4.04219841429,-2.01410443029,0.3773561585,-2.91965214262,-1.27625319695,-1.6021109123,-2.18510968149,67.8823495814
off_to_on,-4.15315761242,-2.99105538197,-2.8520285087,-0.711586923654,-0.847375857895,-1.87319441563,-3.87849071189,-2.25913985723,-0.0900282537228,-4.50500268577,-1.76932994701,-3.30263322645,-3.74070137276,107.966171953
off_to_on,-5.06926095652,-2.63308308768,-2.0112401213,-0.85282213042,-1.03750275855,-0.153904474413,-2.24632482398,-1.61736005874,-0.528760742448,-4.59290278717,-1.65910675421,-3.95314364394,-4.23845276275,120.917543145
off_to_on,-4.71105092803,-1.75124279507,-0.759341500939,-0.780223191984,-1.06960199221,1.35474678225,0.192474406052,-0.494523947738,-0.845368562782,-3.34272574374,-1.07490772507,-3.55833556507,-3.6784111179,103.031186164
off_to_on,-3.29158439606,-0.707991838709,0.489585177581,-0.543680076588,-0.973231429267,2.07492846654,2.50345882833,0.561875983778,-0.979522502831,-1.33180763161,-0.289442104349,-2.42419271448,-2.35034470575,59.1290268804
off_to_on,-1.2878135531,0.160069292519,1.37326062772,-0.231845074835,-0.772485216189,1.77338780987,3.82577519334,1.08196339539,-0.916251067083,0.673613147217,0.389905433483,-1.01847802922,-0.715825004999,1.219715535
off_to_on,0.716889657593,0.653005871752,1.69057845669,0.0617035623766,-0.484081337837,0.628177027138,3.68217551255,0.852223127357,-0.685437918554,1.9988500194,0.733732204714,0.206415308318,0.750905540113,-54.9950169703
off_to_on,2.20958113295,0.755793650043,1.4475959174,0.269507394264,-0.126839364559,-0.860441500438,2.14231155507,-0.0109231460752,-0.349957542583,2.29079717487,0.666571857494,0.96244326454,1.70788989659,-94.6970170163
off_to_on,2.88828414458,0.611712928111,0.829797883704,0.367509714157,0.265204821727,-2.07392935031,-0.215715062999,-1.1165438839,0.013080496088,1.61746483361,0.280918065273,1.19590756183,2.02984245156,-108.194177862
off_to_on,2.72546778009,0.437185235467,0.116588707859,0.37369924939,0.635681936566,-2.51333069802,-2.52650867925,-1.95916674027,0.332047637346,0.407190568489,-0.211991251463,1.06063087669,1.81002789838,-93.5246197578
off_to_on,1.94100067495,0.415561325787,-0.427020684189,0.330813028513,0.911539395566,-1.98191195226,-3.95669089689,-2.12074217917,0.556022353085,-0.742518135612,-0.572646914582,0.814346769413,1.28815524477,-56.6554992518
off_to_on,0.90110883881,0.613505396724,-0.641266496663,0.281837737366,1.02196124163,-0.64834967851,-4.00440583533,-1.43784474496,0.662135943482,-1.30942267195,-0.628919167489,0.686540638748,0.738076129438,-9.29045525585
off_to_on,-0.0175286365163,0.952804817825,-0.514314265124,0.249271068756,0.924192454589,1.02657919376,-2.67120022982,-0.0717045120736,0.6544575745,-1.04991189445,-0.340744000962,0.774019829162,0.360357045889,34.937296245
off_to_on,-0.551257018163,1.24724897205,-0.166097171736,0.226796998441,0.625507036823,2.4659452016,-0.447545269006,1.54427520351,0.556418362112,-0.0853570719752,0.188894630489,1.00594030836,0.218820405514,64.6185262327
off_to_on,-0.62128040153,1.28787218159,0.214840611938,0.186291541217,0.190702205085,3.18575642945,1.87742967036,2.85912340255,0.400336272562,1.15788792152,0.758146276633,1.18930656288,0.24016564128,73.7410046797
off_to_on,-0.33511527457,0.940612407175,0.453160793731,0.0963368667378,-0.270629302472,2.95966103361,3.50766273616,3.4031942686,0.217787935722,2.12753185355,1.14627267599,1.11176151118,0.270084417945,62.9359022077
off_to_on,0.0759730954566,0.215690259648,0.454237272545,-0.0565512695604,-0.634996812169,1.88271067994,3.92404348464,2.95796787817,0.0335204846697,2.37100595227,1.19752080338,0.654657791575,0.157910407484,38.5320991079
off_to_on,0.356279221248,-0.720538076054,0.232631228514,-0.25398180373,-0.804384873951,0.318143130397,3.05719063777,1.63506724863,-0.13616068711,1.71872763796,0.877124575672,-0.134488504738,-0.167287540109,9.89226018311
off_to_on,0.324466493479,-1.5974627757,-0.105979954789,-0.446009129784,-0.740079739697,-1.24506545652,1.28978773679,-0.163054725811,-0.281356006928,0.353878752278,0.279862542553,-1.04355078146,-0.660285209138,-13.9518557174
off_to_on,-0.0619181176599,-2.13652337084,-0.417958034155,-0.566694522842,-0.477867647629,-2.36559867755,-0.706107435093,-1.8846597262,-0.394880332896,-1.25725321258,-0.409359836713,-1.77305402777,-1.17609551013,-27.1786696828
off_to_on,-0.695463988252,-2.15466694389,-0.585268758315,-0.559354800085,-0.11766594292,-2.78918276796,-2.23027359719,-3.01949066565,-0.469157255697,-2.54564164323,-0.985178852185,-2.05803295543,-1.52999846152,-28.6334338452
off_to_on,-1.36096662139,-1.6344075123,-0.562273996974,-0.401538693467,0.210134649584,-2.50707653826,-2.81282355986,-3.26904639145,-0.495313992484,-3.05888371732,-1.29351985155,-1.78308370942,-1.57446287314,-21.4865497576
off_to_on,-1.81235110251,-0.732666249301,-0.387268112367,-0.119309135086,0.390466301126,-1.72111036776,-2.37287567746,-2.63592234261,-0.464931288782,-2.633188086,-1.27831136124,-1.04017754636,-1.26027148519,-11.3800026571
off_to_on,-1.85636719367,0.275604401431,-0.156184955318,0.215848943887,0.365266656101,-0.739043799132,-1.22098479768,-1.40307820346,-0.373691422414,-1.45086845408,-0.987662255499,-0.10120714222,-0.656858935726,-3.87108500947
off_to_on,-1.41544432153,1.09742506705,0.0277578533283,0.507633327512,0.155572287969,0.151774687769,0.0898115010866,-0.0151749546554,-0.225346617879,0.0382224325129,-0.541059638843,0.687589589356,0.0753436654913,-2.18433835033
off_to_on,-0.551606314785,1.52658896591,0.104720829152,0.666355412074,-0.144850717822,0.780923227789,1.00122467692,1.09017538219,-0.0342533267188,1.29891813717,-0.0745781659149,1.04844100572,0.747475463546,-6.104142435
off_to_on,0.552389056356,1.51242648836,0.0858634717775,0.640060276942,-0.403044323459,1.12717808942,1.17910124775,1.63649843579,0.174811577182,1.92308342675,0.311286663019,0.893026166257,1.21232884453,-12.3625664205
off_to_on,1.64490198133,1.16591828543,0.0450947916687,0.433884066639,-0.496203486226,1.28169855424,0.643496742685,1.59098787103,0.369933420163,1.78654105937,0.579553835825,0.36826875877,1.41212236453,-16.2877590348
off_to_on,2.47194374972,0.701516468346,0.0782704148953,0.11020433708,-0.35924355667,1.36665423825,-0.251714669875,1.1477547204,0.517818861318,1.08715288779,0.750862194271,-0.197977091108,1.38450865363,-14.0003430215
off_to_on,2.83865909622,0.338964624689,0.248093374503,-0.230993599619,-0.0130385475361,1.45104351438,-0.980565645348,0.623130928579,0.59063279755,0.248397413388,0.869835361318,-0.435578623345,1.22609008241,-4.25438291965
off_to_on,2.65089632134,0.205925675793,0.540311122878,-0.484936816467,0.437764416956,1.50403979553,-1.08207312165,0.308255094682,0.572181990609,-0.272497625436,0.962373829649,-0.102467011539,1.03179933015,10.8204061719
off_to_on,1.93026195554,0.282497742746,0.853197595795,-0.576663751953,0.837759770082,1.40752995573,-0.375451724392,0.339956034679,0.461884206809,-0.192914192622,1.00657888393,0.783651395135,0.839682494237,26.376014579
off_to_on,0.804150671706,0.412209752396,1.02891349762,-0.485329358876,1.03389758036,1.02196708846,0.936872838513,0.642698773759,0.275540380101,0.458030034829,0.933702312528,1.91251202594,0.608829717516,36.6520128769
off_to_on,-0.522525460965,0.377012341502,0.917405278121,-0.249851372654,0.930411061423,0.275050041357,2.32587983996,0.965373273002,0.0427224815637,1.3346588994,0.661459386282,2.77216811935,0.243759811495,37.2289899786
off_to_on,-1.80571409414,0.00670892801143,0.448357321448,0.0457815549365,0.526093508558,-0.768594042794,3.13674371279,0.998264523767,-0.198620220457,1.91087361346,0.146223892342,2.83968788467,-0.342763821429,26.8505620708
off_to_on,-2.80387358716,-0.722845361461,-0.319172248458,0.302029579131,-0.0797965144802,-1.89189292179,2.85955596077,0.522598564079,-0.409137656447,1.70789558827,-0.570033212929,1.80478256446,-1.15575815396,8.09439539041
off_to_on,-3.31827719723,-1.64663513688,-1.19344889813,0.437562424903,-0.715995990929,-2.77722293692,1.36408092063,-0.469453781449,-0.555154139958,0.523684347738,-1.34271330236,-0.260530277893,-2.06876325077,-13.3924931894
off_to_on,-3.22855913674,-2.44647004236,-1.90037029253,0.415497575693,-1.1930913319,-3.11072860148,-0.998707901455,-1.73656359487,-0.614417537526,-1.43214873433,-1.95160232744,-2.86047715114,-2.82857898209,-30.8339976316
off_to_on,-2.51957532171,-2.75922748974,-2.17366272831,0.253391565098,-1.36480832554,-2.70107911473,-3.47855910413,-2.85319118076,-0.579459929355,-3.56204973487,-2.16825496217,-5.19376230939,-3.12302343598,-38.7314915104
off_to_on,-1.29417067908,-2.32041215073,-1.85410740456,0.014285099784,-1.17597751051,-1.56634427855,-5.17290084217,-3.35870386752,-0.458073781978,-5.06753649147,-1.84200882429,-6.40440026028,-2.69422991984,-34.8433986274
off_to_on,0.234208581951,-1.08869900439,-0.96067880702,-0.217162248229,-0.680819417562,0.0473698759017,-5.35547546983,-2.93722769216,-0.271045263952,-5.23946616687,-0.972115365487,-5.88506474722,-1.45776327831,-20.9950949502
off_to_on,1.77315117312,0.699990488,0.295816278186,-0.364414817813,-0.0252966516272,1.72727689349,-3.76704341572,-1.55973143632,-0.0478508947853,-3.74651324371,0.264958368928,-3.52595578577,0.420530289248,-2.4063134591
off_to_on,3.00598715667,2.57714538288,1.5665254184,-0.384101892187,0.600438503162,3.0171653847,-0.755820784584,0.469452096013,0.178613338642,-0.809985826057,1.54975516187,0.1867726799,2.52780502649,14.2272619655
off_to_on,3.66088656553,3.97767140601,2.47125179666,-0.278062373438,1.02329314981,3.56086568632,2.7948494378,2.58622725842,0.377123884905,2.81108586693,2.51008826031,4.27169015377,4.29904920461,23.1964401416
off_to_on,3.57859819849,4.42474777426,2.72318885945,-0.0891819778733,1.14143094515,3.21595415944,5.73860530247,4.14109678441,0.52211716288,6.03388628625,2.83990098863,7.53231231747,5.18118277968,21.8755694694
off_to_on,2.75966639551,3.69985120653,2.22835161809,0.116299765996,0.953316828368,2.09791547269,7.0508400674,4.61647589632,0.59609528937,7.80026004845,2.40616507786,8.93200224665,4.8156165881,11.6725832119
off_to_on,1.37461449574,1.93569905246,1.12348363644,0.272812253392,0.552377582946,0.539771643118,6.19365578314,3.81070449752,0.590501080745,7.44177590134,1.3045721256,7.94021048373,3.17646803074,-2.53172855273
off_to_on,-0.270392766576,-0.40557000144,-0.26314314453,0.336983259689,0.0900049720995,-1.0177860078,3.32955699807,1.9214784007,0.505540352202,4.93136516871,-0.159132758586,4.73023786924,0.611893303755,-14.2633342518
off_to_on,-1.80675949457,-2.66711860265,-1.51661218667,0.299501765325,-0.27950698868,-2.16663731233,-0.698884123045,-0.504742469231,0.34959751671,0.92661027961,-1.55974784535,0.15473569001,-2.23378229798,-17.9711401659
off_to_on,-2.89690920775,-4.20271203469,-2.27085402403,0.184207975791,-0.452494133689,-2.65330313226,-4.62598645024,-2.74387539811,0.138730518513,-3.41920358951,-2.48678358522,-4.5011400555,-4.59919069239,-11.2519755806
off_to_on,-3.32130000068,-4.58374265028,-2.32810463062,0.0361100656864,-0.409221910681,-2.44260224084,-7.17543770256,-4.12924960321,-0.103696705919,-6.82018684648,-2.67718698311,-7.91289686516,-5.83219937371,4.05260343218
off_to_on,-3.03267753565,-3.73666834669,-1.72068840541,-0.0962453320716,-0.215664855397,-1.70504692704,-7.48989713231,-4.27016478902,-0.347697385999,-8.27374137777,-2.10071131422,-9.12849702964,-5.59046017833,22.3279621678
off_to_on,-2.16059884067,-1.96269873667,-0.693528404727,-0.177235263766,0.00623492885298,-0.737885653209,-5.42955317475,-3.1782376994,-0.558457709821,-7.3867695201,-0.967699730786,-7.86257766567,-3.9493980535,36.1046928245
off_to_on,-0.964920215694,0.167575921441,0.386183074555,-0.193873010821,0.128639907717,0.147565039687,-1.63370217155,-1.25747413175,-0.699997787557,-4.49914846501,0.344027293095,-4.57533610177,-1.38035646519,38.7746104573
off_to_on,0.246349247454,2.00789370895,1.1597870024,-0.156307854622,0.0698392785796,0.730028768186,2.68033796049,0.838401857457,-0.74092860295,-0.561523266422,1.41794421766,-0.310807479144,1.39521973103,27.1514382008
off_to_on,1.2076262361,3.05043034905,1.40166443204,-0.0902851983876,-0.170859886345,0.937867676801,6.11615103968,2.43127710584,-0.661644651536,3.18961611834,1.93824275063,3.64928404831,3.62791897571,2.95178344099
off_to_on,1.76509528823,3.08545147818,1.09311765486,-0.0254702851645,-0.508438412021,0.84725892549,7.56111307025,3.04771977264,-0.461329450535,5.64572557425,1.79120915168,6.1979639603,4.76557947393,-27.374208771
off_to_on,1.90314950992,2.25172462191,0.419771568436,0.0155563926394,-0.800099182767,0.625985045622,6.55626178871,2.57210141365,-0.162517682719,6.18473516537,1.09372548429,6.74281257061,4.60807307529,-54.4751765263
off_to_on,1.72200466174,0.962763168601,-0.305516111483,0.0238484957264,-0.89668812554,0.449512828055,3.44736668278,1.27160537335,0.18898986872,4.8514037097,0.140474875071,5.36168771135,3.34328695069,-69.0358091047
off_to_on,1.37832393701,-0.260944286142,-0.765162722604,0.00469164733542,-0.699942583276,0.424285715967,-0.733755877384,-0.313180961675,0.530165574897,2.30149066891,-0.709272885247,2.72861132326,1.45747869096,-64.8726429861
off_to_on,1.0138630479,-0.989827768736,-0.759269849817,-0.0267829419296,-0.205388238158,0.547637340941,-4.61628619509,-1.57072461272,0.792454381217,-0.463375032194,-1.1629918644,-0.155565666727,-0.443773843138,-41.1674778636
off_to_on,0.700717294386,-1.03940809083,-0.282627540544,-0.0523732503712,0.484914765838,0.717412661862,-6.94674845631,-2.04031823136,0.916972234812,-2.46925677558,-1.09632872234,-2.32662428049,-1.83859904294,-3.08137211076
off_to_on,0.424288306629,-0.524388878818,0.472199935206,-0.0571033308763,1.18573125338,0.784137504331,-6.99957887279,-1.5738176911,0.869526824142,-3.11465265024,-0.588609511817,-3.18415691165,-2.44520242362,39.4945358802
off_to_on,0.10937728273,0.205314669858,1.18698632199,-0.0331273117713,1.68203266478,0.622359559768,-4.80458669468,-0.380869001644,0.651212722184,-2.36316955076,0.11848318097,-2.6695989216,-2.28104993372,74.7024660457
off_to_on,-0.323099866388,0.719699424463,1.53872240721,0.019161691286,1.79609027868,0.191528192672,-1.11869000743,1.05609424915,0.301050285211,-0.719453346189,0.721213284633,-1.23937884646,-1.61176896616,92.167376535
off_to_on,-0.894351482791,0.693482594215,1.32477859326,0.0919716475106,1.44695441194,-0.437736570668,2.84223357891,2.16383603686,-0.110920209182,0.995260306623,0.973604293885,0.347191237085,-0.817263647392,86.0891207604
off_to_on,-1.52939433632,0.0479416882705,0.546068479358,0.171653277694,0.682871604476,-1.1017136592,5.81451294811,2.48986858599,-0.499009051454,1.97821826306,0.780842232825,1.33963107661,-0.231233951988,57.0461017541
off_to_on,-2.06196958479,-1.00638673061,-0.582970429653,0.240211203994,-0.324615812777,-1.59837350287,6.89839578841,1.86690139889,-0.782040475638,1.76226844966,0.231334905821,1.28887985363,-0.0167920185466,11.9743427395
off_to_on,-2.28523454559,-2.04429601797,-1.70228946728,0.277032463536,-1.32426147647,-1.75774314476,5.83261256764,0.472084710078,-0.902977889499,0.395992828814,-0.443425069793,0.213080703462,-0.123447166572,-37.6659996967
off_to_on,-2.03156025797,-2.59065825073,-2.42854763939,0.26180436767,-2.05399925115,-1.50180196851,3.04611368564,-1.23794168695,-0.842564703123,-1.57857550051,-0.96415248726,-1.42104234038,-0.336729331982,-78.9955128293
off_to_on,-1.25117708961,-2.31282960304,-2.48866012356,0.179464653818,-2.31479123889,-0.872855681444,-0.519146488159,-2.69012509763,-0.623099283125,-3.33903114724,-1.11615053925,-2.88900044405,-0.394645388981,-101.197894059
off_to_on,-0.0571414268619,-1.16628124513,-1.81730136696,0.0269138811679,-2.02749593275,-0.0216510367137,-3.7422534616,-3.39561892127,-0.301287624846,-4.10339920362,-0.834561338565,-3.49584553224,-0.119437405893,-98.405033312
off_to_on,1.28536200659,0.564651112005,-0.583953423671,-0.180418006956,-1.25595793437,0.838945555106,-5.6925427253,-3.1156798303,0.0476606986227,-3.43629218874,-0.229263282191,-2.85028262868,0.491476424182,-71.2098343351
off_to_on,2.42746456942,2.35026369075,0.859861022889,-0.405343923065,-0.189739949414,1.49754614788,-5.90769654005,-1.93538526515,0.349940623064,-1.42509154667,0.459978913991,-1.02324213255,1.25352945754,-26.438444832
off_to_on,3.04286496353,3.59580467558,2.09442071324,-0.592262064976,0.908027398049,1.80360992642,-4.49426180101,-0.222853388574,0.55121042295,1.33913005677,0.960098768794,1.46647863855,1.8670593081,24.7006159285
off_to_on,2.9361880346,3.85393883931,2.7669380476,-0.678647078917,1.77204874879,1.70453197528,-2.03193094735,1.50636068112,0.627705708323,3.96754649641,1.07468574285,3.83182504495,2.04354659312,69.5474776327
off_to_on,2.11459347057,2.99113703983,2.701607928,-0.613236277636,2.2046891341,1.25153364783,0.667116703927,2.7668282517,0.587679461953,5.58858328794,0.763589881482,5.29402105125,1.63348708642,97.20444753
off_to_on,0.795008494118,1.24536296595,1.94811619937,-0.376104521706,2.12457061366,0.576322124953,2.84585832437,3.25746835297,0.463616753005,5.65497484931,0.160214062412,5.35379698769,0.701952606792,101.204160738
off_to_on,-0.658625385761,-0.848323138644,0.75462648639,0.00640608732555,1.58126876417,-0.150884363595,4.03142016991,2.93930984809,0.298585716763,4.13094646309,-0.481055145136,3.95973460673,-0.481494445605,80.987531188
off_to_on,-1.84871539628,-2.63914114252,-0.522083683563,0.458794551618,0.73386613838,-0.767570846683,4.13153802115,2.01500692036,0.131753038498,1.4942421815,-0.887204650465,1.51657297815,-1.53735176709,41.8781574876
off_to_on,-2.46985618098,-3.58415570029,-1.53550621645,0.869474228136,-0.198316152799,-1.15639776204,3.38143510679,0.826254069836,-0.0120288256133,-1.44240780993,-0.87859735662,-1.26356419511,-2.11932611455,-6.37517429495
off_to_on,-2.40363145347,-3.4332411542,-2.05520134286,1.11860052557,-0.996997396806,-1.26599273065,2.18278301386,-0.28490192947,-0.125472885404,-3.81943727704,-0.445906467492,-3.60721091268,-2.04935153143,-52.0749770246
off_to_on,-1.74922021425,-2.30851279124,-2.0245033891,1.11379167111,-1.50010445043,-1.11324468922,0.914160063714,-1.09426269776,-0.214680361563,-5.01932862393,0.239783618587,-4.93055522929,-1.38940580966,-84.4362115807
off_to_on,-0.779281968772,-0.65002286244,-1.55437979895,0.822839588122,-1.63596490253,-0.770181757436,-0.20449556269,-1.54870434737,-0.290054762091,-4.85142850685,0.889765465748,-5.00618915572,-0.419087415346,-96.1371163224
off_to_on,0.162600246161,0.951186186816,-0.861554772503,0.291868708478,-1.4291321924,-0.341034447817,-1.14199237905,-1.73924289328,-0.356563185321,-3.57132786693,1.21075997561,-3.99261840601,0.474777019644,-84.9667095689
off_to_on,0.785491368448,1.97008137319,-0.178513263628,-0.359125679188,-0.979525899017,0.0645827244916,-1.98008969897,-1.81308598701,-0.407667308051,-1.73859591668,1.02506610813,-2.32781589666,0.954279833646,-54.2081194983
off_to_on,0.950673956056,2.133939255,0.328871051095,-0.96461533772,-0.424313092126,0.357242813258,-2.78029638001,-1.86919131559,-0.425645780055,0.0220698181125,0.350420545299,-0.539002288744,0.870035605236,-11.702444141
off_to_on,0.711159367116,1.50923207403,0.606089794225,-1.35897615731,0.103961567975,0.487762048822,-3.46791406396,-1.88798158339,-0.388382630407,1.25740209999,-0.593695618958,0.951113405121,0.326321970935,32.1520879875
off_to_on,0.277459075038,0.458182282033,0.703951199805,-1.42578189398,0.510059994343,0.457979226551,-3.80013654108,-1.73025468324,-0.280012110131,1.82705758576,-1.45909004831,1.9462096592,-0.358188828978,66.9644324645
off_to_on,-0.0764598035855,-0.516529376194,0.729495489342,-1.13528048593,0.751244823693,0.319121022822,-3.44620062266,-1.2092974545,-0.101112364665,1.89992683021,-1.8964371183,2.48544858405,-0.782785181029,84.8494647934
off_to_on,-0.130529975524,-0.978008341094,0.77845883111,-0.557178617947,0.833487791164,0.156268909722,-2.15393180346,-0.206466872882,0.125915137302,1.8166609223,-1.6905882279,2.74833555321,-0.640229661848,82.2536544469
off_to_on,0.186292078986,-0.732106288691,0.880119539315,0.156718744346,0.7937042063,0.0607174166365,0.0685659176577,1.22185747929,0.359012517349,1.88524591945,-0.852017129293,2.90779673459,0.13490690961,60.6695188533
off_to_on,0.760605101652,0.0939549502223,0.978881401772,0.815740646172,0.677037451728,0.096477583672,2.84445540769,2.79915241589,0.546181021428,2.20346264739,0.372446466061,3.00442280669,1.30866000904,26.0809185995
off_to_on,1.33393254813,1.1026668193,0.960613529154,1.24642838872,0.518559292369,0.27122177412,5.46055763445,4.0769517966,0.639922103049,2.58976529165,1.57722113867,2.90368888984,2.411798641,-12.6946071318
off_to_on,1.60347938746,1.78832972044,0.712285185532,1.34375737931,0.335624272507,0.523352197311,7.05541972364,4.57096427801,0.611708192919,2.65740458313,2.33851571152,2.35992062676,2.90973768156,-46.3153332934
off_to_on,1.34690081827,1.74796752057,0.188701185788,1.1009928853,0.131956186255,0.733843741141,6.91265589254,3.94176934623,0.461571378835,2.00434697377,2.36792427326,1.16163837053,2.41880398929,-67.2580777733
off_to_on,0.523360337581,0.858624241709,-0.543858568127,0.60851161072,-0.0905488760016,0.763903796571,4.75750021095,2.15308986911,0.219438125184,0.439091791549,1.62266104351,-0.706739833652,0.886507645544,-71.5760187438
off_to_on,-0.68940682142,-0.650294853067,-1.30882818235,0.0221822236787,-0.319376134849,0.509321346568,0.938836758472,-0.458253252927,-0.0624098300218,-1.85822998767,0.330338781751,-2.96491662591,-1.33880220607,-59.6266434147
off_to_on,-1.9394986564,-2.26221404473,-1.86937688346,-0.487923243211,-0.525285717778,-0.0465716398038,-3.59109942843,-3.23936402586,-0.323389732157,-4.31945986152,-1.08348075426,-5.05637100036,-3.58639695876,-35.6244636941
off_to_on,-2.81420175551,-3.35648198021,-2.0111808565,-0.791170474336,-0.666434398263,-0.802940001716,-7.51939397685,-5.39931371279,-0.510687216166,-6.14148882693,-2.14130027033,-6.29895316874,-5.07330016404,-6.21201977862
off_to_on,-2.98361273277,-3.44365050008,-1.62738053664,-0.834455835677,-0.701834906935,-1.55146796339,-9.57513077215,-6.25619996157,-0.592287743078,-6.56465982816,-2.4820578132,-6.12251114935,-5.17846377707,21.4819769938
off_to_on,-2.32328096869,-2.36484627463,-0.772190964395,-0.652469197554,-0.608782937909,-2.03076803979,-8.96321311312,-5.47115491603,-0.563118041577,-5.17685175613,-1.99131673372,-4.30798672882,-3.68441193187,41.702689828
off_to_on,-0.97058805048,-0.377507842445,0.340265552286,-0.347702058658,-0.396576114361,-2.01273505583,-5.67649853557,-3.18546060643,-0.442928517613,-2.12439573495,-0.845386505705,-1.13209431929,-0.895087821148,51.3159692742
off_to_on,0.707771445593,1.9102456373,1.39564695068,-0.0483821462389,-0.109746427668,-1.39345725426,-0.564243677729,-0.00579057956576,-0.267385781636,1.86242697853,0.548141988225,2.65110139282,2.42200757668,50.1404774896
off_to_on,2.22849188001,3.73899079642,2.07933079939,0.139904842985,0.182108848209,-0.254683316545,4.88709150355,3.16684860355,-0.0760068921956,5.65714908899,1.69369757596,6.00394999782,5.26076379778,40.381302742
off_to_on,3.14704840177,4.4630714129,2.18233830201,0.171289355307,0.40542822457,1.13239901203,9.00501944672,5.41402508205,0.0986979719561,8.08676581452,2.18445525344,7.92100545123,6.69936396075,25.4764914513
off_to_on,3.20254797223,3.78668322209,1.67523903842,0.072274128478,0.507468210935,2.37159298269,10.4725086508,6.09270066218,0.23739939445,8.32749526875,1.84926802562,7.7635105914,6.21353603017,8.83788712581
off_to_on,2.40192741519,1.88386762544,0.722319307263,-0.0739430384321,0.475328892253,3.06046202912,8.77778384268,5.0448178685,0.334069134356,6.20646826164,0.816495660823,5.49467219206,3.87089075975,-7.04603775484
off_to_on,1.01437778243,-0.644936164942,-0.370863250829,-0.164869132104,0.341256826112,2.92720087102,4.41286307838,2.65004049928,0.391140011794,2.29570373287,-0.5292909197,1.72606026473,0.334182508816,-20.866263849
off_to_on,-0.521721912568,-2.96911533627,-1.25950819648,-0.123221388041,0.171058674092,1.93801309123,-1.25855881091,-0.299652688956,0.412657280729,-2.24560062654,-1.68348821348,-2.45189918209,-3.33479904068,-32.1180969675
off_to_on,-1.7465060121,-4.31079257246,-1.67594114705,0.0686406837483,0.0389116547148,0.332769302745,-6.43139349637,-2.86355625807,0.398930115806,-6.03581961212,-2.2027659075,-5.80691542572,-6.01026348319,-40.3800466255
off_to_on,-2.32930820264,-4.21571980064,-1.51936092001,0.357723342346,-0.00247802313034,-1.43137414009,-9.45015020488,-4.26536815507,0.345273770797,-7.92246422368,-1.8670715914,-7.35972755219,-6.8665163193,-44.6825818629
off_to_on,-2.17034112621,-2.71586022882,-0.887062030724,0.637433061083,0.0551600819153,-2.81692292441,-9.36270531216,-4.14870675985,0.245451301323,-7.3658037378,-0.764163614715,-6.70319983159,-5.64895538196,-43.3637531621
off_to_on,-1.41948689898,-0.324402070691,-0.0359446772455,0.78670605526,0.169338952817,-3.3815429067,-6.2459478756,-2.68669202548,0.0982041422231,-4.61995755856,0.734436411154,-4.13468340332,-2.75959765453,-34.5891075152
off_to_on,-0.408216187635,2.13730902395,0.711934666144,0.716918534479,0.261149317055,-2.9324932192,-1.18656561775,-0.507449395665,-0.0862839062792,-0.645630834993,2.09889380651,-0.553398242063,0.873176112318,-17.3958749542
off_to_on,0.478510439202,3.82187692072,1.08589146895,0.409109466159,0.246449814723,-1.60347650602,4.08274235393,1.53835458238,-0.283373366546,3.21789368196,2.82482163753,2.84439773198,4.09794232306,7.1658875123
off_to_on,0.942821222124,4.14892887322,0.96336733423,-0.072694254097,0.0730994018101,0.178337376202,7.7716504204,2.68609112324,-0.456584783038,5.70903488902,2.61145478917,4.9689652842,5.9152027325,35.3545247699
do_nothing,0.876217681076,3.00664569137,0.412186036078,-0.597752871856,-0.250012493963,1.82945773743,8.64499225091,2.53264782912,-0.565833753968,6.07026835542,1.4719811822,5.20079796853,5.79858732398,60.9843830349
do_nothing,0.387894745085,0.791094982332,-0.33672650873,-1.00951730387,-0.644622548175,2.80748070163,6.44809783195,1.1806597471,-0.578953646648,4.29648233911,-0.262781347855,3.5893338745,3.85584747895,76.7547856451
do_nothing,-0.248888335791,-1.73042297428,-0.976069257823,-1.17722279737,-0.981213408677,2.80055108058,1.99516307043,-0.800661946731,-0.482634801034,1.11990005621,-2.04926038245,0.818990486919,0.778360870028,76.3936686949
do_nothing,-0.710342595728,-3.68415608913,-1.23678246853,-1.04022893616,-1.11985516871,1.84026004692,-3.11321320005,-2.58530432633,-0.288780925153,-2.26095715309,-3.30907184088,-2.04379721224,-2.40010823263,56.9704793353
do_nothing,-0.752107325258,-4.39037402938,-0.988953160559,-0.629567335783,-0.961054774976,0.294328387826,-7.04808075456,-3.39698913963,-0.033662638164,-4.61078344395,-3.61971347851,-3.93243037546,-4.65079733556,20.5518615899
do_nothing,-0.30694315633,-3.59527649946,-0.292403680205,-0.0591008384361,-0.488873711861,-1.26224043689,-8.39320331589,-2.80321465605,0.230344135622,-5.09299100827,-2.8538607175,-4.15634858514,-5.28506606165,-25.5162612182
do_nothing,0.485882422214,-1.55491344808,0.621456269199,0.510688177354,0.210329078147,-2.25414877201,-6.64565107538,-0.890580648345,0.448086170727,-3.55814530952,-1.22127590089,-2.64019110754,-4.16610451187,-70.0237441241
do_nothing,1.32996053251,1.05595971305,1.43016669354,0.92378414099,0.962888165169,-2.31711184459,-2.39957352947,1.74403514862,0.575905714503,-0.5859498667,0.799182443271,0.0561371675229,-1.73100794435,-100.771986918
do_nothing,1.88127251859,3.37611150376,1.83440352246,1.07712208762,1.5546505488,-1.43553443257,2.85376770607,4.18740123889,0.592404050447,2.73032645615,2.61300447129,2.94086202339,1.17689296114,-108.135161869
do_nothing,1.87745068945,4.64901652541,1.66509724484,0.950217904458,1.79627636184,0.0465678458691,7.24278716662,5.52429207258,0.502468130515,5.17705399317,3.69676687731,4.94327446494,3.601662778,-88.210702856
do_nothing,1.23946325203,4.47229612641,0.945431152645,0.606589242226,1.58616788342,1.54893541943,9.17081629745,5.16397786636,0.333659261057,5.8498220447,3.75669088855,5.29103432333,4.79084068459,-44.4933455489
do_nothing,0.108761557811,2.92163717853,-0.11411243153,0.167617974178,0.949529636339,2.47025524717,7.88164561933,3.06440390509,0.126631616483,4.46788129412,2.809153943,3.78014718247,4.42770415903,12.5935480039
do_nothing,-1.1935675935,0.51100192449,-1.18565591681,-0.230997442817,0.0389090707547,2.4169721635,3.73695058441,-0.226565705245,-0.0768735827001,1.46550304777,1.16104000431,0.845639615569,2.70712283168,68.3195791842
do_nothing,-2.27115544153,-1.99156658358,-1.93393574309,-0.484421725812,-0.906115728219,1.36000705419,-1.89355331504,-3.73122949399,-0.244381916188,-2.16687027531,-0.698410653269,-2.58796874004,0.239231068052,107.729020926
do_nothing,-2.78345404067,-3.82439052485,-2.12784772734,-0.549846475158,-1.62871367706,-0.341826533874,-7.09401039866,-6.35267823609,-0.358267740074,-5.23030885404,-2.25451560889,-5.4205660071,-2.17570016201,119.977804395
do_nothing,-2.5580664736,-4.47736838484,-1.71508143802,-0.453654824749,-1.93227352007,-2.06458655453,-10.0585172586,-7.23303405516,-0.415467425841,-6.72802775914,-3.11989383866,-6.74360357846,-3.81702576465,101.583375525
do_nothing,-1.64627812676,-3.83992512087,-0.835056390789,-0.273597671992,-1.74050803473,-3.14635439266,-9.71543826366,-6.03924098471,-0.42250802016,-6.19486961416,-3.13534602284,-6.13435505486,-4.26475146008,57.5443554577
do_nothing,-0.304366381839,-2.20730612196,0.232574016026,-0.103974068827,-1.12030258091,-3.13640704738,-6.10419155611,-3.080157752,-0.38869408771,-3.83475650541,-2.39186549371,-3.78037629795,-3.50217828426,-0.0618705005774
do_nothing,1.09075879564,-0.152140082552,1.1641665791,-0.017545090261,-0.259508958704,-1.97330324402,-0.373736556672,0.784804300573,-0.320718300122,-0.426421573002,-1.1747737151,-0.399023396188,-1.87675915748,-55.6003387497
do_nothing,2.16105519477,1.6855878578,1.69857239053,-0.0384443000814,0.593148850919,-0.0227943312735,5.59784958973,4.41550489097,-0.221032867868,2.95977116071,0.143815419538,3.01172242609,0.0533692090456,-94.4381267418
do_nothing,2.64104859345,2.81208121375,1.71715279795,-0.135669986676,1.20618652379,2.04283775441,9.83319058524,6.75016142748,-0.0904570479047,5.32715201328,1.22396960538,5.49928171286,1.72267164407,-107.130246623
do_nothing,2.44904323771,3.02290464178,1.27140648811,-0.238738981379,1.4356187955,3.48343421454,10.9201778297,7.13578107995,0.0665196336774,6.07014657974,1.84910122882,6.4465171711,2.73589368855,-91.9463227193
do_nothing,1.69578579982,2.43214779693,0.551760412788,-0.268782154268,1.26435308916,3.76175978078,8.48559662768,5.52307596664,0.236616810414,5.13765221475,1.9642992197,5.73222349254,2.96189709149,-54.9967523682
do_nothing,0.632956401682,1.38792591383,-0.188038691376,-0.172808066032,0.798471917735,2.74643498799,3.31840585899,2.46545201177,0.39580873102,2.99678288788,1.65797057116,3.71910766035,2.52219979659,-7.99643335013
do_nothing,-0.436189888038,0.315514860398,-0.721725174731,0.0520071544431,0.223089008474,0.769972800741,-2.89660664158,-1.07277905743,0.512329595204,0.424834098601,1.10279885607,1.08854143586,1.69393454755,35.5427973874
do_nothing,-1.25110741409,-0.447482295086,-0.923681235931,0.353162111758,-0.265689031294,-1.48277421978,-8.14184922021,-4.0315493253,0.554405461682,-1.78351847557,0.48360778684,-1.40758745858,0.776642547809,64.4238593111
do_nothing,-1.66203053,-0.761801270539,-0.799977826951,0.638734359522,-0.528279640604,-3.21780695932,-10.7347164483,-5.58789363842,0.50041242408,-3.08271936695,-0.0602683672732,-3.18527377894,-0.0198754599976,72.8678593607
do_nothing,-1.65318364085,-0.706223118448,-0.469513293738,0.808535449655,-0.525041831238,-3.81921421296,-9.87574006509,-5.39872391048,0.347882440874,-3.32346599947,-0.460714098383,-3.9768715512,-0.624847519997,61.6869643062
do_nothing,-1.32022571654,-0.507161484344,-0.106084440865,0.7892756828,-0.321211278187,-3.07504359656,-5.89658166861,-3.67922977093,0.117825141206,-2.73853228005,-0.712616986958,-3.84976735577,-1.08198987075,37.2856308967
do_nothing,-0.81706008761,-0.413982873798,0.134175795993,0.561259694677,-0.0531538796926,-1.25764004068,-0.131208658542,-1.0993504119,-0.147759985746,-1.78875877937,-0.843580401338,-3.10665889396,-1.47297063322,8.98072564043
do_nothing,-0.295735268745,-0.575066807057,0.171739991147,0.167381103626,0.130246792602,0.972804456397,5.53905483495,1.45904786724,-0.395027969772,-0.941930813087,-0.88053360447,-2.12129042418,-1.83194432262,-14.338530234
do_nothing,0.138113968933,-0.966287363742,0.0276572863832,-0.298421044122,0.128484508864,2.80753580983,9.3086640555,3.19817660935,-0.571610713542,-0.477584975812,-0.830303820052,-1.18179472695,-2.09565056567,-27.0350961804
do_nothing,0.441424612661,-1.40005207938,-0.194254112985,-0.71894987285,-0.0703527111556,3.584149137,10.0297013191,3.65436537979,-0.640120192368,-0.393988644726,-0.681990963967,-0.402729885617,-2.11536223201,-28.1162269947
do_nothing,0.621856808964,-1.60922648613,-0.357436167519,-0.988178855266,-0.384926156383,3.02866527272,7.56281961788,2.82331930943,-0.58768490928,-0.447872140085,-0.427052813405,0.267192970626,-1.72738960818,-20.840140214
do_nothing,0.709579239796,-1.36977955224,-0.353360885138,-1.04100181444,-0.672937852149,1.3552917092,2.78996771389,1.12708112698,-0.428648548138,-0.301968645337,-0.0838443471485,0.956946516887,-0.850715463052,-10.8407169975
do_nothing,0.729201632286,-0.610666302739,-0.148414611661,-0.869248602573,-0.787865215108,-0.813207207232,-2.7033977353,-0.756873522563,-0.19980114694,0.28785088214,0.289018831818,1.75298819534,0.434277095381,-3.58503258749
do_nothing,0.68548833579,0.535058755601,0.201253962674,-0.520086825225,-0.638491775459,-2.67518750444,-7.16080829566,-2.13978645434,0.0500870890464,1.32845653088,0.600764245259,2.60661755377,1.86671195448,-2.1673532593
do_nothing,0.567836185397,1.76024195081,0.571831829197,-0.078984937514,-0.228563487021,-3.54486619638,-9.22073219155,-2.55408267987,0.272948340794,2.55162139887,0.75776453199,3.31414879636,3.06311436347,-6.25498182332
do_nothing,0.368388242043,2.68486369224,0.821132634958,0.355853908856,0.338658330348,-3.10312744649,-8.33180164993,-1.89815284434,0.43238783312,3.50111405294,0.702781750545,3.58205535876,3.63757296153,-12.5203187601
do_nothing,0.10177209176,2.99057058063,0.844954076516,0.698808774299,0.893072525544,-1.51202921614,-4.89080010926,-0.450913380932,0.509927507334,3.71162803829,0.446522719578,3.1514533132,3.34179813997,-16.3084547003
do_nothing,-0.186169479686,2.53754055752,0.618169471253,0.894492169664,1.25590326439,0.648332677497,-0.0730213359522,1.24100045369,0.505378949281,2.90820478509,0.0752373325028,1.92942451608,2.17104769928,-13.8217672758
do_nothing,-0.427537080373,1.41951278055,0.204789938471,0.924055711775,1.30216098732,2.59573756192,4.57453161473,2.55897828022,0.432296729386,1.14504813624,-0.272959157786,0.0696440370201,0.391570770315,-3.92392872043
do_nothing,-0.5569805083,-0.0635203338977,-0.266232852447,0.800923276724,1.00466276726,3.63316514205,7.63448241245,3.02236022923,0.311002363187,-1.1749694704,-0.457273945304,-2.03646677304,-1.52688584074,11.1648829861
do_nothing,-0.540844839435,-1.50434365342,-0.649245517377,0.560134855647,0.443774745574,3.40053906454,8.25076848002,2.44350256572,0.162123621532,-3.41315515119,-0.391343943298,-3.86188873395,-3.05433605283,26.5638673831
do_nothing,-0.396431238341,-2.52217774442,-0.834870891216,0.246682050571,-0.220254742441,1.99854703399,6.35929488512,0.98105758104,0.00287678843929,-4.90218746535,-0.0852626583093,-4.90613638169,-3.77082926236,36.5526633094
do_nothing,-0.190280793121,-2.88206020178,-0.787147836972,-0.0929650381437,-0.801787627421,-0.0587477540225,2.65889654195,-0.919803131547,-0.153199579648,-5.17295222269,0.346702394189,-4.85948973146,-3.50317703202,36.8109232804
do_nothing,-0.0133962834545,-2.55804144999,-0.551101015898,-0.414676086058,-1.15094967556,-2.04119549392,-1.64992420307,-2.67487522664,-0.294006832444,-4.11804309328,0.719848741829,-3.7091673822,-2.37850375401,26.202864788
do_nothing,0.0578420845585,-1.72086783553,-0.229087773941,-0.677249459474,-1.19937771671,-3.27291357853,-5.26036936495,-3.74501338845,-0.406196205267,-2.03207096095,0.84530538274,-1.74817102412,-0.774914520751,7.40167031538
do_nothing,-0.00147202558366,-0.65983234828,0.0633115326367,-0.842883762335,-0.974874558937,-3.37332268078,-7.15698532707,-3.79808153626,-0.47419272908,0.485599086181,0.606016981776,0.516610317282,0.812692249763,-13.9131233568
do_nothing,-0.147592167388,0.32748582942,0.243278043949,-0.880397783918,-0.581404281485,-2.38016314034,-6.89445906998,-2.80124357419,-0.482203061241,2.72968670603,0.013633517228,2.52356737145,1.94241264083,-31.0105232187
do_nothing,-0.281062064341,1.03392980482,0.289862551658,-0.772073353052,-0.154002932607,-0.712827346536,-4.68403204612,-1.02084893357,-0.418968104464,4.11718087817,-0.777725771545,3.8256074042,2.36870310721,-38.5002326853
do_nothing,-0.287770941961,1.3937685299,0.244899899547,-0.522261112357,0.192716155313,1.00386223345,-1.27963243002,1.06354760886,-0.283547680506,4.36389740028,-1.51043666843,4.21053038051,2.10793826847,-34.2739177848
do_nothing,-0.0932017761752,1.47119677084,0.186364223792,-0.163777517907,0.402174255343,2.18278466343,2.28307629192,2.90010023459,-0.0896216374881,3.54985298917,-1.90551081936,3.73405589091,1.40479238981,-20.2670839339
do_nothing,0.292784352441,1.3977408954,0.18638660237,0.242241344588,0.485670231077,2.48879038104,5.00356233789,4.01683215505,0.133975125832,2.05665997857,-1.76146440115,2.66117974794,0.615985876601,-1.74660900109
do_nothing,0.761987555568,1.29034531579,0.272649024465,0.615595922809,0.502356007507,1.943001834,6.19214074609,4.14254043351,0.347549282314,0.407560689555,-1.03529844751,1.34583234619,0.0591770918289,14.6244768612
do_nothing,1.13543067411,1.18832959003,0.410580779551,0.874616740694,0.519673550245,0.882013948498,5.63123827288,3.26687213136,0.508992736137,-0.925224784433,0.124962300234,0.0999025700482,-0.112679433478,23.2368319723
do_nothing,1.22672077192,1.03755994211,0.515158664453,0.95771082552,0.57264226949,-0.204538845796,3.59092991194,1.62933847872,0.584077665253,-1.67289349798,1.41131990344,-0.897231948074,0.0378198968754,21.5944229748
do_nothing,0.919636762964,0.728417239169,0.48857211078,0.842115512505,0.640785216669,-0.886813095388,0.712348278662,-0.353508934257,0.55546541409,-1.82898008074,2.44393834693,-1.61777379895,0.275538566514,11.2162058834
do_nothing,0.229725758473,0.169659710127,0.268624406487,0.553123986745,0.653971465401,-0.968706780378,-2.19343083774,-2.1991378379,0.4275597657,-1.60071668857,2.88951169427,-2.13406863725,0.310953371258,-2.96584047511
do_nothing,-0.677498693186,-0.636630603444,-0.132787788361,0.159659852423,0.525971718527,-0.552194848624,-4.36822076377,-3.47822837774,0.225631553661,-1.28146817546,2.57129033774,-2.52763978512,-0.0558053590376,-14.504903435
do_nothing,-1.5249517185,-1.55594523725,-0.618973940993,-0.243503137746,0.202097290276,0.0314510137879,-5.29272066723,-3.91342256459,-0.0105053006034,-1.1024473468,1.53351185478,-2.80569896618,-0.825530791748,-17.9442240934
do_nothing,-2.011196654,-2.34115241038,-1.03306047582,-0.561914970322,-0.299932640134,0.390605682074,-4.79553763366,-3.43673723639,-0.236254481112,-1.12717795003,0.037223797248,-2.86762064061,-1.77292799552,-11.0048427427
do_nothing,-1.91872042755,-2.70979993922,-1.21143492029,-0.72788738886,-0.875555319612,0.267005039697,-3.06952895314,-2.19578083476,-0.41243484303,-1.23178044289,-1.51305304376,-2.54078092176,-2.51774154857,4.36705395452
do_nothing,-1.20440341476,-2.45229810589,-1.04728803094,-0.718651350855,-1.3554638912,-0.331969114293,-0.602603874388,-0.510541931122,-0.51300023297,-1.17688414044,-2.68934367565,-1.67313922664,-2.6705236379,22.5148578276
do_nothing,-0.0361962885994,-1.52882291902,-0.539961116948,-0.560295606252,-1.55986305115,-1.12301869743,1.95338885601,1.20737937512,-0.528442301776,-0.738090405173,-3.16876588487,-0.242398204495,-1.99833781363,36.009896678
do_nothing,1.24312974162,-0.113711445176,0.19054197788,-0.316323538343,-1.36667171104,-1.66736246064,3.94329703939,2.55403296289,-0.464649776299,0.162914977955,-2.82952028531,1.56969749265,-0.544871367666,38.3559814164
do_nothing,2.21881787209,1.43610990364,0.932629666611,-0.0649290532985,-0.767892196877,-1.57357229698,4.86435117084,3.22837512601,-0.338512082759,1.38539466087,-1.78403490545,3.37901274684,1.34624744712,26.5101748271
do_nothing,2.5421077217,2.68387688613,1.4485925048,0.127052063275,0.109519581438,-0.696220123107,4.4852784338,3.10185707243,-0.172407235323,2.59021254312,-0.339744237146,4.68908739963,3.12143829579,2.30913062876
do_nothing,2.05662893145,3.25413911584,1.55516344776,0.224518672865,1.03034152373,0.759135424042,2.90392038527,2.24593116686,0.0103686194165,3.35139701142,1.09841456432,5.04606924173,4.19455415086,-27.7498621331
do_nothing,0.867274678529,2.96277529307,1.19097649746,0.231976810208,1.7201977394,2.27895449718,0.528867505783,0.910233631661,0.188071037705,3.3180867819,2.15126499966,4.20582566509,4.15144379223,-54.3670307096
do_nothing,-0.676814275458,1.88775432875,0.445928398223,0.186665193395,1.95547066091,3.22691048958,-2.01511672137,-0.544144453291,0.340983374904,2.36398130064,2.57468282886,2.25030581084,2.90838535189,-68.3685082272
do_nothing,-2.08470352858,0.352228743701,-0.460083072876,0.140035199723,1.64294257743,3.1042029062,-4.04106816368,-1.74023248976,0.451055437438,0.663591543093,2.32129950007,-0.39608931633,0.764655886501,-63.7596337592
do_nothing,-2.88091350278,-1.17737351879,-1.24408830002,0.134844401548,0.859690101311,1.78090333889,-4.97964533316,-2.38500674922,0.502222750756,-1.33923131871,1.53793223565,-3.06589141106,-1.67463166915,-39.8954147186
do_nothing,-2.76606376623,-2.24454686048,-1.65138742402,0.186591737839,-0.163601477811,-0.401873409678,-4.53976561316,-2.34636113796,0.482439878665,-3.06469937191,0.503705808399,-5.03809379258,-3.68377587543,-2.0321279918
do_nothing,-1.72600055105,-2.55410094695,-1.54082310537,0.276291226997,-1.11318781807,-2.71363613466,-2.80398054639,-1.68519098974,0.387353173607,-3.98759165019,-0.467264199888,-5.75821994308,-4.64933987155,39.9618934583
do_nothing,-0.0500860397416,-2.06837103079,-0.934780218876,0.357309294297,-1.69441896157,-4.2835800493,-0.225085456936,-0.632585627888,0.224320404086,-3.8172346108,-1.12480587904,-5.01560341171,-4.27205517212,74.3723198281
do_nothing,1.75089081251,-1.01406625032,-0.0161934262504,0.373756817795,-1.73089770306,-4.43122225939,2.4844059298,0.481941774393,0.0147451173161,-2.60160495834,-1.35129320948,-3.01670548759,-2.66856673114,91.0504952368
do_nothing,3.10283294257,0.202619773261,0.927395076253,0.283641518438,-1.22572915508,-2.95318186119,4.54657729843,1.33018298407,-0.207158272661,-0.716828478883,-1.18035246832,-0.327462583979,-0.337431986298,84.4381475742
do_nothing,3.55186895168,1.14220201863,1.59481038138,0.0781913195414,-0.362223692935,-0.248517515062,5.3442697076,1.68270430689,-0.39997304992,1.2555594287,-0.764188805946,2.2981469806,2.00010739392,55.2947790854
do_nothing,2.91326489279,1.4871546528,1.76753473977,-0.209926379486,0.557750495957,2.77991054276,4.61196435158,1.47395161984,-0.524217947061,2.72094608889,-0.305332924006,4.14758931181,3.63162855448,10.6161958086
do_nothing,1.33650349928,1.15109709825,1.3798887236,-0.512852206108,1.21746401676,5.02722736717,2.52956582124,0.814831126626,-0.552592187299,3.26630370569,0.0207238972534,4.76234676613,4.08030664076,-38.223671821
do_nothing,-0.735241877384,0.303795685661,0.540528601011,-0.746533621833,1.39535354836,5.5900336737,-0.316369678423,-0.0505161380019,-0.478069004468,2.78982269962,0.124664401028,4.06528078581,3.25239086083,-78.5574615987
do_nothing,-2.69835795562,-0.69561506133,-0.501105364608,-0.836330314138,1.04266701208,4.12388897262,-3.09891964288,-0.828733571473,-0.316905024244,1.52224034717,0.0254305415554,2.36434907941,1.45839753449,-99.846867682
do_nothing,-3.97183485056,-1.43197323403,-1.4318275591,-0.740836583937,0.3008074985,1.01505162969,-4.99767051879,-1.27362519003,-0.105109089716,-0.064389452135,-0.169243544845,0.236360602317,-0.696161072389,-96.4860544088
do_nothing,-4.17179104522,-1.5855685219,-1.97007929163,-0.466187555747,-0.548558795251,-2.71114101013,-5.45040375072,-1.26269433551,0.11093182369,-1.42527719647,-0.313586122145,-1.66615025016,-2.51164024805,-69.2360234525
do_nothing,-3.22329411802,-1.04791207372,-1.94957411815,-0.0663479238683,-1.18374046338,-5.72755669552,-4.32889292755,-0.829030468991,0.286911768224,-2.12796323055,-0.285451865853,-2.81870461563,-3.41908393246,-24.9458009767
do_nothing,-1.3769487155,0.0381718169815,-1.36614214503,0.370518525909,-1.35855290783,-6.87668968768,-1.98025232748,-0.13971668854,0.392210495712,-1.98987774381,-0.0361739866882,-2.97345972744,-3.15601284936,25.3063140663
do_nothing,0.870975394087,1.32645291194,-0.375390717198,0.745152345082,-0.992191255105,-5.60806029054,0.8818544779,0.569197173537,0.41689229114,-1.12400176902,0.388488697149,-2.20924943832,-1.83901377586,69.1060886489
do_nothing,2.92600097764,2.38445638144,0.755442024689,0.97266794139,-0.201127330355,-2.21718555784,3.40228173367,1.07621322227,0.371898651758,0.117541874931,0.862352600131,-0.875301338894,0.0854632311647,95.8452449409
do_nothing,4.26260478895,2.83787022996,1.72456593683,1.00306733375,0.739028948613,2.2128033268,4.8526702656,1.24596947363,0.282622328501,1.27631381675,1.22151638083,0.543714987487,1.99101964656,99.3058550383
do_nothing,4.56082444835,2.49266508795,2.27767177846,0.831568136497,1.48900207846,6.16045912684,4.85494175457,1.06432314513,0.17841008832,1.94662396188,1.32025349034,1.59056012728,3.27031451264,79.0675961696
do_nothing,3.7758003248,1.39547785916,2.27184818116,0.496999307052,1.76548429019,8.19222364261,3.48715077308,0.627201438692,0.0819880820454,1.9054643047,1.08112996814,1.97164606129,3.5194165412,40.4452325166
do_nothing,2.12763413794,-0.184090514306,1.70601376837,0.0700954942074,1.44289952863,7.48165844542,1.23906131509,0.0914816328496,0.0027692313742,1.17250588339,0.523386886658,1.62697125471,2.6525408853,-6.9620091965
do_nothing,0.024042545059,-1.83853822187,0.713662415672,-0.363987397971,0.601244073842,4.13292342237,-1.16378564957,-0.389721309063,-0.063535170092,-0.0131205025025,-0.238533112332,0.720648177821,0.917327196873,-51.699659611
do_nothing,-2.05388749466,-3.14298918114,-0.475666083915,-0.72385403479,-0.49729759623,-0.81612248338,-3.00431342788,-0.720251039597,-0.129066472097,-1.28309987781,-1.02476183345,-0.433641783131,-1.1871837756,-83.2468425496
do_nothing,-3.66696716614,-3.771003818,-1.59291011041,-0.946582446757,-1.49534370867,-5.72396831088,-3.80153762088,-0.88191100674,-0.204308041633,-2.26053588544,-1.63825534766,-1.47934065572,-3.05950583448,-94.4919360506
do_nothing,-4.50504279612,-3.57178168958,-2.38894650765,-0.996735932039,-2.06101439418,-8.90141810532,-3.44521833907,-0.917450666363,-0.289048403532,-2.66892709232,-1.91716673386,-2.11856567045,-4.1650043896,-83.3240995178
do_nothing,-4.43142105601,-2.59184718615,-2.68454019899,-0.869478923708,-2.00065869945,-9.20173393745,-2.19657116336,-0.886791717397,-0.367926802287,-2.39772818612,-1.7770566679,-2.18042430445,-4.17804140789,-52.9950961661
do_nothing,-3.48572866237,-1.0444971532,-2.40323933886,-0.588962116879,-1.32476310316,-6.43587077641,-0.563079794946,-0.81980117831,-0.413005987133,-1.51244131731,-1.23260732613,-1.64496363574,-3.06194139058,-11.2003769134
do_nothing,-1.85714663563,0.754206332206,-1.58448973303,-0.203490779618,-0.244575098527,-1.46139527176,0.900042973485,-0.690639731039,-0.393091433329,-0.217650350044,-0.394613355058,-0.628389129438,-1.07184628345,31.8732098659
do_nothing,0.157246250409,2.45840730647,-0.377401971142,0.221478749162,0.898943209651,4.09299752874,1.78545265267,-0.429003922805,-0.286733450601,1.20538678953,0.555695734125,0.654878052091,1.31370983661,66.0480069735
do_nothing,2.1985844988,3.75450102134,0.983089260531,0.612185020454,1.74893821671,8.37646362906,1.9553562065,0.0338157410036,-0.0940768582503,2.46298538054,1.40805497532,1.93723106696,3.51088452432,83.5948736589
do_nothing,3.89366991855,4.40337875076,2.21546227,0.897249804552,2.05002094155,9.94921301263,1.54997286108,0.703961061482,0.157307279742,3.2993774206,1.97061238664,2.94070416558,4.96860357213,81.0205502225
do_nothing,4.90593962413,4.26519543422,3.04293409942,1.01978639749,1.72936588407,8.27872960502,0.888807996099,1.47934142886,0.41565572302,3.52953230241,2.1132238335,3.41696153718,5.29645305128,59.7741865529
do_nothing,4.99181104003,3.3147599468,3.25094406566,0.949431685238,0.914971827765,3.92445474979,0.312079612326,2.14703654962,0.617275224852,3.06033537493,1.79764823014,3.18854875581,4.35709545697,25.7147166618
do_nothing,4.05811066556,1.65361756217,2.7410818898,0.691620303967,-0.113401531554,-1.65452666062,0.0309622415777,2.43602018438,0.70451564383,1.90803740048,1.08825355786,2.19313505249,2.30570747238,-12.5038268795
do_nothing,2.20754419618,-0.483057339622,1.56849798586,0.290861325274,-1.0220104437,-6.60151524479,0.0486610146812,2.11420927686,0.643851077919,0.213954120875,0.140347743575,0.524103305986,-0.432013633255,-45.6922707503
do_nothing,-0.246856205315,-2.73529105988,-0.0505497181016,-0.174568167945,-1.53495916262,-9.29773759759,0.182745196558,1.09694230334,0.438042911018,-1.74945304575,-0.832556693574,-1.54852838134,-3.24189731488,-66.4277785201
do_nothing,-2.81580120203,-4.65671901104,-1.77006086517,-0.607116158795,-1.52180866213,-8.90905956915,0.175566418417,-0.477097622561,0.128022702985,-3.59713760273,-1.60672599422,-3.59672824903,-5.4513640685,-70.7896101022
do_nothing,-4.9227557316,-5.79061823201,-3.1844676998,-0.911410180184,-1.03236960163,-5.65451386887,-0.158311081098,-2.24078753726,-0.216632417088,-4.88830089142,-2.00151387705,-5.10610671293,-6.48451503411,-59.0883983001
do_nothing,-6.03616952863,-5.77724178098,-3.92552695091,-1.01772789886,-0.269276018532,-0.707176709202,-0.81537874263,-3.6802975419,-0.516040785821,-5.22324838145,-1.92546240227,-5.59727997626,-6.0099514861,-35.4405803371
do_nothing,-5.81424700291,-4.46844194359,-3.76282859847,-0.901013347759,0.489376974379,4.23149150016,-1.57307914198,-4.28776665197,-0.701658170463,-4.36311858161,-1.40273162534,-4.7715687804,-4.04467292293,-6.37303601406
do_nothing,-4.21970184287,-2.0125730239,-2.67918065663,-0.589420543108,0.988497586502,7.52846805054,-2.06629203892,-3.73904789752,-0.734590048744,-2.3373381052,-0.570917593515,-2.63739621941,-0.981490919003,21.0840404233
do_nothing,-1.56346110166,1.12818673158,-0.895076424068,-0.158921792626,1.08086630449,8.17452943345,-1.94440424532,-2.03451130635,-0.615028408704,0.50420966382,0.351885757132,0.431477553168,2.47820789505,41.231153458
do_nothing,1.54694538343,4.2512602128,1.17146146876,0.285474560514,0.770121737428,6.10496150094,-1.04567265848,0.453619457957,-0.380177769116,3.52867957941,1.1242726065,3.74158311757,5.48125808759,50.9351359044
do_nothing,4.35048399176,6.57353122282,3.00490667408,0.637147249994,0.199475245589,2.18028680314,0.487162515271,3.05658481919,-0.0917652902411,5.95651677562,1.5484064769,6.43490661905,7.23721139235,49.9662823964
do_nothing,6.13280480881,7.44169887675,4.12805529549,0.816210147225,-0.406837159567,-2.15487806277,2.20772312532,4.99511799775,0.182499821745,7.0707434881,1.52742369795,7.72118454131,7.23660937275,40.4500570644
do_nothing,6.42687143662,6.53312396543,4.23595870631,0.79044196561,-0.826409655835,-5.40284667162,3.4972934973,5.62327289161,0.38744149446,6.44161379816,1.09514347346,7.1222548704,5.4102466187,25.7387364837
do_nothing,5.15229144368,3.98108729179,3.28761330404,0.582507264814,-0.915773642036,-6.53831642832,3.78768697627,4.65141519962,0.493213803408,4.09312328453,0.406935042614,4.64943556092,2.17646586481,9.17732352895
do_nothing,2.64698446608,0.375100798502,1.52532084372,0.26133273837,-0.65546702373,-5.34146678482,2.79546827685,2.26992808826,0.498956666314,0.546839706198,-0.307817469456,0.84746646214,-1.64819050617,-6.77482204419
do_nothing,-0.423165699671,-3.37687339419,-0.587575252588,-0.0795719752914,-0.149483986022,-2.42772706303,0.67485903913,-0.876727255559,0.427181870052,-3.28752850323,-0.818544628667,-3.32371754742,-5.05979392078,-20.7917512978
do_nothing,-3.25246631553,-6.292715654,-2.49478478442,-0.349996924724,0.417796474592,1.02316422974,-1.98004790076,-3.86797058511,0.311889083603,-6.35598274255,-0.969056958501,-6.74617415557,-7.14471121139,-32.3096076233
do_nothing,-5.12504188398,-7.59734585339,-3.70395931637,-0.488431896799,0.849548316425,3.72726990577,-4.30077352856,-5.7872939015,0.185283508804,-7.77124226174,-0.730711051681,-8.46806200875,-7.34399104454,-40.8205113794
do_nothing,-5.61522115961,-6.95397691712,-3.92522493994,-0.477306843283,1.00420196743,4.76965676818,-5.43157224409,-6.01675644874,0.0679832028523,-7.09407327852,-0.213932928542,-7.99463021909,-5.62267345978,-45.2643364619
do_nothing,-4.69683628073,-4.56976877588,-3.14906271625,-0.343887658024,0.839643879119,3.91682225359,-4.84188015799,-4.4479820098,-0.0341446620108,-4.48990341483,0.368078534811,-5.45044422796,-2.48731401568,-43.910407665
do_nothing,-2.72914118044,-1.13778786103,-1.63992602897,-0.147407896402,0.420486307248,1.66061196013,-2.55034047192,-1.53523294511,-0.126167336882,-0.700920453235,0.773406355737,-1.55467794873,1.15955572545,-34.9004593369
do_nothing,-0.327427814168,2.37051446803,0.151395283789,0.0425751238776,-0.111191941837,-1.01043272611,0.829362590644,1.83376096392,-0.215688597406,3.16748453934,0.819264333312,2.58929735278,4.28747635165,-17.3065660975
do_nothing,1.83622597764,4.99852320966,1.72786163823,0.169038699115,-0.588601114624,-3.01475616205,4.25170434327,4.61293057342,-0.30395646922,5.98422292376,0.453248217746,5.82709081307,6.04702277586,7.72839690615
do_nothing,3.23518503353,6.09008220104,2.69360216334,0.204076816927,-0.876410807924,-3.59720386192,6.56839064253,5.93212357847,-0.380594294644,6.9472294472,-0.218496132787,7.30369915942,6.02238190634,36.3295110732
do_nothing,3.62829907971,5.47563606071,2.8622172653,0.154297621442,-0.910858485812,-2.60486235177,6.91746695798,5.38101957626,-0.424485395339,5.8383452614,-0.959074755815,6.71765979333,4.34642237622,62.1700690878
do_nothing,3.09655354211,3.49966132142,2.29358011277,0.054223291932,-0.711745459064,-0.519935925811,5.03877588988,3.14720477476,-0.41077945215,3.09103648523,-1.47839368921,4.39602100183,1.64094964043,77.8418193402
do_nothing,1.97243800717,0.883312526429,1.25130375018,-0.0490005228907,-0.365287538636,1.75413844184,1.4007985013,-0.0402658485868,-0.321445977389,-0.355325609339,-1.5360588748,1.1666038175,-1.1977626761,77.0378578866
do_nothing,0.695262958098,-1.52834362062,0.0995632536045,-0.113566232116,0.0128739442767,3.26296821387,-2.91544857843,-3.14606114557,-0.155244985302,-3.36877856618,-1.03455436582,-1.92782147016,-3.29643026987,56.8903247962
do_nothing,-0.350678434809,-3.04673005913,-0.822689172178,-0.117181701809,0.319211063284,3.38038771522,-6.54722270125,-5.16644114914,0.0669989117755,-5.00161328717,-0.0687249349572,-3.9755517547,-4.08553003034,19.6257503065
do_nothing,-0.956117929611,-3.35220356612,-1.30644378616,-0.0628670091811,0.49325357157,2.04973667271,-8.29139353623,-5.45824086711,0.304353800118,-4.80322390334,1.08919157083,-4.48464101198,-3.4696156467,-27.1833079586
do_nothing,-1.12553380346,-2.56850790318,-1.32232051205,0.0248765160223,0.528436576734,-0.202781862965,-7.50991527719,-3.94929980117,0.504948535539,-2.9618620224,2.06835957278,-3.51785532843,-1.83163276375,-72.09017891
do_nothing,-1.0283187449,-1.17904631314,-1.0024678182,0.111227658967,0.461878526388,-2.48276496961,-4.36043839286,-1.15974082092,0.619736447549,-0.226286364126,2.51889861249,-1.63205027908,0.126713094438,-102.720123852
do_nothing,-0.890076766625,0.178906853038,-0.566763052487,0.164794172304,0.350074834585,-3.88247909821,0.231158971357,1.9732257801,0.616544372919,2.36567652414,2.23345581152,0.351071302154,1.64954208104,-109.395437476
do_nothing,-0.873523167817,0.963331858672,-0.224853001814,0.168677334289,0.241945056957,-3.8358339501,4.8536906244,4.40825910268,0.489898955802,3.85718486554,1.22903130376,1.65719138027,2.20114821991,-88.3220453559
do_nothing,-1.00003891855,0.9275384525,-0.092719811185,0.125033326767,0.160270110149,-2.3360347724,8.05967134194,5.3456064158,0.263471516314,3.71159472398,-0.241403385181,1.84121820609,1.6524148829,-43.2558465276
do_nothing,-1.14413262438,0.19882083487,-0.155013173774,0.0520735243422,0.097921787956,0.0659767094755,8.83340535266,4.48987141599,-0.0156216063029,2.00162766489,-1.75556284545,0.938256566367,0.313841873248,15.0219448035
do_nothing,-1.10162852125,-0.790476853529,-0.285472363316,-0.0246080264402,0.02861134338,2.47812848654,6.92281617696,2.14260354914,-0.288838421625,-0.618400902422,-2.84863341874,-0.568083533333,-1.19467358145,71.4202301559
do_nothing,-0.700947717566,-1.49031707115,-0.314689952492,-0.0824872569315,-0.0740418322198,4.01180996672,2.92400901995,-0.904666304025,-0.500834104814,-3.14794931407,-3.16087393326,-1.94505229925,-2.18807100046,110.727289398
do_nothing,0.0920172703965,-1.46547209873,-0.11601464789,-0.110091970649,-0.218234114631,4.11953322768,-1.91028797242,-3.6389611882,-0.612381520509,-4.60051558079,-2.55805582764,-2.50209081673,-2.18383050963,122.03716711
do_nothing,1.12354539982,-0.583250140262,0.32649575431,-0.109584594361,-0.384612073795,2.79580157759,-6.07518502143,-5.16412913182,-0.608116769048,-4.36162010065,-1.18399481414,-1.86559935346,-1.09404479214,102.040596377
do_nothing,2.08299802436,0.916543237767,0.896935090385,-0.0934044338884,-0.529742904553,0.566462147907,-8.29710644109,-4.99485977289,-0.4975117523,-2.41759763638,0.574421588556,-0.135356893985,0.729814455581,56.118969354
do_nothing,2.60862983754,2.49812828834,1.38355201863,-0.0768810692466,-0.6008679974,-1.72507772624,-7.93702201065,-3.20914559252,-0.309675751308,0.626611029868,2.20100719891,2.13559631763,2.61748579787,-3.14982919096
do_nothing,2.4300842976,3.52623804687,1.55946887362,-0.0702732758176,-0.555887929328,-3.2479337696,-5.18237432008,-0.411173102147,-0.0843402164058,3.74839716195,3.20806441899,4.13134991361,3.82343129525,-59.6487629295
do_nothing,1.49160654678,3.51029563535,1.27742811156,-0.0737468174703,-0.380704319292,-3.49983281212,-0.968337027114,2.47880173272,0.137862061444,5.85796206237,3.28831947733,5.06564203157,3.80542156663,-98.424045736
do_nothing,0.00395013834795,2.30477850379,0.541176488337,-0.0774178786306,-0.0973992760144,-2.48682165747,3.34052987481,4.53343770576,0.32309106658,6.17653456432,2.41226652643,4.47135059903,2.43654007749,-109.977198439
do_nothing,-1.60211938485,0.188876715274,-0.476298334735,-0.0663694158401,0.239526092317,-0.699698731299,6.39874856321,5.12079518544,0.448464847663,4.51072383535,0.839322120592,2.38279795969,0.0719363811558,-92.8259297888
do_nothing,-2.81085901037,-2.20812441816,-1.47818873599,-0.0284207762691,0.557166796077,1.09893377039,7.30876688038,4.10014422045,0.502708444236,1.32770895064,-0.961218515605,-0.654988131416,-2.55672031739,-53.5770156206
do_nothing,-3.20018788625,-4.1130005558,-2.13958408143,0.0387416757122,0.78338963629,2.18888549391,5.89095910965,1.84974669005,0.484487720414,-2.39461335218,-2.45446930884,-3.75441420349,-4.58440268765,-4.55991771892
do_nothing,-2.59949082925,-4.87484183352,-2.22055998092,0.124225914525,0.864908663602,2.18112628189,2.71206298823,-0.876419448986,0.400078353841,-5.49044717845,-3.20372578415,-5.9727700496,-5.30918477621,40.152550879
do_nothing,-1.16633621366,-4.19676006529,-1.65589069215,0.206007855957,0.779221015599,1.1661327788,-1.12845238949,-3.20868228507,0.261657838219,-6.99068008372,-3.00209441723,-6.61974268764,-4.43800886703,69.0194023791
do_nothing,0.650902681659,-2.24935997947,-0.587712461867,0.25784534898,0.538143037096,-0.335918527992,-4.37499765062,-4.44725710253,0.0866070819645,-6.43815998306,-1.93119711901,-5.48012344694,-2.19511043426,76.2403667914
do_nothing,2.25668618848,0.376379370657,0.67287194016,0.258495899126,0.183668161052,-1.60113397436,-6.02593097268,-4.2776222719,-0.102752053837,-4.0283498252,-0.329964999439,-2.87798812156,0.745453166138,62.9424079158
do_nothing,3.11079147393,2.8622831015,1.74400729029,0.199746047145,-0.221183492467,-2.01141784599,-5.64206896093,-2.84796324962,-0.280102580379,-0.531665200105,1.31468651166,0.435325035928,3.48013491281,36.0961686473
do_nothing,2.91875901014,4.43574600945,2.2981832654,0.0901831792607,-0.603515519364,-1.32124469913,-3.45810417317,-0.690685888736,-0.417746586083,2.97086517829,2.51919130789,3.52661001234,5.17294224508,5.67640461022
do_nothing,1.74129671844,4.62729973491,2.17108350638,-0.046741437806,-0.891691177737,0.227830005538,-0.270706927989,1.47656056177,-0.491110020938,5.44443207551,2.94845599547,5.57317487936,5.32714974584,-18.8656202736
do_nothing,-0.0191114320182,3.4236327122,1.41618380049,-0.179649066587,-1.02585129737,1.99380290623,2.84829426822,2.99628342922,-0.484310549684,6.22723907087,2.51018642934,6.10388359614,3.93978140168,-31.5858684667
do_nothing,-1.7528889982,1.26382363868,0.285838386942,-0.278612123994,-0.968003471457,3.19021364607,4.91053217864,3.47768250517,-0.395108363715,5.21943921796,1.37148269446,5.1130800741,1.48900769827,-31.5226638871
do_nothing,-2.85406504951,-1.11811235979,-0.854703367949,-0.323597621359,-0.711457070368,3.21088670417,5.32081858292,2.89772846754,-0.237323710686,2.87769106787,-0.103787456309,3.01913568527,-1.2368667602,-22.2858711912
