label,COUNTER,INTERPOLATED,AF3,F7,F3,FC5,T7,P7,O1,O2,P8,T8,FC6,F4,F8,AF4,RAW_CQ,GYROX,GYROY,MARKER,SYNC,TIME_STAMP_s,TIME_STAMP_ms,CQ_AF3,CQ_F7,CQ_F3,CQ_FC5,CQ_T7,CQ_P7,CQ_O1,CQ_O2,CQ_P8,CQ_T8,CQ_FC6,CQ_F4,CQ_F8,CQ_AF4,CQ_CMS,CQ_DRL
off_to_on,1.36988530613,0.488722922333,0.31980205375,-2.634585217,-2.27624827494,-1.15764128231,1.33675335971,1.31251700592,-1.7474574588,0.869545818553,-0.237299513472,1.28900234436,1.56292880312,23.6521562443
off_to_on,2.32595818421,1.13775693345,1.04498142301,-2.33069645792,-1.63827092173,1.21055192837,4.13042235511,3.3504183309,-1.74027894805,2.08549019935,-0.258213900452,3.02062307073,2.72652728179,8.56250543985
off_to_on,2.47887959871,1.15132236974,1.27835715607,-1.61668367205,-0.807638886154,2.96115739938,5.1140326844,4.00135332833,-1.53977181141,2.31384848418,-0.474494993943,3.56839595174,2.91813152105,-5.53079557791
off_to_on,1.79018713857,0.509615316834,0.936899551235,-0.685619414487,0.0144849204514,3.61451089162,4.03132030631,3.13196751031,-1.20475271804,1.53883725616,-0.799639825205,2.78309393788,2.08772803512,-16.8479662038
off_to_on,0.486675975942,-0.553292139236,0.134172404988,0.249326612363,0.649327769522,3.04362557163,1.37624737172,1.13562596864,-0.776316692877,0.10976926789,-1.07375157252,0.96700418765,0.518046657882,-24.8399311543
off_to_on,-1.01601310013,-1.63446249956,-0.859615991347,1.01012387293,0.987078907905,1.50080349311,-1.79915493124,-1.22234049493,-0.273689903149,-1.39815797976,-1.12608278436,-1.23846100216,-1.27254228175,-29.7193023218
off_to_on,-2.24606472081,-2.30568866702,-1.70533336269,1.49030658284,1.01565457244,-0.469014342814,-4.26892803267,-3.07928989551,0.292380300354,-2.39640338554,-0.844315010823,-3.07279765448,-2.69977423568,-31.7664083889
off_to_on,-2.82096015074,-2.26499887497,-2.10173657533,1.66471118722,0.820462452798,-2.20131470559,-5.0730284867,-3.77277390072,0.896626784521,-2.49218308402,-0.225152053099,-3.90851158375,-3.29947711653,-30.7832088871
off_to_on,-2.56020227894,-1.44390053509,-1.87825108235,1.5744614074,0.552241979277,-3.11919768962,-3.85899730986,-3.05955293591,1.47942249232,-1.62161905759,0.612575361789,-3.45200721629,-2.87035097053,-25.9934700211
off_to_on,-1.53231934564,-0.0346955051932,-1.0465314778,1.29703726164,0.370977518322,-2.91225819877,-1.00752376684,-1.185214422,1.94225240828,-0.0638268375259,1.45783987286,-1.83008308931,-1.53035954185,-16.4805708102
off_to_on,-0.0255144702138,1.56960566016,0.202582814516,0.914629096059,0.38357348334,-1.633097266,2.49969465798,1.21308863467,2.16467464745,1.66395251981,2.07080195609,0.461140706772,0.327144024514,-1.9957937276
off_to_on,1.54440195571,2.90051117862,1.55325471045,0.492093607773,0.597428204799,0.318016718486,5.42167655398,3.33111748038,2.03986437373,2.98881868816,2.25841951086,2.72235599673,2.15931740762,16.2340142843
off_to_on,2.75694679789,3.56118459573,2.65198849926,0.0700136732577,0.908749008768,2.3161288488,6.68951156308,4.46851233319,1.51721914013,3.47604800209,1.93691197412,4.27382681752,3.43910401542,35.1297952088
off_to_on,3.30218343613,3.34685323971,3.20208259915,-0.328696381469,1.13365068516,3.70522655724,5.77800605574,4.25386759687,0.635872090252,2.96755824631,1.16037940949,4.66150374247,3.80782296006,50.1221989785
off_to_on,3.05559881988,2.30109850458,3.03933982656,-0.685592248589,1.07497942447,4.00358559693,2.89076137719,2.75185669737,-0.465612376407,1.62106724507,0.106544344516,3.78308394377,3.17049064967,56.2882387742
off_to_on,2.09554629617,0.693779862268,2.17062178398,-0.975605428257,0.603645370382,3.05768504204,-1.10253987672,0.423915760525,-1.57080080034,-0.157149928986,-0.974970728247,1.90030133914,1.70991691982,49.9749565073
off_to_on,0.665259610712,-1.06724505588,0.768478748416,-1.1645094534,-0.274528132548,1.0966490251,-4.95253124658,-2.03548422393,-2.43497209296,-1.85593727009,-1.83426017856,-0.457922903773,-0.178247723385,30.3710913331
off_to_on,-0.902510592867,-2.55800601905,-0.872975472484,-1.2164962585,-1.3932577693,-1.33070884245,-7.44081999561,-3.92524980924,-2.84924332834,-3.02526191536,-2.28930870661,-2.6630942539,-2.00437430295,0.416562467698
off_to_on,-2.2720625526,-3.45340646895,-2.40693786182,-1.10817301393,-2.45610074986,-3.51809090693,-7.77570930613,-4.74905273829,-2.69976126968,-3.40699962691,-2.26972832777,-4.16868130959,-3.3194577762,-33.4045672589
off_to_on,-3.17773002166,-3.60113490675,-3.50968051697,-0.842035806415,-3.11837440169,-4.81411348555,-5.8421677843,-4.3454657384,-2.00303376881,-2.99007145088,-1.82434436536,-4.65020767592,-3.82703387862,-62.4951206926
off_to_on,-3.46751120863,-3.03745953306,-3.94650923311,-0.452547247143,-3.0975004759,-4.81982883171,-2.22746269969,-2.90343400201,-0.905561280118,-1.97959580252,-1.0935771544,-4.06749704748,-3.44495319079,-78.4807259507
off_to_on,-3.11382099606,-1.94881994852,-3.61594455686,-0.00118318825005,-2.27628129447,-3.5104350485,1.97921730636,-0.870661927692,0.352833433799,-0.700957220191,-0.259039429959,-2.64102219837,-2.30688048453,-75.7752165656
off_to_on,-2.19843289973,-0.600156278217,-2.56630833819,0.438308215099,-0.762906807574,-1.24348756529,5.54017658378,1.20329951138,1.50106732052,0.519427667908,0.510868396688,-0.761609691438,-0.710934596493,-53.5495595221
off_to_on,-0.883997307364,0.7416191326,-0.984579139982,0.798875230267,1.11656663861,1.34882985486,7.45542600698,2.83131009042,2.30551716602,1.45126700828,1.10123807988,1.12992603405,0.964548449743,-16.4037913106
off_to_on,0.616432941367,1.86429771048,0.838477868871,1.03595780928,2.8963458707,3.54964466159,7.25630333115,3.70791309773,2.62514630673,2.00378898854,1.46565367692,2.65375267422,2.3532756428,26.5816689018
off_to_on,2.0659626209,2.63462461841,2.56038526914,1.13414809787,4.09918871335,4.77023730774,5.11777528252,3.75423600755,2.43792609611,2.20816097573,1.61511179211,3.56354730576,3.17904293974,64.2261451701
off_to_on,3.22721673431,2.99245292107,3.84826499758,1.10283638279,4.37657211669,4.71973762498,1.76467913335,3.08904549028,1.83324836472,2.15672461667,1.58979561633,3.76960800427,3.30495334504,86.3919702902
off_to_on,3.88732748128,2.92858500916,4.44041685017,0.963880000879,3.61673302726,3.479952929,-1.78456286395,1.95154981543,0.975950731248,1.93253029867,1.4281839472,3.31968520724,2.74842072104,86.9429478318
off_to_on,3.88877933981,2.46379459296,4.19844576038,0.737891592564,1.98535237143,1.46437853942,-4.54381319842,0.613074178185,0.0558351551497,1.56334640654,1.14749747535,2.35627319859,1.66447742377,65.5931027427
off_to_on,3.16527147374,1.64170929897,3.14017262119,0.436308024899,-0.115613509514,-0.72236152901,-5.846494148,-0.68977545376,-0.760496570207,1.02053023266,0.743473900652,1.07107825203,0.304950387608,28.0488331077
off_to_on,1.77469191652,0.537742469321,1.44506930425,0.0636163777237,-2.15950143938,-2.47695085907,-5.50767971839,-1.78431978695,-1.36164636826,0.261167848295,0.208481440523,-0.32919385056,-1.0367427568,-15.6216445209
off_to_on,-0.0840408111749,-0.72477340428,-0.572256837184,-0.370908901316,-3.64295021797,-3.37860000922,-3.82272983402,-2.55724527877,-1.70077155698,-0.70887616408,-0.441365745722,-1.64234729982,-2.08511092777,-53.8976969294
off_to_on,-2.08380440241,-1.96647267177,-2.51892455567,-0.837712015457,-4.22489873358,-3.30154672349,-1.42074421228,-2.93466428939,-1.78449888177,-1.78419218595,-1.14385716083,-2.68154645396,-2.63679847204,-77.0975267636
off_to_on,-3.81912978969,-2.96569867735,-4.00203755408,-1.27634545187,-3.81449559542,-2.42582630299,0.963932151823,-2.8684652225,-1.65038027772,-2.75085365831,-1.78564766603,-3.28739028227,-2.60055416504,-80.0423433294
off_to_on,-4.88908682489,-3.49910159385,-4.71273943096,-1.59755910764,-2.58285114159,-1.14823556935,2.7197234991,-2.34230495073,-1.3443766258,-3.3318863088,-2.22063848566,-3.34806072137,-2.01528003362,-63.2998907866
off_to_on,-4.99634111746,-3.40139496796,-4.49680621626,-1.70137394378,-0.898338235468,0.0711716692888,3.5134622873,-1.39558936495,-0.907575317935,-3.27647380612,-2.3086332422,-2.82652576427,-1.04110013583,-32.6817762076
off_to_on,-4.03603184179,-2.62544677961,-3.39364858917,-1.50776750672,0.790745692481,0.871200469107,3.33525027548,-0.149853021691,-0.375633644075,-2.46178030614,-1.9625402482,-1.7853669731,0.0770212748489,2.76964198677
off_to_on,-2.14619391765,-1.27937380824,-1.63199932719,-0.990408391677,2.08694698755,1.10362679695,2.43642039237,1.18383595122,0.212103656084,-0.967249016205,-1.18774008506,-0.395401759152,1.06731010116,33.6028009773
off_to_on,0.301045268487,0.377998728517,0.418988633909,-0.200765211954,2.74681365874,0.86166414679,1.19971125884,2.33221887852,0.801472140306,0.912221648677,-0.0983801241507,1.08335735118,1.69854189835,52.6659376584
off_to_on,2.77270967412,1.98909283656,2.332751364,0.728539282446,2.72717670253,0.416926366405,-0.00267231707486,3.02278457025,1.3188456754,2.727516951,1.09791612113,2.35101806363,1.8399034675,56.8750428045
off_to_on,4.69867889976,3.186094798,3.72235231042,1.60620015013,2.16601867598,0.092230776647,-0.913120253998,3.06539915372,1.67837175849,3.99736441693,2.14533571601,3.1379957374,1.49624401047,47.5721422396
off_to_on,5.61512446288,3.69091698396,4.32710804172,2.22693567141,1.31151250319,0.120362935068,-1.42770954947,2.42330047225,1.80083085389,4.35406957959,2.80351799744,3.27647490546,0.806679084432,29.4985208159
off_to_on,5.28839405513,3.39518764415,4.06682778474,2.42659533273,0.428618879851,0.543181821134,-1.57247222991,1.24327827779,1.63815044812,3.66454907622,2.91134849876,2.74977255638,0.00426568536689,8.85947978794
off_to_on,3.78309762259,2.39337821334,3.05049462329,2.13108555013,-0.282971474991,1.1897358024,-1.44249702746,-0.17289318841,1.19424765719,2.08399848754,2.43190081719,1.70113726365,-0.653688093972,-8.78471583478
off_to_on,1.45254863362,0.956479563495,1.53882122822,1.38319976582,-0.733539553742,1.74213335777,-1.13886247873,-1.45243895549,0.533314367324,0.0207308558307,1.46481195467,0.395969432162,-0.964977833466,-20.0805794137
off_to_on,-1.14848487888,-0.546990004896,-0.127269135538,0.337597565076,-0.940968283989,1.86467956872,-0.7316819124,-2.26558038708,-0.229225277108,-1.97974059851,0.222058663971,-0.852795711416,-0.847110807052,-24.4379543336
off_to_on,-3.40608937761,-1.75814933809,-1.61138358333,-0.776081110419,-0.98986119869,1.34741877182,-0.259614537477,-2.43035119544,-0.951670953054,-3.39571179427,-1.02595596267,-1.77313658765,-0.365701468389,-23.5268165513
off_to_on,-4.8054337324,-2.42887252503,-2.6563914671,-1.71188681002,-0.974075020331,0.208745630467,0.243894558077,-1.96974352192,-1.49967711554,-3.88383389455,-2.01839571587,-2.20759030357,0.284467157332,-20.0489363975
off_to_on,-5.06069977985,-2.48452301284,-3.1304906131,-2.2709182833,-0.948386653517,-1.28425261412,0.720453949923,-1.09854015735,-1.77812465501,-3.37716824243,-2.56670282959,-2.14792946487,0.841986780505,-16.353016692
off_to_on,-4.18062168702,-2.02898835786,-3.03577453219,-2.35073492682,-0.908460239733,-2.68944390599,1.07604233145,-0.14272235825,-1.75144551123,-2.09530238127,-2.59491441765,-1.7200152501,1.066597371,-13.4640346776
off_to_on,-2.45248714035,-1.29241980624,-2.48220177834,-1.96667588675,-0.804606478791,-3.53440438442,1.20168761562,0.580040731054,-1.44679581991,-0.464377622315,-2.14781800324,-1.1254919343,0.824369180709,-10.8809310912
off_to_on,-0.35143241281,-0.541618901951,-1.63969141517,-1.23991025472,-0.579874203044,-3.48238495757,1.01959655658,0.874686641973,-0.940520705143,1.0251772842,-1.36713410421,-0.562373067708,0.141751564967,-7.15621156964
off_to_on,1.5965096091,0.014508087972,-0.685959603112,-0.35745756553,-0.212870423552,-2.46018708909,0.533302268259,0.734596567644,-0.333914910922,1.97509327628,-0.445249787139,-0.154090682106,-0.791298006784,-0.9441317574
off_to_on,2.95650123655,0.29100696534,0.23355956179,0.482210644885,0.255688076757,-0.700559345676,-0.145316446718,0.333415482717,0.272726740284,2.19797153856,0.42814122754,0.0867150061424,-1.67309754811,7.98187923501
off_to_on,3.49111795708,0.341866495206,1.02389683796,1.12075757236,0.7260330326,1.31898855164,-0.81199476091,-0.0545552395175,0.799358659613,1.76018924483,1.11044288391,0.246505132652,-2.18302548615,18.2183702992
off_to_on,3.20223169794,0.320210081564,1.63617137392,1.47366966392,1.07203505891,3.02270738048,-1.23113830877,-0.174832643845,1.19403319395,0.937485062397,1.52991119399,0.456372436973,-2.08722355429,26.9848677601
off_to_on,2.30090809479,0.400087927328,2.04836617928,1.53788360693,1.1902165359,3.91978497523,-1.22327402001,0.0933325388823,1.42981097038,0.10170487139,1.68475943246,0.816671976572,-1.32351146211,31.0747366887
off_to_on,1.11999534539,0.690483181518,2.24363189263,1.37431613797,1.0440495321,3.76195945331,-0.745390766383,0.675849650216,1.49562025974,-0.41969961694,1.62195028322,1.33156615697,-0.0368869023835,28.1398027521
off_to_on,0.000847051371162,1.17529070458,2.19798742529,1.07438101258,0.683684607225,2.62169882842,0.071080437872,1.32239055503,1.38783844795,-0.461425287646,1.40621594122,1.88181629606,1.44852091114,17.7904152389
off_to_on,-0.808327003517,1.70385362391,1.88407179204,0.723981758623,0.231001317907,0.864460888884,0.946678340456,1.70101236776,1.10803138269,-0.0743163734809,1.09198692753,2.25075369541,2.71563983258,2.0442232783
off_to_on,-1.21123429429,2.03827400827,1.28984451588,0.377874396135,-0.16571609052,-0.974732108626,1.54282577808,1.53479476844,0.66842277585,0.502349064254,0.708488957912,2.19856089321,3.37488886703,-15.1040625958
off_to_on,-1.26425513391,1.94258306383,0.443868923381,0.0522259560013,-0.389995955218,-2.36718245777,1.58571611369,0.728203102092,0.10204575193,0.93922009342,0.262339618998,1.56079838964,3.18337188222,-28.8845018323
off_to_on,-1.12439958532,1.28247556336,-0.56515722028,-0.264284026833,-0.404410763626,-2.95811868263,0.980574202491,-0.567867998234,-0.528752498054,0.949874565658,-0.245248472253,0.335583656719,2.1264249661,-35.3155041548
off_to_on,-0.967413624262,0.0986503552705,-1.58607218147,-0.587556752984,-0.266260622268,-2.66932428711,-0.129265713184,-1.98241467658,-1.13218335756,0.410148460735,-0.795476871327,-1.27543740697,0.435339374642,-32.5667042131
off_to_on,-0.908194244692,-1.37582901071,-2.42603938545,-0.91426885241,-0.1032311946,-1.70410807274,-1.3872332348,-3.03860234706,-1.5991863978,-0.580012814433,-1.33452004126,-2.89376179842,-1.466500354,-21.6164405269
off_to_on,-0.953428862826,-2.76552259356,-2.89209639378,-1.20796399203,-0.0568415086871,-0.45703428089,-2.33176798771,-3.31895651431,-1.82682913612,-1.71623289128,-1.77116838518,-4.05768015543,-3.07569057295,-5.94819484143
off_to_on,-1.00363823,-3.65826589861,-2.8429896952,-1.40166594884,-0.215530625518,0.63572222571,-2.55581188241,-2.62326776581,-1.74671157833,-2.58669322954,-1.99355356976,-4.35868196278,-3.94818312634,9.62098674412
off_to_on,-0.903101265859,-3.73472461863,-2.23576790068,-1.41706318017,-0.565154615319,1.24976230325,-1.8634653013,-1.06068166731,-1.34898748672,-2.8150166878,-1.90157941619,-3.57939444109,-3.82634117861,20.5685380627
off_to_on,-0.51803561968,-2.87997855139,-1.15151256506,-1.19378267717,-0.979601997909,1.27476943146,-0.366198987458,0.961297540692,-0.692895840455,-2.20073969018,-1.44505120705,-1.78754851094,-2.71680328219,24.1700198884
off_to_on,0.187721810357,-1.23887404708,0.210294539362,-0.71812606952,-1.25956024721,0.831606808057,1.52164472157,2.85253656542,0.101457507053,-0.808282147733,-0.654018923114,0.6489727008,-0.895749019536,20.3411932549
off_to_on,1.11041820917,0.806551285591,1.57041150232,-0.0403152886609,-1.20844835664,0.202659924557,3.19523779218,4.02505680429,0.879208607058,1.02889066536,0.35105737245,3.1382326573,1.16148528915,11.5226534079
off_to_on,2.01720931111,2.73487493467,2.63324778962,0.727150372722,-0.718448119945,-0.293895152745,4.048961508,4.08566425314,1.48771130883,2.79487973107,1.37613491457,5.01562673944,2.90803700057,1.66135236559
off_to_on,2.61105623897,4.03123651309,3.15898323516,1.4312627574,0.167043077535,-0.435309367061,3.68364204675,2.97087056375,1.81345770215,3.94465555947,2.19578066188,5.7299896376,3.87551457642,-5.32663920229
off_to_on,2.63060089355,4.33792149783,3.0250096729,1.91498700846,1.24212950524,-0.180001495612,2.06162009049,0.977192275082,1.80787891859,4.07702494336,2.61046806125,5.01052557332,3.80465320844,-7.03942423701
off_to_on,1.95163387608,3.56315834217,2.25957559412,2.05812485439,2.18861206232,0.324157796587,-0.446457402608,-1.32490696276,1.49466842951,3.07198796452,2.5027833578,2.9633436565,2.71970923674,-3.46834393612
off_to_on,0.653496256864,1.91350062174,1.03775857401,1.81060657763,2.67536343757,0.810116986534,-3.14589132453,-3.26582404164,0.957469121873,1.146614002,1.87526490374,0.0648621914269,0.924844135233,3.05275752455
off_to_on,-0.976823851038,-0.161835186864,-0.359963970213,1.20838501725,2.47489489908,1.01068675865,-5.21358939263,-4.28305537911,0.313175366475,-1.19205315059,0.857036976523,-2.95147550426,-1.0777988443,8.80925509608
off_to_on,-2.51063638717,-2.09924870308,-1.61612706403,0.367207684759,1.55594742785,0.777530494983,-5.94801786334,-4.09171213535,-0.319609572821,-3.28665386713,-0.324756963448,-5.28735409513,-2.72673791457,10.2216514839
off_to_on,-3.49784551157,-3.38361920911,-2.45395930982,-0.544047369977,0.11635450217,0.151376513745,-4.99637899104,-2.76526250117,-0.846740862812,-4.52185052902,-1.40208753597,-6.29856664753,-3.55864752678,5.3505622903
off_to_on,-3.6063131643,-3.69673150979,-2.70417031979,-1.34306205106,-1.46068608122,-0.646046612691,-2.48640425129,-0.703428496519,-1.21212150503,-4.51171276933,-2.13602900431,-5.67910945049,-3.34076120054,-5.17725474924
off_to_on,-2.73605695488,-3.00639678382,-2.34368332995,-1.87602063448,-2.71756376272,-1.29684195114,0.982074449166,1.49819368111,-1.39690286068,-3.2242773109,-2.37936714107,-3.55675716918,-2.14027934568,-18.1862565417
off_to_on,-1.06928819566,-1.56947395188,-1.49669787101,-2.05088897423,-3.2666071559,-1.51617199652,4.48821742976,3.23107632043,-1.40806075531,-1.00309562037,-2.11325949973,-0.470329777724,-0.309676780788,-28.9402999261
off_to_on,0.96430330497,0.15161238362,-0.398449899178,-1.85404812953,-2.92022418555,-1.17479912224,7.04272314407,4.049259754,-1.26368609024,1.52392025878,-1.44695665669,2.76815291281,1.60999440397,-32.7791213208
off_to_on,2.80147615759,1.63276026839,0.668241751248,-1.34726254248,-1.76153212648,-0.364795567521,7.86935044136,3.78392285519,-0.982584015317,3.62387041023,-0.580835064669,5.29047850176,3.04237822938,-26.8417576602
off_to_on,3.90736208232,2.44800904191,1.44664451737,-0.647396950369,-0.128493997774,0.621046863349,6.63360445597,2.567313969,-0.582766202953,4.67452604123,0.255614934355,6.40934346379,3.54331917954,-11.2717481424
off_to_on,3.93733095236,2.39623662466,1.77064819869,0.104372554449,1.4869005863,1.39265975342,3.55190589281,0.767950605493,-0.0885297564237,4.35212076789,0.871346410751,5.80973897737,2.93477721944,10.5351268273
off_to_on,2.84852497158,1.55627536672,1.60354993927,0.775011649581,2.59374760988,1.61273332995,-0.650859068358,-1.13307668627,0.458819528824,2.73412054438,1.16568240184,3.64056561416,1.36532475355,32.7624069565
off_to_on,0.924467034096,0.254389106634,1.04148846454,1.26544274141,2.86137002948,1.13699762079,-4.924211976,-2.67995979051,0.993906049215,0.284257498796,1.14861851457,0.479554539645,-0.722852343187,48.8460984235
off_to_on,-1.29811089337,-1.04473655383,0.281361295054,1.52420911712,2.22924122176,0.0891705838807,-8.16504129168,-3.55143814512,1.43021179081,-2.27810646329,0.923972570896,-2.82041020242,-2.71417840128,53.4714829186
off_to_on,-3.18108164486,-1.8887746974,-0.437554295421,1.54751799705,0.929582017206,-1.1629194631,-9.50637130772,-3.61495450671,1.67530908739,-4.18743195213,0.642215412671,-5.36234546998,-3.99524566565,44.2666309735
off_to_on,-4.17137929327,-1.98293891095,-0.902144528351,1.3682081441,-0.586952119378,-2.12767977074,-8.5449793096,-2.92199965982,1.6552660345,-4.85911152075,0.439972736706,-6.45044389154,-4.13641775759,22.659950255
off_to_on,-3.96633389048,-1.28429014716,-0.985393618123,1.03900192104,-1.79961910769,-2.36754517249,-5.44912253755,-1.66100045633,1.34043862107,-4.06674151777,0.387671266476,-5.78190597874,-3.02648497905,-6.36915859598
off_to_on,-2.60742487728,-0.0159773124193,-0.681277331314,0.616272936317,-2.29169348841,-1.67137351269,-0.920637378704,-0.094137034911,0.762996029848,-2.01587145956,0.463985189293,-3.53196785301,-0.919078036281,-35.5771126518
off_to_on,-0.473005546746,1.40277435006,-0.104942925219,0.149371980331,-1.89245301513,-0.156956219617,3.97622483844,1.49797517082,0.0183792943229,0.70935746879,0.566437923594,-0.308012814614,1.62611304603,-57.4018690566
off_to_on,1.82906715389,2.48897049644,0.542040266268,-0.322179532324,-0.738903173055,1.73885792038,8.07387264124,2.85175445143,-0.752047475867,3.31270242751,0.55478594485,3.01521022694,3.89395492779,-66.0049958544
off_to_on,3.63756629544,2.84928161868,1.03189393206,-0.764624393769,0.764864012482,3.38645006329,10.3830892241,3.73895408268,-1.39342658448,5.01758312733,0.311968767764,5.53425214865,5.21544283702,-58.8375467906
off_to_on,4.43047991032,2.30701429041,1.17954661622,-1.14277440266,2.07896902891,4.16852302395,10.3291639923,3.98041185377,-1.77571436261,5.29628641562,-0.199421761189,6.56387867482,5.16294379321,-37.3131358442
off_to_on,3.97669376706,0.963275513413,0.900648044134,-1.4146741259,2.70764477702,3.69644977381,7.88759848129,3.46828930334,-1.82626190412,4.02881925754,-0.906504334203,5.82414950222,3.68185596165,-6.43587673041
off_to_on,2.40186902682,-0.826750726853,0.24162703446,-1.53240969066,2.36893883402,1.96311780044,3.58986915791,2.20074691363,-1.54669179005,1.54385308381,-1.63444118239,3.51606011726,1.11845681843,26.4809719847
off_to_on,0.149651637831,-2.5555188696,-0.627821928165,-1.45088951599,1.09793889459,-0.623762947925,-1.59960088234,0.319143460257,-1.00920678992,-1.47126353674,-2.15374681534,0.26502960765,-1.86682576908,53.6403453464
off_to_on,-2.1491252348,-3.71222798731,-1.45899724699,-1.14301204114,-0.75170457791,-3.34512880918,-6.50514383835,-1.87335229293,-0.334218705553,-4.16584547487,-2.25289466117,-3.0517928674,-4.47807955198,68.6509406201
off_to_on,-3.8593048674,-3.93448193636,-1.99375650891,-0.616452377797,-2.61044797277,-5.38221092526,-10.00884504,-3.9346489895,0.342869774526,-5.76982734503,-1.81299226626,-5.54620182325,-6.00445890929,68.0190252121
off_to_on,-4.52164741809,-3.11712157994,-2.04019858039,0.0744652409552,-3.86846599113,-6.07054626786,-11.3058774855,-5.36054361988,0.90487801543,-5.81520004639,-0.859276950379,-6.56067196369,-6.01952102991,51.9096903603
off_to_on,-3.97781072366,-1.4459905981,-1.53273568158,0.827893485657,-4.06917689794,-5.11478678681,-10.0888153624,-5.70772682137,1.27610112689,-4.27045959423,0.429377282983,-5.84430513817,-4.50174278164,24.0391325986
off_to_on,-2.40528005005,0.652931585392,-0.558489610011,1.50791021383,-3.05949375045,-2.69404136572,-6.61936690747,-4.73291379363,1.42997421009,-1.54931356372,1.75877467512,-3.61495197682,-1.84125305041,-9.23513905147
off_to_on,-0.255231670494,2.63337720322,0.658987999038,1.9712381031,-1.04896002934,0.577812100566,-1.67074689945,-2.50306280153,1.38150682301,1.60808266956,2.79602284531,-0.491690427175,1.26905017794,-40.3894952329
off_to_on,1.8847410829,3.98182907855,1.81562073276,2.10152456546,1.44162832585,3.82588212336,3.6472883561,0.568206406147,1.17017649696,4.34584061477,3.2622855635,2.68170577731,4.02611659632,-62.4333220239
off_to_on,3.45985099043,4.35885633843,2.60767557508,1.84209033593,3.72714658306,6.16828288165,8.14187252518,3.78511119335,0.841653582609,5.93310187298,3.01370991893,5.07136840668,5.73707273435,-70.4616784985
off_to_on,4.09870184972,3.68827058491,2.81521298168,1.21724223967,5.15625534081,6.97156679881,10.8111495579,6.33116490792,0.435884621199,5.96514994206,2.08568538029,6.07950607883,6.00391221768,-62.7339848356
off_to_on,3.70277625308,2.16992837295,2.36435004311,0.334545306537,5.30104731449,6.02942027243,11.075097123,7.48934569044,-0.0147752315586,4.46801180132,0.686642509252,5.49917867703,4.82075231151,-41.053043272
off_to_on,2.45283163903,0.215009454851,1.35014333931,-0.634589189417,4.08181725085,3.61214973474,8.90782119385,6.85764060134,-0.478806376701,1.87899880653,-0.856967574282,3.55615116915,2.55858385135,-10.3612112241
off_to_on,0.736151760458,-1.67476082549,0.0129837113074,-1.49239853181,1.7908950819,0.376115555648,4.83864458065,4.49094492564,-0.915784173089,-1.08763260397,-2.18803627136,0.829290626322,-0.153998574593,22.3682937329
off_to_on,-0.978202804792,-3.0469612425,-1.32518900831,-2.06113068973,-0.989782708095,-2.83415700096,-0.179113237283,0.917919266803,-1.2708310482,-3.64766205507,-3.01252971307,-1.9241860128,-2.61550136275,49.7136358167
off_to_on,-2.27550343018,-3.6164307163,-2.34678956179,-2.22591660735,-3.55126095298,-5.22708784038,-4.99977048276,-2.98194595585,-1.47865448135,-5.16464747921,-3.17239195836,-3.98576529414,-4.24548835938,65.5134702359
off_to_on,-2.90194839424,-3.32870465379,-2.82204889358,-1.96227236401,-5.25162497071,-6.27463510092,-8.55964892724,-6.21156689382,-1.47818736975,-5.31578107953,-2.67765270247,-4.87153835285,-4.73148631814,66.3085242512
off_to_on,-2.81314245968,-2.35400148835,-2.66628845051,-1.34046916736,-5.68553157836,-5.8326834566,-10.1252045825,-7.93329387749,-1.23369425475,-4.16094254985,-1.69089483674,-4.45167735069,-4.08934481536,52.162227843
off_to_on,-2.15600822774,-1.01817866511,-1.95522119182,-0.505601999919,-4.78266734493,-4.14335330641,-9.45286019853,-7.70645960453,-0.754449311335,-2.10031388765,-0.471852935812,-2.96242312029,-2.62551525721,26.6394159244
off_to_on,-1.19688299424,0.304533858211,-0.895196009773,0.360763509128,-2.81115754035,-1.72953216279,-6.82222812897,-5.61218324385,-0.104383200578,0.260793730464,0.698692357245,-0.912243969216,-0.819774107812,-4.07626325347
off_to_on,-0.224084285155,1.30225922715,0.241175656664,1.086207234,-0.290230251494,0.776284052512,-2.93868749513,-2.22638486875,0.604102642792,2.29507527087,1.59185029511,1.08490606145,0.8303020129,-32.7217476057
off_to_on,0.541440920068,1.8060622399,1.19345520589,1.5473562538,2.15824071208,2.8111035054,1.26359613691,1.55057528613,1.23257953327,3.52801325813,2.07960265322,2.49588119496,1.95303746114,-52.7617857898
off_to_on,0.999628470158,1.81825990408,1.78177935884,1.69331086405,3.97457143958,4.01493279097,4.86133903801,4.75423373313,1.64975431117,3.75398161292,2.14843827029,3.01722480243,2.39177619641,-59.9882309865
off_to_on,1.17561902759,1.4840668722,1.94525195358,1.54733012462,4.79652914898,4.2858573624,7.15872098143,6.62545930336,1.76553729943,3.06415963397,1.87844737623,2.64357471041,2.21694199399,-53.4813809347
off_to_on,1.17924221191,1.02042998234,1.74072381132,1.18844692743,4.53107430929,3.75282746351,7.82548456166,6.80722776977,1.55529630623,1.78527797377,1.39950054816,1.6392540126,1.66472346637,-35.6775126232
off_to_on,1.13901085452,0.628865455639,1.30555119383,0.720749011216,3.3493105258,2.68888092763,6.9272227237,5.41265589086,1.06647340151,0.35531642664,0.84210601273,0.427640736677,1.02944136791,-11.5430846427
off_to_on,1.13745687338,0.42286395258,0.79955373119,0.241280040195,1.61395367346,1.40317021321,4.85176691994,2.95134043871,0.40544008843,-0.820359350097,0.300059530901,-0.561749878573,0.549853177946,12.8823962133
off_to_on,1.17250569061,0.394075445285,0.347600395132,-0.183089060016,-0.233612407035,0.150757324468,2.16534148082,0.146679227544,-0.291084229827,-1.48617786294,-0.184236095957,-1.03668408024,0.32887792389,32.1297832179
off_to_on,1.15897985673,0.4273703015,0.00299315365307,-0.52353057849,-1.79141224945,-0.913750393565,-0.5508624103,-2.29046911384,-0.890854603548,-1.59254380739,-0.610297648268,-0.929481241209,0.312377669546,42.6419636978
off_to_on,0.96913397131,0.35776896723,-0.25642156842,-0.781549635615,-2.78758314085,-1.7329049022,-2.83359858955,-3.8572493344,-1.29639810267,-1.27876944002,-0.993497704193,-0.401640825164,0.330833044882,43.4395073873
off_to_on,0.496620353462,0.047787153057,-0.499820308863,-0.971057904722,-3.12302029254,-2.30714528894,-4.40668296574,-4.36521487984,-1.46222563249,-0.795137230665,-1.33553796385,0.232308628128,0.185537607701,35.9694840599
off_to_on,-0.280634201727,-0.543332768309,-0.795163194284,-1.09898630789,-2.8616810987,-2.64494638498,-5.17927726962,-3.93441074868,-1.39543937091,-0.395634623535,-1.60494863446,0.6326975201,-0.254265183526,23.2702464841
off_to_on,-1.2635375332,-1.32445687266,-1.16124010078,-1.15314450499,-2.17988978185,-2.72820080321,-5.19210373282,-2.89212672655,-1.14213224996,-0.240634052468,-1.73646330529,0.568264953295,-0.980170174761,8.80330154625
off_to_on,-2.23754409476,-2.08603789141,-1.54036153095,-1.10268654305,-1.29624286158,-2.50874066457,-4.54639065176,-1.62436544552,-0.76654016048,-0.343075220605,-1.65040694515,0.00797532686403,-1.82672696911,-4.6104837286
off_to_on,-2.9233586862,-2.56033988746,-1.80474960489,-0.91122869564,-0.406131313254,-1.93641520938,-3.35121550823,-0.439358402668,-0.331494719625,-0.574968021757,-1.28533139604,-0.861530647161,-2.51544374799,-15.3887661806
off_to_on,-3.0594744485,-2.51030692788,-1.79722626296,-0.557414455837,0.360361304923,-1.00452067024,-1.71108458297,0.508877193479,0.11308547089,-0.729225033683,-0.631822522239,-1.69961268883,-2.74742267504,-23.165507954
off_to_on,-2.49159051156,-1.81835087001,-1.39350227649,-0.0544958125214,0.948839891805,0.209712965484,0.246802941562,1.21730584908,0.531218373494,-0.612398927076,0.245566959516,-2.13491367785,-2.31388686141,-28.2534923995
off_to_on,-1.23981853628,-0.544866586095,-0.564007464025,0.539520270814,1.36262499481,1.53060923908,2.32766559211,1.76498884335,0.893865125234,-0.133320853096,1.20774510647,-1.9055789957,-1.18652400387,-30.9061207032
off_to_on,0.480348093595,1.06534865353,0.588674771453,1.12644535477,1.62891523245,2.70676913115,4.24016907433,2.21829205779,1.16988326317,0.645676099763,2.06458802395,-0.966964680883,0.445132437976,-30.7697529329
off_to_on,2.29437571163,2.6348456162,1.83403764437,1.58732255871,1.7654054148,3.46800151564,5.61312335444,2.55801124685,1.32155353096,1.51502675779,2.61756366719,0.472543918523,2.205752842,-26.828255645
off_to_on,3.75635038919,3.75123092403,2.86349907842,1.81152424273,1.76145330304,3.60006975097,6.06931371414,2.66411421084,1.30891353091,2.18154545253,2.7103586828,2.00322164021,3.62999675775,-17.9174265471
off_to_on,4.46589807854,4.0835287523,3.37415904952,1.72688122625,1.58085637487,3.01330337203,5.34191722106,2.36688544387,1.10272046385,2.36886621746,2.27359476445,3.1391787202,4.29537310685,-3.61593923993
off_to_on,4.18215766186,3.48282650439,3.16205594485,1.32166030165,1.18419892125,1.78193620628,3.3955356954,1.54272927554,0.701314809768,1.92059888236,1.35095967845,3.47738599122,3.95245317411,14.8877641365
off_to_on,2.90162001465,2.03619428029,2.19528769419,0.65173539247,0.560807186932,0.139736142895,0.50308761242,0.21126871693,0.143923186963,0.86990920404,0.098823014125,2.83805097684,2.61182132138,34.4049799893
off_to_on,0.875429795357,0.055847541576,0.64176855361,-0.169110222918,-0.243700078946,-1.56907394032,-2.76254029205,-1.41334433736,-0.486734877354,-0.550637720185,-1.24180501011,1.33832980188,0.558918607645,50.1463826839
off_to_on,-1.44198600787,-1.99567896539,-1.16060124903,-0.992820937199,-1.11715376592,-2.97100415998,-5.63800332296,-2.94788549628,-1.07626342026,-1.96587536762,-2.39515446945,-0.627938341881,-1.71106010516,56.9356450703
off_to_on,-3.50187862273,-3.62460880746,-2.78592685088,-1.66800836164,-1.89491063452,-3.75455124902,-7.36116743634,-3.94325016889,-1.50329344593,-2.96624011789,-3.11120302418,-2.5014370479,-3.62211722889,50.9224646493
off_to_on,-4.79996606852,-4.43614277836,-3.83239077862,-2.07022488715,-2.39674582469,-3.74686957785,-7.39340892319,-4.03400169117,-1.67042424641,-3.23440499591,-3.22294813504,-3.72638435299,-4.67454050793,31.2239929234
off_to_on,-5.00803211413,-4.2390385816,-4.03213236073,-2.12478833426,-2.47666019585,-2.95578259001,-5.60318515421,-3.08099828125,-1.53179903959,-2.64997249168,-2.68713569796,-3.92435685294,-4.58513652358,0.858835825502
off_to_on,-4.06231267315,-3.09497496115,-3.32639441823,-1.81830805183,-2.07032263305,-1.5669517445,-2.34627682298,-1.25148060713,-1.10813847779,-1.33747542988,-1.59863790153,-3.01706235275,-3.36960581142,-33.4905154845
off_to_on,-2.18382167282,-1.29906828625,-1.8833318671,-1.19845213631,-1.22436240049,0.101968966553,1.59419988907,0.999945142478,-0.483819770342,0.359968642181,-0.174323667637,-1.25754439958,-1.34227819651,-62.9842864114
off_to_on,0.175877418863,0.702197087199,-0.0529642871795,-0.364094264594,-0.0964075502811,1.67765462957,5.20209046992,3.05183581207,0.213618237746,1.9757273537,1.29108013749,0.84189843682,0.96782408433,-79.0552189253
off_to_on,2.44952485982,2.43149682815,1.72740132394,0.550912187786,1.07671750409,2.81857507938,7.50660928052,4.30331539338,0.845423716297,3.05576598181,2.48828480543,2.66379327044,2.96134113688,-76.0519377076
off_to_on,4.09899266482,3.50500850148,3.04932532979,1.39738768614,2.03547032411,3.29263032086,7.86394447286,4.3674776413,1.29529249912,3.29441374571,3.16228810109,3.67380324743,4.13245934841,-53.240409022
off_to_on,4.75119233791,3.72579597363,3.63719484509,2.03195217719,2.5636434281,3.02729373897,6.15519089019,3.20454753088,1.49476828701,2.62760297216,3.17113190818,3.58419698254,4.20570015589,-15.44899855
off_to_on,4.28877602556,3.12156979843,3.41089791412,2.33839200246,2.54531800901,2.12159747358,2.83583924153,1.14673411791,1.43357790243,1.25400005242,2.52031654021,2.44104066631,3.20688168134,27.9593549767
off_to_on,2.87207788747,1.919220837,2.49158857902,2.24783391667,1.99607459856,0.818162444042,-1.18385315639,-1.19746252921,1.15342326404,-0.423382749565,1.36350886093,0.607824933264,1.44872505358,65.5722251154
off_to_on,0.887951575513,0.467212923067,1.15264366592,1.75515707886,1.05896742764,-0.557663108191,-4.7958785154,-3.13063582973,0.729237775747,-1.91771387847,-0.0321817791615,-1.34890391697,-0.563591687494,87.1647838332
off_to_on,-1.15867190494,-0.868477203558,-0.26588565133,0.927712628968,-0.0340464110674,-1.67728837151,-7.01335302513,-4.08483414425,0.245574732416,-2.80408987955,-1.34929383259,-2.83540021114,-2.27853115118,86.7062638393
off_to_on,-2.7793274821,-1.80297294392,-1.45144092412,-0.0980646065552,-1.02438407233,-2.28846829981,-7.25505077024,-3.79892633504,-0.223594677823,-2.84557942259,-2.29664310065,-3.41249456294,-3.25301267232,64.1908800934
off_to_on,-3.62527359628,-2.19752560771,-2.1936278491,-1.13522624662,-1.6949834045,-2.27605335537,-5.50902975614,-2.39647150034,-0.62585698269,-2.06079466885,-2.68019649624,-2.92657167917,-3.27129827354,25.6986065909
off_to_on,-3.56662840221,-2.07497558391,-2.41994443093,-1.9797175725,-1.92481645265,-1.68870882591,-2.32600669645,-0.339176276187,-0.930670889698,-0.71263783223,-2.44937278089,-1.54995423784,-2.39478448699,-18.3556720095
off_to_on,-2.70829192774,-1.58605310214,-2.18728666966,-2.45351952317,-1.71448749567,-0.723957542765,1.35387250341,1.72701055763,-1.12205353679,0.777304966753,-1.70577991089,0.279819929217,-0.930625079376,-56.2515284564
off_to_on,-1.34224280729,-0.942178536695,-1.63855893354,-2.44792206678,-1.17646136711,0.326033739979,4.48554888209,3.18040384826,-1.1894419553,1.96096245003,-0.671383560198,2.00032899737,0.66867009983,-78.3330226993
off_to_on,0.146212446638,-0.339726884058,-0.94382264349,-1.95498706666,-0.494176733411,1.15508512917,6.22586609817,3.61678978936,-1.1225765171,2.50052255303,0.375396359112,3.0983162808,1.94252462987,-79.6818937874
off_to_on,1.38864664797,0.0986493892285,-0.247908867436,-1.07652858527,0.136443893756,1.52917188989,6.16875412196,2.964527485,-0.913680176845,2.2669433679,1.17756081316,3.26244981427,2.55455703619,-61.2941364389
off_to_on,2.12788307436,0.347892318234,0.358985544076,-0.00510943186372,0.564653398549,1.35419680616,4.43983997001,1.48710111674,-0.566198182513,1.37041939698,1.56871766382,2.46844876138,2.38108209252,-29.4532349233
off_to_on,2.27124919752,0.465195682053,0.841974748134,1.02054755708,0.724195428333,0.704966581577,1.62782219905,-0.32206200228,-0.105671443885,0.115338042528,1.51318110528,0.973326446323,1.5319662307,6.4260048838
off_to_on,1.89156468981,0.545140307475,1.19951401694,1.77510150875,0.643166653977,-0.19508888787,-1.41801443656,-1.911531715,0.413447480019,-1.10338618184,1.10534561423,-0.77493696956,0.301545904629,36.7357614998
off_to_on,1.18126949934,0.665017208425,1.43324802548,2.10474699934,0.423082787709,-1.03984557342,-3.85408853573,-2.84908353261,0.910251629314,-1.92734176489,0.529430678313,-2.27976080566,-0.931273341814,54.4371036666
off_to_on,0.378799432837,0.842637992555,1.52608049446,1.96674146086,0.19573638625,-1.5342227299,-5.08619423862,-2.9444710568,1.29092655133,-2.14332278391,-0.00661861967517,-3.14333001654,-1.82011448133,56.7994767104
off_to_on,-0.306986560157,1.02337209527,1.43990201628,1.43778863861,0.0733019491417,-1.48806061922,-4.91658425843,-2.28065572214,1.47069996269,-1.73945384831,-0.340891788215,-3.17330898498,-2.148547408,45.6574679374
off_to_on,-0.750560533605,1.10155702801,1.13474295861,0.687962602973,0.108751038683,-0.880694349593,-3.55646734397,-1.15089974087,1.39770211945,-0.893087874219,-0.407640080526,-2.41928271085,-1.87955454395,26.2409224075
off_to_on,-0.9274820284,0.968009062911,0.600732034821,-0.0722832222306,0.279550479916,0.125616186839,-1.51236888396,0.0673497439927,1.07070572514,0.101857876017,-0.251271752699,-1.13391405795,-1.1459528913,5.09933373603
off_to_on,-0.895495788745,0.564958800985,-0.112617253283,-0.655584876971,0.499296416126,1.229994568,0.604444620239,1.05044903617,0.544149533595,0.940409782404,-0.000297503815284,0.321666475135,-0.190442263693,-12.1019788165
off_to_on,-0.750976374688,-0.0738560751146,-0.885717773181,-0.951422086593,0.652257867229,2.08322346607,2.27484097371,1.62671971363,-0.0821794657866,1.40716753191,0.188573945656,1.59248397565,0.720388254454,-22.1650816986
off_to_on,-0.580240118729,-0.815570440642,-1.54636967363,-0.9528907954,0.638066841272,2.39670611458,3.20866735186,1.80208192436,-0.686349412921,1.4376429512,0.195298824687,2.42562440105,1.37728124151,-24.8600787677
off_to_on,-0.425240652603,-1.4592846086,-1.91398284979,-0.748100492216,0.410603087633,2.03560757099,3.38245281739,1.71093209756,-1.15359032848,1.12114515344,-0.0139139364136,2.71912921967,1.67842361164,-22.3088235185
off_to_on,-0.275980580293,-1.7978806553,-1.85777967862,-0.47976039211,-0.00250126267688,1.06564697388,2.97814037606,1.51998653988,-1.40293883736,0.64770136569,-0.371106137679,2.51491494669,1.63547758736,-17.6234484433
off_to_on,-0.090486990855,-1.69052127988,-1.34881324614,-0.287489364857,-0.506281724953,-0.26262546511,2.25956827203,1.33067270155,-1.40352070358,0.221789774836,-0.731527954576,1.94754085462,1.33965479337,-13.4099012458
off_to_on,0.168219272927,-1.12032731794,-0.485400160808,-0.253495989045,-0.968167020453,-1.58797698288,1.44388418588,1.12465588624,-1.17644601157,-0.0226878543068,-0.930289672186,1.17530233115,0.90644138478,-10.7397097763
off_to_on,0.495788714707,-0.215099195924,0.520929185448,-0.371244904148,-1.26033278401,-2.54759311891,0.622389071637,0.777800147106,-0.78317565905,-0.0729439037152,-0.84966473553,0.323619196887,0.424186857088,-8.95757653345
off_to_on,0.828491604678,0.779615610022,1.39888336217,-0.548733306793,-1.29986958378,-2.88587361969,-0.238812070413,0.137936737647,-0.305497412077,-0.0337059507057,-0.471228355514,-0.537703089403,-0.071774040747,-6.32954045611
off_to_on,1.05399425755,1.56990773456,1.89613892582,-0.645704161727,-1.07313506485,-2.5277482163,-1.22373478921,-0.866885445093,0.175600430057,-0.0709491016557,0.108186077328,-1.37829349658,-0.589932578715,-1.19152422793
off_to_on,1.04984118865,1.90507979473,1.85911831883,-0.531780691647,-0.63665005806,-1.59345928195,-2.35560587254,-2.13889159374,0.595512342771,-0.325329715825,0.704784961985,-2.16500488812,-1.14472246209,6.93595700627
off_to_on,0.736622633722,1.66215410877,1.28728048053,-0.14450782551,-0.0954578174488,-0.351802687744,-3.50609214088,-3.38528017708,0.912416216212,-0.83057559815,1.11187332216,-2.81870752754,-1.70966820774,16.7735437128
off_to_on,0.125240008434,0.894520490512,0.342127942968,0.474414353882,0.432155833985,0.870251084793,-4.37485875848,-4.17975428505,1.10490040148,-1.47189147844,1.17707186123,-3.19653894736,-2.18663572101,25.5232453176
off_to_on,-0.662409965614,-0.173846028152,-0.69494533318,1.17938573495,0.850201994429,1.78927146256,-4.56220424212,-4.09957373902,1.16465170222,-2.0057430739,0.863861590175,-3.11593157392,-2.41108378439,29.8552073556
off_to_on,-1.41209828802,-1.21015679209,-1.50518187721,1.75985300984,1.10803516734,2.243485384,-3.71840266733,-2.89438910992,1.08949783211,-2.13970786712,0.272995134442,-2.41872793963,-2.19903841648,27.2584512635
off_to_on,-1.87450352683,-1.87370887352,-1.83073359379,2.00649434475,1.20359292662,2.22232098337,-1.71756400723,-0.624843401406,0.881097080214,-1.6474150628,-0.386846364221,-1.05467148886,-1.42344564225,17.209953578
off_to_on,-1.84567012049,-1.92528335854,-1.55779143762,1.7831158716,1.16765461374,1.84119387113,1.21422729549,2.28723091365,0.548642536994,-0.477645491627,-0.871186876782,0.848888998924,-0.0925510102723,1.66953186207
off_to_on,-1.24491947236,-1.31005289549,-0.757369125209,1.07984236858,1.03762857242,1.27590107114,4.478527298,5.12908072407,0.116425359244,1.18525546372,-0.990109293677,2.96464147613,1.60274812199,-15.3422973525
off_to_on,-0.162294699867,-0.18587736924,0.330756006519,0.0286230349015,0.833577916154,0.685514815225,7.2204383762,7.07948812669,-0.369452323973,2.93880526012,-0.683940696817,4.81095626326,3.29888462,-28.975647934
off_to_on,1.14485924985,1.11483700243,1.36766248696,-1.12588276197,0.548170414269,0.155649881168,8.56113590464,7.45421999186,-0.840348606637,4.261427807,-0.0548813892627,5.86363293729,4.53537904926,-35.1670490768
off_to_on,2.31125196073,2.180759306,2.01802604717,-2.09234702152,0.15623785772,-0.315705849835,7.88122093676,5.93838118545,-1.21349028651,4.66810878399,0.660173315349,5.70709299284,4.88143230869,-32.0541814189
off_to_on,2.96556843375,2.64707483403,2.05458736196,-2.61577279339,-0.35912848353,-0.786160841704,5.06227135002,2.72707496167,-1.40901783067,3.87538921953,1.16943397819,4.18021377803,4.07761766113,-20.662725764
off_to_on,2.84607323669,2.3125349283,1.43180773263,-2.55170486265,-0.975119850239,-1.30713306761,0.597811626394,-1.48000930016,-1.3712925512,1.92082727482,1.23261402426,1.46753188164,2.14654411559,-4.59685673485
off_to_on,1.89387375099,1.21113428115,0.305307054695,-1.90855950804,-1.60764419606,-1.86225478778,-4.4794258476,-5.64033889721,-1.08759764548,-0.807357572083,0.756490681923,-1.90146274272,-0.568927543028,11.1723687047
off_to_on,0.291993390223,-0.385624328404,-1.00975555249,-0.845144160346,-2.11296283602,-2.3371387203,-8.84974190588,-8.6467666024,-0.597352533817,-3.6485169346,-0.156171278869,-5.15648034573,-3.46181990012,21.994491338
off_to_on,-1.56673894583,-2.0390695802,-2.12941534168,0.375332418248,-2.31807112997,-2.53963360207,-11.2734038927,-9.64280120504,0.0124151889907,-5.83982714626,-1.22540560387,-7.47364498587,-5.80460554312,25.0995778967
off_to_on,-3.17862882438,-3.26713722758,-2.71370367867,1.45991034749,-2.07425520142,-2.26869721922,-10.9642526336,-8.27989184356,0.62520660835,-6.7319863864,-2.07847506141,-8.19736226629,-6.94424086825,20.4714190553
off_to_on,-4.06921489881,-3.68552608883,-2.56773363616,2.16589427118,-1.31779361021,-1.40816559272,-7.85198507683,-4.8360460439,1.12208800345,-5.9864993184,-2.37426226026,-7.03369785162,-6.49317581826,10.7248497142
off_to_on,-3.9344053047,-3.12412279139,-1.70091548529,2.36220271229,-0.116060814476,-0.0078793102271,-2.6436477934,-0.155559775292,1.40983862176,-3.69304919798,-1.92626916339,-4.15619306806,-4.45793075516,0.0419036325623
off_to_on,-2.73988954259,-1.68337722049,-0.326887646313,2.05495491524,1.32097204337,1.6849668073,3.3456356557,4.57624895655,1.44198093116,-0.367415966327,-0.781081389716,-0.187642933275,-1.26243835209,-7.4348055232
off_to_on,-0.746615858692,0.287033086086,1.19545562779,1.37222540879,2.67446624188,3.2658257271,8.55059220558,8.15873597923,1.22682828239,3.17443385869,0.777555252766,3.94370864167,2.3466476381,-9.15596303346
off_to_on,1.5488759776,2.28177698093,2.46211454787,0.515852625337,3.59187559606,4.27999161351,11.5989056688,9.70641145202,0.820980252241,6.03288492251,2.30461471215,7.23816328498,5.49009472638,-5.09280090124
off_to_on,3.54517256054,3.77869291837,3.13590557575,-0.30220030976,3.78490860751,4.36618920987,11.7059576539,8.88702130536,0.311350876057,7.47043635132,3.32801850412,8.88568903392,7.38943551316,2.30409567286
off_to_on,4.70175433414,4.38255218065,3.03804998378,-0.918108251738,3.12162083803,3.38846214948,8.89968474487,5.9985243993,-0.207839011412,7.11543569733,3.49888748633,8.48140295452,7.57687320086,9.09896622724
off_to_on,4.69217541177,3.93233486791,2.19409697137,-1.25188777111,1.68264595705,1.50761152179,4.00527568624,1.86563861418,-0.655770074994,5.06429125466,2.70859058573,6.13426621658,6.02087283791,11.4507306332
off_to_on,3.49951754449,2.5418743999,0.822723006641,-1.31228424386,-0.239813988852,-0.839114152715,-1.60603480969,-2.40879871622,-0.977817839555,1.85253648401,1.13299548201,2.43764712596,3.13099704652,7.19282252914
off_to_on,1.42518616754,0.563784461022,-0.727449401144,-1.17344385682,-2.2051964965,-3.05110151402,-6.42591396106,-5.75980867274,-1.14834794131,-1.69609372864,-0.812451065711,-1.69030762067,-0.35879345893,-3.17860197252
off_to_on,-0.992649911396,-1.51084799071,-2.07350165989,-0.934990981519,-3.73563956283,-4.53851843129,-9.24824415038,-7.44818343847,-1.16531499479,-4.69764272867,-2.59405008469,-5.25144010895,-3.59331461349,-16.4911797633
off_to_on,-3.12796554394,-3.18633826053,-2.89872503315,-0.681419048179,-4.44457930508,-4.90245722342,-9.50307553817,-7.23727110187,-1.04118258569,-6.44618074195,-3.71958051804,-7.42852423653,-5.82583981668,-27.8928570203
off_to_on,-4.44006445601,-4.09075679603,-3.03050634338,-0.45518114577,-4.14537620778,-4.06100082479,-7.38480431454,-5.4130419041,-0.795243660494,-6.59405976318,-3.88564596153,-7.78975807651,-6.60794059571,-32.5308284063
off_to_on,-4.62074058925,-4.06319646868,-2.47594984342,-0.251516443941,-2.90685094283,-2.27715191895,-3.74150648118,-2.65182453983,-0.450752830559,-5.22487227286,-3.06588178299,-6.381677963,-5.88697728165,-27.3359919482
off_to_on,-3.67299055421,-3.17830503196,-1.40839886493,-0.0344338103109,-1.03766974024,-0.0767350656011,0.230522275895,0.213624452638,-0.0372225451818,-2.80295849434,-1.51274452977,-3.68858223158,-3.98806605922,-12.2874445501
off_to_on,-1.89948416981,-1.7060107406,-0.111849550004,0.234449675441,0.997220605706,1.91819780875,3.38153581166,2.45095677858,0.404826758698,-0.0201692529752,0.326082299789,-0.475387888034,-1.49268032977,9.30031074899
off_to_on,0.193914314871,-0.0233329167703,1.09885166719,0.566728458336,2.70410926771,3.18542925954,4.96131647872,3.62740255102,0.821073154255,2.41015788912,1.94805627572,2.4363292374,0.943791889193,31.5993657541
off_to_on,2.0490515313,1.49226830674,1.95898247733,0.929672075717,3.69435658227,3.46221406877,4.81750486713,3.69452279719,1.1465306196,3.94904497906,2.946691259,4.39215040471,2.77742700799,47.9613185416
off_to_on,3.21465285832,2.55586916842,2.31461695503,1.2475421704,3.78495840739,2.81467403111,3.38177156097,2.9423353597,1.31614921376,4.36114861119,3.12485160566,5.06464154353,3.70892204199,52.9530760778
off_to_on,3.46627520948,3.02962141181,2.1488313083,1.42186065316,3.03674018461,1.59429515223,1.45959093789,1.84991987082,1.28095060698,3.74438657731,2.53628802293,4.50725901109,3.72929602204,44.0932741633
off_to_on,2.85283518881,2.92845879981,1.56983132436,1.36385669383,1.72071591395,0.298345766964,-0.0945032536531,0.89144682034,1.02474456416,2.45900525076,1.44614798173,3.09392744504,3.07270578411,22.7418313216
off_to_on,1.65904327926,2.38283315887,0.768005237141,1.02801223448,0.225590566857,-0.615152036771,-0.697709120482,0.367079860522,0.575200017187,0.985871595724,0.228207038708,1.37051172977,2.10063927166,-6.13756024825
off_to_on,0.299379791496,1.57707792016,-0.0433379521163,0.435183367865,-1.06265521931,-0.891274922453,-0.242321817759,0.314970803969,0.00418212413656,-0.236435418669,-0.763467964146,-0.130430441213,1.16181306833,-35.2736524435
off_to_on,-0.82000029414,0.687311126006,-0.685771503873,-0.322865505737,-1.87049916527,-0.562017446734,0.887536920751,0.529167272022,-0.584478342278,-0.942908968747,-1.3043097852,-1.05190138564,0.476540221278,-57.0573662375
off_to_on,-1.42632800291,-0.160490809251,-1.0564744387,-1.09980973359,-2.10235502664,0.0798001873707,1.98733506243,0.670057083528,-1.07738927608,-1.10246846933,-1.3552005878,-1.30250491127,0.0824987437142,-65.6112801807
off_to_on,-1.45302981468,-0.901681596771,-1.14254450927,-1.72790565738,-1.84406630163,0.606441920645,2.32586480109,0.42215898298,-1.37814313367,-0.89333097597,-1.04970094751,-1.05049324764,-0.144584706372,-58.3751502867
off_to_on,-1.03942224377,-1.51564540189,-1.00791825104,-2.05892433276,-1.30788206638,0.634235712947,1.45199371522,-0.360845810719,-1.43030132948,-0.607817111349,-0.622195790115,-0.629975265977,-0.408523690312,-36.7837883203
off_to_on,-0.461095346158,-1.99306641242,-0.75983823563,-2.00179825217,-0.741693301094,-0.0111762779717,-0.599410945174,-1.57752549074,-1.23006764238,-0.523503367429,-0.306574471916,-0.395631057736,-0.882676633445,-5.88427421504
off_to_on,-0.017625460637,-2.30581982857,-0.507114376014,-1.54704099922,-0.336233260727,-1.20611989297,-3.28039488157,-2.89539588216,-0.825160533338,-0.78719596342,-0.243760214249,-0.577874681238,-1.61494180384,26.9662478018
off_to_on,0.0822130658464,-2.39516773749,-0.323794821819,-0.771770555435,-0.162929387847,-2.55259705384,-5.69610234444,-3.85752605224,-0.300785113374,-1.35221956861,-0.43125780087,-1.18872605742,-2.48384489085,53.9478887654
off_to_on,-0.202297528789,-2.18538601042,-0.229145082419,0.175687915305,-0.162746010687,-3.50989322369,-6.90963590501,-4.04199474573,0.242451085472,-1.99039148591,-0.731263622522,-2.01057288603,-3.22308550593,68.6817787589
off_to_on,-0.7305228242,-1.61860574461,-0.189038944345,1.10759671686,-0.187215798228,-3.58998868367,-6.28065164311,-3.21872026135,0.711718963107,-2.37429867693,-0.93207023243,-2.67161016641,-3.50752406944,67.7227889625
off_to_on,-1.23514977812,-0.696886696513,-0.136828173527,1.83727410424,-0.0737889712533,-2.54816928807,-3.71874108672,-1.44896561406,1.03966176667,-2.20156480655,-0.838371439402,-2.78234497339,-3.0718421648,51.3081788624
off_to_on,-1.42521176918,0.486912537005,-0.00560825626019,2.2188954328,0.274595468893,-0.499750868942,0.240020460185,0.907871226373,1.1925987603,-1.31838035088,-0.3562722976,-2.08669171759,-1.82119024079,23.2285181496
off_to_on,-1.1009923678,1.74526720885,0.239650816251,2.17788822241,0.836902290745,2.08213274015,4.56563501491,3.28459475275,1.16892117096,0.200790868199,0.45854443613,-0.575604578433,0.105160084331,-10.1045214411
off_to_on,-0.239957618566,2.82600993783,0.581398145287,1.72563276001,1.46920252772,4.49237507762,8.03714695595,5.06601041912,0.990695783425,2.04669457508,1.40729945152,1.47728583996,2.34154386562,-41.1491958306
off_to_on,0.977529654681,3.47104841644,0.947696726284,0.955785845261,1.95056266726,6.00540601059,9.6190388952,5.76797923986,0.693234218363,3.7479418988,2.20739121824,3.57362469598,4.37677704825,-62.9372419144
off_to_on,2.21359131313,3.48761354547,1.23060572397,0.0234954663524,2.06343521125,6.10427127183,8.78843433007,5.17970898119,0.317001407839,4.80320437271,2.58408897274,5.12709985228,5.68663570519,-70.6189569785
off_to_on,3.07592275555,2.80998596632,1.31938955529,-0.88770539268,1.67914543592,4.65208478679,5.70608377153,3.42563357482,-0.0959237725628,4.83355653126,2.36327494542,5.63820919092,5.87978451142,-62.5257912786
off_to_on,3.24524909277,1.5310768465,1.13817024235,-1.6040852413,0.816532600468,1.94900603703,1.17545838864,0.929247299036,-0.501493646565,3.70792707759,1.53392416091,4.85290382828,4.81418157581,-40.5306260222
off_to_on,2.58495400467,-0.108292563653,0.675846380656,-1.9967979685,-0.349054675194,-1.34468907447,-3.59624339358,-1.70791221457,-0.852361650448,1.60156934125,0.259690954998,2.85476843109,2.64927354605,-9.62847057648
off_to_on,1.19597897813,-1.77175937596,-0.00183882179711,-2.00644327921,-1.53161998467,-4.39527619552,-7.35729770062,-3.87335612715,-1.09912962585,-1.03302016682,-1.16377890323,0.0602038584796,-0.182077288603,23.1805589136
off_to_on,-0.602199958893,-3.10783431522,-0.762867459501,-1.65204368383,-2.42072576485,-6.43283874171,-9.17566302381,-5.10564559085,-1.19644246616,-3.57713340579,-2.39147564817,-2.88429161935,-3.07485506372,50.4738541953
off_to_on,-2.35951900398,-3.83594051272,-1.43997216647,-1.02289904321,-2.7788100263,-6.96514294252,-8.69431599831,-5.20427451029,-1.1135628749,-5.40838739021,-3.12502269635,-5.27352808075,-5.39861684754,66.1098503185
off_to_on,-3.62465269577,-3.81383987406,-1.87351533329,-0.255715747136,-2.51603093693,-5.90388796737,-6.20240288357,-4.25893195543,-0.846246253413,-6.06841773522,-3.19248336681,-6.53340529849,-6.64980436006,66.6615885862
off_to_on,-4.07483527412,-3.06794974738,-1.9538090916,0.49717109385,-1.71674007679,-3.56926214917,-2.50877845925,-2.59590359974,-0.425050319079,-5.38732703445,-2.58909756878,-6.37331704536,-6.56933729817,52.2301777028
off_to_on,-3.60557082473,-1.77939181513,-1.65050712354,1.10065420038,-0.608700684613,-0.578483172407,1.33166344159,-0.664603259087,0.0844705502066,-3.5289720947,-1.46958010013,-4.85727486382,-5.19612774571,26.4189225037
off_to_on,-2.35328895545,-0.231806340514,-1.02061410864,1.46295995176,0.513591900049,2.34033024595,4.34400014749,1.09649354176,0.591861658058,-0.944447037559,-0.0980387685943,-2.37510409343,-2.84578603149,-4.55147943436
off_to_on,-0.646274470875,1.26224863372,-0.193193387572,1.54925301807,1.3839878107,4.54760667204,5.90566629274,2.37247309008,1.00071031976,1.75188747891,1.2262550077,0.474407128264,-0.0243712273988,-33.3838402015
off_to_on,1.09757490511,2.43444516856,0.66411209702,1.38060544202,1.84449593675,5.64503371321,5.88367147918,3.03179465458,1.23150801254,3.94698542757,2.2437350006,3.05046737111,2.69641260221,-53.5143562592
off_to_on,2.49130145485,3.11352900434,1.38638573788,1.02030151763,1.88226595979,5.54208205309,4.60505770694,3.12164305455,1.24157325705,5.18631009175,2.7891818989,4.83600265199,4.80811717019,-60.7165134869
off_to_on,3.27886316977,3.24603498132,1.84843857285,0.55279541794,1.61232822192,4.42834953067,2.68627924239,2.80894670711,1.03565541789,5.27916125744,2.81411133383,5.55399258446,5.96622467609,-54.0681064716
off_to_on,3.38491048699,2.8840973213,1.98757173196,0.0621802630811,1.21498027072,2.67446331593,0.791960811849,2.29382310628,0.663680035648,4.32460116541,2.37631097101,5.2045675564,6.04119672361,-36.0231659726
off_to_on,2.90365696251,2.1498010329,1.80746262582,-0.383699879262,0.8536443619,0.703857799022,-0.588761489659,1.72869850466,0.206320461075,2.65538471675,1.60587377169,4.01994540108,5.11431080157,-11.5865135276
off_to_on,2.03773845923,1.19156541,1.36500071688,-0.740053489646,0.606236499132,-1.11946912976,-1.27382923026,1.17129290534,-0.246857380274,0.722289797568,0.662441494858,2.36067764071,3.42832049469,13.1488126283
off_to_on,1.01447678415,0.148175639902,0.74721716479,-0.983071696837,0.437748737119,-2.55531527563,-1.3917739327,0.585508860855,-0.619551858672,-1.04163638866,-0.301987845723,0.59371845099,1.31375562054,32.6558593455
off_to_on,0.012623260229,-0.869311420495,0.047770051821,-1.10245813859,0.225649192168,-3.49452021952,-1.26943261212,-0.11376007119,-0.864265145935,-2.3334997113,-1.16545068577,-1.00492621252,-0.885205696966,43.329102933
off_to_on,-0.874267306524,-1.77614313501,-0.648957438362,-1.09368833318,-0.171290846189,-3.9226413698,-1.25668044058,-0.991628201704,-0.967014529557,-3.03657696623,-1.84173361023,-2.29301835878,-2.86611777054,44.1623207496
off_to_on,-1.62825128157,-2.49970317081,-1.27252592826,-0.954567453667,-0.828177923906,-3.86788504384,-1.55992337674,-2.0281562773,-0.941166747566,-3.20775919206,-2.27417936152,-3.24327530454,-4.3960101598,36.6039677883
off_to_on,-2.26132241104,-2.96446330997,-1.76187456302,-0.688122894965,-1.68873491934,-3.36228811743,-2.14797165997,-3.08398480915,-0.814348128547,-3.00850939816,-2.42593147779,-3.88020863346,-5.3143808343,23.7203503226
off_to_on,-2.75893904427,-3.08782369769,-2.05799590991,-0.310401610338,-2.54982661553,-2.43402229158,-2.7631979949,-3.91301747105,-0.614672162122,-2.61068443467,-2.27456889309,-4.20680797023,-5.52326900938,9.01806753012
off_to_on,-3.04269661444,-2.79342894306,-2.10175180843,0.14120755034,-3.10862477453,-1.13086170475,-3.0298355335,-4.22261967478,-0.362224690828,-2.11615156716,-1.8153555252,-4.15839020914,-4.97917976899,-4.63378093162
off_to_on,-2.97422527419,-2.04027154923,-1.84238131235,0.604636574292,-3.06174542496,0.441784211024,-2.6151923484,-3.76548820109,-0.0690067052681,-1.52234808091,-1.07208761568,-3.60898639667,-3.69767187637,-15.615021146
off_to_on,-2.40480423831,-0.857688093102,-1.2569169471,0.998983285389,-2.22447565025,2.09331918854,-1.38117839924,-2.43564337058,0.253512136531,-0.747126279502,-0.109958902879,-2.43290172903,-1.77224069487,-23.540387842
off_to_on,-1.25453435548,0.628573323682,-0.37448078811,1.24032525053,-0.627288160212,3.55281330206,0.531395890257,-0.33742650075,0.583755628315,0.297920847369,0.957267989607,-0.59901728924,0.601539198701,-28.7221142352
off_to_on,0.410675056492,2.1935716385,0.705104741688,1.26401682449,1.44915824997,4.5149184988,2.71770007755,2.19792301352,0.882603405977,1.61713742996,1.97246260585,1.74231723421,3.11330048112,-31.4241844823
off_to_on,2.34000388958,3.54193068306,1.809620323,1.04653768962,3.52095699993,4.71761302573,4.61884867477,4.66005875308,1.0944690846,3.06429862251,2.75561739301,4.22292099172,5.35426601005,-31.3032241259
off_to_on,4.12206887889,4.36639215533,2.7168609613,0.618838889425,5.0232089637,4.02734613616,5.68959895574,6.4659468674,1.15879817874,4.33461289073,3.13739720104,6.29998449643,6.87329841239,-27.3431837387
off_to_on,5.27683644427,4.42372590136,3.20055796732,0.0650308883815,5.47429866054,2.50087064988,5.5674807429,7.10197417877,1.0293307841,5.02969965444,2.99869932618,7.38062827692,7.26959529621,-18.3665171517
off_to_on,5.39368079943,3.60778036422,3.09017522816,-0.495256084759,4.6319041068,0.398392359566,4.18822652809,6.266718015,0.694586911296,4.78227361242,2.30620710678,6.99825289767,6.30320997038,-3.93086757093
off_to_on,4.2737964192,1.99742613118,2.32791217713,-0.936910449627,2.58948131624,-1.86213754122,1.8120619301,3.97581823792,0.191455857311,3.40179768957,1.13369047434,4.9868858165,3.99229175942,14.790852264
off_to_on,2.02794406994,-0.138027311622,1.00408343806,-1.16314997245,-0.221913429598,-3.80020316266,-1.04430601076,0.596841577086,-0.394692771249,0.988802595382,-0.338594289309,1.59216339262,0.662413611708,34.6045142788
off_to_on,-0.909849825207,-2.38270612674,-0.643867714684,-1.13249774433,-3.13309086651,-4.99115002512,-3.74531577521,-3.20251610081,-0.945691628135,-2.03005315873,-1.84926469949,-2.52898994708,-3.0785867508,50.6837144163
off_to_on,-3.86760284558,-4.26052126196,-2.27384498779,-0.869966973354,-5.41224183536,-5.17348068246,-5.69964847435,-6.58835672879,-1.3388316139,-4.97176226103,-3.10294332118,-6.43625984723,-6.44808302261,57.7835739446
off_to_on,-6.10293561179,-5.3445927542,-3.51575314179,-0.45839608791,-6.46640048769,-4.3139136939,-6.50106710056,-8.75014749304,-1.47968640346,-7.0632410731,-3.83059663743,-9.13711922494,-8.66162872613,51.9674206876
off_to_on,-7.00757211474,-5.36253772176,-4.06368203446,-0.0124169484677,-6.00919709411,-2.61237896864,-6.01103823103,-9.10232732672,-1.32928926507,-7.66123936372,-3.85048802638,-9.86060114285,-9.13147767692,32.2728925473
off_to_on,-6.2880476098,-4.26985242977,-3.75855397406,0.356558592952,-4.14432748088,-0.447564166251,-4.36854819739,-7.44702601695,-0.916737272345,-6.45997056982,-3.11566844602,-8.293381934,-7.63703297528,1.67442717281
off_to_on,-4.06552641163,-2.27075233728,-2.63709692309,0.572824533736,-1.33920860413,1.7191377023,-1.93514460168,-4.05237265499,-0.332754930108,-3.61787069906,-1.73556069161,-4.7028427162,-4.41503927791,-33.131804714
off_to_on,-0.860051266545,0.221103263961,-0.931424697091,0.615681946756,1.70360677737,3.45293087632,0.800549424637,0.38109434961,0.294134372028,0.244874017572,0.0360662599348,0.0986633468336,-0.13522173311,-63.2270416259
off_to_on,2.54087199584,2.67405969391,0.982876055137,0.519508281332,4.23901201184,4.43885603966,3.32902622566,4.86625496789,0.831541500685,4.18842159434,1.84727118665,4.94804394789,4.24251517884,-79.9122383662
off_to_on,5.29361474735,4.56038849989,2.67748357749,0.355318479894,5.67908612892,4.53752499436,5.21174763719,8.35799508598,1.17678640594,7.20122493623,3.32058157857,8.63528216562,7.69867924351,-77.382501501
off_to_on,6.72848531345,5.47874593284,3.77684830087,0.201055033695,5.7422952107,3.79501202675,6.14469170728,10.0105425421,1.28004566335,8.48407069783,4.13704316642,10.2321809972,9.41375631175,-54.7703215758
off_to_on,6.53065825817,5.24678352444,4.04996059786,0.11173379404,4.51123793055,2.41197153158,5.99130038902,9.39766588057,1.15078489978,7.68499366237,4.1121368395,9.35047081353,8.98546647802,-16.8309190699
off_to_on,4.81869980305,3.94101517713,3.46375928035,0.100402167196,2.3867133417,0.686447808897,4.79007158856,6.63520156554,0.846958869236,5.01112558204,3.24409038794,6.25198437492,6.54067732084,27.0595373877
off_to_on,2.09869358997,1.874476605,2.18460289377,0.136678672858,-0.0428416708121,-1.0519988353,2.74350092439,2.36800950993,0.452131570272,1.17906876343,1.72040107971,1.77620632964,2.70667090691,65.3863567009
off_to_on,-0.890035520958,-0.481492156603,0.529016854697,0.162966414839,-2.17349790864,-2.50192113521,0.191837771583,-2.38162746586,0.0492311764333,-2.7854399035,-0.121853334087,-2.89532864922,-1.55383699671,87.7564634559
off_to_on,-3.38904731108,-2.6110286434,-1.12103863992,0.121735395082,-3.54692976925,-3.43455150786,-2.42918033817,-6.46905080154,-0.300074558275,-5.84052013654,-1.87431734345,-6.56931466175,-5.19957233388,87.948048652
off_to_on,-4.82939589782,-4.07425457958,-2.4140263579,-0.0169510439579,-3.95490204537,-3.72082380149,-4.64889174741,-8.92018992585,-0.564357575645,-7.22575809208,-3.15563905339,-8.3686977831,-7.38727463201,65.7927971641
off_to_on,-4.97335039942,-4.60473244507,-3.10978992303,-0.238634398519,-3.46214723574,-3.34242350434,-6.03927366391,-9.1835965228,-0.738677210839,-6.67387558326,-3.70442855918,-7.96264030331,-7.68907016036,27.2812155463
off_to_on,-3.95087695179,-4.16084041454,-3.12547841125,-0.48533368196,-2.34937403707,-2.38936833649,-6.3003822205,-7.27146252056,-0.831976238611,-4.4721920223,-3.44174127357,-5.63307365936,-6.18885208668,-17.1635622962
off_to_on,-2.18667015644,-2.92050556464,-2.53756231804,-0.674334575893,-1.00221756397,-1.0453537041,-5.33595742145,-3.74897410481,-0.852605188042,-1.35662023958,-2.48546807858,-2.16270274875,-3.43194177726,-55.7177010437
off_to_on,-0.247461308125,-1.22351092394,-1.5439752541,-0.728240717219,0.214095047887,0.439359013849,-3.2967914566,0.426318470577,-0.799069844921,1.72638323323,-1.11220476415,1.41650754231,-0.24636080983,-78.5556721188
off_to_on,1.33781473558,0.521278243973,-0.401004606383,-0.605148578499,1.0544074414,1.78745539994,-0.572370558788,4.17038495727,-0.660294762271,3.91322846605,0.322679582459,4.13419319926,2.50764403745,-80.5702179711
off_to_on,2.22751227568,1.93834430489,0.645136436025,-0.317459781734,1.4402083972,2.74363455672,2.27732104525,6.56831208799,-0.425182263926,4.67888819618,1.48357994778,5.35620661552,4.18268451471,-62.5997510451
off_to_on,2.34270802961,2.77110663745,1.4131756708,0.0681763400715,1.44582743737,3.12591527163,4.64081682345,7.11520096222,-0.0968803520221,3.97559597676,2.14288195479,4.9420333392,4.51056021884,-30.8418638687
off_to_on,1.85181768997,2.93012557995,1.81563329102,0.45042542027,1.23743827506,2.86785551685,5.9986578683,5.83422341359,0.295266024344,2.21456327844,2.23311188835,3.24344663678,3.64317102985,5.28412790683
off_to_on,1.07823326518,2.49447348829,1.85843891488,0.72574477975,0.992098167764,2.0392374602,6.05389123042,3.24053826559,0.692610460425,0.10242068612,1.84856749841,0.953859481962,2.06220455086,36.0825984804
off_to_on,0.368755610375,1.66985914169,1.61697247854,0.822302296753,0.827558172058,0.836086929309,4.81197888912,0.166040738502,1.0162030065,-1.60901545202,1.19803127112,-1.13606046102,0.393451945647,54.3729447156
off_to_on,-0.0296489529823,0.718436244423,1.20001833926,0.723182903355,0.766320283123,-0.461560681624,2.58455604688,-2.49868738379,1.18634859559,-2.3744051595,0.525763809048,-2.3943050126,-0.809443126669,57.2710143691
off_to_on,-0.0440210454977,-0.118148409388,0.714519772898,0.470543124825,0.742819075067,-1.55607772308,-0.0874257252229,-4.06526476159,1.14673259831,-2.02487906135,0.0279283877768,-2.53343752825,-1.23995900533,46.4875235592
off_to_on,0.220270930698,-0.680619613163,0.241204249814,0.149305735745,0.646312964722,-2.20632241819,-2.57196056783,-4.23279823181,0.884774076817,-0.802994670914,-0.207517945336,-1.67173005355,-0.917264174467,27.1877674573
off_to_on,0.540309340846,-0.922833011896,-0.174324724773,-0.143524385305,0.379851503951,-2.28888299483,-4.30785227026,-3.14504958751,0.44059656743,0.743892381638,-0.218021906558,-0.257909940461,-0.147629018799,5.92627491204
off_to_on,0.674702580961,-0.90543898293,-0.516361546307,-0.332584936379,-0.0885577776102,-1.82840137512,-4.94502187142,-1.30866906012,-0.099384721295,1.97056708609,-0.136486346085,1.10725217152,0.61191576829,-11.5670368844
off_to_on,0.462882345418,-0.75765054646,-0.785430412492,-0.388533363924,-0.701892908247,-0.987363420765,-4.42447763753,0.594457808119,-0.623061768691,2.36727767609,-0.126566862137,1.88747451524,0.935961872479,-21.9952861797
off_to_on,-0.110811619942,-0.621407734084,-0.98348252115,-0.334260830381,-1.32539478136,-0.017742047107,-2.97724282227,1.93586583891,-1.02133009088,1.73876385511,-0.307847238944,1.79169088128,0.593670989364,-25.0266519606
off_to_on,-0.90900358008,-0.596686483747,-1.10408565605,-0.231007310855,-1.78817515389,0.811502828214,-1.04549312505,2.33545617178,-1.21599835318,0.269155895124,-0.699055099951,0.860985030428,-0.364222198293,-22.7058086696
off_to_on,-1.68901884588,-0.705400364449,-1.13067619721,-0.150064751703,-1.9395733114,1.2897075038,0.848582416633,1.76271867689,-1.1783345344,-1.54641890097,-1.20096544148,-0.561912071501,-1.62281939269,-18.1090189325
off_to_on,-2.18704585413,-0.88487242028,-1.04241580915,-0.141255791748,-1.70024338839,1.3205685867,2.24687997664,0.517760171446,-0.932939935724,-3.07658225376,-1.6263071121,-1.96376153867,-2.71633281914,-13.8499127599
off_to_on,-2.2080071886,-1.01228038639,-0.824503495919,-0.210661305631,-1.09074548705,0.943212071239,2.87155770166,-0.893750141415,-0.54664486694,-3.77226215655,-1.76686781297,-2.84306283925,-3.19563557778,-11.040799493
off_to_on,-1.69051633181,-0.951714198333,-0.47868903653,-0.316611532275,-0.228916511251,0.313427793622,2.68283811176,-1.94376847882,-0.107021748663,-3.35335817516,-1.47417288173,-2.87948208863,-2.79069660643,-9.0823781025
off_to_on,-0.726840633742,-0.608422551236,-0.0302398375429,-0.38600034172,0.701865046656,-0.347775644248,1.86649783371,-2.25915778663,0.301836177053,-1.90097982715,-0.724568308796,-2.03441666002,-1.51165889697,-6.29330287001
off_to_on,0.465715592086,0.0274965599972,0.470831522214,-0.345106476706,1.50213372304,-0.821908622569,0.75967547232,-1.73521260491,0.618431927157,0.17310021216,0.355659007916,-0.553000939859,0.345264369859,-1.04521088789
off_to_on,1.60936497108,0.862668318566,0.954663516375,-0.153266217608,2.00743299989,-0.956856717187,-0.259829505211,-0.55276148459,0.812628743539,2.26540616804,1.51594304747,1.12724309321,2.28753635507,7.12791469825
off_to_on,2.44329629213,1.71452657793,1.34153761675,0.173822087986,2.12601225209,-0.709065479981,-0.887362255893,0.89931014443,0.883069349232,3.77753162635,2.45113818712,2.52482997171,3.77969835659,16.9528593065
off_to_on,2.78945014958,2.35548185544,1.55517973129,0.560990233,1.85390020799,-0.153536276306,-0.976442367453,2.16284625921,0.846494316539,4.30270598341,2.893111464,3.26671311028,4.40806844376,25.6496397037
off_to_on,2.58884985387,2.57563658472,1.53733754668,0.893322794087,1.26620993001,0.539365292613,-0.573019856591,2.85954471823,0.724812156066,3.74084951417,2.6942659757,3.19398399084,4.00264675961,29.9094419355
off_to_on,1.90253369681,2.24658763297,1.26151487939,1.0529234186,0.490846464863,1.15247613005,0.108201716827,2.8006563323,0.535848061955,2.3083194089,1.87552795516,2.38984729568,2.67885471877,27.2389569672
off_to_on,0.883097119409,1.36780123968,0.74355302999,0.960364965881,-0.325060357725,1.48213421851,0.756892909202,2.02574289986,0.29135540183,0.446316047696,0.623204319567,1.1278347148,0.790268929041,17.1271784897
off_to_on,-0.269326213379,0.0811906900824,0.0464833021888,0.606184619295,-1.04566070534,1.39472117784,1.06850609451,0.766404888283,0.00217994310592,-1.33380540194,-0.763855686351,-0.234255786672,-1.18661779809,1.54162950628
off_to_on,-1.35132683963,-1.35222114153,-0.722906909667,0.0607201787462,-1.56695244503,0.865833310395,0.845679016856,-0.643144725392,-0.313007647797,-2.61122833482,-1.95915961341,-1.37281291636,-2.79380428559,-15.4909597798
off_to_on,-2.18970427275,-2.609512955,-1.4275503995,-0.542220738979,-1.82561345407,-0.00704271844692,0.0710596914796,-1.87158355642,-0.620806359482,-3.16777085795,-2.69808747435,-2.08724458436,-3.7125488242,-29.1142634418
off_to_on,-2.66045531958,-3.38354881133,-1.92347023475,-1.04340741735,-1.79876446174,-1.02167131027,-1.07053060144,-2.67509744802,-0.872803083425,-3.0185452371,-2.84433894369,-2.33226494144,-3.82812372474,-35.2592358822
off_to_on,-2.69620904668,-3.46167644282,-2.09004426952,-1.30592315151,-1.49949847024,-1.91529435291,-2.23056827353,-2.93792402474,-1.01394336769,-2.36039831209,-2.41466106628,-2.19044284113,-3.22578860675,-32.0627149148
off_to_on,-2.28818198872,-2.78488444819,-1.86110895802,-1.25705382422,-0.972367816836,-2.42760130035,-2.99035424467,-2.66622602048,-0.997770005335,-1.46734039115,-1.5579567422,-1.80475482571,-2.1300041724,-20.5590811202
off_to_on,-1.48739067711,-1.47111811906,-1.2487437472,-0.910585238746,-0.290308809109,-2.36948319381,-2.98816122113,-1.95110064512,-0.803442042084,-0.579039657494,-0.499911344688,-1.30434859602,-0.816693808634,-4.37365015114
off_to_on,-0.405369305909,0.204908002147,-0.351580877482,-0.362254158014,0.448684679425,-1.68169443105,-2.04624474453,-0.925332494472,-0.448026229788,0.173456164114,0.525671266797,-0.756032907301,0.466809916565,11.4905329754
off_to_on,0.790143350322,1.87214274166,0.657768088379,0.23997943748,1.12872369562,-0.467334389818,-0.259096986089,0.265128429728,0.0113418250672,0.77962065609,1.33575459911,-0.160133776907,1.54826082613,22.3472754827
off_to_on,1.89114174254,3.15014461171,1.56637255465,0.74090008416,1.6301403337,1.01440744985,1.99017199044,1.46726611688,0.487539624617,1.30173404027,1.83044495668,0.511614910351,2.33527679768,25.3984796388
off_to_on,2.68111540054,3.74147851146,2.16956414124,1.02350835209,1.85086328452,2.39805964294,4.10196076787,2.51291567689,0.883619279033,1.79571886963,1.9936920562,1.2577945706,2.78903970161,20.6194204687
off_to_on,2.98044598208,3.50630361654,2.32273457276,1.04051073543,1.73133917524,3.29889714271,5.41270188053,3.21524357503,1.11721778614,2.24142972094,1.86921375387,1.99998341814,2.88961343892,10.6443731346
off_to_on,2.69544591423,2.49960499548,1.98199291969,0.822439983209,1.27585439346,3.41871840644,5.39280034524,3.38806996826,1.14170817615,2.51839516908,1.52649711941,2.57375744515,2.61622330173,-0.296691911733
off_to_on,1.85548797078,0.960439604208,1.22090838019,0.461092417642,0.561984673356,2.64250531866,3.83435458552,2.89445729702,0.957535378614,2.44256872468,1.03285956233,2.76915505845,1.95538141125,-7.99378004735
off_to_on,0.622532997418,-0.745384835557,0.216431857142,0.0751742953369,-0.268011737537,1.09542173485,0.966784498173,1.71284671214,0.610418638561,1.85201636671,0.442010544478,2.40972549872,0.933214686849,-9.8280542411
off_to_on,-0.736176972498,-2.21560556838,-0.794202891159,-0.229418940832,-1.03505956139,-0.863698445202,-2.54839793501,-0.00681054950478,0.177439071438,0.705980293336,-0.19984407639,1.44039465333,-0.346627768998,-5.72017671167
off_to_on,-1.90996569845,-3.1120931952,-1.57483945536,-0.391196655965,-1.56523541282,-2.7202676044,-5.76078216042,-1.92959069255,-0.254108668407,-0.847717655669,-0.838313576138,-0.0133782246641,-1.68454164082,1.89240199384
off_to_on,-2.62611982057,-3.24562916976,-1.95298968109,-0.406619402354,-1.73516260809,-3.93950854722,-7.68662150569,-3.58745723347,-0.608202879063,-2.47293674271,-1.39820180445,-1.64544987676,-2.8055276927,9.04011603405
off_to_on,-2.72686522674,-2.62222935498,-1.8653246837,-0.322459270467,-1.50758166789,-4.12500705549,-7.61021455919,-4.49595292597,-0.835492391899,-3.72436763182,-1.78502905077,-3.03783931905,-3.42246213054,11.8047879592
off_to_on,-2.21665107855,-1.43812122234,-1.37218693214,-0.211337965874,-0.945452610362,-3.15290131074,-5.33974852519,-4.30712738304,-0.918843827897,-4.18540493006,-1.90468780116,-3.78234022568,-3.32599384345,7.9166423791
off_to_on,-1.26221496238,-0.0241487167521,-0.636338446683,-0.140391876413,-0.198572656071,-1.23572280439,-1.32864669903,-2.94851905223,-0.869040186963,-3.61869716615,-1.69578965425,-3.61638593307,-2.46958949352,-2.23066159916
off_to_on,-0.142688675012,1.24566433276,0.127844663468,-0.144826707552,0.535228322948,1.11292861597,3.3937680441,-0.693207414685,-0.714034220311,-2.07348997819,-1.16169499393,-2.52519301652,-1.0143891613,-15.5373399721
off_to_on,0.836039208736,2.05634880339,0.719153060179,-0.215708557606,1.0642330708,3.2124105102,7.48242088946,1.87747601369,-0.486949430237,0.0951162263725,-0.387035145446,-0.770059844859,0.690942952913,-27.170995301
off_to_on,1.43543510144,2.23643618391,1.00812802469,-0.305737657463,1.25691746956,4.41448181088,9.66446717491,4.02263677937,-0.217628153101,2.31097677335,0.471948413294,1.17393711743,2.19815635183,-32.236054325
off_to_on,1.55553100882,1.80059198218,0.97112650092,-0.350081030063,1.07980790464,4.30953212854,9.14281397433,5.06503466882,0.0697430144715,3.94485630674,1.22421397229,2.75641050876,3.09215876182,-27.565902892
off_to_on,1.25873101574,0.938104840579,0.689404563796,-0.293999991478,0.607236280266,2.87279558103,5.88589808466,4.61955558457,0.353511094096,4.51301704485,1.69772362638,3.52380947599,3.12596847575,-13.0109764047
off_to_on,0.737643278753,-0.0494352917088,0.314153119869,-0.116825526655,-0.000727722853223,0.497494781936,0.699159670676,2.74722490051,0.609141167515,3.83960725195,1.7921287815,3.26824124157,2.3100173026,8.2405748232
off_to_on,0.237992591622,-0.842818481114,0.00962623879112,0.156551231279,-0.546286814546,-2.10500951357,-4.96406124251,-0.0270754790476,0.805756880909,2.12500317442,1.51094272061,2.10090182757,0.920269783213,30.4507589679
off_to_on,-0.0360001281162,-1.20381779214,-0.10623007263,0.460816086894,-0.853913515948,-4.11512029592,-9.41225400788,-2.85264845076,0.907941610979,-0.107681194448,0.960165432172,0.421637200245,-0.583785936599,46.9995369219
off_to_on,0.000565944352159,-1.04765721423,-0.0034074409629,0.710142341907,-0.824390376878,-4.86339946382,-11.2302052442,-4.81276188692,0.883584117861,-2.17453692401,0.312243186308,-1.20914954839,-1.70832468136,52.4118162519
off_to_on,0.281276176307,-0.466838244377,0.250552335188,0.825868415202,-0.466376331647,-4.05524866141,-9.73905662738,-5.22623559751,0.715525185456,-3.44989843466,-0.252703942332,-2.25601842193,-2.0929140927,44.1040892384
off_to_on,0.615150426638,0.301477385121,0.516399122061,0.762391763524,0.104506933078,-1.8854996457,-5.24951123777,-3.88990626147,0.412515901842,-3.56989216162,-0.607361583711,-2.3898702278,-1.63855368678,23.3005247949
off_to_on,0.763705834349,0.954816936688,0.635797692819,0.522570093607,0.699396876703,1.0012789939,0.986167404739,-1.17442332846,0.014520302975,-2.55137421391,-0.71701052835,-1.60286905865,-0.548723835786,-5.16903941015
off_to_on,0.540908566769,1.22684583356,0.492749562911,0.157716306223,1.11311867652,3.69977736334,7.12442725869,2.06885491381,-0.411029120994,-0.784659950026,-0.643462482875,-0.215417623972,0.735263546529,-34.1306975804
off_to_on,-0.101009304238,0.978751439361,0.062491653492,-0.247412058268,1.18755733477,5.32699170734,11.2848843773,4.76903406676,-0.782321002472,1.09909934973,-0.511364232658,1.23045989339,1.6865480467,-56.011924962
off_to_on,-1.03327060227,0.250868424012,-0.569630117031,-0.599285191597,0.862513777335,5.30993005495,12.139041858,5.98470805566,-1.02244052261,2.44218548268,-0.449670482417,2.15804785724,1.88249459088,-64.903479484
off_to_on,-1.97723521511,-0.74315500324,-1.22704362417,-0.821688090681,0.198553277812,3.58310473405,9.34452584621,5.22615773011,-1.079175947,2.78413537973,-0.531231893422,2.16123048773,1.16615259137,-58.1555211475
off_to_on,-2.59050658544,-1.67939072718,-1.6938072903,-0.874991479594,-0.635524725542,0.627325194376,3.67918260405,2.6398924775,-0.93914915015,2.01908890045,-0.735034769968,1.15790396858,-0.279372453597,-37.0806627629
off_to_on,-2.58504393012,-2.22525780188,-1.78353661506,-0.763141465864,-1.40760413005,-2.66816615649,-3.17745359624,-1.01280168238,-0.631709534361,0.432720776353,-0.947692647258,-0.563264569486,-1.97428842045,-6.60345403318
off_to_on,-1.83695641148,-2.14827072147,-1.40344750867,-0.527312853422,-1.88703869239,-5.27989246534,-9.15400225858,-4.58385061329,-0.221305446802,-1.39451226784,-1.00600149024,-2.4229518573,-3.29384065478,26.0114594174
off_to_on,-0.448610543621,-1.39731391049,-0.59259271289,-0.229618405002,-1.91090956918,-6.3739790185,-12.4302063011,-6.90313649385,0.209229561255,-2.78569292818,-0.766147728233,-3.73600089101,-3.68071645143,52.9860928908
off_to_on,1.26144781289,-0.129694470538,0.478847174925,0.066774214066,-1.43283110694,-5.57461217196,-12.0080086206,-7.16174725145,0.579205341005,-3.20062666265,-0.17368426957,-3.94267991355,-2.84736883504,67.9267404588
off_to_on,2.84135256584,1.32624044722,1.55033355943,0.314214515566,-0.540320009741,-3.08872452506,-8.025898477,-5.18625153446,0.828197439485,-2.4251674226,0.69372331088,-2.81053130757,-0.898090545898,67.3252656421
off_to_on,3.83737466192,2.56303993556,2.34051337364,0.488812105521,0.564355114704,0.354952458924,-1.71349520614,-1.51059778852,0.926750406207,-0.652553396891,1.63029279192,-0.538158382467,1.67462638632,51.3273195136
off_to_on,3.93272095324,3.21345858607,2.62538432625,0.588829778147,1.61469042936,3.73329947481,4.9997337954,2.78134767055,0.877491154494,1.57124840981,2.35600927512,2.27764513827,4.12399232258,23.6275735438
off_to_on,3.04902844352,3.06099731473,2.30231310345,0.625470724979,2.34806230099,6.04862097507,10.0945641291,6.39324332647,0.707845768902,3.52082810283,2.60507027071,4.80658391955,5.67410649023,-9.44018700789
off_to_on,1.37746398392,2.10782969761,1.4214370117,0.610965489909,2.57308681545,6.63672051266,12.092561516,8.22408822679,0.458182744351,4.52658196087,2.21975299258,6.23368794969,5.7660053811,-40.3790678792
off_to_on,-0.671058957217,0.579144993221,0.175681115691,0.549510415791,2.21847291041,5.36405629694,10.5034459484,7.71338003322,0.170179391667,4.19503659844,1.21668439156,6.01623626085,4.24550851102,-62.2273833625
off_to_on,-2.58107029476,-1.13766366477,-1.14739688701,0.43508692249,1.3510459595,2.65289385464,5.94809845989,5.01194733398,-0.120717779854,2.54264816723,-0.199664296321,4.06813348225,1.43106054016,-70.1077892848
off_to_on,-3.87709327625,-2.60075352837,-2.23813380299,0.257133756329,0.159143964082,-0.668697460449,-0.0751389764127,0.925432564861,-0.387190514021,7.82920321321e-05,-1.68430134961,0.811929066592,-1.96263663548,-62.3004125716
off_to_on,-4.25310439623,-3.43635691769,-2.84170294742,0.0116260488844,-1.09329748249,-3.63745254006,-5.69520636294,-3.34698972384,-0.607448667104,-2.71399154846,-2.84731402809,-2.9214857432,-5.02381059391,-40.6163372594
off_to_on,-3.64869322732,-3.44004783282,-2.81929331733,-0.287376957293,-2.12947070266,-5.4537994881,-9.27130720887,-6.58944360337,-0.761212522247,-4.80893763329,-3.36836225082,-6.1190274783,-6.90551799275,-9.99072361421
off_to_on,-2.25201505553,-2.62795971588,-2.17868733891,-0.601273263112,-2.72327250902,-5.71130130563,-9.89410720363,-7.93730603458,-0.82775990841,-5.66002612499,-3.09356503805,-7.87231792378,-7.07076351227,22.6247423947
off_to_on,-0.43340111145,-1.22494049447,-1.06831673342,-0.86957796572,-2.74865146862,-4.48676813119,-7.62587240134,-7.11923190983,-0.788268666893,-4.99461360058,-2.08347208169,-7.64128285732,-5.44720386972,49.8385717336
off_to_on,1.36544545052,0.404242657168,0.261450494867,-1.02254490904,-2.20421844973,-2.27148044422,-3.41344408964,-4.50235083291,-0.632349962947,-2.97123775344,-0.596598816835,-5.41678416749,-2.44650594325,65.5201988736
off_to_on,2.7502313993,1.85812985468,1.51832759118,-1.00083904441,-1.20929484959,0.221593008645,1.27978371103,-0.937589272968,-0.366271698406,-0.130560706714,0.986042413465,-1.7341519169,1.15472025408,66.2329771333
off_to_on,3.46562118538,2.80497443503,2.43402269985,-0.776345752339,0.0255955499852,2.3003368585,4.98452268075,2.53238568975,-0.018967564942,2.7634506715,2.27104677604,2.46696804646,4.43406262141,52.0488474864
off_to_on,3.43686924676,3.0622959588,2.82094464942,-0.367055366565,1.24552110437,3.50039912485,6.69953106814,4.99915423782,0.35782862118,4.94179814145,2.96246728992,6.09661492896,6.57603934119,26.5256696832
off_to_on,2.75742027251,2.62970900257,2.60837747604,0.159824856085,2.20427206268,3.69065246357,6.17200475241,5.94142049197,0.697104612443,5.84279829603,2.9377814382,8.2102998433,7.08516012565,-4.17172781026
off_to_on,1.63596032314,1.67046139245,1.85249381465,0.699076702169,2.71291899974,3.05297589155,3.90323137959,5.33059280956,0.930698709421,5.25838338737,2.26860394312,8.26357731719,5.90151867034,-32.8035305955
off_to_on,0.326956188808,0.452386903708,0.720465463753,1.13113505759,2.67507273671,1.95936128319,0.898310958097,3.57053023916,1.00629679392,3.3767936367,1.1834863792,6.25533504738,3.39270459177,-52.853409661
off_to_on,-0.930753022262,-0.730549943646,-0.546305260563,1.35223564009,2.10346383339,0.804510625076,-1.7332819151,1.3103948548,0.902077361336,0.715881528936,-0.0112947869403,2.72213664745,0.232818590828,-60.1205368048
off_to_on,-1.951224145,-1.63207182394,-1.68179696576,1.30260568025,1.11603367302,-0.137254797758,-3.17424924552,-0.7915105546,0.634141518985,-2.02785898389,-1.02490961716,-1.41199174589,-2.78976825292,-53.6774147679
off_to_on,-2.61154717212,-2.10352664978,-2.4485084015,0.984316693863,-0.0870773249575,-0.778446297222,-3.15265866187,-2.26706819788,0.253995453292,-4.16827817245,-1.65904421013,-5.08637110479,-4.97820361988,-35.9387839778
off_to_on,-2.84375113354,-2.1107093088,-2.68488473916,0.463101775344,-1.26164781025,-1.19169283335,-1.97273446676,-2.9383627099,-0.163481912491,-5.20393761989,-1.84694064892,-7.38494184523,-5.89079414195,-11.8417537139
off_to_on,-2.62318358243,-1.71961217244,-2.33882837063,-0.146995135332,-2.16651090394,-1.51341284224,-0.330719053501,-2.89950955106,-0.538087879903,-4.93377501088,-1.64721884358,-7.77176496304,-5.42430947687,12.602444262
off_to_on,-1.96579022687,-1.06181329668,-1.48093700459,-0.712194120473,-2.61197763779,-1.82958637927,0.998091019615,-2.40734126583,-0.802997109645,-3.48932647859,-1.20101556265,-6.2193196661,-3.80479383734,31.9424105368
do_nothing,-0.937963424135,-0.293763041201,-0.293850801432,-1.11282587727,-2.50079607523,-2.10054522696,1.47290471885,-1.73874763888,-0.918733109398,-1.28233019061,-0.672118991981,-3.19895712353,-1.49962484497,42.6207948064
do_nothing,0.328157746485,0.437681432513,0.962159523979,-1.27284431082,-1.85294806799,-2.16234060724,0.98164199406,-1.07751318089,-0.878820444283,1.11240950252,-0.192834269186,0.459329077258,0.917067420128,43.6366158744
do_nothing,1.62848714866,1.01681117068,2.00263558561,-1.1766727771,-0.807306364284,-1.80668277165,-0.150994617719,-0.472973182775,-0.706428086351,3.10542207562,0.167019422987,3.79624416834,2.90664407996,36.3961139724
do_nothing,2.7045247223,1.36764222222,2.58191788115,-0.868901048899,0.403065948373,-0.904608344742,-1.33248830563,0.12309776336,-0.444236762125,4.23477787176,0.401522125478,5.97802619937,4.08140371274,23.8849825892
do_nothing,3.29114085999,1.45414005696,2.55246344561,-0.437589404634,1.49961291056,0.483539819076,-1.97078379269,0.770498023499,-0.141658160538,4.2696648181,0.545947621509,6.50874746709,4.27119319629,9.51188753619
do_nothing,3.18763249097,1.27787632852,1.90600174301,0.0130933636584,2.22224122956,2.06763079243,-1.72882204444,1.45503463761,0.156216793313,3.25436340672,0.643735970092,5.34571281733,3.53440248001,-3.94183062748
do_nothing,2.3316861267,0.87663609987,0.784302746276,0.392070504465,2.39433447863,3.38657794846,-0.662697451429,2.05020509836,0.41492625453,1.48619856962,0.718848634333,2.89101731628,2.11995910648,-14.9078190329
do_nothing,0.848644135287,0.323469929913,-0.546614892501,0.643350703344,1.97204238444,3.95567690857,0.808698361357,2.34910051852,0.611515423351,-0.564514322868,0.764616881864,-0.134120416321,0.39558624209,-23.0008453945
do_nothing,-0.948521029694,-0.27769663474,-1.75613507184,0.75450583048,1.06286431328,3.45245548389,2.08512933642,2.15529546649,0.731602200774,-2.37267982078,0.751586567569,-2.89489684238,-1.2391258092,-28.4809310974
do_nothing,-2.61953953131,-0.804508003654,-2.53029133598,0.750101706131,-0.0948908252895,1.86944973284,2.63946468093,1.39195297423,0.765604787462,-3.48741471758,0.648141307842,-4.67097682923,-2.43719521823,-31.5232965847
do_nothing,-3.70825713818,-1.13865528536,-2.65488072108,0.673748208985,-1.19003007182,-0.431855710824,2.23902184347,0.176532529356,0.707012622529,-3.64227253309,0.44250648901,-5.04536073888,-2.97186395626,-31.6865865274
do_nothing,-3.87597024765,-1.19533941256,-2.07795726933,0.566264647558,-1.92091232289,-2.79905232049,1.04286491746,-1.18005414815,0.554153662782,-2.82079643515,0.15503359605,-4.00446474532,-2.77698129956,-27.8779873904
do_nothing,-3.01549403333,-0.951535685907,-0.932684866189,0.448572495424,-2.08080615444,-4.48367745089,-0.464258411496,-2.26043661497,0.31481344404,-1.26074418065,-0.165055575299,-1.92487369353,-1.95404445439,-18.8880483367
do_nothing,-1.3060148568,-0.462233211485,0.489027485448,0.315909677596,-1.6214315222,-4.89177269982,-1.67363331981,-2.6872474186,0.0112323307214,0.606027625385,-0.456627146999,0.546571878,-0.744518783674,-4.29627683248
do_nothing,0.815753599359,0.144521655896,1.80843585535,0.145489540256,-0.674109465082,-3.80299122385,-2.10676636012,-2.27396723079,-0.317731259499,2.26541297294,-0.668955805827,2.68373401776,0.528307725503,14.657806503
do_nothing,2.76703766573,0.696893259452,2.66031272418,-0.085617509855,0.481027457226,-1.47620371679,-1.61713828558,-1.11799384136,-0.619763151564,3.25794857615,-0.778643649033,3.88862637463,1.53732737661,34.6928568547
do_nothing,3.98448281493,1.02731133834,2.7950840417,-0.379873797373,1.49219070119,1.40453151895,-0.455341270607,0.407851180141,-0.838129818061,3.30544836195,-0.79308489032,3.85701356651,2.03301013732,50.9057816557
do_nothing,4.09491556012,1.02572914254,2.15367464902,-0.704997577096,2.0391146429,3.93485033217,0.831577619858,1.77149392781,-0.924724584659,2.39217394977,-0.739018959488,2.65623915825,1.90844564133,58.0129093909
do_nothing,3.03741367083,0.6803679525,0.892013794129,-0.993232134082,1.93229363826,5.28247939341,1.62830513468,2.46887244322,-0.853345724633,0.775379053786,-0.642171785713,0.694602888087,1.22966065879,52.0904944154
do_nothing,1.09509553846,0.0902009329297,-0.65455398855,-1.15661198155,1.17740345588,4.96957775426,1.51574820892,2.21489591856,-0.628814603588,-1.08156673333,-0.508824191182,-1.40732326922,0.219923580469,32.235796303
do_nothing,-1.17808775744,-0.558470880195,-2.05966666589,-1.11460491352,-0.0171400197473,3.04672759966,0.463463637136,1.0646805393,-0.288538379834,-2.63812038796,-0.319954496805,-3.00491643254,-0.801371991747,1.5069190009
do_nothing,-3.11715819697,-1.04711118206,-2.92399063485,-0.825296158399,-1.29506591597,0.0944610547061,-1.13218257477,-0.585955734293,0.104579851104,-3.43272069228,-0.0431401312107,-3.62163628121,-1.51096822351,-33.3249375167
do_nothing,-4.14549597622,-1.19582115607,-2.98991383365,-0.308912433578,-2.25582529665,-2.95387933487,-2.58654168215,-2.1283316716,0.476193911554,-3.22087104809,0.341189985163,-3.08846534348,-1.6797366485,-63.305770955
do_nothing,-3.95233754389,-0.927007979108,-2.2193837198,0.345972194646,-2.57697018167,-5.11248087872,-3.19387428563,-2.95611135868,0.757574532569,-2.05269846819,0.810574053988,-1.58969314513,-1.24665033104,-79.7590996397
do_nothing,-2.59193273014,-0.299327862716,-0.810852451296,0.998033089673,-2.11792738896,-5.66742631356,-2.52169844204,-2.69171856816,0.900792492768,-0.263894267558,1.28350379318,0.398040640385,-0.343899183425,-76.9577591226
do_nothing,-0.471362486747,0.502120220106,0.851665465692,1.48788133142,-0.97179953191,-4.41584682867,-0.61568568682,-1.3399497901,0.887867999817,1.62039199609,1.62683116254,2.25454592689,0.738030297123,-54.1433040196
do_nothing,1.77124874299,1.21925723629,2.30461100337,1.68232714213,0.553260929562,-1.73819556134,1.97132765993,0.691699984294,0.73181364577,3.04184391082,1.69094166907,3.40729168293,1.63781453248,-16.173365841
do_nothing,3.46145531819,1.60293206342,3.1364598888,1.51472233683,2.0200578986,1.52205817934,4.34774808454,2.71939966699,0.470150251738,3.57850516466,1.3641901126,3.506625557,2.0380236694,27.5197081255
do_nothing,4.09571592571,1.49722878639,3.1069130056,1.00825963834,2.99126402786,4.33190675571,5.59513026631,4.01572421981,0.153724382333,3.07472710109,0.627997869758,2.53136432851,1.771178595,65.4384319633
do_nothing,3.49602294478,0.897662674459,2.21841262639,0.273936992038,3.16235325239,5.80429805487,5.11234013894,4.0680107102,-0.1652742744,1.68975187703,-0.40986357438,0.79239681851,0.881847082477,87.2843746827
do_nothing,1.86303922091,-0.037983644,0.71801485275,-0.517277897951,2.45720471469,5.48391596839,2.86386316922,2.76973800479,-0.442602914015,-0.151806562394,-1.5215387519,-1.16660611872,-0.377915613115,86.985352269
do_nothing,-0.289109989339,-1.03244269313,-0.972101333655,-1.18027840395,1.05572125795,3.48902617335,-0.564928822138,0.474173477024,-0.646668086181,-1.8930144946,-2.41012184154,-2.74030112817,-1.62148275205,64.5341245576
do_nothing,-2.29561171066,-1.77371647228,-2.37597218267,-1.56592231129,-0.656412633665,0.464415333069,-4.13458898668,-2.11235938965,-0.758810133329,-3.01928408894,-2.79439013774,-3.45101835473,-2.4479259895,26.0420880907
do_nothing,-3.54946486248,-2.01538829828,-3.10171688989,-1.6001762592,-2.20130388849,-2.63578970732,-6.68885311838,-4.16306289083,-0.771006140705,-3.2186082245,-2.50199942454,-3.0969123243,-2.57189754661,-18.0301184859
do_nothing,-3.68943986111,-1.65967353644,-2.95517813612,-1.30055640543,-3.15102787728,-4.86034462604,-7.34722108514,-5.00908977974,-0.683447002806,-2.47550550848,-1.53947541534,-1.81233933648,-1.92061788406,-55.9245377739
do_nothing,-2.70813181127,-0.794884952608,-1.99537406562,-0.765475333349,-3.25432620169,-5.56325651187,-5.81505895955,-4.36668715345,-0.50383502748,-1.06831234133,-0.111844686795,-0.0215664136688,-0.66482171246,-77.9736840389
do_nothing,-0.946703774563,0.32675268723,-0.514987791607,-0.140853623971,-2.50843387351,-4.59757023908,-2.50030253381,-2.43356291608,-0.248761613955,0.528666986699,1.42043797568,1.69923077225,0.828630451271,-79.2797625157
do_nothing,1.02051836077,1.36551359304,1.04838032249,0.42447770981,-1.1540258758,-2.34094123212,1.60711123087,0.178932210589,0.0541165210977,1.80501796236,2.63899167215,2.80745817917,2.10910297962,-60.8830383644
do_nothing,2.57316329958,2.00112777778,2.243480605,0.819903548354,0.404211484403,0.448840267346,5.25384180699,2.65331132241,0.365392904429,2.38231140922,3.19170910403,2.96760025942,2.78420888212,-29.1155474095
do_nothing,3.24264847705,2.03581169712,2.73947779619,0.99788853381,1.72519691212,2.89388572722,7.33123748565,4.239828991,0.636871380872,2.13414711603,2.9046506173,2.15700808949,2.64557487727,6.57855721874
do_nothing,2.85711267255,1.45940865581,2.42217252366,0.975975683583,2.46597552792,4.28144144861,7.233657463,4.50114366034,0.819020770461,1.21843856324,1.84408031109,0.669984263229,1.73691426627,36.5996067132
do_nothing,1.58782005108,0.454562979729,1.42333493101,0.817548305153,2.48030380922,4.27981387534,5.04619893288,3.44415190564,0.871802886041,0.0123334963942,0.305536436394,-0.981045184208,0.341401003186,53.9598300752
do_nothing,-0.116036196739,-0.660661835658,0.0747209744575,0.600296994836,1.85090226916,3.01810444278,1.50142641797,1.4967936139,0.775930266144,-1.02650638204,-1.2700419956,-2.23517066028,-1.10828134848,56.0123786957
do_nothing,-1.6808331796,-1.53464859227,-1.19836812248,0.385129658952,0.847237955799,1.01147554011,-2.2749973837,-0.656907022481,0.540744056376,-1.52345394792,-2.42886272261,-2.66830484733,-2.16827782676,44.6842183776
do_nothing,-2.59873360293,-1.8955823859,-2.01042187952,0.197245664703,-0.174691101074,-1.03415256139,-5.13843602172,-2.32097259544,0.205455361683,-1.31828952259,-2.84415390921,-2.13376253692,-2.52520264828,25.2765304568
do_nothing,-2.59195186413,-1.63919484767,-2.13417344601,0.0257427953805,-0.895356107262,-2.46608201153,-6.29009331128,-3.02254536283,-0.167622188969,-0.518924099942,-2.41822818886,-0.812065948083,-2.09476310186,4.36357836446
do_nothing,-1.69794109837,-0.86198012426,-1.56729583445,-0.159488647734,-1.13560533554,-2.8938143919,-5.51159897809,-2.65628234112,-0.506630199651,0.540765715137,-1.31284284966,0.846712622406,-1.04521871168,-12.4234441429
do_nothing,-0.249133357677,0.171190212391,-0.52699667562,-0.381801723767,-0.907118326053,-2.2962282244,-3.19792785308,-1.49196160698,-0.746934194787,1.42375595123,0.103147743987,2.2698601302,0.261599451393,-21.9739691251
do_nothing,1.24414005824,1.11452040652,0.624888426213,-0.634645700309,-0.394036580304,-0.998330784548,-0.18901032426,-0.0498539326779,-0.846283455786,1.75002011438,1.37277558537,2.95084940062,1.39172676173,-24.1762448415
do_nothing,2.2672799143,1.65509505357,1.50163367468,-0.872072278595,0.125703384018,0.465732217251,2.53161060402,1.10459111333,-0.793920861714,1.33768944658,2.09830540234,2.61886511339,1.98245060308,-21.2686030386
do_nothing,2.47338785657,1.61561465104,1.81738141607,-1.01832312021,0.390192243852,1.54994582453,4.16206518704,1.56874354878,-0.611104468432,0.275489769838,2.06891348276,1.33370204781,1.86016762524,-16.4457365464
do_nothing,1.79681712826,1.0123163359,1.47844536468,-0.994186869342,0.255044465974,1.88402684979,4.32171241527,1.23836182876,-0.343267078618,-1.09950203438,1.32680913544,-0.525501339612,1.0940825475,-12.340256273
do_nothing,0.471664580253,0.0491527529988,0.611039404589,-0.750693026364,-0.249537633783,1.38935216819,3.13238905254,0.325600546204,-0.0466802950523,-2.31203549853,0.150053030842,-2.37520718783,-0.0312826268296,-9.98933656768
do_nothing,-1.04954606181,-0.949676486243,-0.482970283132,-0.296985154143,-0.926430008621,0.289211259146,1.12813937421,-0.740671493555,0.225933186113,-2.90973604456,-1.0421771425,-3.61031241519,-1.11474534064,-8.65499842486
do_nothing,-2.248743347,-1.64650488078,-1.42732173322,0.289558013738,-1.48155313075,-0.983324810092,-0.960553692203,-1.48944772709,0.436418646968,-2.62042614816,-1.83045158403,-3.79719487711,-1.77479846909,-6.49791772019
do_nothing,-2.71529219364,-1.80117599431,-1.89621893962,0.876984917887,-1.63190035507,-1.94308385854,-2.46369179101,-1.58904123675,0.565979639433,-1.45225128831,-1.93541017295,-2.8157881419,-1.77801745604,-1.7557729957
do_nothing,-2.28171373011,-1.34994547467,-1.72189051381,1.31372001746,-1.21396559233,-2.22016824875,-2.97983765384,-0.968330015706,0.613341947586,0.297618406404,-1.31113606248,-0.905423748239,-1.11703287039,6.11769049037
do_nothing,-1.07785920702,-0.426777248731,-0.949795871615,1.4742366774,-0.254412822649,-1.68175736986,-2.47146657883,0.163827161877,0.588302536943,2.12932840471,-0.160846843122,1.40063521038,-0.0126673441571,15.8665753522
do_nothing,0.513254633019,0.67951269915,0.176287621674,1.30029967952,1.02262315149,-0.471471845415,-1.22937115446,1.40317374982,0.50412311042,3.49383072223,1.1300373435,3.43224616271,1.15989385056,24.6759952704
do_nothing,1.98213800594,1.61790849777,1.29404372618,0.823318375199,2.25593999581,1.04178081212,0.265118367945,2.30263470487,0.372206091028,3.96379784047,2.12110782623,4.58288342979,1.99603085024,29.1735434396
do_nothing,2.85935667789,2.08732847118,2.04082171613,0.159257201878,3.05692838883,2.38448813463,1.51998024761,2.53400931097,0.20107702526,3.36713684051,2.46241623943,4.492227756,2.19632410843,26.7996093972
do_nothing,2.8668219881,1.93204475658,2.17142081598,-0.523311022735,3.13340459461,3.12759201172,2.18810003674,1.99991886014,-0.000483242374711,1.84120140044,2.01042900687,3.15540396112,1.66672775403,16.9929758368
do_nothing,2.00472172418,1.19012234006,1.63702733653,-1.05224099236,2.38753158783,3.01696356488,2.15050757796,0.858758328704,-0.218342480642,-0.208032715666,0.876813258151,0.926301383197,0.551761116823,1.69321840179
do_nothing,0.546971599453,0.0801965004902,0.599908069473,-1.30220509711,0.955924150273,2.04724078403,1.5119657998,-0.54070132993,-0.429176496294,-2.22714056424,-0.605354241635,-1.58511325313,-0.809762950415,-15.0847073516
do_nothing,-1.05144641073,-1.06811134261,-0.620271065512,-1.23010240632,-0.821467438201,0.460415526277,0.526943631264,-1.78556869102,-0.60070693101,-3.67744495312,-1.98638853548,-3.68968410788,-1.99184312924,-28.4929690771
do_nothing,-2.30314953841,-1.91702602909,-1.65021207701,-0.884171223226,-2.49448142317,-1.32633859736,-0.504783403748,-2.53678977837,-0.697161252841,-4.18775804775,-2.84146867144,-4.81675511502,-2.61656275264,-34.4795018738
do_nothing,-2.84336872238,-2.22362907655,-2.18238909891,-0.384386782027,-3.62932814354,-2.8394183775,-1.33085694474,-2.62956220247,-0.688808976121,-3.65242436025,-2.90321194476,-4.67424760212,-2.47423295504,-31.2103588788
do_nothing,-2.54086066169,-1.91085867808,-2.07102161855,0.118622947464,-3.93016725806,-3.67883546591,-1.79913159834,-2.10501095977,-0.562457765268,-2.24847130069,-2.14348465732,-3.3253055174,-1.59040355661,-19.7541840588
do_nothing,-1.53009513213,-1.08541615164,-1.37386682751,0.491882841761,-3.31960061429,-3.62378141159,-1.86441063951,-1.16990729879,-0.32896216301,-0.371649726343,-0.779644947725,-1.16152180325,-0.21899085952,-3.75983431629
do_nothing,-0.15690888266,0.00107362370576,-0.327416879607,0.65935611517,-1.95551656574,-2.68695896281,-1.56283126043,-0.107703138103,-0.0244895119616,1.48460079117,0.795043714067,1.21635445818,1.23573083687,11.7744514478
do_nothing,1.1415484902,1.03334889532,0.734783786094,0.619639253654,-0.181663249956,-1.10601602105,-0.976980460482,0.82081366948,0.295707683534,2.86815590948,2.13318437421,3.17277189975,2.3433102103,22.2067134655
do_nothing,1.98084824716,1.72923467603,1.49247452844,0.437408686434,1.57083677622,0.722842967358,-0.211241440011,1.45010820367,0.569673722811,3.48410778213,2.86793108837,4.21478599416,2.77849335897,24.8204555613
do_nothing,2.14913348522,1.92117427986,1.74065143162,0.21322319465,2.90025995958,2.34977597165,0.6158869054,1.73397776195,0.743738375405,3.25704934647,2.81865446065,4.12174786701,2.41917183251,19.6928459998
do_nothing,1.66439469594,1.59818506649,1.44985548213,0.043585254555,3.53513062733,3.38680515616,1.36992039199,1.7214868417,0.78557149115,2.32782594506,2.03631004415,2.99243031643,1.38123640715,9.55225441091
do_nothing,0.753017467604,0.89753163888,0.766173874382,-0.0140280208672,3.3920223131,3.60437769316,1.90414223026,1.5044009896,0.691363748745,0.992935913032,0.777261571282,1.20004300394,-0.0194580355695,-1.3153365472
do_nothing,-0.239653998564,0.0518025699735,-0.0470385394884,0.0410120701282,2.57788770034,2.98493333301,2.08137154547,1.16454648364,0.485167289252,-0.389912998009,-0.583036836514,-0.727557674713,-1.36532272421,-8.70383394167
do_nothing,-0.973610342269,-0.689190363471,-0.704238898193,0.157207404165,1.34170518524,1.72054524031,1.81434079386,0.745105069292,0.211041258172,-1.50004929945,-1.66709232933,-2.26458865319,-2.26459269495,-10.0629857258
do_nothing,-1.22972895952,-1.13546869052,-0.996286919412,0.255174995973,-0.00553348098201,0.155965808268,1.11079032154,0.255292836954,-0.0790672802026,-2.12886522929,-2.20583171047,-3.03443287898,-2.46891800757,-5.43117271172
do_nothing,-0.97760528082,-1.20864084865,-0.85893293361,0.261428333374,-1.17631246875,-1.30742394144,0.100295114525,-0.299624184424,-0.337638406865,-2.2149048128,-2.10926027587,-2.90563606675,-1.94536146706,2.61954383124
do_nothing,-0.374383986054,-0.953743786812,-0.388640319209,0.138697806156,-1.97282849161,-2.32066572157,-0.978020924987,-0.883393884222,-0.530397917562,-1.83572185754,-1.47832542968,-2.01204242789,-0.881585308284,10.0074036237
do_nothing,0.302296795864,-0.510389030195,0.198347288843,-0.0983485323103,-2.3180053234,-2.6791277051,-1.83377010564,-1.41117608056,-0.639617954558,-1.16537991706,-0.558270843683,-0.695279819983,0.376378630464,12.7582748007
do_nothing,0.76153875534,-0.055737193832,0.648274329355,-0.387264791461,-2.24792061501,-2.37123188888,-2.2160214955,-1.76235592032,-0.662135757166,-0.414134266379,0.3481991155,0.609784285172,1.43386579021,8.6197560954
do_nothing,0.807740568453,0.259690668891,0.764136507861,-0.639619625917,-1.87440358478,-1.56981891151,-2.0050747379,-1.82118021845,-0.604260830893,0.231268554813,0.978385851129,1.51048076304,1.9706546462,-1.92946894652
do_nothing,0.412178144856,0.361235837721,0.478887254331,-0.771825919543,-1.33447601856,-0.568724598172,-1.26763194886,-1.52785907394,-0.476603502277,0.651467525502,1.18677323763,1.77201492323,1.83942077747,-15.6639800232
do_nothing,-0.27696943082,0.268503688535,-0.117868179796,-0.733543621717,-0.744994155239,0.31588750518,-0.247495849053,-0.915893041193,-0.291356320896,0.81376977586,0.979320651414,1.38004076823,1.10934106855,-27.6249815691
do_nothing,-0.988832420382,0.078374336512,-0.808977186809,-0.523699409052,-0.176460760411,0.848095895007,0.712603105072,-0.115811831237,-0.0629670275125,0.76542923327,0.497106476945,0.533455769459,0.0415109315224,-32.8294678946
do_nothing,-1.42858970766,-0.0795814071515,-1.32476039621,-0.189264262003,0.348429731597,0.945051361607,1.29407520087,0.680435898282,0.188821185737,0.60591958791,-0.0421125399288,-0.428258493919,-0.996188398092,-28.0889460664
do_nothing,-1.38578894185,-0.0981815957013,-1.43838992508,0.191492847894,0.835260913581,0.695220317827,1.32505892219,1.2826225525,0.436048028374,0.447552834122,-0.423170911849,-1.13955212561,-1.64837596581,-13.3022593477
do_nothing,-0.814289097401,0.0621185089333,-1.04910287076,0.534075057174,1.2882499549,0.315005712885,0.852703489474,1.56787382185,0.642515564247,0.375717134244,-0.506990441616,-1.32949722825,-1.68835219126,8.24232091397
do_nothing,0.144121447163,0.354351117297,-0.224706350348,0.7715938963,1.68418061226,0.0580638889179,0.131415134422,1.52110184309,0.768403299786,0.419560890722,-0.274918798695,-0.911446678947,-1.09434868462,30.6905194201
do_nothing,1.20096710714,0.659663069824,0.811688507497,0.869296011284,1.96153853724,0.109244459027,-0.474918305174,1.23217191321,0.779248403665,0.54135176365,0.169149540094,-0.0138807828426,-0.0608222912597,47.3303830849
do_nothing,2.01363401974,0.830744457797,1.74734149415,0.826194119651,2.03049791947,0.502319943842,-0.643261658486,0.849943485248,0.656866946122,0.64828780598,0.63803235724,1.05765802011,1.06039894465,52.6511535253
do_nothing,2.29838422834,0.749077277632,2.2773450454,0.665719386026,1.80163439338,1.09410316727,-0.236215516716,0.512439342567,0.408400652246,0.624761018847,0.928002377063,1.91676505265,1.87230409394,44.1024308847
do_nothing,1.92621644435,0.375734312985,2.20277600075,0.421511818437,1.22419803745,1.60851626941,0.619556688352,0.283958554928,0.0696905342725,0.376959206453,0.890828878487,2.22171289766,2.0639363843,22.9992452411
do_nothing,0.969764175091,-0.223022295285,1.49806345152,0.125670993441,0.320665844085,1.73875134599,1.55990567131,0.128395285527,-0.299284651807,-0.123239957667,0.487735462702,1.79175417767,1.51903250991,-5.71083588773
do_nothing,-0.314333224303,-0.886155701597,0.325806557128,-0.195377219241,-0.795634125983,1.27280462855,2.11355984502,-0.0667448572696,-0.626598161843,-0.81009369536,-0.192098908521,0.677213399145,0.365874922477,-34.7497706605
do_nothing,-1.56201830694,-1.40321856719,-1.00617602266,-0.516708574615,-1.92874599241,0.196088652315,1.89241925311,-0.423440498241,-0.845200221892,-1.52411440904,-0.954659625731,-0.84069977016,-1.05068281794,-56.4910996105
do_nothing,-2.41278654703,-1.58158959138,-2.13274454953,-0.806434540822,-2.83573774861,-1.2702984897,0.7696455003,-0.991679061275,-0.909583291252,-2.04590690932,-1.5590572204,-2.32364645115,-2.27003028218,-65.042479392
do_nothing,-2.61971452596,-1.31429412352,-2.73762434244,-1.01970536811,-3.28300520213,-2.71634205866,-1.02800711669,-1.69129021143,-0.807278745718,-2.15860145758,-1.79274626246,-3.30407968503,-2.86078185195,-57.8396121982
do_nothing,-2.12400041256,-0.625546416431,-2.64580512426,-1.1013777278,-3.10943923333,-3.66561929711,-2.95922834972,-2.30854768954,-0.561680640082,-1.72280395824,-1.54093114557,-3.43015123544,-2.565431242,-36.3248738638
do_nothing,-1.07123703415,0.322981228275,-1.87457710586,-0.999715701017,-2.2790903351,-3.73550303361,-4.33595262604,-2.55806838423,-0.225412754211,-0.740484432784,-0.828509283947,-2.58327691093,-1.39770395941,-5.55785979492
do_nothing,0.234668902111,1.27039000067,-0.62842060605,-0.687925735771,-0.907088169679,-2.78027577019,-4.56658220401,-2.19286819689,0.13356296929,0.616363564576,0.179174306197,-0.930278135192,0.341925286316,27.0976772652
do_nothing,1.42452490471,1.93033925466,0.760052823449,-0.185415280567,0.751541417215,-0.964608978422,-3.38783658187,-1.12222659279,0.448707522921,2.02855799604,1.21834371386,1.10956814491,2.1427957876,53.8313347378
do_nothing,2.17429096496,2.07927816246,1.92498439737,0.431282225882,2.35112597861,1.26358668768,-0.996393879457,0.511567126847,0.669503452166,3.10523388945,2.00031486395,2.97674588824,3.43387941166,68.2947137711
do_nothing,2.29886246831,1.63188624909,2.56972588913,1.03572467141,3.53306746118,3.29789137743,1.9765290801,2.33561512178,0.769945017988,3.49514859227,2.29547469838,4.13219680201,3.76322637337,67.0910599005
do_nothing,1.80127183659,0.678693844383,2.54712137582,1.47872134693,4.01361018423,4.55791306446,4.64901638893,3.83842413339,0.749332399595,3.00196146321,2.0029024562,4.21916867673,2.9511348141,50.5131143632
do_nothing,0.863893548393,-0.528796373404,1.89515182653,1.6295173202,3.65882155529,4.67309618107,6.17316330915,4.52756334289,0.626500466685,1.66566542092,1.18435098902,3.17642126497,1.1661378485,22.3986335734
do_nothing,-0.213667812815,-1.64446820085,0.819111408556,1.41860243726,2.52564414326,3.60326162498,6.02307308456,4.10095208341,0.430674385168,-0.221255155061,0.0513114068733,1.26608872285,-1.10537383804,-10.8169346424
do_nothing,-1.10932417118,-2.32802691817,-0.372758314667,0.867230606726,0.855739762124,1.65359147084,4.18331779923,2.56967344349,0.192819615909,-2.17619584877,-1.09240386372,-0.995281228292,-3.19263035926,-41.6012884335
do_nothing,-1.57607556832,-2.35019710588,-1.36003652335,0.0915943227099,-0.97887666848,-0.622358324141,1.1677939799,0.28326681792,-0.0595276833017,-3.65562900534,-1.93668593265,-2.98415186861,-4.44049503142,-63.0298504917
do_nothing,-1.51282554032,-1.67000206877,-1.90023471239,-0.722730679343,-2.56596749728,-2.59915026566,-2.14151880128,-2.15894030304,-0.302958880152,-4.21570762034,-2.2547889551,-4.15243337416,-4.4160222441,-70.3222999721
do_nothing,-0.987992238174,-0.458220410859,-1.89235448769,-1.37042911726,-3.55579669475,-3.77515698228,-4.78163690208,-4.08614573287,-0.515665807702,-3.65486914267,-1.96982291664,-4.18937853715,-3.05618598065,-61.8891885586
do_nothing,-0.210410422616,0.943491103536,-1.39662615449,-1.68568261768,-3.74867828971,-3.92066459024,-6.02140763032,-4.96592149768,-0.674465892805,-2.09063868909,-1.17756786959,-3.11264109568,-0.706791158602,-39.6732053978
do_nothing,0.541910445279,2.11868108505,-0.606524010183,-1.59215390556,-3.14289469513,-3.12909250817,-5.59051393758,-4.57375041392,-0.754338584336,0.0591007031744,-0.117890871981,-1.25965877369,1.96514987474,-8.71309889748
do_nothing,1.0122216725,2.70038178768,0.216767708325,-1.12689954208,-1.92923116628,-1.75727046977,-3.74578027888,-3.0626511816,-0.732182623772,2.19048340321,0.897365437502,0.8183241359,4.16374718269,23.9833211471
do_nothing,1.04654416813,2.48624062304,0.826572369618,-0.429426861435,-0.433582762372,-0.280777716939,-1.15557853399,-0.907758596322,-0.594339902101,3.69202521918,1.5785274069,2.5263516859,5.20508563682,51.0224496562
do_nothing,0.641464243706,1.5081100546,1.06447446095,0.301421832412,0.975664034519,0.879612200118,1.35057476198,1.25491141786,-0.345266701202,4.13226251694,1.74546325878,3.40615321438,4.73261846162,66.3199191522
do_nothing,-0.055955224528,0.0322379620188,0.903700540099,0.86911055786,1.98822791685,1.49553353948,3.07215313843,2.83839519531,-0.0135135216953,3.39614024928,1.38093006433,3.26975889886,2.83835041401,66.5192113456
do_nothing,-0.795705793839,-1.51307091004,0.449893830838,1.13937614307,2.43088855204,1.58351731594,3.66072368625,3.48913286655,0.34850162973,1.72404721017,0.632870686096,2.24461540199,0.0485371118123,51.788060203
do_nothing,-1.30508767716,-2.66275417158,-0.0997828661398,1.07863169721,2.3019799681,1.35734349835,3.19796630271,3.18163936483,0.672576920049,-0.361892628542,-0.235437767088,0.717586248271,-2.82572422726,25.778067332
do_nothing,-1.3771697014,-3.05619555306,-0.525559272758,0.75815822938,1.75262775768,1.10467109498,2.1082373276,2.19325042288,0.889535203213,-2.22253849543,-0.931812296395,-0.801541535631,-4.92981646092,-5.26845638309
do_nothing,-0.94040887326,-2.55084467414,-0.659849714584,0.323183200286,1.02282429016,1.04181624888,0.949401527816,0.973517274432,0.946947052961,-3.30476137585,-1.23056903084,-1.8501898408,-5.62545903601,-34.0599873358
do_nothing,-0.0878180517177,-1.27192220135,-0.444102466512,-0.061885497372,0.354735904315,1.20848216375,0.171227145901,-0.0383703495593,0.824422889414,-3.31620503056,-1.04598190369,-2.15955815922,-4.68827691367,-54.0592412307
do_nothing,0.944102383778,0.419137195544,0.0504768341625,-0.272522884661,-0.0873926113578,1.44740224508,-0.0599014776971,-0.576716896085,0.541393235495,-2.31373520897,-0.459592715339,-1.72949173262,-2.38049252438,-61.0763580111
do_nothing,1.84161769539,2.02972501531,0.645206402623,-0.266500189988,-0.264136807057,1.4786753235,0.0988206199317,-0.63115264609,0.154372295236,-0.676098059216,0.308009406158,-0.808870508112,0.625312853444,-54.224657627
do_nothing,2.30656256161,3.0834293976,1.11252893381,-0.0947421070484,-0.259684874054,1.03883201304,0.273138939458,-0.418654623654,-0.25606824526,1.02958654732,0.972102489698,0.208382468606,3.44869579914,-35.9843346017
do_nothing,2.1486841349,3.26456059283,1.25258356489,0.122894642641,-0.234375436777,0.026238653238,0.0753419186282,-0.261336667216,-0.605098802476,2.24166142138,1.28096510361,0.932602555338,5.26750367554,-11.3740835858
do_nothing,1.34987508563,2.51476668631,0.963305937008,0.247757770892,-0.349013164856,-1.41093415825,-0.685297586348,-0.423147239014,-0.824485971313,2.59163986744,1.10297912525,1.11895278074,5.56491052363,13.5088172677
do_nothing,0.0801150434986,1.05120847429,0.281115392022,0.179842417133,-0.689035029748,-2.88738575812,-1.87886925603,-0.974848789777,-0.878442076259,2.02169415725,0.474321084969,0.749446056356,4.2807757945,33.136318698
do_nothing,-1.34145123146,-0.699713983157,-0.621941452816,-0.0988526801178,-1.21695278964,-3.89804240647,-3.07604286122,-1.7450644458,-0.770056181139,0.79255843098,-0.409369522576,0.0284547030538,1.82140118502,43.8977940166
do_nothing,-2.5309228087,-2.23238802479,-1.48519902386,-0.511521641864,-1.77189087037,-4.00134682098,-3.71179166213,-2.38018780522,-0.536947751651,-0.61902038919,-1.25539616268,-0.704628164151,-1.07314040393,44.7735727859
do_nothing,-3.14648605011,-3.11486031278,-2.03706889209,-0.909835921253,-2.11863464931,-3.00025815692,-3.3282495389,-2.49127882631,-0.238186487101,-1.69544431552,-1.77034587481,-1.11184990527,-3.56005153701,37.1913025154
do_nothing,-2.9873327919,-3.11657389926,-2.07979848162,-1.12579393456,-2.03096362245,-1.04888322209,-1.79679115646,-1.82943609123,0.0628945918452,-2.06303252635,-1.75855947314,-0.990882253925,-4.94906263559,24.1959623234
do_nothing,-2.05571331303,-2.27143176187,-1.55476130562,-1.03408907114,-1.38124417683,1.36291810817,0.576992800086,-0.417333486496,0.3144512666,-1.62073765349,-1.18982912866,-0.356631016514,-4.90193247295,9.28315057322
do_nothing,-0.56317545962,-0.85784182991,-0.567210028562,-0.602742869898,-0.204800133473,3.55024505453,3.11827303071,1.42038364878,0.485896266712,-0.567941505328,-0.213397281792,0.560515429006,-3.51623159509,-4.66768148497
do_nothing,1.12212075182,0.695677359877,0.638295636028,0.0865889897752,1.28517514641,4.85461832885,5.00375801015,3.146662855,0.569589302589,0.676817507223,0.886885800317,1.39971838101,-1.27214608637,-15.9980946237
do_nothing,2.57301105206,1.94703998737,1.7452659455,0.85694170037,2.74073208034,4.86869223006,5.55994137616,4.19315530233,0.575327096899,1.63495661589,1.7817660722,1.80691846421,1.13466329419,-24.2584090091
do_nothing,3.41856301011,2.57433759705,2.45546436624,1.48797349336,3.76993435457,3.58199970848,4.52515483097,4.16696409505,0.520912359085,1.94578454794,2.20085804149,1.57339196222,3.01588803098,-29.6819132093
do_nothing,3.44424521947,2.46430062407,2.5746076861,1.78477577852,4.04899469922,1.39185429371,2.17050775169,3.00440454902,0.423078945699,1.49807885297,2.01772975919,0.723539657482,3.89594374571,-32.4588384604
do_nothing,2.64857968737,1.72947931406,2.06760266483,1.64083234804,3.42185713928,-1.0281078092,-0.774282776171,1.01082686485,0.292366941222,0.467729224332,1.28811850709,-0.482214558239,3.63635184562,-32.2001041653
do_nothing,1.24054229809,0.652790740201,1.0668777195,1.0741750552,1.95646171245,-2.95666685316,-3.36986052029,-1.23256791371,0.133530996063,-0.751278147726,0.229433768943,-1.63275134228,2.44549941384,-27.8910004472
do_nothing,-0.420650363111,-0.417702632349,-0.167935598054,0.224683811147,-0.060217208664,-3.86905211173,-4.80167713341,-3.06368686736,-0.0494372530665,-1.69599219845,-0.85064140105,-2.31067271413,0.779481162716,-18.4105776374
do_nothing,-1.92499370448,-1.18541893035,-1.3256446711,-0.686611694992,-2.18794940043,-3.60750189768,-4.67435915522,-3.9657038473,-0.246599112193,-2.00793612394,-1.65190435165,-2.24437242054,-0.825132001763,-3.42124832947
do_nothing,-2.92103692162,-1.49325340226,-2.13058837632,-1.42290783586,-3.94154900972,-2.41619823703,-3.15231138462,-3.74091975782,-0.437343552346,-1.56649456522,-1.97305702357,-1.41247148873,-1.92642915869,15.7737148714
do_nothing,-3.20385437823,-1.35522589567,-2.41465489265,-1.80056406628,-4.91150095328,-0.828961589103,-0.889657824839,-2.56777038792,-0.590539836019,-0.533113216404,-1.7672187871,-0.0615533400883,-2.30220966303,35.8575270687
do_nothing,-2.75796379155,-0.925564491096,-2.15363595157,-1.73988326606,-4.8641991535,0.546310936311,1.22669715759,-0.920378312326,-0.670479803505,0.709540877901,-1.14500651575,1.37123382013,-1.98864376121,51.9239590982
do_nothing,-1.7459649869,-0.421733630748,-1.45964828459,-1.28260800776,-3.79618620308,1.26304865785,2.42356932978,0.617685105166,-0.647113317625,1.70033616003,-0.32694879682,2.40505182911,-1.22876955293,58.7175230228
do_nothing,-0.450247142976,-0.0336145629204,-0.535732193631,-0.572328835848,-1.93071369065,1.20003322733,2.34297826817,1.57333582639,-0.50717208906,2.07100501838,0.435949935375,2.68082607142,-0.358412362387,52.368752968
do_nothing,0.811521131061,0.145797134847,0.389742452455,0.193930038541,0.339003042918,0.590248964023,1.17875026881,1.75276762991,-0.262099065785,1.68238422376,0.944770677243,2.08715983082,0.32365898699,32.0467308364
do_nothing,1.77035414028,0.143005147158,1.12635559051,0.825950325371,2.54219391354,-0.09654478052,-0.409219205958,1.29443396651,0.0504799792666,0.675246186356,1.11012499782,0.802104435012,0.653473387581,0.887986318594
do_nothing,2.26540207365,0.0741502744913,1.56319612679,1.19275700284,4.2339847002,-0.370627265313,-1.5735730611,0.58714811299,0.372973452524,-0.582656936972,0.966608956578,-0.764345176818,0.635930161451,-34.2635020428
do_nothing,2.26510110971,0.077919486804,1.67883405801,1.25164293152,5.08568248435,0.0491373408766,-1.64354920106,0.0876634547464,0.640434661885,-1.63311097785,0.642621417294,-2.10726006955,0.410195142463,-64.3987524277
do_nothing,1.84985223402,0.241064850454,1.52201645777,1.04707521179,4.94416517314,1.08977661483,-0.42911711489,0.11247468957,0.79613745991,-2.09641166951,0.299978727092,-2.79568789703,0.167743550545,-80.8143045367
do_nothing,1.16825890081,0.54893023349,1.17560094818,0.683231704714,3.85221425497,2.32612085874,1.66180175519,0.689783663159,0.80567438446,-1.80997646815,0.0678746874038,-2.61500859525,0.0606236474401,-77.7901504107
do_nothing,0.38563168762,0.882943347502,0.720768221132,0.282246380817,2.03098126037,3.13745436085,3.75054967638,1.53465173941,0.665561411518,-0.885516599242,-0.00359478723011,-1.63417395358,0.138112000975,-54.6093187388
do_nothing,-0.357239163816,1.06764084369,0.215997496941,-0.0562556415198,-0.167523563547,2.96380526759,4.82172150229,2.16168215261,0.40401601098,0.335630514723,0.0461610855839,-0.17618569834,0.335516627079,-16.1985059739
do_nothing,-0.964179448382,0.949019143638,-0.302975987913,-0.280921191813,-2.32685011866,1.56333403896,4.1417074007,2.09381650482,0.073914184409,1.41133549318,0.115809553144,1.29571006613,0.515848021645,27.9263367618
do_nothing,-1.38199225363,0.472063632129,-0.806374602852,-0.392952954869,-4.04004249287,-0.834388099906,1.59914635867,1.08488799593,-0.259857064382,1.96280663076,0.0947564311603,2.33459686765,0.542918899109,66.1866000606
do_nothing,-1.58555823444,-0.276074358253,-1.24900267688,-0.43053799299,-4.98074755465,-3.55007053369,-2.17403964485,-0.735911204958,-0.535041283689,1.81245309393,-0.0814929686957,2.65404941125,0.351994554525,88.2224137522
do_nothing,-1.56243272953,-1.07864651594,-1.55888148902,-0.442072322997,-4.96222735969,-5.65826986523,-5.96493882156,-2.86275499396,-0.704824941131,1.04438468183,-0.396277259192,2.21097253637,-0.0138500067468,87.9329436497
do_nothing,-1.30769453783,-1.65764604768,-1.64603292806,-0.460060499786,-3.97562899884,-6.30943088246,-8.38310993268,-4.56650541656,-0.745911089398,-0.0339893798568,-0.751692531297,1.20167676048,-0.418132084736,65.3205598074
do_nothing,-0.832690368335,-1.77536844471,-1.43200195595,-0.486112990185,-2.19968146431,-5.05698362929,-8.36781784446,-5.15340563288,-0.66056969946,-1.01336522894,-1.00413410058,-0.0225100415382,-0.690354095032,26.5407511959
do_nothing,-0.182448974535,-1.33167856017,-0.890013891232,-0.492207869111,0.0237041789585,-2.06636684382,-5.61406118711,-4.23569807393,-0.473121424952,-1.53988551523,-1.02186544021,-1.08552684162,-0.704753560475,-17.8793438637
do_nothing,0.549958696766,-0.418317956671,-0.0784379426727,-0.436547216671,2.24857072467,1.88097904416,-0.752491213359,-1.91063789253,-0.222620312177,-1.4481777232,-0.741994576682,-1.71358824756,-0.443554695147,-56.1098619716
do_nothing,1.22477424795,0.694589421058,0.850088583567,-0.286586022264,4.01197465049,5.60501282773,4.79877334652,1.22642870261,0.0459436706132,-0.819585870632,-0.203947092613,-1.81372122368,-0.0152919210693,-78.4231101853
do_nothing,1.67979475603,1.64041273488,1.67413078561,-0.03924406036,4.93368648072,7.90201568226,9.27534206697,4.2504889107,0.289813924191,0.0560203946775,0.454873531153,-1.47910019925,0.383064651013,-79.8852194244
