label,COUNTER,INTERPOLATED,AF3,F7,F3,FC5,T7,P7,O1,O2,P8,T8,FC6,F4,F8,AF4,RAW_CQ,GYROX,GYROY,MARKER,SYNC,TIME_STAMP_s,TIME_STAMP_ms,CQ_AF3,CQ_F7,CQ_F3,CQ_FC5,CQ_T7,CQ_P7,CQ_O1,CQ_O2,CQ_P8,CQ_T8,CQ_FC6,CQ_F4,CQ_F8,CQ_AF4,CQ_CMS,CQ_DRL
off_to_on,-1.96106619403,0.587715757509,2.04923665304,-0.537132095283,-0.0130147897708,-2.13168678761,-2.14380808636,-4.29850515799,0.126765020085,1.25269405145,-0.851750464423,0.139724887069,1.87217042813,-53.2919243233
off_to_on,-0.90451265543,1.61988882332,-0.729999774402,-0.104931173829,-0.544617748518,4.60326585852,-3.97993540851,-4.50726959108,0.188581823381,4.06024630312,-0.147703910585,3.11677792871,5.65234951442,-51.3680951625
off_to_on,0.493558209966,0.532665790383,-3.08035967279,0.617571914378,-1.21299894857,2.03285627246,-1.61239667906,-1.40938653032,0.149876829255,1.89651605729,0.459901242654,2.63651516518,3.16669129485,5.16679281991
off_to_on,0.902867293618,-1.46958541289,-3.20336298163,0.202887841678,-0.570660769628,-3.37642333235,2.0624429723,2.97160764595,0.0716428338752,-2.05562621225,0.517003332703,-0.807761326493,-2.58592285837,27.5663894695
off_to_on,0.449413128498,-1.67342253773,-1.03316455169,-0.937945331505,1.21142611273,-2.27360018147,1.69202011741,5.03704626127,-0.00793754939421,-3.14063741183,-0.0872262610276,-3.02260628486,-4.89520903512,0.63798398077
off_to_on,0.144987309551,0.845607211502,2.04925588702,-1.04443992276,2.05055456802,2.50637408429,-2.01633351278,2.87894124705,-0.0887541929605,-0.878270876874,-0.592220633174,-0.987116444125,-1.95034224368,-3.34659298896
off_to_on,0.378551427503,3.5455860426,3.92079843221,0.276556139457,0.556957115392,2.61665684478,-2.92008229056,-1.78402633714,-0.150366597863,1.57466403882,-0.0880324056616,2.73579875498,1.83527852822,34.907061213
off_to_on,0.571397295893,2.95683625757,3.01279354434,1.4129189763,-1.8734373518,-1.4013783791,1.27715181312,-4.67520032684,-0.147034006024,2.0712938979,1.0285169827,3.05958821501,2.40121036696,42.8561447434
off_to_on,0.143163948938,-1.07373054583,-0.0495445782637,1.0892317092,-2.43252838929,-2.23390923022,5.53775850499,-2.63811119959,-0.0707735504762,1.34420437608,1.29361749452,-0.476680768353,0.620502398393,-12.6955580862
off_to_on,-0.838394960414,-4.70838596706,-2.74190850983,-0.046771242133,-0.267974399985,1.45360542928,4.68182534972,2.66224788718,0.0292553194049,0.575712957905,0.174331283765,-3.0234846571,-0.476085924842,-58.5830487226
off_to_on,-1.85600911812,-4.31363328988,-3.36972275947,-0.758445686549,2.31299914123,3.67982995315,-0.281493801651,5.32953249541,0.103009055131,-0.582170410428,-1.19792275399,-1.66987297158,-0.282630435632,-32.211257116
off_to_on,-2.05368071742,-0.486700394313,-2.52105830232,-0.902672665327,2.45579015399,1.3483423191,-4.89605003064,1.47674847319,0.136521399689,-2.49684317666,-1.661982942,0.510781586157,-0.324794021853,18.6602437959
off_to_on,-0.420275888458,3.07018733989,-1.0232307467,-0.875664699822,0.104432456619,-2.21725061087,-6.43043025099,-5.15046035085,0.125501318671,-3.51025037054,-1.23494197224,0.0811488301078,-0.833068335476,20.1973442192
off_to_on,2.79745686809,3.90927649605,1.62822070899,-0.417189984633,-2.05024252656,-3.91277264484,-4.16387338939,-6.47255893782,0.0598817840933,-1.37939237377,-0.214755679842,-0.837054128833,-0.276849647802,-9.66931875605
off_to_on,4.80025886198,2.5719310336,4.85139674693,0.736833806065,-1.91169159001,-3.9409341416,1.45261048571,-0.139878721876,-0.0415699271803,3.09856011556,1.43071496897,1.33783687412,1.51704141444,-6.18955951825
off_to_on,2.42091074286,0.486880055021,5.11724261119,1.61057170616,-0.258830504825,-1.82508756608,6.87804890706,6.61812341253,-0.119888212156,5.6191489745,2.84043622082,4.18382494199,2.10646752125,26.1629247243
off_to_on,-3.18363604894,-1.65836991195,0.206065175516,0.913689901344,0.835325493794,3.51960053218,6.58396400114,5.87840400164,-0.131060701419,2.96004538879,2.09681039318,2.06226785695,-0.227807545227,28.8983444961
off_to_on,-6.10242997965,-3.03695951566,-5.63677011113,-0.825034261125,0.851508784365,8.28304546285,0.168725191885,-0.661468973859,-0.0888292615736,-2.60720195079,-1.0135446322,-3.91797598997,-3.22153764168,-3.87787767996
off_to_on,-2.47160689092,-2.45774810842,-5.52048510311,-1.5037626883,0.80426958105,5.63983655594,-4.93497867967,-4.49556360414,-0.0295859496356,-5.33760154619,-3.44040991142,-5.62367178305,-2.9111479314,-20.6757700292
off_to_on,3.60163502457,-0.332351177975,0.424572221364,-0.266178476171,0.889663317862,-3.69341640644,-2.80352926024,-2.32453062131,0.0351931839282,-2.78315088812,-2.35813448202,-0.00869121975281,0.891513941953,-8.430462326
off_to_on,4.45716519536,0.973062603151,4.17854835298,1.17924088557,0.0310583257852,-9.42340157256,1.90573668786,0.337175152096,0.100221626305,1.34048049404,0.661287073673,5.02988774532,3.70217394259,-8.80353217668
off_to_on,-0.826535726396,0.405316671835,0.968722528501,0.879448275921,-1.73550681635,-4.82529713301,0.692314173944,-1.11495473421,0.13046996155,2.2817936715,1.67443261964,1.97881121903,2.08081316728,-28.7638892145
off_to_on,-4.70559476116,0.112428253951,-3.59735433155,-0.690510337024,-2.24608134539,3.70700166119,-4.92327148868,-2.86551975616,0.0917553604134,0.421842049215,0.195704156576,-4.30950081787,-1.63133382492,-17.7636411275
off_to_on,-1.4363684332,1.91041885069,-1.84478399988,-1.42455011222,-0.0674978707793,5.91201578162,-4.76564336659,0.698678949466,0.00664313756243,-0.154004352685,-0.288382742242,-3.47854053231,-2.44089222458,36.1667519423
off_to_on,4.88255221862,3.56352381541,4.37348000017,-0.517956481469,2.74812776296,1.60331090912,3.79457435179,6.79727909695,-0.0636450946545,1.73960039588,1.73632845942,4.15108528458,0.462844016803,63.1116778481
off_to_on,6.05832738564,1.73909566839,6.44760445757,0.726648624115,2.73803418315,-1.72400278575,10.0489900526,7.01698256772,-0.0902947707952,2.67470841893,2.91228323862,7.33412632408,2.80124961913,13.4788066333
off_to_on,0.792734496422,-2.34855026942,1.5321802551,1.00648075284,-0.38918355411,-1.57592044825,4.95710522668,-0.610419741393,-0.0905365830653,0.162910890358,0.177753828812,0.688161810933,1.26892334514,-55.2457855994
off_to_on,-4.78127371394,-4.16788644134,-4.39700838562,0.614956760907,-3.15926225934,-1.86988446104,-5.46702077059,-8.31133852061,-0.0738731864927,-3.38841014357,-3.99837293241,-7.17675822768,-2.32122101682,-54.3902179656
off_to_on,-6.15384172197,-2.67605447049,-6.06440098063,0.400749672721,-2.67947343788,-2.84253268621,-8.77886459571,-8.54152105697,-0.0241571871348,-4.23373456153,-4.67099027001,-6.457052147,-4.07845659535,12.7008912278
off_to_on,-4.49671521046,-1.36297401697,-4.65017363806,0.201978449951,0.126489192909,0.477520060019,-3.06658836562,-2.30804286343,0.0518168552549,-2.19363270372,-1.09605887765,0.303284525382,-2.71054736611,63.7811413398
off_to_on,-1.43220505243,-1.37294560151,-2.23873268094,-0.634352563456,2.36983581846,7.31606649881,2.93602454691,4.42812852974,0.104240658653,0.570483935986,2.87665882152,3.98490703642,0.578543610854,46.8803294826
off_to_on,3.95734256512,1.10420680608,2.50357148208,-1.65931049446,2.66206223925,8.02330594588,3.85287187153,7.94980155399,0.0965738798943,3.34359141119,4.20979324111,2.80262677836,4.41962848935,-19.2668614101
off_to_on,9.95224158215,7.10393376017,8.80537759344,-1.48750413047,1.47604989536,-2.14223427273,2.63923142311,7.23590135101,0.0497059214722,5.82340557673,3.16415006432,2.04185766733,6.8082528423,-86.6726602932
off_to_on,9.69339854959,9.50793739857,9.90116831253,0.215442961983,-0.549308398894,-12.8817377003,1.80355389632,1.65350127178,0.00304716903073,5.0775374891,0.739254656545,2.68804309013,4.45461550507,-100.640456677
off_to_on,-0.310753335356,1.7842023556,1.42870782978,1.86394850944,-2.72444089357,-10.5996525777,-0.907812143131,-6.6588800627,-0.037709472228,-1.33367830835,-2.6212817539,0.0019125209201,-3.23804181336,-14.1592452553
off_to_on,-12.0816061152,-10.2745887757,-9.56762884686,1.74356193118,-3.40746902064,3.07369004298,-5.20336724362,-10.7189626342,-0.0804909800428,-9.00528713993,-5.02133284511,-5.82785491694,-10.2053476861,138.014087876
off_to_on,-13.3087404926,-13.251252263,-11.4825242052,0.173620920734,-1.24965990558,12.806177104,-4.97872237894,-5.16849512791,-0.101976286807,-9.09099594235,-3.51358172496,-6.95404001725,-8.56392197042,203.095473594
off_to_on,-2.56088923566,-3.38614001478,-3.15040008535,-0.936776422343,2.34201202879,9.03783580257,2.15257460128,5.3558729826,-0.0690149680024,0.247005200216,1.46150690858,0.155229442076,1.22582393129,59.6271757654
off_to_on,8.52510315164,7.95950782719,5.0668073671,-0.581256254147,3.88801967697,-1.73047936802,8.19251728391,9.86806573594,0.0045920920949,9.33725709703,4.89761743084,7.4198838012,9.24531290153,-184.216529832
off_to_on,9.6580197563,9.19874337328,5.73648928326,0.185355399699,1.86721722329,-7.60133299153,4.59397597367,4.276239794,0.0654482554566,8.22777579128,3.12379910117,5.84943881827,7.72902722009,-262.508564692
off_to_on,3.11876968479,2.59216544006,2.6029509029,-0.0647282371184,-1.31073450049,-5.31801557757,-4.85104931942,-3.83095221663,0.0845450228637,-0.649425119693,-1.16060964656,-1.65568230107,0.281644616832,-76.2886087086
off_to_on,-2.16249327449,-1.7641043459,1.77731575274,-1.04296073568,-2.37391529221,-0.0689374351478,-8.34631628877,-5.60448911053,0.0764996445929,-6.2235324907,-2.63537938463,-5.1772145229,-3.99586309954,163.712938743
off_to_on,-2.74813824676,-1.00272187377,1.82638805449,-1.18158408397,-1.06119455003,3.294109743,-2.00988595874,-1.47099900607,0.0541023819398,-3.5396379847,-0.587392015424,-2.09110300466,-2.57667097833,204.749816707
off_to_on,-1.97980060536,-0.847741227453,-1.64722275067,0.108891285443,0.33583571097,3.53528508937,5.63615722665,2.03599535608,0.00720129241704,1.32983948786,1.02677263921,1.29438882073,-0.652808636171,63.0279070468
off_to_on,-2.11769812716,-3.80082328124,-6.28021391605,1.5842115461,0.374736866394,0.627017575678,5.80734293884,1.93465905622,-0.0584368751731,1.63604646103,0.0447158875393,1.10395123499,-1.56855697537,-55.383152803
off_to_on,-1.3605601078,-4.60810142154,-5.26835430753,1.79206161651,-0.235039042739,-4.07612398963,-0.109931444213,0.448600542892,-0.100600518369,-0.996889134463,-1.21383081771,0.532850163399,-2.22398801167,-64.5212898763
off_to_on,1.18717910332,0.297282994864,1.74998646915,0.752827542474,-0.385343086251,-5.98762838125,-4.57318711144,-0.629236888528,-0.0863790295442,-1.09701538861,-0.410711116869,1.80472368033,0.47122652227,-57.6711208084
off_to_on,2.72505733601,5.72103736297,6.86067036601,-0.472964046853,0.0449163300398,-1.04369064455,-3.58586816569,-1.71819127373,-0.0336194285488,1.64076201452,1.10343353331,1.4284468126,3.73552571504,-80.3451621735
off_to_on,0.971430976032,4.73881595166,4.22923467774,-1.22795611017,0.746452039793,7.49417683546,0.733816852311,-2.04456124919,0.0180196818276,2.73907328479,0.911299617913,-2.57909084987,3.08603617729,-42.9489044199
off_to_on,-2.00482510163,-1.28911828279,-2.61232167609,-1.50359892887,1.47043972435,10.3643436118,4.1159292544,0.294591457584,0.054951570404,0.3384841642,-0.544355800663,-5.08653632072,-0.691327980931,81.2592713086
off_to_on,-2.45836120981,-4.85550463675,-5.96662090043,-1.18615812645,1.49738563871,3.02150940036,3.61357631479,3.80781344776,0.0811859478888,-2.48706477461,-0.978246156625,-1.20504286637,-2.76547054651,146.574983128
off_to_on,0.280817506078,-2.47898894032,-2.98443667405,-0.0905571908731,-0.0317931722786,-7.81215833584,-0.777653210432,3.7559464697,0.0833392803871,-2.63250101151,0.138033451765,4.95057780841,-1.12993170669,44.5177086805
off_to_on,3.48460307571,2.04282631242,2.77930107007,1.23204853028,-2.42770410517,-11.4115226626,-5.30670349313,-0.975704621182,0.0424133004609,-0.483107549175,1.19434249984,5.38844980101,1.40507687367,-101.851549368
off_to_on,4.20589027098,3.90440920176,6.19159077393,1.68554238334,-3.25979256131,-5.29869631773,-4.90340415516,-4.91597891535,-0.0254139538035,1.92190491692,1.02848113288,-0.0502744232651,1.81255092506,-103.140615007
off_to_on,1.47764814715,2.39437330521,4.56404384816,0.970672979123,-1.11045011225,3.05848913212,1.0710785348,-3.01382315184,-0.0747013989461,3.17424374971,0.0340951975025,-3.84584076071,0.245101061948,16.5861288872
off_to_on,-3.32428526173,-0.711812744348,-1.17704105474,-0.0135811695209,2.14865203674,6.21441184153,6.73653435321,2.12014105746,-0.0810904554439,2.20484211977,-1.02980044641,-2.25672017563,-1.5891843982,71.3412402899
off_to_on,-6.84297676872,-3.83589850855,-6.80421830691,-0.496736188157,3.23408881466,4.55780562077,5.75939875508,3.71236517979,-0.0594818783055,-1.3462618023,-1.72545934518,0.195115485721,-2.67240200555,6.192285897
off_to_on,-5.6508105919,-5.11120563503,-7.37480376916,-0.775270827539,1.40688914064,2.80854634476,-1.20518514374,0.123250694363,-0.0294180205192,-5.05240663321,-1.5021551588,-0.664641088916,-2.29829254481,-42.2049101344
off_to_on,0.331842263325,-2.46947138402,-1.84107085869,-1.22295456659,-0.832725206633,2.18304588668,-7.1314384853,-3.33819644315,0.010211269644,-4.58871508599,-0.0259359116236,-1.88877559154,0.213139796197,7.36754357756
off_to_on,6.69225904936,3.2543290284,5.19509235158,-1.18972712172,-1.19734640089,-0.154799291385,-6.20019125631,-1.98249578171,0.0619722649793,1.0206548693,1.85334108307,0.802051175374,3.80492582312,52.4853915801
off_to_on,8.23703977361,7.20913295438,7.82159088801,0.033158603147,-0.341391605644,-4.75328091052,0.686821891976,2.34881774136,0.104875595467,6.63589735874,2.57892955273,4.95201546353,5.25465431891,-1.13756199134
off_to_on,3.88702861577,5.20465569936,4.57430300261,1.59988914572,-0.298586802401,-7.26900794311,7.18908440069,4.30673509915,0.100836413056,6.0692475583,1.57658730171,4.44194489889,2.38159670191,-71.011260237
off_to_on,-2.70686350324,-1.13141446345,-1.07342246019,1.78333368347,-1.25076700703,-4.0640945112,7.07703325664,1.73064982833,0.0251965795349,-0.509889227122,-0.310718180976,-1.25399200866,-2.85707429308,-38.2497313641
off_to_on,-6.78027408769,-5.89405339183,-4.91835989691,0.335014425091,-1.32565015788,2.24700476199,-0.19830681988,-2.48752233177,-0.0955212319579,-6.41053856688,-1.99795659387,-5.9361344574,-5.94954290061,50.8880711287
off_to_on,-5.98679053234,-5.3349926482,-5.1906336596,-1.0451531495,0.472147876589,5.68315905926,-7.93047622585,-4.26181849064,-0.167267401905,-5.88936179872,-2.81643069681,-4.81415995097,-4.42789432173,63.2938423083
off_to_on,-1.47437836681,-1.13874263028,-2.48040386868,-0.990024904685,2.48224236644,4.15283214405,-7.80309361897,-2.47547520175,-0.0929268730603,-0.128378215299,-2.15178319775,0.174906602428,0.00925381804157,-4.91326047092
off_to_on,3.07067440946,2.47328209307,1.24580447503,-0.116485581701,2.29806312645,0.910687370737,0.732303200385,0.67287575955,0.0928165767571,4.79055075563,0.203777243993,3.95600659716,3.69992477046,-37.6816868692
off_to_on,4.11486112623,3.10311833946,3.45758177526,0.249209962121,-0.149985528248,-0.808441548728,8.46556728882,2.5043734861,0.191036940123,4.57141472768,2.94636259271,4.05128458823,4.35696357448,0.239713292899
off_to_on,1.58068748929,1.34808637909,2.70923567903,-0.00911965227069,-2.34197925448,-1.25265927119,6.73492038651,2.38460195677,0.0468842115595,0.425056626405,3.72459677707,1.4694075157,2.28727405651,19.3868643468
off_to_on,-0.873531846065,-0.701132238563,0.158838478389,-0.130116628342,-2.05168477469,-1.53460315361,-1.86901069056,1.382101572,-0.202652477006,-3.16026551779,1.54259571679,-1.57504456597,-0.61292124259,-23.5289317144
off_to_on,-0.194860108475,-1.16177349977,-1.4584364056,0.0238002922918,0.187535467394,-1.04753368661,-7.01301576374,0.203041097954,-0.226325148227,-3.1826507303,-1.88360540634,-3.06888615073,-2.47613431802,-49.0327207234
off_to_on,2.079319356,0.412320814767,-0.70338533037,0.0171679768584,1.86676615877,0.329142526804,-3.87985734632,-1.26055900605,0.0755944908478,-0.472723162859,-3.72554730483,-1.99456600971,-2.50502394561,0.356385516801
off_to_on,1.93707120393,2.36620760969,1.24392162341,-0.0139912910997,1.35200017761,0.329184447414,2.0286018264,-2.35151718521,0.369928614248,1.97824997319,-2.62235793397,0.52787336373,-1.09590930261,55.3506968409
off_to_on,-1.51732254497,2.00529310348,1.96074911675,0.409307042342,-0.572846505721,-2.13885851966,3.82286709472,-1.57418963639,0.272036012819,2.23842976069,0.443671032379,1.84629229396,0.67439580523,36.1178228852
off_to_on,-4.85190822737,-1.51254017064,-0.0172629097951,0.834604189418,-1.86985830938,-3.54790648313,1.58040709009,0.785669432641,-0.141363608022,0.805368251792,3.09666984433,0.843623416709,1.66667054872,-16.8003114777
off_to_on,-4.74407610017,-5.3471895128,-3.67199107251,0.237908218573,-1.35776724611,-0.00302544896551,-0.622862564073,1.88401281883,-0.404301760081,-0.661372652726,3.19974616693,-0.532751731446,1.23539771961,-19.124156297
off_to_on,-1.33086606644,-5.18304512658,-5.42995794181,-1.07911568934,0.461136680033,5.88311078219,-1.34297455705,0.179013233205,-0.253464312468,-1.20849725791,0.533227519455,-0.111706656818,-0.239180226289,14.759304125
off_to_on,3.17317792945,0.020672524422,-1.97653521587,-1.38024976468,2.10182138874,7.01628398425,-1.54798659418,-1.61664791266,0.0703673060111,-1.09178146764,-2.61949361091,1.16553819876,-1.40708750465,8.15831364471
off_to_on,6.5585758701,6.06522125268,5.10511871574,0.00575828193338,2.23479368015,1.39170979231,-0.993291321852,-0.325356299123,0.202424439831,-0.964134408601,-3.36817158868,0.626779023402,-1.13295647331,-37.4203731094
off_to_on,6.49760803776,7.32834722527,8.8895258367,1.35652791755,0.573737439052,-4.84136195182,0.862585504941,2.27645137177,0.125461161975,-0.887733405006,-1.21380988247,-1.83950670814,0.267952281725,-44.7790589652
off_to_on,1.48521387616,2.67649824951,4.31575147113,0.869231421665,-1.75490288754,-5.70586687442,2.2412367919,1.79719021513,0.0716956766922,-0.0860855082989,1.58803582493,-3.0329302196,1.48638642445,5.51038053513
off_to_on,-5.88561368404,-3.29636565639,-4.61397543359,-0.666285334089,-2.87516028572,-2.59706830037,1.31431939416,-1.41915058778,0.100134404441,2.03551443692,2.87912688567,-0.641353947177,1.79051594927,44.535337522
off_to_on,-9.15032188613,-5.39927586632,-8.4917421127,-1.0083052033,-1.79587850749,-0.272114041642,-0.393891792641,-2.24667625693,0.0436927715084,4.20075426778,2.51345675455,3.31758432931,1.27221704927,30.2304294665
off_to_on,-4.69029464142,-3.3001898174,-3.98538700385,0.222410016142,0.530530804059,0.465283954142,-0.634358065205,0.733537934895,-0.142153421855,3.37640646535,0.988567990513,4.46617016345,-0.270009812232,2.94653292457
off_to_on,3.11659913558,-0.751538949695,2.32634211088,1.08971958049,2.15625933894,1.73504081406,-0.725732804696,2.1454752588,-0.249284975813,-1.74622707554,-1.7657063926,1.02419453617,-2.97825698439,-0.715062283245
off_to_on,6.64232140099,-0.0714179025369,3.44377021024,0.32634429552,2.10002653783,3.05973836481,-2.68232332428,-1.46823154299,-0.128521371977,-7.3708825592,-4.63201618957,-4.00821667794,-4.92436371021,-5.73532966771
off_to_on,4.06499230347,0.446410685884,0.994426061607,-0.887445549739,0.941442687632,2.26321264042,-3.64220946702,-4.83626328887,0.0748919271055,-7.11712826538,-4.36070617253,-5.65094676416,-2.72230058406,-28.2529691473
off_to_on,0.26716629669,2.85924600386,0.866379406309,-0.860688529067,-0.344019870687,0.55573353051,0.756303095298,-1.40954402893,0.140882152809,0.43897747478,0.619825305374,-1.82849759932,3.74282667684,-25.1808669055
off_to_on,-0.911464571076,5.33223544879,3.09270432886,0.190593410419,-1.31273032554,0.949118422552,7.45987511745,5.66826567151,0.0805827887181,8.47398480939,6.26890127611,4.24957879693,8.72172509981,23.0867857802
off_to_on,-1.07287094054,3.88953579596,2.08968353943,0.778892730269,-1.68712791449,1.76119317015,7.43187404523,7.00112248751,0.0519163166267,8.70682439559,6.31052455917,6.67105534286,5.94905842511,44.7395173136
off_to_on,-2.66287684544,-1.90109345094,-3.4942774512,0.377520099965,-1.06538969817,-1.87737910202,-1.54605665959,0.433390690871,0.0729381402416,0.905692019757,0.126733346124,2.55026539606,-3.25316201737,-22.3317028503
off_to_on,-3.95197920576,-7.16336685669,-7.23854518394,-0.23144856188,0.331450717305,-8.46715209315,-9.79097818808,-5.99136455631,0.0227584907984,-6.87331769933,-5.80187323488,-4.49563733911,-10.0932985516,-100.342606509
off_to_on,-1.71802253348,-6.63000368079,-3.5627847712,-0.438884446109,1.3148612606,-8.92337147494,-7.80560230486,-5.6239212214,-0.106014559497,-7.53942737131,-5.66452630732,-7.38569447391,-7.75539975126,-48.4622982196
off_to_on,3.12104223987,-0.427541626358,4.26070480364,-0.389680525686,0.993629923894,0.815581100175,1.36659859057,-1.09457185345,-0.161025848704,-1.94099822536,-0.841466996876,-2.86551172637,1.24368149393,122.307530563
off_to_on,5.82692128936,5.86541925656,7.97052002473,-0.15433442978,-0.00420838089284,11.551030475,7.17924501262,1.97816025429,-0.0702219613699,3.8739705293,3.14954608749,4.66430191909,8.39532235316,210.959534475
off_to_on,3.45155887041,6.66032643424,4.04452257552,0.461951024473,-0.395710120284,11.500721179,5.40743846272,2.94306703386,0.0442071104253,5.55858940578,3.65673014344,7.53271639861,8.11045950999,63.4789380318
off_to_on,-1.94570616144,1.61735877757,-3.19759826794,1.03833330401,-0.00417689592204,1.74145979262,0.809496160909,3.50544693538,0.0623554919153,3.07166904019,2.09603170268,2.95969562338,1.80647415275,-205.012039179
off_to_on,-5.6050289831,-4.15332933813,-6.97169947543,0.614182725829,0.265409361078,-6.18147976732,-1.91151765004,2.35190689243,0.0336585380885,-1.21931019926,0.0539752391443,-4.1095441644,-5.07474801137,-305.121140107
off_to_on,-4.39917364453,-5.0886287994,-4.35406337497,-0.771551927773,-0.0222007801359,-6.32441653459,-2.98492744408,-1.8199025229,0.0509531410275,-4.43696065207,-2.16372418368,-6.63948187179,-7.73593179931,-98.7744345803
off_to_on,0.575092186364,-0.797744400018,1.80924325152,-1.58089649323,-0.396829206758,-3.82256159092,-3.34744565309,-5.25088431765,0.0767746339327,-4.28585951329,-3.50988031318,-2.98568523127,-4.66072077207,223.004673578
off_to_on,4.68171706796,3.54282507277,5.58712746649,-0.692725974418,-0.559797057494,-3.56895654489,-1.82987279961,-3.3504302877,0.0230417433667,-0.778685892327,-2.23364811095,2.23970091274,1.66816462323,331.387251921
off_to_on,3.93584201931,3.12031359053,3.45875804297,0.866672372736,-0.67713603003,-2.18397781253,1.50045481451,1.75561322715,-0.0735931358394,3.17775261668,1.20297493025,4.15639694818,6.2907388764,119.485464902
off_to_on,-0.411374085786,-0.806002426889,-1.64620531819,1.19171478521,-0.431641237642,4.10492786866,3.72665004339,3.87759645642,-0.0965463947323,4.50430755272,3.74292293102,2.65021191051,5.80414814889,-178.4482787
off_to_on,-2.89368686517,-2.81228854966,-3.29910176636,0.133552788468,0.782004316081,10.2005489139,2.95868076488,1.92748237291,-0.034663955971,2.97421799536,3.28482124855,0.739845398493,1.44638319532,-256.882776427
off_to_on,-0.874592291505,-0.728459108186,0.155677648122,-0.582307130704,2.1501699059,7.86842728499,0.547218269366,0.228213932513,0.0113683005545,0.306290047819,0.757577094281,-0.278716475703,-2.74726155725,-84.215294164
off_to_on,1.57632211956,1.59798754899,2.84143312852,0.0447763236368,1.54783534926,-2.1593638368,-1.85018599667,0.0833568873642,0.0013978197949,-2.60262704272,-1.94606594845,-1.67581386971,-4.44059843883,96.4646168831
off_to_on,-0.305648679026,0.32381731333,-0.394136628706,0.852528833343,-1.34655921072,-10.3573924346,-3.83490800719,-1.76389671424,0.00463157817099,-5.27724310866,-3.87662749774,-3.5675054983,-4.10011137658,98.4887619778
off_to_on,-4.08658756181,-2.34979751533,-5.57282792602,0.326762452895,-3.42055636969,-9.80854027709,-3.84869630338,-4.94366505919,0.054433748153,-5.48200943453,-4.00763497429,-3.33617900053,-2.28561278028,5.84358397353
off_to_on,-2.98323423226,-1.39902348253,-4.30106337519,-1.10643030772,-1.65913508149,-2.17539771295,0.207090625594,-3.47579317136,0.0769928101109,-1.0067048772,-1.0231072312,0.447421938508,1.26518344333,-3.97406024458
off_to_on,3.5738221171,3.04754664344,3.84368987256,-1.63838761835,2.33253580227,6.78337227037,5.80313979188,4.05465605089,0.0190742490294,5.75339916874,3.89132788273,4.52506278646,5.14081062456,61.7758772691
off_to_on,7.70309295556,5.10116002047,9.35463000521,-0.522751177488,3.7400567039,11.7971758143,6.18653251308,9.08797466003,-0.052938140542,8.49301059666,6.27518478564,4.30985973069,5.81211670776,51.0669444755
off_to_on,3.63377919788,1.27405468144,5.05855172311,1.07327158517,0.744729491701,8.45336126202,-0.426279220068,4.07083148139,-0.0549782385735,4.2382948917,3.19226901525,0.195001957386,1.84140496801,-62.6132232345
off_to_on,-4.1320702957,-4.38524784413,-4.41439829271,1.66171010439,-2.99629763811,-3.67181024556,-6.54589910369,-5.78774855017,-0.0114617297622,-2.6707014064,-2.44136829347,-2.67775499822,-3.30939091718,-124.247862871
off_to_on,-7.04476683868,-5.59783955437,-8.85544087885,1.00363335214,-3.15177361277,-15.7220549906,-5.03548340868,-8.92468051943,0.00159981404945,-6.0716119179,-5.08710322361,-1.58470709448,-5.06630528183,-42.8701517055
off_to_on,-3.54412178762,-1.80617911266,-4.92857948242,-0.12222905194,-0.0570625264156,-14.4377841175,0.915980108363,-2.94454667496,-0.0161165844756,-5.07426726831,-3.3192960362,0.154509940394,-3.13818758596,64.8148429522
off_to_on,0.898536260221,2.17003609636,1.71422684938,-0.955404456389,2.46621133752,2.06788188263,3.32192676476,3.76083542452,-0.0079078566898,-2.79484295198,-0.438533806045,-1.16502311386,-0.707682832494,62.1331401716
off_to_on,2.67720957882,3.03885851468,4.89362559548,-1.13687933751,2.25269390511,18.0221954217,1.48768128171,4.87395408447,0.0282239752662,-0.334524671128,1.05533935859,-3.24948050204,0.69247430829,-3.21218473162
off_to_on,3.27393672999,2.13319673805,3.95333520098,-0.637172346978,0.544393817452,16.3838556878,0.962520336015,2.73421755877,0.0385136969929,3.44740910233,1.97672215093,-1.0379186182,2.28195922879,-4.89414586265
off_to_on,3.73492032328,1.61230876763,1.52752600106,0.141872804941,-0.812200923643,-0.582189046704,2.32035272584,1.07993641231,0.0124785417532,6.85053269842,2.94435419216,4.74159321611,4.08962177396,43.6140575221
off_to_on,1.84329069563,0.969684095012,-0.608233835897,0.529054543112,-1.50016775373,-14.118568345,0.29714609761,-0.956156779719,-0.00348345609475,5.3832548186,2.23286386445,6.99226007864,3.53355197619,27.7345239435
off_to_on,-2.91394187709,-1.07415480928,-2.00197234578,0.342135734282,-1.67752343338,-11.9467126867,-4.92936069304,-4.11721838349,0.00456341841114,-1.27349107116,-0.796682012607,1.67967789182,-0.438691109651,-55.1851521635
off_to_on,-6.09465217764,-3.41066403916,-2.3878859522,0.192510666776,-0.883995019365,-0.936835350165,-5.33821448905,-4.69940586092,-0.00349811162844,-6.64648900684,-3.13473682095,-5.92048260785,-4.45460610392,-82.6660256439
off_to_on,-3.65498008361,-3.5490348205,-1.77624320464,0.52420261097,0.842760117365,5.17631716658,1.87384952067,-0.165464990334,-0.0368312873796,-5.10643169593,-1.95583384639,-7.42956948275,-4.41539313697,-12.1989094379
off_to_on,2.02121203039,-1.04573031647,-0.600411250728,0.70935819658,2.08700761957,3.28284809334,7.46801285162,5.07731090426,-0.0440132202622,0.622901327296,0.867306195084,-1.71867304326,-0.743540776124,50.2885411854
off_to_on,4.97002175274,1.87112424685,0.883897015508,-0.0963567616809,1.59659897368,0.584875759276,3.19193705761,4.91498158324,-0.000997551287599,3.29170032525,1.27861126525,4.37533149689,2.35391053755,28.6029970671
off_to_on,3.06920098468,3.01914700698,2.33495537168,-1.34642250005,-0.0102906379595,1.68744800768,-5.08998562623,0.0198216118721,0.0389267479899,0.805126719216,-0.941774694069,4.94703675842,2.22555993621,-9.91186261036
off_to_on,-0.539691145223,2.31489330966,2.53208531845,-1.41559053385,-1.14930287415,3.57259474892,-5.89942634797,-3.7829669647,0.0274931820764,-1.98002825117,-1.99398980287,1.20738351661,0.311103522219,11.3073182009
off_to_on,-2.4516397597,0.987918142361,0.57085731113,0.129326560709,-1.28524207042,2.52704036152,0.738239382186,-3.67268763813,-0.00328920224271,-0.778364194349,0.178516845879,-1.79460540961,-0.550991239569,43.4672791775
off_to_on,-2.20197929527,-0.189451184269,-2.01606951212,1.55868146883,-0.971951117788,-0.646197460324,4.58911397705,-1.48210917874,-0.00149603348024,2.76037759917,3.06241127481,-1.68468866971,0.411856959393,8.68933271848
off_to_on,-0.767549787791,-1.32323841177,-2.43492023194,1.09964219031,-0.418712515934,-3.72972110731,1.67028116856,1.16592259469,0.0167018810491,4.19364377171,3.28513270023,-0.203440428835,1.52969360252,-54.0606018792
off_to_on,1.01963703214,-2.43609512618,-0.467973748435,-0.623970899154,0.628951244219,-6.1016446849,-1.25024796215,3.87660204364,0.00343711262621,1.7778142308,0.663005788487,0.250885690978,0.794362733646,-52.1613547995
off_to_on,2.02352765426,-2.66147239892,1.08469683388,-1.36408922042,1.68116279227,-6.33483856706,0.305095003529,4.35331787269,-0.029729234266,-2.59553807575,-2.4982888571,-0.542774534993,-1.82278276259,4.34590152104
off_to_on,1.21758334202,-0.928961643644,0.626212879738,-0.243972304711,1.5421413716,-1.57877368771,1.41227388481,0.223060170993,-0.0291279306963,-5.6988188086,-4.06321966337,-1.08300208882,-3.71042041751,26.4558148642
off_to_on,-0.66461460592,2.17740236876,-0.103157123527,1.19650112348,-0.0377523295447,6.87524633719,-2.07186170111,-5.31873520848,0.00688891573094,-4.89760432595,-2.93713800112,-0.26405804666,-1.99114321935,-0.101652869559
off_to_on,-1.67589529364,3.85110572665,0.455061481953,1.19283340805,-1.70606679226,11.216851584,-5.05676028777,-5.50009073291,0.0233810007565,0.0513927350706,0.635554314912,1.27334285877,2.52975803879,-2.83575681061
off_to_on,-1.25220835968,1.79675787806,0.780220746494,-0.0748333970017,-1.98157111902,5.66663077107,-1.62065126865,0.481864676891,0.00103022936377,5.54056778927,4.14193345458,1.79596399702,4.98898235917,36.3359093408
off_to_on,-0.463444810956,-2.22378286427,-0.63973879289,-1.13006462915,-0.73067508993,-4.44453495072,4.44691397456,5.24764185129,-0.0152463124118,6.42154840229,4.06422361153,0.604515944204,1.97926078072,43.9903441951
off_to_on,0.388391268887,-3.43175157332,-1.76478123202,-1.18801810455,1.07626635134,-8.09723257383,5.19890190138,3.35677852385,0.00325642501037,1.70892177535,0.0539087689193,-0.873790077011,-3.39568109388,-12.3931557325
off_to_on,1.93836466864,0.0449300029549,-0.0571326132008,-0.589251146505,2.27762630007,-3.02343307471,0.663409724393,-1.38791804164,0.0222036833743,-3.61879103638,-3.59098750774,-0.915520545929,-4.71727277078,-58.6926716557
off_to_on,3.07091943422,3.91553386523,2.50758038119,0.232453097608,1.90602991165,1.64957698149,-2.38650729451,-2.58036709525,0.0079690203165,-4.46907147569,-2.82169817141,-0.013816338742,-0.505737975891,-32.4900353691
off_to_on,1.1823585224,2.73278754092,1.71702349817,1.10341809159,-0.247708028965,-0.766376532658,-1.51910403661,-0.51056232499,-0.0146712853584,-1.59957123382,0.882245726456,-0.075896154004,3.83795042535,17.9140527205
off_to_on,-3.27265825836,-2.70588565375,-2.00315359347,1.52288419144,-2.71010149779,-4.62591963994,-0.616888021147,0.389316917539,-0.00924595143123,0.665168074277,2.60999196338,-1.16951089502,3.3392631375,19.0836622092
off_to_on,-5.46122202626,-5.9437241336,-3.51095732988,0.839838238653,-2.97547547898,-1.15608495666,-1.46006813705,-0.228995281465,0.00900078758161,0.882692779706,0.67891648156,-1.16725980019,-0.455557711216,-10.3064633387
off_to_on,-2.08493862725,-3.08651465791,-0.596298421257,-0.641297481823,-0.300169411165,7.24135274456,-1.16463502165,0.573963245221,0.00368799624886,1.07520056249,-1.72250698507,0.652727761669,-2.77536972629,-5.8121271747
off_to_on,3.54680316377,2.6330660129,2.68631037501,-1.59597228956,2.7568555236,9.72869383631,1.00829152856,1.97839605204,-0.017117948897,1.77738277181,-1.61790950357,2.0103734488,-2.19160219602,27.0534548646
off_to_on,5.4923819316,5.71792433448,2.36981124279,-1.2268298426,2.98191372113,2.72282144916,1.59648979714,0.282373413544,-0.0163462274727,0.967447378699,0.0977258613642,1.2613341053,-0.69737302348,29.5369173083
off_to_on,2.6909283529,4.79832038002,0.230394413226,-0.203516697819,0.439831800689,-5.39200757691,-0.105042996433,-3.29782572291,0.0069359070912,-1.34895147138,1.12748211767,0.288144613098,0.745295019247,-3.56538402899
off_to_on,-0.973827728797,1.84072256207,-0.171873987387,0.469407626772,-1.74965155111,-6.8667705516,0.101222533236,-2.93597339337,0.0178601367283,-1.89256027317,1.16524904631,1.00889957338,2.56926479568,-20.4037398369
off_to_on,-2.9687261068,-2.20751175534,0.213814382491,0.787299745775,-1.60578008603,-4.16985471698,3.14782929124,2.00430245397,0.00612746462933,0.413191117094,0.969268615459,1.01614718309,3.23278583575,-8.34893196531
off_to_on,-4.08952509423,-6.9009575007,-1.76902203889,1.1335790253,-0.454319345389,-2.79261790749,3.10345284977,4.45866698177,-0.00156726504124,1.63230938223,0.175571121712,-2.94899533194,0.196763955327,-9.28265959616
off_to_on,-4.10575156985,-8.68617906907,-4.6078680827,1.01709020344,-0.19392083387,-1.34899004568,-3.04434372956,0.509889282207,0.00671504987464,-1.08764425967,-1.53339347837,-7.6757391641,-4.69120095423,-29.6142981132
off_to_on,-0.517909783935,-3.10041286841,-2.97326318331,-0.254261850579,-0.277236126863,3.98780636423,-7.89114367623,-3.6051750094,0.00855154266555,-3.74899872078,-2.4227916324,-5.20667552216,-5.22658107188,-18.3385965785
off_to_on,5.99412074214,7.71191149729,3.84230227035,-1.80591906972,0.79897758214,9.48237656649,-3.33134106714,-0.987070845789,-0.00826785329871,-0.716812230076,-0.617678241354,5.64496491218,0.947218695236,36.1175402988
off_to_on,9.03086532661,13.8526721082,8.9199964202,-1.66490954796,2.16845752323,7.25225626612,5.94353383952,4.3257006174,-0.0209609188163,5.73763605564,2.40622993205,14.1813128705,7.38434940046,63.2679363714
off_to_on,3.54639903387,7.80516971097,5.66971565617,0.436112643983,1.31679292707,-2.06122189887,7.55229935325,2.92188527716,-0.0108687447021,6.83859593698,2.92750506608,9.29123165562,5.96887729755,13.6924315297
off_to_on,-6.37641166275,-5.87251146263,-3.74805084518,2.06866147116,-1.71650708666,-8.58924538577,-0.674822433754,-4.94909136126,0.0052529638745,-0.668854329746,-0.0144274187266,-5.8379501064,-2.49349717759,-54.6382674346
off_to_on,-10.9385336731,-14.4554094544,-10.492664806,1.07543894782,-3.32664749736,-6.72634355428,-7.03174178264,-8.4333704474,0.00606076832812,-8.91493556269,-3.0029080662,-15.9287056191,-8.77372616882,-53.3209730258
off_to_on,-5.70501859402,-10.4865935886,-8.39794333649,-1.34149741768,-0.958574515968,-1.49289516667,-2.72279117498,-1.52041756732,0.000646707885961,-8.37190590521,-2.60763819302,-11.0760351052,-6.26342413473,13.4157040756
off_to_on,3.81273154314,1.30446959695,0.473540669619,-2.00636418237,2.90053247251,1.38984045833,5.70875161686,7.98243525615,0.00667268879653,0.369336464037,0.418699055836,2.58695717313,1.89836212885,63.1627329883
off_to_on,8.95912298772,10.4302194522,8.65169516247,0.0130607976839,3.47160132022,3.52435735504,6.27015013818,8.96489323624,0.0154172146567,8.02170880993,2.6120827554,11.4781990068,7.55304451059,45.1203464111
off_to_on,6.62189479668,10.9657256077,9.96983078384,2.17192903785,-0.0996592157884,6.57304330511,-1.59383218401,1.36422827695,0.00791761298914,7.968135487,2.16472599713,9.70742963875,6.46312991098,-20.6485624087
off_to_on,0.377438774909,4.51559194453,4.07193365148,1.83162047358,-3.51595435376,5.07067729442,-7.29959672699,-5.34948629086,-0.00917604547204,2.23830309941,0.271983275219,2.25724490634,0.96859234663,-86.3121001922
off_to_on,-4.5110684554,-3.86017541072,-4.03151094215,-0.493411830978,-2.83818306097,-4.27689443889,-4.32667393367,-5.26750390134,-0.0138641794495,-3.30830840129,-1.15790883561,-3.86186495638,-4.02796632378,-98.8810105952
off_to_on,-5.45433532839,-9.50778404752,-8.4530071152,-2.16283425337,0.701505376483,-11.6754469082,2.16158738786,-1.75170242323,-0.00554736446559,-5.59033501628,-1.50507702681,-6.32661845886,-5.42614106546,-12.8389068269
off_to_on,-3.18676793544,-9.24244201454,-7.01456387713,-1.72141502681,2.79456839803,-4.93494192407,4.13120464921,-0.227739742888,-0.00220659966264,-4.84970491925,-1.16726531151,-5.63699696709,-3.25642836889,137.483711677
off_to_on,-0.0161162399358,-2.54930889126,-1.81074190054,-0.03207131655,1.68835012255,10.1378832749,1.31293715823,-0.621708252429,-0.00611090181197,-1.96565749868,-0.57115183069,-1.94981226497,0.177065155858,201.330769334
off_to_on,2.24513550142,6.56399744802,3.78296711633,1.35376175188,-0.342291935885,13.5284124354,-0.584679763806,0.538168575925,-0.00195049513382,1.95203343563,0.0885774775846,3.34096921168,2.2694765182,58.7067936201
off_to_on,3.11352512229,10.998859786,7.22396235332,1.67393132144,-0.884658335109,-1.08753264377,0.913887549086,3.57592198933,0.0111434173999,4.61899954373,0.72375958271,6.00899415484,2.26654992259,-183.018704993
off_to_on,2.65692781649,6.56102858336,6.55289271874,0.906372029596,-0.431653449658,-15.0123198901,2.23268746864,4.81717552056,0.014856220054,3.98491232735,1.28269013582,3.00795927291,1.55499037159,-260.245645999
off_to_on,0.822568811526,-3.17508617171,1.14213580511,-0.49638014013,-0.553640388559,-9.68769073095,0.0103883116796,1.99113206362,0.00379685518204,0.852395231717,1.57020963757,-2.60754303549,1.4501206899,-75.3532326797
off_to_on,-1.6336860381,-9.53063085587,-5.7832926317,-1.49376470912,-0.906635960363,7.00134084079,-3.56296670553,-2.26862980535,-0.00462427667187,-1.60106844551,1.17355685714,-4.30413498241,1.34225674729,162.112083648
off_to_on,-2.58893544994,-7.15361984046,-8.05527372347,-1.10724400342,-0.104069538331,12.4372888564,-3.86346665322,-3.78065867695,-0.000910222086291,-1.52948271206,-0.108450430775,-0.293503387453,-0.134768770111,201.932664245
off_to_on,-0.880299576541,0.767680392939,-3.01118081322,0.263766447133,1.27427277076,1.64194090517,-0.581635934105,-2.35973430988,0.00118379152123,-0.51631659409,-1.7901765796,3.82779195292,-2.6720047689,61.5477313394
off_to_on,1.21397124035,6.29815753454,4.23110267078,0.985094609599,1.05131903202,-7.66464859995,1.79186088837,-1.60755894073,-0.00785652347684,-1.09913470815,-2.87623909073,2.3984455034,-4.16477584767,-54.2841728021
off_to_on,0.392523343307,5.11134092676,6.09001388538,0.275998210692,-0.845905093876,-2.98634512983,0.737404888877,-2.80006958612,-0.0140378137525,-2.93175680227,-2.45935334062,-2.7020298936,-2.96780757201,-62.0161021376
off_to_on,-2.42432413332,0.0431734391775,1.60955803152,-0.618649959749,-1.50670326339,5.57756328838,-0.224949358452,-1.91443304093,-0.0046009454836,-2.84648850917,-0.251952905062,-4.70758322895,0.437170154389,-55.9518301319
off_to_on,-2.38344334248,-3.29226807592,-2.99673150418,-0.215270340023,0.694914297899,3.24595601005,2.83099967011,4.2715508062,0.00817626570468,0.854447343074,2.84158180826,-1.18151618382,3.8264646075,-80.3963067549
off_to_on,2.16535435007,-2.67129239951,-2.88953601442,0.918499795341,2.92050111858,-6.20821889909,6.53036148027,10.7845682838,0.00768766344497,5.33459710077,4.56321878215,3.07545816634,4.75890584041,-43.9558304038
off_to_on,5.94755107446,-0.195196469045,0.04925005281,0.934290369639,1.40851343951,-7.44437859453,3.30051195108,8.32213413719,0.000999663750183,5.8749608562,2.87672217804,3.10771763512,2.35596354403,80.4544862914
off_to_on,3.37408271547,1.46681018592,1.60054244445,-0.461885623752,-2.76110983725,2.13565432204,-6.78642952651,-3.92588775062,0.00389295243198,1.49624860196,-1.36903380093,0.326346551897,-1.5005434939,146.040871807
off_to_on,-3.21592445101,1.73024995403,1.17684457603,-1.42685317417,-4.4327194096,8.79586886287,-12.7774698094,-14.190617265,0.0108324982207,-3.60596318292,-4.33969540578,-0.643655188523,-3.36932054082,43.6772143151
off_to_on,-6.12620605949,1.12377318017,0.67641513759,-0.646616448762,-1.24612098223,3.54833188075,-5.91286821216,-11.1922599856,0.00488628589952,-4.96736555837,-3.24961334373,0.71601104719,-1.8911472067,-102.765146186
off_to_on,-2.53709060862,-0.236574049968,0.176219655869,0.737786967679,3.09326051724,-5.1753824316,7.52671247203,1.61170157363,-0.0102689034483,-2.78735414993,0.119496994063,0.60438265481,0.319359823787,-102.980970108
off_to_on,2.28527052398,-2.04878171012,-1.46693114734,0.837148721927,3.82686081324,-5.00838658176,12.7374133015,10.2979919834,-0.0145465639301,-0.510503474775,1.71063935632,-2.35083306333,0.00375617690366,18.2637156814
off_to_on,2.88453900313,-2.88329513291,-3.01575536596,-0.248517648904,1.10727409079,2.63176817775,4.94685003152,7.7940518895,-0.00497297060411,0.330619369391,0.618246736519,-4.25480982331,-2.00835383016,73.3004631386
off_to_on,0.441216539271,-1.39242012008,-1.76909647903,-0.710337705407,-1.2608723712,6.01738694723,-5.25027163099,0.640215960894,0.0010186740345,1.3244110448,-0.163436676114,-1.54963830622,-1.72031967896,6.79887822633
off_to_on,-0.667493713737,1.69785708096,1.84778503086,0.241617472471,-1.4138868644,0.265975102534,-6.67493222864,-2.37020665638,-0.00259487495248,3.25238277789,1.22004762663,3.47786510655,2.0706729638,-43.1174594661
off_to_on,0.325159547839,3.87752798861,3.9738538767,1.26287068481,-0.872731605337,-6.9247518884,-1.10086539135,-1.44330403442,-0.00130117572824,3.87440141074,2.49542568458,5.40802034353,5.36584412389,6.10710040486
off_to_on,0.813301291514,3.28173543832,2.41538860115,0.806348955458,-0.948802482146,-6.56870094009,2.23363201864,-1.71193334209,0.0106811898667,1.2628739043,0.985185153222,2.37588544364,4.01137191885,51.6652726568
off_to_on,-0.0880819474531,0.312562055511,-0.677802428267,-0.804067343039,-0.785115576459,0.748407224313,0.393381620871,-3.35220884432,0.0168805567754,-2.63231724231,-1.97744715906,-2.38081954877,-0.881387500329,-1.75377487048
off_to_on,-0.622599571054,-2.92039860873,-2.27155714004,-1.84905630242,0.354563617575,7.2931538749,-1.61494269609,-2.25716766603,0.00625190338576,-4.0542695665,-2.96442335391,-4.72415200481,-4.61493250591,-71.5458307447
off_to_on,-0.0818636982296,-4.12385101417,-2.03172828033,-1.25051737166,1.37054170661,7.47544772233,-0.567132708148,1.68799525396,-0.00722247689018,-2.18284357031,-1.42657510515,-3.1561252771,-4.59136927448,-38.0218872462
off_to_on,0.0675202401703,-2.27098955348,-1.09409391572,0.424570133194,1.19232617974,2.07222129241,0.932367447455,3.66653653506,-0.00802580886847,0.34989386992,0.178966480473,0.987369295595,-2.04037177121,52.271864736
off_to_on,-0.864926409493,1.25778357122,0.217839146942,1.73034256855,0.486312254537,-4.41396460585,0.651138221459,1.54737055295,-0.00368804053005,1.27136254479,0.628257574345,4.4348622378,0.886741177128,64.904887543
off_to_on,-1.5353392928,3.15781549865,1.44199161292,1.67273362366,0.121894258843,-7.6320492735,0.533905178846,-1.09947936411,-0.00751011533539,0.856804336912,1.11989762163,3.70065813367,2.99301310645,-4.39658889328
off_to_on,-0.921488847675,1.40726437943,1.00071355048,0.425894157626,-0.396136903334,-5.49662564443,1.89214709437,-1.04403600786,-0.0123059094138,0.315982022724,1.99605181387,-1.27168762274,3.29100049551,-38.3689312451
off_to_on,0.429518059936,-1.68695210897,-1.147942606,-0.930399995277,-1.36629413184,0.670672624158,1.983899939,0.238237252304,-0.00343141363527,0.1431892546,1.5474279081,-5.38069546683,1.30614105322,-0.692615559869
off_to_on,2.01437558495,-1.52883445679,-1.70078895327,-1.41423695586,-1.39966113904,6.2973945684,-1.03010855468,0.383581991867,0.0125893247526,0.55078927407,-0.647437221642,-3.42467120687,-1.22963947952,18.7425924207
off_to_on,3.64691564126,2.56540788809,1.68459549607,-0.993504530715,0.34984699196,6.62926884975,-3.70032805322,0.140045587452,0.0162783530398,1.57594451828,-2.07531903495,2.77813652924,-1.50902804685,-24.1684498073
off_to_on,3.51170213699,5.18188447258,5.31452788454,-0.314107928059,1.78373635896,1.29027568683,-2.21054761127,0.610420119582,0.00659409786276,2.00483238264,-0.998836186746,5.82027553641,0.448184100523,-49.6647654074
off_to_on,-0.683689695288,1.27158187696,3.02977785935,0.303857539096,0.480408197433,-4.55722135386,1.14582046311,0.113678270658,0.0003520413858,0.123383705038,0.534900960374,2.30418299752,1.2822193298,0.451411344351
off_to_on,-6.80730175124,-6.26636455426,-4.58508715356,1.03009462489,-1.94834978611,-5.05571779766,1.36570556347,-2.39065905896,0.00195143358591,-3.34198953291,-0.0477151608655,-2.8496334432,-0.910543474885,56.4871743795
off_to_on,-8.05582500418,-8.86349431268,-9.0174994424,1.57478959905,-1.45655050707,-0.125593572531,-1.0591424611,-3.57434441937,-0.00189700727697,-4.89337854652,-1.44852326608,-3.82366094338,-3.45701913541,37.4486947735
off_to_on,-1.14693583542,-2.80032400294,-4.32608442769,0.983991180256,2.11566379472,4.09195951654,-0.925572253412,-0.10798378866,-0.0141057699053,-2.44964639697,-0.573432903997,-1.57183273988,-2.79945976907,-16.2954034256
off_to_on,7.58004309736,5.75175926771,4.62464697344,-0.870069815861,3.86629042176,2.35900266755,2.75611123589,4.88075498395,-0.0180647974603,1.70854156626,2.05317001345,-0.306360590983,0.522207065477,-19.4412433792
off_to_on,8.74764572459,8.27794033617,8.1630586055,-2.29735446377,0.686273160442,-3.061777873,4.44354155333,4.92282795101,-0.00530306263498,3.99084118845,2.67583046702,0.109919131899,3.11738123142,14.2416933331
off_to_on,1.76119839698,4.01139114255,3.94878531646,-1.51300274258,-3.79561524197,-4.97383165073,0.66184614758,-0.395265349034,0.00898531019875,3.92090984447,0.2297828351,2.54681450989,3.58784871153,7.58761136715
off_to_on,-4.71880899098,-0.777450740172,-1.43392515031,0.823271410601,-4.01866874213,-0.405501277959,-4.12966735757,-4.36561144835,0.0103634259577,3.11894086924,-1.84467630199,5.17201180818,3.03411224334,-38.2448714394
off_to_on,-4.49941633487,-2.13738737454,-2.50910665121,2.09987496433,-0.154871740361,5.34851865742,-3.96831443839,-2.67482472637,0.00654394962659,1.3552171008,-0.986297504592,2.58104213271,1.50942129956,-45.4969231389
off_to_on,-0.916331276415,-2.52687583089,-1.38615313272,1.04511649716,2.66325445985,5.37818562513,-0.0838924342655,0.969251263607,0.009246335223,-2.73096526618,0.614518167997,-4.66931200551,-2.16253158655,5.64767121434
off_to_on,0.0503090998054,-4.62993398997,-2.26959926423,-0.737247638584,1.88883950915,-0.126437014143,1.5910064774,1.28931729847,0.0110998499105,-7.12686583914,-0.137069501366,-8.19767052172,-6.37214705557,45.5251578985
off_to_on,-1.13839957233,-5.5974876935,-3.89013571221,-1.14697398958,0.283901075449,-4.53903361899,-0.307056446683,-0.832194919938,-0.00010442542747,-6.80839405674,-2.06089497116,-2.80952011443,-6.41408171564,31.168637142
off_to_on,-0.00681322369786,-1.2526967217,-1.78813725231,-0.291666005475,0.506784065679,-3.51795195502,-1.15491982742,-1.07345019596,-0.0160000840947,-0.407730745269,-1.56203962332,5.56309950767,-0.581991356018,3.22327332558
off_to_on,3.28811662082,6.11822154763,3.65744953918,0.285852290004,0.922337804567,0.121582745833,1.62273045015,0.915050052724,-0.0180554382333,6.55300685245,1.57910982443,7.43220304555,6.06033508171,-0.788435733931
off_to_on,3.68138894836,8.96831239919,6.44341537866,0.142574109843,-0.87847519952,1.26971057305,4.20167013375,1.73530107054,-0.00674024277987,7.70576769977,3.62926694554,1.92460175279,7.06104060904,-5.77742848664
off_to_on,-0.409937662267,4.05097028882,3.05731769212,0.137501305455,-3.20735259647,-0.416414434555,2.33057061107,0.540853055675,0.00122636845287,3.16382208369,2.14719534424,-3.61145904865,2.35933801526,-28.5356288311
off_to_on,-3.83485585928,-3.14011005739,-2.49282386673,0.466334087632,-2.36364411054,-0.895345804128,-2.05690849366,0.0326816548679,0.0015385933212,-1.81525448258,-1.01109510136,-4.1568528769,-2.32935153984,-25.9588304856
off_to_on,-2.06871692421,-5.54202917003,-4.11139066947,0.231292007963,1.4600393686,1.7609466948,-3.74247982314,0.933802261069,0.00589429450212,-3.85947645396,-2.67575617183,-1.751352788,-3.17530211883,22.362540886
off_to_on,2.10035524972,-3.13649108073,-1.49291870347,-0.713080948729,3.78513218562,4.22144816124,-1.78121036728,0.303687588938,0.0159835191079,-3.87926658184,-2.12536442153,-0.013743088947,-1.92409002762,44.7834949178
off_to_on,2.66990753021,-1.13907765415,0.639881639756,-1.04285348732,1.82553392146,2.39351604417,-0.151902826956,-2.8796062386,0.0166876182528,-3.16192499173,-0.723444357001,0.814251660018,-1.53519745728,-21.7418445656
off_to_on,-1.0101173355,-1.44776326095,-0.104932747602,0.0575267869923,-1.81777109755,-2.66620669857,-1.01532593539,-4.53915098905,0.00200256340311,-0.972793315319,0.503039276436,1.8592940418,-1.52317767632,-100.041066868
off_to_on,-3.65246103166,-0.527933497052,-1.04826146653,1.35372835374,-2.76245600049,-5.48360281114,-1.2710078066,-1.02860928222,-0.0124375884078,2.76519785478,1.4180863889,2.53511250085,0.247703804125,-48.5663090084
off_to_on,-1.58864682632,3.55156956881,0.398668425825,1.13269035708,-0.36926759574,-2.84700923002,2.20447909299,4.71719676261,-0.0131609991429,5.29108577409,1.81441128322,1.69619997252,3.11834763204,122.588277216
off_to_on,2.579244013,6.46263886191,2.41470880156,-0.38757187763,2.06325973764,2.09109425953,6.50574376123,6.19167157843,-0.00783550195816,3.72680061304,1.28263142474,-0.359640567097,3.77807131138,211.974008022
off_to_on,3.89400795891,3.25556279824,1.86103316276,-1.41125169221,1.7727990003,3.69420941633,5.34470801061,1.56101307999,-0.00772944403815,-1.11848327193,-0.120889663064,-2.55484092006,0.749114555648,64.2699203965
off_to_on,1.19308565382,-3.7422059876,-0.648127172785,-0.973912178849,-0.532440585533,0.844256931854,-2.32264383687,-4.24725388122,-0.00690485413731,-5.17152086758,-1.70367268004,-3.88547136694,-3.19786977514,-205.696832893
off_to_on,-2.29531451156,-6.85539693111,-1.79235472305,0.16091512062,-2.1967833178,-1.98589457168,-9.32551711468,-5.68102727858,0.00448081606131,-4.87753287461,-2.42041522805,-2.88403071801,-3.88751381051,-307.169284816
off_to_on,-3.18257213006,-2.78301485965,-0.613781603664,0.905988165756,-1.71695298959,-0.897110088837,-7.83943345772,-2.22261520172,0.0179949858641,-0.140241344244,-1.31615666744,1.20769219504,-0.35583596762,-100.504670952
off_to_on,-1.10012573531,3.27973809388,0.602084025741,0.997466734588,0.202907772368,2.3727503586,1.29169259381,2.46055815328,0.0173662513045,5.36790565245,1.38085354583,5.59961317314,3.87387726449,223.234617359
off_to_on,1.78226952733,4.5323891393,0.395034127359,0.571378037384,1.88057433537,3.13196574079,8.95678659629,4.70035206366,0.00440409333476,6.45837822491,3.40870938897,5.31402449156,4.17736903349,333.434763331
off_to_on,2.95546546425,0.6971905818,-0.0848555144184,-0.307762293314,2.17964141066,0.0468128524461,7.65401692715,3.22858717684,-0.00468665326763,0.954780420083,2.18775382616,-0.415057215927,-0.327800585177,121.449836629
off_to_on,1.33544550728,-2.9787840036,-0.0668011958636,-1.20182665806,1.03624493044,-3.5699980415,-0.652463746065,-0.702977058224,-0.0054683784078,-6.73064148353,-1.69413112844,-5.67696325633,-5.35327674868,-178.24921232
off_to_on,-1.92283352433,-2.87642930189,-0.728589065306,-1.23590305477,-0.811447440729,-4.347596656,-7.2487586472,-4.09001485141,-0.00819285391691,-8.5230571665,-4.11870069055,-4.68640393637,-5.49812721202,-258.077955238
off_to_on,-3.96132145671,-0.216186633808,-2.0686774198,-0.147876951379,-2.26816634373,-2.23350027953,-6.04387396987,-4.09289505874,-0.0146713899283,-1.49595226801,-2.10093084823,0.826792101477,-0.0828239352067,-85.0212699947
off_to_on,-2.47272395418,2.13332579487,-1.27719284774,1.12063003406,-2.34522137255,1.02216288146,0.818472802761,-0.675688707449,-0.0125725380802,7.51526400758,2.17247131842,4.14928599847,5.75280474944,96.744799447
off_to_on,1.79107438286,2.92416215434,2.76592954379,1.44313579059,-0.773486876745,4.07782727547,6.00481305319,2.97884059122,0.00201900519004,8.92834464882,3.84527853699,2.17157841766,6.37566062223,98.5593622454
off_to_on,5.10359543455,2.06880127375,5.69872178978,0.700975318353,1.52740211541,5.41779249364,4.528582959,3.67435346561,0.0146142239383,1.58647031901,1.40532478198,-1.86403805199,1.48891385717,4.64990845811
off_to_on,4.1808005298,-0.355391123759,2.60775797484,-0.454024546207,2.86354118927,3.12128660794,-1.56263635836,1.54580217431,0.0137083186722,-6.10283246248,-1.88910973355,-3.42840970669,-4.03516138234,-5.15006612984
off_to_on,-0.326024837764,-3.08876134743,-4.11759496316,-1.41721314423,2.14328699961,-2.27876860435,-5.42188494253,-0.6508134968,0.00681379553619,-6.51206239724,-2.58768550217,-1.21634271474,-5.47048319463,62.6161662213
off_to_on,-4.32824206192,-3.58421665007,-6.65025474238,-1.62392693374,-0.0656483398005,-6.284728645,-2.7055283622,-1.20916842123,0.00451055611512,-1.05771446211,-0.861391734201,2.99100316622,-2.40232617648,53.4193126055
off_to_on,-4.57277981952,-0.952306286192,-2.24259498345,-0.476787973779,-2.08280230282,-4.81453046497,3.17879716511,-1.12504380883,0.00239071422034,3.34141395826,0.919518469135,5.69121854255,1.85234892358,-61.4343262505
off_to_on,-1.8047172603,2.06883153299,2.89657348725,1.63950505,-2.65861137754,0.3962375881,4.58123319232,-1.79679182485,-0.00734406926066,3.12197009191,1.42459333826,3.2803834422,3.63269579778,-125.348351122
off_to_on,0.891908691873,2.18533088668,2.68220509281,2.73506831838,-1.70399615317,3.65409022261,-0.724424296254,-2.39963437051,-0.0172984748861,0.521289646694,0.888596079356,-3.90061821866,1.80948589089,-44.3287273111
off_to_on,2.07441585718,0.00639509007024,-0.329310444734,1.07441194831,0.205021258664,2.55518196982,-5.73470243979,-0.91230001356,-0.0143595973319,-1.22415014411,-0.172840604214,-9.19051041706,-1.4780228778,64.793749951
off_to_on,2.72932881825,-0.841930591419,0.0660196721426,-2.16349670787,2.22645288035,0.304858081989,-2.96080169525,2.47482195236,-0.00135874675488,-1.5846022105,-1.20407255235,-5.82132866046,-2.728461389,62.5904973651
off_to_on,3.26650166694,0.973317589056,3.34243160649,-3.49551892258,3.10617677896,0.1584992777,4.81726173755,4.55761355646,0.0071672005006,-1.31463362006,-1.31832004396,3.61514262461,-0.608401459259,-3.89066897704
off_to_on,2.06921695547,2.59220376169,3.11498428495,-1.16226492888,1.76771180192,0.934362040719,7.42671807493,2.78469940977,0.00749295479169,-0.165205450034,-0.148427109273,8.89774827451,2.43361374818,-5.89581616745
off_to_on,-1.53947513546,1.25336178614,-2.12285916572,2.46615576074,-1.17365229635,0.0446854341834,1.19419322927,-1.11734991328,0.00853062743506,2.21925048467,1.34719608808,5.26724323312,3.00062831637,44.2346517014
off_to_on,-4.74442953793,-1.83811761931,-5.7974592223,3.52808087399,-3.26135460191,-1.81121753825,-5.81309870356,-2.94524377273,0.0120188745979,4.21634717392,1.85630757909,-0.756285562264,0.809888010607,29.5838383806
off_to_on,-4.19992906058,-3.62662584319,-3.10057775605,1.10773535259,-2.62415392656,-1.99760760643,-5.34875623738,-1.541538498,0.00823703058036,2.89996604657,1.06488498767,-2.08734354249,-1.58481062056,-54.4675589667
off_to_on,-0.747316414643,-3.2953222836,1.6558385125,-2.04183075427,-0.162726181975,-0.381407734677,-0.322625409531,-0.335800259264,-0.00498487635882,-2.48450733166,-0.577673423282,-1.42997870138,-2.70341442141,-83.7152167364
off_to_on,1.71736781177,-1.8825337907,1.98981767631,-2.90878366481,1.69314326556,0.734196130824,1.11477696938,-1.9623480119,-0.0149100801376,-8.11613172624,-2.46805456948,-4.40809158949,-3.22911122096,-13.1124190508
off_to_on,1.97086098813,0.693772122079,-0.579377104433,-1.22121632338,1.97086445665,0.424309604535,-1.0639566489,-3.46204687096,-0.012489339078,-7.89375312411,-3.28364543687,-7.37949026034,-2.83125722234,50.6464151146
off_to_on,2.53800633747,4.80071205333,0.428437461029,1.02575434918,1.54494783168,-0.0241049599686,0.417241768497,-0.115275041632,-0.00500436073478,0.287397285524,-1.24396213088,-2.04876568781,0.60125107879,28.9151127445
off_to_on,4.03718482248,7.56690984696,4.95301125172,1.96374266147,0.861553101194,0.16340985771,6.48195603483,6.51772965692,-0.00174417039926,10.3746534548,3.13164628895,8.91152857856,6.26599000343,-10.7644544532
off_to_on,2.64778428448,4.40229482241,5.23949242241,1.27249699596,-0.691301341461,0.469597611654,8.05696794599,8.64672322025,0.000823470565249,12.4430697118,5.63678708909,11.9384603851,8.18176900939,10.5219972736
off_to_on,-3.43775337132,-4.04707450373,-2.09155564917,-0.0953910706776,-2.59372762979,0.959352552664,-0.222812969417,2.20865704976,0.00873444288118,3.174642324,2.61289128522,1.7050372911,1.9868138058,44.2097353757
off_to_on,-8.36757052179,-9.92235339652,-9.19004404097,-0.948587676845,-2.57338011391,1.98244824933,-10.154252243,-6.71430416915,0.0155144373153,-9.07743064581,-3.48767224006,-9.45010058642,-7.32095672788,10.0445798677
off_to_on,-4.95389324123,-6.72353023534,-6.84637406122,-0.813893885994,0.168858653332,1.85139741122,-10.3102234729,-8.96465595877,0.0109626509839,-12.4209820886,-5.90555617364,-7.98235497971,-9.61474246623,-53.913784449
off_to_on,4.24657198934,1.95476528549,2.55915852802,-0.225209136057,2.74774976459,-1.62505232258,-1.50465208844,-3.68038123741,-0.00126513126037,-4.55741569138,-1.99007719427,2.10684084668,-2.41746529944,-53.0111689275
off_to_on,8.35100090285,6.43696150053,7.85101465907,0.0188783053804,1.97226470696,-6.22711302498,5.64569005182,1.86123775265,-0.0085315740516,5.07533691114,3.13714578415,6.03699270441,5.43097841253,4.12453909275
off_to_on,2.39340057487,3.29089208517,3.79779546577,-0.107855387391,-0.930977975886,-5.86859051965,6.02477539858,2.99544181604,-0.00816116512628,6.99202288401,3.38250743808,-0.257991200918,5.34363537546,27.0118016597
off_to_on,-5.44714246591,-1.01399330908,-2.79546859059,0.0463431088244,-1.75909046567,1.29664873656,4.31050850274,2.75417182598,-0.00793308682601,2.17625234443,-0.37667964842,-5.88782079671,-0.129587489898,-0.168252092181
off_to_on,-4.85321131459,-0.120986455242,-3.27221237886,0.623037045731,0.517897142434,8.49480560775,3.96198853809,4.53778581644,-0.00928538426665,-1.44347653394,-2.29471411844,-2.29791189523,-2.25591971754,-3.79568122299
off_to_on,2.60902318946,3.2445841336,1.48424978511,0.826330987594,2.13687890763,7.81040272325,1.19563715356,5.16635476657,-0.00457771849835,-0.200319260674,-0.0391130433326,5.13505148095,1.07810648282,35.9300757047
off_to_on,6.3094506916,2.18807800428,3.66383474238,0.115132046228,0.239756354408,0.150638989264,-6.06766751444,0.0450187016315,0.00695193157566,1.93464749451,2.60273662765,6.60213892468,3.4465056932,44.812409705
off_to_on,1.51082449163,-3.48485824625,-0.0831226293678,-0.773195320677,-2.68759751242,-6.22956436465,-10.8370815601,-7.72912567729,0.0142590959699,0.624357165373,1.77550058234,1.49676738222,0.366892473608,-11.5966675321
off_to_on,-5.10973008098,-6.78421715395,-4.69333721439,-0.736496417593,-2.48721250847,-6.0963645365,-5.74114849138,-9.5510909316,0.0106063827153,-2.74040100003,-1.36078293485,-3.27374227661,-4.29278092431,-58.9658414571
off_to_on,-5.73218407062,-3.63421693416,-4.3175979515,0.0785129273212,0.556685180055,-1.92041979338,4.95687124258,-2.7078182628,0.00305920278359,-4.01313695624,-3.09243761322,-4.0263202334,-4.60227636867,-33.0204590524
off_to_on,-1.15639235923,1.8356104551,0.160195369655,0.464963000954,2.46489644656,1.5537975162,9.74046441013,5.66767484825,-0.000454517993478,-2.18420778965,-2.08222080935,-2.93620553703,-0.746323489797,18.2020563006
off_to_on,2.73705845612,3.92775588353,3.41038940517,-0.0482828246136,1.56198777103,2.82368483468,5.02939130259,7.78095047645,-0.00297678908424,0.472083555699,0.176042873811,-1.91513106843,2.59156634205,19.6288963019
off_to_on,3.62113039832,2.89161408339,3.0187128772,-0.509001990688,0.200597380624,2.53558433149,-1.34075752248,3.97913296149,-0.00915090883775,2.34854880657,2.04146212848,0.0646681827414,3.09743429182,-10.6312953345
off_to_on,3.24002200816,2.35664168909,1.40861090923,-0.020663139242,0.156830204132,1.00722365568,-2.51771895404,-0.348541592454,-0.0133126226193,3.53803165794,2.67779938027,3.17733936015,2.11305742695,-6.67015984632
off_to_on,2.08891697825,2.40526034611,0.977742071838,0.845744484092,-0.132975166438,-0.832353069284,-1.18770001574,-2.77055924331,-0.00772977876273,3.55930547337,1.5051600363,4.85367044302,0.719418827615,26.9008848879
off_to_on,-1.03986859757,0.0669746096154,0.561847868475,0.821540705799,-1.99571255861,-1.03128298014,-2.43161886689,-4.30747856131,0.00334991438661,1.18877433083,-0.994112910918,3.18381793774,-1.23255364637,30.1621557201
off_to_on,-4.70600914471,-4.24553680565,-1.81798499055,-0.242092833611,-3.13188589455,0.414096073412,-4.31674769478,-4.33354054076,0.00912093250106,-2.75439426242,-2.51197159706,-0.502278523983,-2.5447952607,-3.2302082015
off_to_on,-4.93891603963,-5.86194974347,-4.73741336395,-1.11142684772,-0.786174438876,0.623930983629,-1.69106094424,-0.715326617982,0.00799154180084,-4.9219871913,-1.23286693855,-3.54842295793,-1.25113896481,-20.6588750894
off_to_on,-0.898555172525,-2.58724051584,-4.43802527928,-0.77825682761,3.26745895132,-1.71039983545,4.00486058495,4.67464118103,0.00682494542244,-3.21852856333,1.20835312735,-4.46903265342,1.43043316527,-8.37541067029
off_to_on,3.25227665863,1.7919556732,0.0661624900189,0.289706451015,4.29027345678,-3.35844598535,5.74263508035,5.86371260801,0.00671926328946,0.408727476547,1.34760265831,-2.96894641012,1.46668358277,-8.8513553556
off_to_on,3.80964013935,3.0339240073,5.0396716371,0.835236489335,0.960479324877,-1.00566904454,1.43480761308,0.645982530179,0.00165798226453,2.45452513191,-1.18398940386,0.353406311435,-1.89908171021,-29.6282522349
off_to_on,1.89002435348,2.19869497377,6.01967366241,0.397266151178,-2.82327237324,3.30859111857,-2.86255050828,-5.15794228931,-0.00808453386908,2.08603420786,-2.65763004007,3.45860401553,-3.72547046799,-19.092492549
off_to_on,0.402097368417,2.60251968843,2.53275101367,-0.261122516953,-3.21189057768,4.62731445909,-2.06793367681,-4.65006508209,-0.0130368186633,1.25030033044,-0.285492461027,3.94837938707,0.0326440310678,35.8274669872
off_to_on,-0.513245281256,3.40034830595,-2.08334270218,-0.295450546305,-0.897868384807,1.68727462863,0.888071652742,1.18525925033,-0.00847477229038,1.2104044854,3.63483206945,1.74737971553,5.79787247924,64.2438730193
off_to_on,-2.15402823193,0.738320810939,-4.54135894117,0.110572543813,0.982639003081,-2.25474340149,0.562256586279,5.07989853507,-0.00121618503704,0.963937320149,4.39489979496,-0.754917027608,6.08881187127,14.6098369401
off_to_on,-3.40466228602,-5.02764440061,-4.03421655088,0.146132492027,1.25923632538,-4.1902798025,-2.38056576949,2.95041017417,0.00210654070898,-0.612949012352,0.688700302369,-1.87870499331,-0.583249084459,-55.5641426393
off_to_on,-1.86093104876,-7.85236800138,-1.53593452639,-0.317377337748,1.00103897,-3.48519346223,-2.78441322227,-1.91835948028,0.00427555773669,-2.68277368332,-4.00356859023,-2.18120432931,-7.23386307661,-55.4016688303
off_to_on,1.74803964392,-3.58501092934,1.51998274379,-0.449147688787,0.767181592148,-0.243653055842,0.642867876828,-4.20211225735,0.00887611946392,-3.37705829149,-5.45082935302,-2.12358029048,-6.77151416896,12.9281621955
off_to_on,3.67492934447,4.04848334412,3.57489939755,0.234800178798,0.0184606301721,4.26472899084,3.60791345062,-2.57960467533,0.0109726284969,-1.90083101452,-2.6283423143,-0.651101797316,-0.0920130343218,65.4122466529
off_to_on,2.150252649,7.61161792577,3.38699700744,0.881758936517,-1.05204779834,5.96031920407,2.89256840246,0.656580818621,0.00485489983462,0.968906500907,2.11455983758,2.18832745084,5.79725632582,47.8204941395
off_to_on,-0.546818988574,4.40359007692,1.06499606948,0.376033851657,-1.25803407805,1.59546277124,0.30041471293,3.11459645109,-0.00487598533774,3.65245969258,5.31165290291,3.47079435818,5.83644096117,-20.4846572186
off_to_on,-1.79798486652,-1.60880469634,-1.78567559533,-0.849247915157,-0.324984315591,-5.25577569888,-1.2670821097,3.47438689543,-0.00911017692445,4.3599745964,4.65462019174,1.00995735344,1.16857947329,-88.7445762335
off_to_on,-1.72239927078,-5.0609161345,-3.32524988596,-1.12430416248,0.581405139099,-6.78047651661,-1.8320389602,1.21329508713,-0.00726332656543,1.98522094819,0.519648657517,-2.57582807578,-3.48356051963,-101.297854192
off_to_on,-1.24231587687,-3.89243008281,-2.60539017375,0.0834059924022,0.691312591105,-1.13732713333,-2.28300735075,-2.39824596504,-0.00545380261056,-2.27684584326,-3.9660841027,-2.63885516152,-4.51684678623,-13.3271497186
off_to_on,0.181326836947,0.406051029203,0.162072298561,1.20314755615,0.537376248276,4.73840713496,-1.54767751205,-4.10514071521,-0.00444778117651,-4.88034046388,-5.20938377086,0.905480145981,-1.74076732064,138.422048968
off_to_on,2.5032770517,4.34383507555,3.2738599369,0.740174750624,0.466564895324,4.79594256142,1.05689550442,-1.89633648275,0.000534914651493,-3.24325750834,-2.36135974226,3.04158536852,2.11944330097,202.478655792
off_to_on,2.95318262308,4.17509854301,3.73308291952,-0.514234461831,-0.192037766114,1.18355895116,2.9486070865,1.92288893846,0.00851780639473,0.862720260841,1.91420853133,0.578961734565,3.64827497319,59.9680896583
off_to_on,-0.588769992876,-0.939304226943,-0.0409172054029,-0.717957728187,-1.44546681416,-1.36268934355,1.49502406656,3.09691870176,0.0114574354181,2.95892256371,4.10862059565,-3.27994923213,1.60976546329,-181.468414461
off_to_on,-4.88958972773,-6.49592891466,-4.88982246842,0.152878601609,-1.5890185173,-2.75081013488,-1.20960458522,0.869883769405,0.006309475289,1.37338803969,2.96590685426,-3.25235189721,-1.78118880939,-259.554043782
off_to_on,-3.98535417906,-6.01043092883,-4.81333146277,0.372489616433,0.471969389423,-3.94829417355,-0.94319389346,-1.22745336374,-0.000398470147855,-0.713294199823,-0.047481501644,0.996057024213,-3.05497212779,-77.0403043547
off_to_on,2.5517756144,1.33288868487,1.56624857378,-0.552473467827,2.75699642529,-1.78587741233,1.65574060007,-0.600313265725,-0.00322018348014,0.0835918667433,-2.50064051547,4.56495742868,-1.21182689973,158.700951446
off_to_on,7.44213968409,8.37906420359,7.43563826655,-0.891569823727,2.1751854375,4.82810879853,1.48088636123,0.882830335575,-0.00484166154744,2.39151278433,-2.77634171692,3.47650428779,1.42599832619,199.730022045
off_to_on,4.26210424684,7.69080119583,5.20768439929,0.437283517009,-1.11399574999,7.86481528375,-2.55639903251,0.249925359277,-0.00809018358421,2.02451149775,-0.899806612993,-0.990028183513,2.22895555749,62.6145953746
off_to_on,-4.00666419572,0.212526878074,-3.27156236341,1.7232193085,-3.37727149109,-0.10762454025,-4.54495798821,-1.70444727711,-0.00867830854875,-1.84455345023,1.50597052778,-4.36289701807,1.08404218391,-51.0973885415
off_to_on,-8.20145987208,-6.34647677688,-8.18322697101,0.854712411308,-2.01062065229,-10.9168626451,-0.381159212388,-1.69057125703,-0.00247145983568,-5.12778925256,2.35629016631,-3.85147593303,-0.364998184827,-59.5083452532
off_to_on,-4.03947469821,-6.85710970141,-4.18093125193,-1.25819046406,1.18829187574,-8.30111179676,4.78301617277,0.686451034673,0.00581682680135,-3.97707544169,0.968953136588,-0.469949945112,-1.16710124359,-55.470768774
off_to_on,3.3052223349,-3.22880473801,3.04805618179,-1.79026640426,2.62720290421,7.24928491031,3.37438736733,2.02716249909,0.00860465955605,0.658892455533,-1.17151894489,2.77368967095,-1.46542156933,-81.2924213885
off_to_on,6.25480284535,0.451257300393,5.17378494477,-0.170694918579,1.4109397904,14.9720084234,-2.7199779652,0.395067886923,0.0061714404312,4.69790410734,-1.94754542757,3.78022301035,-1.09546724817,-45.4281288871
off_to_on,3.44722180325,3.19980421834,2.10125249306,1.16424591678,-0.400079700445,2.71448861336,-4.07218012804,-1.44001732016,0.00401623764288,5.37576296368,-0.829279676672,2.47761042915,0.421065331543,78.5607144403
off_to_on,-0.624360370519,5.44864851182,-0.098582157908,0.598883227828,-1.11805020648,-13.3522767494,2.02560477593,-0.180113551143,0.00259677486715,2.69538834292,0.813250664566,-0.0856250314741,2.20209813056,144.349427286
off_to_on,-2.40928894412,5.35033118602,0.482954240768,-0.36930188319,-0.985443342573,-10.9452683381,6.48776628046,2.5457903588,-0.00197634721792,-1.79395862254,1.43191114975,-2.74670069701,2.0629889106,43.5812215448
off_to_on,-2.51017155328,0.858147123261,-0.321943697326,0.0793515709635,-0.563907260311,5.47146745903,1.46063719998,2.12474129922,-0.00833861792336,-5.49134522674,0.813071462227,-4.10314384841,-0.551545575266,-100.810820837
off_to_on,-2.39647680541,-5.33371067273,-4.02892555867,0.955783196822,0.303341429733,11.6461480439,-7.36214401539,-2.03223557644,-0.00971390876689,-5.2618833335,-0.105445951521,-2.6236083215,-2.85805914264,-100.51260998
off_to_on,-1.31693628724,-7.06377431913,-5.31058624981,0.207489190509,1.23480808113,0.274737388806,-8.06602814591,-4.89082236833,-0.00435135574889,-0.44950426071,-0.457737473536,1.48757010095,-1.7741300642,19.3455526176
off_to_on,1.60231248825,-2.23922423987,-0.0784570647476,-1.57146591147,0.852568388345,-9.25989466046,0.62399576002,-2.52748540759,0.00161305642009,4.66520093824,-0.327189508729,4.83844899062,1.65237192012,72.8084501855
off_to_on,4.16069975195,3.7545987088,6.69349252992,-1.7271574952,-1.0533361223,-2.45447538207,7.61786199953,2.34381521435,0.00379261972098,4.49995230937,-0.494877466311,3.54486828366,2.95978133774,5.82267852127
off_to_on,2.97437880636,4.39616467319,6.54238870156,0.310190895032,-2.19242471797,8.17358800442,5.21209668929,4.14559109824,0.00483982269902,-0.667391460486,-1.2095145028,-1.58908969751,0.14222219647,-44.0817746575
off_to_on,-1.44111613635,0.087205009903,-0.777985765769,1.9645916123,-0.443117099185,4.79950576199,-1.00246772975,1.96465328539,0.00703468497905,-4.02666694189,-1.34279854815,-4.6778497328,-3.16930711452,4.88151151792
off_to_on,-4.18395859491,-2.83398133012,-6.52711433735,1.29330807525,2.69434770809,-6.55646082067,-1.92737739087,-0.150068062462,0.00664947481782,-0.860232917621,0.417326762678,-1.70866169656,-2.28566981738,50.5552681617
off_to_on,-1.97214525002,-0.632002750549,-4.41611867961,-0.34277418134,3.32397492672,-6.69393499129,1.33942676156,0.00994669371046,0.000710915587648,4.57215953788,3.14459898165,3.57020729521,1.95800697515,-1.61324481707
off_to_on,2.24784508493,3.24947019147,1.81518669425,-0.730291660473,0.133311598484,4.63827233956,0.565386200867,-0.205485663514,-0.00618329624643,4.25514900566,3.63841782666,3.90017371184,3.97704981887,-69.9496751131
off_to_on,2.98003241549,3.27253470311,4.38612887355,-0.165110778091,-3.58860295996,8.12882043462,-5.38501352834,-2.90293799374,-0.00778749808618,-2.52027171668,0.214935007525,-1.60748910145,1.01569599208,-36.324653423
off_to_on,-0.454436377762,-0.826477446742,1.51217573378,-0.393689771589,-3.83579801785,-3.21143554073,-7.64041018143,-4.83563544028,-0.00501331890351,-7.61626194931,-4.17992876164,-5.69393560774,-2.99717678891,52.8256486316
off_to_on,-3.12763392841,-4.17896721952,-1.96253249113,-1.26371819695,-0.563607376652,-11.7294437293,-0.56004342196,-1.68974705507,-0.00276989216317,-4.62042627742,-4.71234435042,-2.66471428607,-2.95845266154,64.5674508489
off_to_on,-1.45243342718,-3.4567123885,-2.11664236661,-0.838568699747,2.72309565815,-2.66934919444,8.79330677893,4.50621102602,-0.0012411894261,2.8953955287,-0.681399965471,3.65587549768,0.36796510125,-4.8247500169
off_to_on,2.07701331684,-0.53716803699,-0.164290298835,1.19437135847,3.26109239695,12.2070056825,9.39933737402,6.71652784447,0.00279455581936,6.50854133376,3.34813288883,5.22492470605,1.95189872608,-38.9575313173
off_to_on,2.88659215514,1.21815853906,0.988094124022,2.49842572927,1.46295223051,11.9855003518,0.880674531349,2.14315518211,0.00779053248393,3.71806895715,3.3257251425,0.907022902565,0.13208850812,-1.83774208641
off_to_on,0.64350716357,1.6805186898,0.906086389614,1.2904239054,-0.654101475038,-2.72347599041,-6.54526215043,-3.78348646801,0.00806228677501,-0.440640319463,0.525566263217,-2.616929855,-1.29806904453,17.6471038083
off_to_on,-1.34841386379,2.63108764843,0.704070047474,-1.11428104091,-1.85729720634,-12.3685671623,-5.77614154071,-4.60223767059,0.0027892259117,-1.63832462278,-1.11165394258,-1.16087957029,0.489114136923,-24.080845322
off_to_on,-1.61099674694,3.3568140101,0.300091489546,-2.16026721167,-1.9963491499,-7.35630483591,-0.612167713848,-0.919946103262,-0.00238434593495,-1.39458045994,-0.591851444107,1.12086547924,2.66800994199,-48.3994544995
off_to_on,-1.58254298605,1.14822276838,-0.951584556746,-1.28834315831,-1.15370235768,1.81800562237,1.64749180006,1.71404049846,-0.00397708282607,-2.48910248038,-0.129593424319,-0.888797374416,1.27811272987,1.6739914127
off_to_on,-1.44016170504,-3.45708264101,-1.92868624624,0.049223494772,0.384762155259,4.27260261221,0.257155154468,0.965354978691,-0.00456498920495,-3.30458574843,-0.732893562294,-4.35052361825,-2.2118976955,56.8948145466
off_to_on,0.818501270715,-5.5208595838,-0.710172060008,0.798444859801,1.70626138324,3.28897946581,-0.227326819234,-0.276547667573,-0.00598562266772,-0.549381427706,-0.822615407367,-2.40449026033,-2.90070125925,37.428540741
off_to_on,4.49817461453,-2.04160987138,1.96721680149,1.12060860892,1.79166576517,4.98531339251,1.73057085709,0.314109749699,-0.00499787938446,4.1831037673,0.317066518184,4.49873387836,-0.0721068795296,-16.3486247751
off_to_on,4.56618352576,3.07216763018,2.68171923839,1.08979932797,0.595117009881,4.97807278365,2.68850629758,0.951156013726,0.000504267185814,5.11605381532,0.825725238357,7.60778321161,1.69129307723,-19.896423188
off_to_on,-1.46942892003,3.66420304707,-0.0639693381377,0.284060527602,-0.869393536288,-2.90130547546,0.448193477689,-0.387619554243,0.0061740131695,0.275273072789,-0.443187939794,1.9630435812,-0.135126921358,13.1842578339
off_to_on,-7.80253306192,-0.304609945695,-3.14201410427,-0.951386181517,-1.56154040162,-11.9741579009,-2.20684390513,-1.84157491575,0.00689982000768,-4.88283283988,-1.39847597012,-5.93416677612,-1.89345747307,6.69441045304
off_to_on,-6.35748895628,-2.89093112065,-2.6647792546,-1.28288345625,-1.1855284023,-9.38030444875,-1.82464125727,-0.459008578618,0.00399814540383,-4.12804477195,0.199422598239,-6.64596681869,0.312745317975,-38.1713099967
off_to_on,2.18615304352,-0.665409905467,0.698565262965,-0.245745809484,-0.0486267925573,4.36819879086,0.58790606423,2.57326733849,0.00179924670187,1.50128963118,2.75428760894,-0.400879797654,3.90053903628,-44.7578507552
off_to_on,8.43742150662,2.99580296853,2.81241835984,0.758690092537,1.24963812434,13.8164728233,1.37333682546,2.95921073355,0.000276079808084,5.24090364774,2.68211987308,4.28769978337,3.26781891626,6.22681663414
off_to_on,6.21203758461,3.50390663706,1.99845323639,0.374073498166,1.84624054152,8.65191497903,-0.331004012703,-0.496049588196,-0.00323773796828,3.20306899799,-0.422592183253,2.98825206595,-1.56554701273,45.841585904
off_to_on,-0.423999778743,1.08354515111,0.710941472057,-0.610285941994,0.982990778713,-3.65928346111,-1.74069615451,-3.8107514782,-0.00712214863598,-1.70196853315,-3.17587599331,-0.0200298717352,-4.58339738735,31.6350622445
off_to_on,-4.26555206386,-1.48202623709,0.581414133681,-0.417639540914,-1.06729834308,-9.49331040706,-0.805235576921,-3.13842286907,-0.00662990211531,-4.57748314208,-3.02851898083,-0.306416976166,-2.44487761627,3.64711806981
off_to_on,-4.40374155102,-3.71134190016,-0.612372658598,0.864185384668,-2.67369278784,-6.08861329644,1.02685429584,0.217513723686,-0.00160462996674,-4.06051797921,-0.991337017721,-0.00469302665006,1.01894421162,-1.09634366054
off_to_on,-4.20328050715,-5.86576313289,-4.3094577992,1.22871439241,-2.11257856986,-0.766693810642,1.28399621203,2.11911982983,0.00284160618232,-1.61185780838,0.832998206876,-2.25341824893,1.08770664669,-6.78820742718
off_to_on,-3.35601707712,-4.95022459765,-6.34949265326,-0.170278249667,0.562936678813,1.87712423782,0.0490663416191,1.42284224044,0.00397203279862,1.80212670246,1.98733914802,-4.00302071398,-0.829024646061,-29.3471524172
off_to_on,1.49145914209,1.95652726802,-1.53338976204,-1.49628380494,3.17723151418,3.89133613944,-0.419776226155,0.765197767163,0.00422140842107,5.35529838889,2.64389764601,-0.441373881908,-0.114051087146,-26.0438464575
off_to_on,8.51321521402,10.4788231288,7.46197598564,-0.827052185026,3.29031814291,6.20523850619,0.883348306725,1.69087487631,0.00505375159861,6.30110046422,1.97971642619,5.75031605874,3.27905826348,22.5950548391
off_to_on,9.8006710511,11.1628652652,10.8851952291,0.903673975974,0.538496014614,4.91900198038,2.05485357651,1.92035730226,0.0036715107276,2.15499160088,-0.384908389353,6.38084622267,4.44158822515,44.9557591278
off_to_on,1.66474891344,1.45040520747,3.75788254261,1.17221185032,-2.85999801677,-1.80172008979,0.608656079715,-0.922353121726,-0.00135372564512,-4.66938667266,-2.59176188001,-0.522584161434,0.839748557262,-21.3066826348
off_to_on,-8.6554261317,-9.34392493782,-6.95098477061,-0.392386733793,-3.98777667226,-8.35409577512,-2.98927235557,-4.73809867722,-0.00598646756522,-7.80848357691,-2.40560678466,-7.03275088168,-3.94556668342,-99.1441508233
off_to_on,-10.826421363,-10.8639041648,-10.4163260701,-1.40231350565,-1.8115749347,-7.71524994408,-4.96562840233,-4.77910760329,-0.00607034292948,-4.23621506055,-0.365179549708,-5.79434877,-5.18801919364,-47.906211444
off_to_on,-3.67625682243,-4.00111739224,-4.71008164713,-0.249861899623,1.85987562101,-0.61082324272,-2.18128917611,0.0537952604866,-0.0031605529794,1.80478391588,0.915480706592,0.652982588355,-2.76084872276,122.219137521
off_to_on,4.46706791272,2.25025186089,2.57853898632,1.4639192769,3.92083987282,5.44676551533,3.59504952545,5.09431698721,-0.00104358832551,4.23915826479,0.411581419849,4.57693855343,0.130874745709,210.869340077
off_to_on,6.49841427918,3.49536660889,5.00234234534,1.2578400032,2.65843670037,5.61497849773,6.54212071478,5.17925521736,0.000445930544521,2.50892291558,-0.303856332404,3.35200906098,1.7977819576,63.484607061
off_to_on,3.33675390811,3.33523989437,3.57829484651,-0.612086726674,-0.79413331082,2.35918984513,3.06690611628,0.585328383396,0.00348602086361,0.725535090254,0.136333829316,0.541413265129,2.97664720438,-205.644543363
off_to_on,-0.0770804837255,4.65454657016,2.03094932737,-1.58503093954,-3.47628301621,0.0900297242537,-3.39418781282,-3.69466572749,0.00645064338979,0.942996424554,1.06787713176,-0.922367587997,3.90424254999,-306.697932767
off_to_on,-1.30473689444,4.44756388464,0.80959756546,-0.50042833004,-3.11857882138,-0.899126480346,-5.68102094864,-3.74834751759,0.00540906707836,1.04596110267,1.39255621977,-1.44389199449,3.26701194929,-100.236442991
off_to_on,-1.06460436345,0.000618875244579,-1.28635885876,0.942011829622,-0.00793100755484,-2.52489718814,-1.34877040916,-0.307969776616,0.000689402633132,-0.599077136022,1.15117886896,-1.35982228301,0.402986460928,223.113139808
off_to_on,-0.416800018119,-5.11267303672,-2.99641891517,0.854228644517,3.23835085588,-3.76195916153,4.12677239028,2.99575787228,-0.00312329318025,-2.25758278847,0.482229425815,0.0663407911747,-3.28371265609,333.224684785
off_to_on,-0.0383485641389,-5.70588754079,-2.15478857437,-0.272423590496,3.75916358142,-1.79504208552,3.94413886494,3.24017725714,-0.00389549931455,-2.16902760119,-1.24468316,1.54722528992,-5.64515529333,121.708964931
off_to_on,-0.800502532913,-2.53539443864,0.0901166226821,-0.704320151817,0.856029886829,2.14516681402,-1.68622120043,0.09383482535,-0.00387886804467,-1.5730795039,-3.66011061391,0.271109591508,-5.35021423775,-177.299223596
off_to_on,-2.54325140362,-0.402913046265,0.451205345918,-0.0923280019676,-3.16681318793,2.8851877668,-5.97927039892,-4.05054513672,-0.00423050526174,-1.83314185064,-4.15863764329,-2.88265996626,-2.07073320364,-257.245686838
off_to_on,-2.97143550946,-0.358864535153,-1.2712665305,0.420857988143,-4.7184237416,-0.886767078002,-3.86123153041,-5.2464114512,-0.00257186241492,-1.03307547478,-0.706572647915,-2.89481130389,3.21517537354,-85.6134611418
off_to_on,-0.062159105735,1.11829850238,-1.54541202148,0.229811651051,-2.11955808246,-3.15270461356,2.53599376849,-1.16790230915,0.001979570891,2.95218924064,4.52130606147,1.96993392498,7.51443836175,94.8015706791
off_to_on,4.52905730895,5.11126766158,1.53435018509,-0.0435910162756,2.57411763936,1.13264299107,7.04475244485,5.48474217817,0.00572521572768,7.21427248984,6.55852070377,6.05473054137,7.19481387791,97.2927778152
off_to_on,6.45971167008,7.26981080066,5.03186184503,0.0658729033156,5.2246867218,7.16658207483,5.94878262703,8.162298526,0.00532063380536,5.90614451179,3.19858492995,3.50794407661,1.68798734084,5.60953849047
off_to_on,3.48605723754,3.71745906602,4.78179097045,0.0904487230839,3.4690448262,5.52170100086,0.354164194883,3.13313147715,0.00245346031062,-1.67953402332,-2.44396309514,-3.05303233368,-4.89714141891,-3.25001169408
off_to_on,-2.15346871969,-3.35128021272,0.388297767242,-0.316751953411,-1.05033467428,-4.15463313513,-5.77383309094,-5.44404803901,0.000419747211281,-8.67182773483,-5.52176482677,-5.79905352135,-7.36199564996,62.9826688756
off_to_on,-6.36017137717,-8.28078885975,-4.76176258453,-0.578496910891,-4.38456671018,-10.9853935027,-8.13329207704,-9.14888602782,-0.00102227825998,-8.23020837759,-4.29183496261,-2.40424016772,-4.54334183267,52.2164744117
off_to_on,-6.72307368831,-7.98199049819,-7.04783227649,-0.129903790129,-4.02632460562,-6.76480701467,-4.40422704601,-4.36101473956,-0.00362113080684,-1.3034448481,-0.729217684933,1.63440662756,0.120627863431,-61.8674863204
off_to_on,-3.24398084626,-3.3666934529,-4.94955679159,0.555958610557,-0.836387572843,3.34185735688,3.17321409958,3.86861769906,-0.00579745921741,5.29459404091,2.29695371788,1.79599356076,2.86930525337,-124.161068851
off_to_on,2.42381221449,3.02583641377,0.584272125197,0.631384378978,2.34681440317,8.2168810608,8.13488307778,7.5800375268,-0.00434331296986,6.75792115503,3.2482650565,0.44802788578,3.13728289684,-43.5832714122
off_to_on,7.15060728899,8.10294581597,6.24322213263,0.0940337414804,3.36865753249,4.91923485372,5.64601284186,4.14416513233,5.33919403808e-05,3.77755733231,2.18588036011,1.47164162648,2.56999416501,63.588374401
off_to_on,7.34919809662,8.45531119464,7.81370096494,-0.373505236653,2.05041191929,-0.136923600878,-1.56270619338,-2.13197310406,0.00331195250424,-0.520075739093,0.25616798515,3.17220494355,1.96719986431,61.098724401
off_to_on,2.0999047485,3.00262965766,3.69133531369,-0.431586878754,-0.329213952313,-1.76534200777,-5.71679928842,-5.37590675262,0.00378907277435,-3.86455619956,-1.12832316541,0.979543628195,0.535505298607,-3.5245483051
off_to_on,-4.81912507136,-4.42608437044,-2.95426110682,-0.241000599329,-2.1373647545,-1.26478204456,-3.24881892099,-3.61550251957,0.00351426164708,-4.85265139134,-1.38804388033,-4.48607296592,-2.0315277725,-4.55736127915
off_to_on,-7.71334864109,-7.79053104791,-6.79814992979,0.105672494528,-2.24782982168,-1.20394907914,1.30217315547,0.67366847636,0.00338482256729,-2.60813757168,-1.02230606838,-6.74302174737,-3.96805727023,44.2450349422
off_to_on,-4.37065184428,-4.92871201829,-5.23490297206,0.524789526452,-0.653954841261,-1.23204867908,2.2309638373,3.83335201628,0.00156086243147,1.87338704635,-0.489288082406,-1.73851768873,-2.90910747439,28.4914901442
off_to_on,1.9721427727,0.596643891187,-0.115553629923,0.531649243747,1.3777972994,-0.881417915045,0.309069900284,4.07705369463,-0.00209565456831,5.32271484927,0.42782682601,6.25476290368,0.969917207795,-54.410849513
off_to_on,5.9940834059,3.92175340725,4.46275727843,-0.206054446617,2.12303422887,-1.37721928266,0.0173027620748,1.88753814897,-0.00447830617304,4.67339155813,1.46400084113,8.92663785268,4.08543736549,-82.2417274102
off_to_on,4.822206218,3.3656193941,5.01969606405,-0.964231451738,0.868593255518,-2.14209935446,1.39989823208,-1.49778217134,-0.00450083269061,-0.091373617329,1.14985235666,2.97192557407,2.81681147982,-12.4861505965
off_to_on,-0.331938587778,0.395745283959,0.776531074105,-0.623096113942,-1.32058887574,-0.0672138093951,0.0577922822369,-4.93736038101,-0.004996816816,-5.70475347094,-1.17288387764,-6.39564370497,-1.99196873083,49.4587677206
off_to_on,-5.35978184685,-2.43720756454,-4.84073887707,0.596930579919,-2.46111060805,4.67724625411,-4.34180916337,-6.53348762559,-0.00502144905171,-7.72340179545,-3.18383947325,-10.5090571438,-5.01746352032,27.8100504144
off_to_on,-5.83675971242,-2.60778092414,-5.74224346046,1.13081879069,-1.41276463694,6.51441181828,-5.24183683263,-3.59013834715,0.00340488097925,-3.49223394937,-1.64562958213,-5.34776820645,-2.16970138405,-10.3200190047
do_nothing,-0.493544634751,0.858435078373,0.564609696199,0.261718203368,1.09939140008,2.18310117873,1.57013529749,4.14902735548,0.0200190594823,5.01697912666,2.87906570138,4.71398015312,4.11224548994,11.2130227003
do_nothing,6.48689265474,5.1477424984,8.17800634669,-0.744622663529,3.06250367323,-3.40744926528,9.7313443213,11.2668806582,0.0220341270396,11.0257529544,5.48596637975,10.7506852871,6.93642887675,43.622368125
do_nothing,8.15937746125,4.99150220255,7.92737169826,-0.514454567518,2.77360321302,-4.17991421449,8.78310368965,9.99334584975,-0.0122763703493,8.19009191817,2.59377584392,7.55282453407,2.81172174279,9.20758003967
do_nothing,1.89414626439,-1.24085023429,-1.34146255077,0.360177365547,0.187598510457,-2.2305586416,-1.96061496382,-0.808182742661,-0.0556434773255,-2.15100993077,-3.22594600772,-1.41309449333,-4.10911240274,-53.2758938727
do_nothing,-6.82309942356,-8.062105121,-10.1121812788,0.343478736285,-2.92853557574,-3.36254997119,-11.393391683,-11.9963467307,-0.0382689289127,-10.786897563,-6.00424782687,-7.78098725962,-6.8897998302,-51.585632792
do_nothing,-9.66187477715,-8.28416617853,-9.27204780219,-0.533839270161,-4.16928757001,-5.53065836818,-9.94074086351,-12.935754891,0.0571747904912,-10.032847509,-3.35179327816,-7.04181889628,-3.75546409899,4.3408992606
do_nothing,-4.32190792282,-1.38007125658,-0.703099452882,-0.720905806257,-2.29484025551,-0.730412961233,-0.53314530712,-3.38503162066,0.125421455825,-2.04359585484,1.32519814435,-2.2640683351,0.834262245686,26.011382914
do_nothing,3.73935366097,6.21895498866,6.55939160673,0.306727033009,1.57336854671,10.3381207227,6.65875815415,6.736573153,0.0393643300731,4.78043424296,3.5794302866,1.27298421503,2.65471149824,-0.620454033126
do_nothing,8.0629400743,8.75075067245,7.79689547012,1.1054520534,4.47528276376,14.7638899288,6.95265917603,9.33235359622,-0.151837355976,6.19130137121,2.74958907121,2.72920946683,2.47743600647,-3.29377301065
do_nothing,6.92630140171,5.9463676525,5.25403000892,0.464522747717,3.88547254564,4.13838073291,3.97859226607,5.73854827486,-0.213290083298,4.92308902645,1.1205944946,4.48875958821,3.04632835091,35.9416581231
do_nothing,2.1207266108,0.390894552489,1.25319606471,-0.718375084561,0.12304293133,-11.7029571106,1.52294270123,1.37522522537,-0.00776687804951,3.66233709661,0.105388463972,5.94906183925,3.72102467328,43.8503557997
do_nothing,-4.10693536819,-5.65400059046,-4.42259382379,-0.785131262178,-3.52240545384,-15.4800624726,-1.32913192038,-2.05247343709,0.264843346272,0.789072608463,-0.781786054607,3.11209368009,1.34631926684,-12.0585477077
do_nothing,-8.55200083984,-9.17251503997,-9.31410343807,0.257328263923,-3.7514011995,-4.21177974355,-5.32377449192,-5.21947731618,0.260545590642,-4.476570346,-1.81416980246,-4.29264059677,-3.92808679505,-58.0407499425
do_nothing,-6.98556205843,-6.4883231668,-7.53697363804,0.854648493132,-0.698179817072,7.78216239259,-6.73391098673,-6.11872624406,-0.0565639062879,-7.67577509137,-2.04757101896,-9.48017743901,-7.17446227291,-31.9663867296
do_nothing,0.964625625306,1.74395377792,1.61835991643,0.154782522847,2.13797083876,7.82798362267,-2.4024498374,-2.36015688151,-0.317907695161,-4.69175594399,-0.954220415615,-6.25658122838,-4.6571229318,18.0804797617
do_nothing,8.37819620605,8.34304178898,9.45877810483,-0.954714375878,1.92180913026,-0.395193604862,3.80964284851,2.94158325631,-0.208504481222,1.20064706044,0.411145464371,2.18858964742,1.09467034312,19.0157488245
do_nothing,7.44894859544,6.94199007459,7.78074813141,-1.13473518199,-0.229275445192,-4.25801429324,5.01867076277,3.86271778708,0.115483363655,3.46263301036,0.868158036679,6.8006194414,4.60088756147,-10.5039759844
do_nothing,-0.469532949708,0.262212857696,-0.220829447081,-0.108888429143,-1.03857895757,0.776863137177,1.06967871372,0.608959246869,0.243726152321,2.01242847603,0.82540428261,4.40096663991,4.27222582661,-6.22071912295
do_nothing,-5.93946652601,-3.50703333497,-4.80058577154,1.26224530625,0.347141475305,6.7847369823,-1.21637856601,-0.41895481287,0.0680528628237,2.4702030064,1.34610454924,0.700276672872,2.86395527113,26.4819756657
do_nothing,-3.70393229522,-1.91082171379,-3.14904361493,1.79596664536,1.38775217915,4.82449729326,1.39327433624,2.81053776515,-0.113084005389,5.51462954451,1.98827462556,0.461131942216,1.83472500463,29.1603035146
do_nothing,1.10691941823,-0.367221928611,-1.06998240205,0.810209282827,0.182704763256,-3.83591822614,3.39849062838,3.87906230126,-0.0639742410209,4.3216806841,1.06489699034,0.493948905427,-0.655484791179,-3.44175109049
do_nothing,1.65456439783,-2.35809034902,-1.80869258527,-1.17683846622,-1.56243069571,-9.77053685533,-0.555997436804,-1.62422786135,0.0676616776731,-4.11201967372,-1.66304482384,-3.45055610465,-4.89356085689,-19.899845196
do_nothing,-0.770807598502,-3.68280507515,-1.31456537485,-2.44085827743,-1.21698279119,-6.76565828284,-6.380020624,-7.51563248382,0.0357572858063,-11.5447713103,-3.85519929483,-7.50700325313,-6.6959195577,-7.83465013908
do_nothing,-0.528434613349,0.0443709345444,2.91257974732,-1.53634323039,0.611019574987,1.45163955718,-5.87442993707,-5.35655541618,-0.102753865988,-8.41850518321,-3.07143894418,-4.27000563358,-2.65189319164,-8.98015057588
do_nothing,2.37464730317,5.2823904614,5.73066024721,0.865076675612,1.06825163405,6.46487110778,1.00689463448,2.53580638662,-0.102895762522,2.62994755815,0.282092114409,4.97301453881,3.97723403771,-29.5550865737
do_nothing,2.70189388795,5.38986210091,2.27657498055,2.36116830082,-0.315943952922,5.14497145377,5.88061033305,6.25071439745,0.0559626491779,9.9790086266,3.38017064013,9.96990078974,6.53542985016,-18.5284775157
do_nothing,-0.768017321953,0.520427698387,-3.45442836409,1.54354799409,-0.89975927352,1.7631539535,3.94119391867,2.78389045259,0.138486019697,7.93371083943,3.92002635684,4.96758919468,3.32550885162,35.7705424733
do_nothing,-3.25263178595,-3.29275603326,-4.37686618153,-0.368833421606,0.570221849451,0.56484785702,-0.319865340532,-1.09802135794,0.0345990676174,1.49588017383,1.80815663294,-3.82020123013,-1.1270992577,63.0507150984
do_nothing,-2.0381022361,-3.39533028999,-1.04992544926,-1.28101675718,1.63152276886,0.168831397467,-1.40328163192,-0.959490004709,-0.079062662617,-3.26252962156,-1.48744886262,-7.26499689545,-2.95345658643,13.7483370128
do_nothing,-0.140973910516,-2.48922697341,0.507696887668,-0.861942875066,0.0898719344866,-2.36447167694,-0.611525589883,-0.670808002503,-0.0410481839121,-5.81977099179,-3.91345926815,-4.43388703176,-2.79799658184,-54.6752230891
do_nothing,0.198004221923,-1.65692129549,-0.430047240553,-0.361690737725,-2.03716816221,-5.23686556809,-1.46605648077,-3.04675911113,0.0466997863611,-6.37251178521,-3.48076026894,-0.321464753363,-1.97170417871,-53.8707267202
do_nothing,1.38148914729,1.45454247596,1.00783787209,-0.301793629381,-1.38484660006,-4.13941692739,-2.38183982552,-3.16092755932,0.0182098351299,-2.29447945711,0.114286442065,2.73786584476,0.422701567448,12.791066093
do_nothing,4.17342768385,5.69134905781,4.77182942667,0.121461970385,1.33572997473,0.570723446916,0.111614584422,2.59404481469,-0.0722144273685,5.59728172841,3.96103383355,5.2013644958,3.79211398057,63.6031569917
do_nothing,3.6714776363,4.89798869502,4.00491790656,1.14827449627,2.18863440928,3.8377087051,3.79203578315,7.5148852511,-0.0565183191131,9.30319957449,3.96819830507,4.99838226055,3.83688694508,46.9153127232
do_nothing,-2.62315116981,-2.28678743322,-3.12966089365,1.5044823466,0.0632388386123,3.24560937647,3.07046886402,3.36260267249,0.0531225585201,3.12713238133,-0.214425358391,-0.316404790014,-1.38950562586,-19.0281145052
do_nothing,-7.6846789636,-7.35058559306,-7.85521621149,0.246105470605,-1.71362009445,1.60502038638,-1.93645239471,-5.80371904262,0.0867984927238,-6.55589070103,-3.90314121501,-6.66187162104,-6.16392092792,-86.8169133395
do_nothing,-3.76270469631,-3.09731109651,-3.05476465735,-1.48266365665,-0.787170680591,1.11655142787,-4.98924253469,-8.23475586172,0.00258004840259,-8.37640797789,-2.90442099109,-6.30382718318,-3.58556644935,-101.454435071
do_nothing,4.64095743421,4.64397316251,5.0184077351,-1.75017674117,0.642427554642,-0.00815530148421,-2.82642134749,-1.63162129302,-0.0551520241775,-1.2282430492,0.986700318282,0.82094266938,3.87285849519,-15.1018364775
do_nothing,5.89256001579,4.71914367568,5.32701767769,-0.389654749546,-0.114374984206,-2.67914814109,1.22351702286,4.30177196273,-0.00712091266241,5.06941392234,2.60036751853,5.65807872544,6.67332724722,137.722172291
do_nothing,-1.1005761237,-2.37288193144,-1.38578123461,0.954725725489,-1.41380131308,-3.61797453621,3.74282466163,3.50185972729,0.0397049689782,4.26366690492,0.681932940957,2.8646769594,1.58994462038,203.688757122
do_nothing,-4.66525344691,-5.0063231005,-4.08703047585,1.13785346972,0.0212477258735,-0.815697956766,5.03338171129,1.40924818445,-0.00659334245211,0.735378095711,-0.927028575087,-1.67918003331,-3.90270408088,60.8077297408
do_nothing,1.25241310388,1.28435643097,1.13030896748,0.630199459277,3.11046928485,1.92132671113,4.40105546995,3.08465475444,-0.0631132183369,-0.0705528193303,0.191111991577,-0.931563699899,-3.17307894675,-182.90262203
do_nothing,6.83720429385,6.43521189901,5.17237821218,0.194491202847,3.22814186267,0.838725867992,-1.19821587531,3.35939717261,-0.0241921752383,-0.174858749972,1.29428661624,2.05453190082,0.234622897245,-261.685372622
do_nothing,1.66521930261,1.68186962632,0.689864040017,-0.273390120205,-0.847502567465,-0.989041456497,-9.40432464211,-3.2316700663,0.0524115275621,-2.89817887917,-0.493415714393,0.244034290969,-0.0784727105458,-76.7395768177
do_nothing,-8.02871760268,-6.20501167955,-6.11360681598,-0.945371373724,-4.59875832647,1.03714721488,-10.3540583953,-10.0380224981,0.0472995835476,-4.70243750604,-2.79522091968,-4.41454088816,-2.18100732836,161.778176147
do_nothing,-8.00554316339,-5.1705522788,-5.06234059822,-1.13153344395,-3.80710889587,3.85209430844,0.327552715597,-6.49447209755,-0.0179548222755,-0.729372884215,-1.48700056787,-3.56592773679,0.267504720471,202.444888503
do_nothing,2.24415872516,3.27266763338,2.4306939757,-0.201236224461,0.111255886751,0.90486336901,11.6332724114,4.64377657268,-0.0282172333294,5.23585869107,2.27298147175,3.10657649968,5.60161819351,62.1737815292
do_nothing,8.59038678298,6.31458610671,5.86478634139,1.07183703622,2.89915165506,-5.42710598978,9.72225499139,9.5815347913,0.022575921362,4.81612237126,3.17030295543,5.95974712108,4.96652324474,-53.9964936769
do_nothing,3.42738782992,-0.355701087725,1.45407868263,1.20733860405,3.11030425499,-5.1401819852,-2.35934087025,3.25603268031,0.0295869417757,-1.80989015743,-0.19266530829,0.329976364926,-3.28491698984,-62.011918255
do_nothing,-4.01744130367,-6.18337303372,-3.2517444925,0.0276407106095,2.19149974648,3.46791768559,-8.33596235153,-3.93941594384,-0.0311333582451,-5.15520118441,-2.96350202689,-5.54608131951,-8.78324195597,-55.955592809
do_nothing,-3.03541494966,-2.2401477961,-1.65319693846,-0.99061799178,0.722210548614,8.74366017847,-2.09985703979,-2.50354042368,-0.0584515779303,-0.473439964255,-1.30565756044,-2.90514272556,-3.36789572599,-80.3502766365
do_nothing,2.75089849303,5.40404068685,2.55881269866,-0.634898040413,-1.8298431088,2.16693465417,4.55812015544,2.82419521983,-0.00199815966702,5.03646221924,2.01435665603,4.1468165708,6.45373427862,-44.1394263948
do_nothing,2.88457740461,5.38835563708,2.24398687542,0.526135305428,-4.06384103677,-8.12222639172,1.47677133594,2.41669741045,0.0517213650517,3.09474221476,2.15917315648,5.0937475583,8.05681232853,79.8804560559
do_nothing,-3.0098903696,-2.08970973982,-2.23350750415,0.999714975729,-3.1057741134,-8.54041029834,-4.60335347994,-3.0257443854,0.0265164814141,-3.58641956119,-0.617118940897,-1.20293721762,-0.032464307002,145.528436487
do_nothing,-5.585772898,-6.48125652449,-4.30650488117,0.239735753954,0.883297617636,0.719581453082,-2.84774794524,-5.25926009372,-0.0228217579736,-5.92564709899,-2.09581987345,-5.60650687798,-7.03053572264,43.9371989805
do_nothing,-0.843155041022,-2.50026609544,-1.13111524417,-0.881218434644,3.69232068859,7.44594313302,3.23847483653,-2.20366456223,-0.0151525496241,-1.53870754289,-0.782702418944,-2.64949737154,-5.14885038208,-101.755676152
do_nothing,4.53621201326,3.63860994884,3.06016557766,-1.22470859505,2.35303146209,5.47096018872,2.66836150264,0.59374423003,0.0218100641924,3.34551243701,0.639359731491,2.6328606963,1.4478410903,-102.200551342
do_nothing,4.07589471562,4.33589144063,3.50837701672,-0.511318312454,-0.8102998627,0.431718128488,-3.1940062345,0.940409370868,0.0144492886939,3.80609025945,0.354077547271,3.52768395392,4.60139893066,18.0006701002
do_nothing,0.0759933011778,0.29785907255,0.706293177492,0.63343815533,-1.60845493933,-2.16881200171,-2.38352709947,2.94989542149,-0.0238456950719,1.74204009943,-0.0358001605459,0.6964078818,2.79721004423,72.3672453589
do_nothing,-1.84046800279,-2.6711458935,-1.63656757283,1.32513571546,0.239309403809,-3.65272558929,6.3723778461,7.22883090694,-0.0250415901117,0.544877079851,0.902245147307,-1.13715166138,0.100853339539,6.2068709848
do_nothing,-1.04493169954,-2.00010901923,-1.62942534249,1.05533779461,1.42185989797,-4.42966236368,9.05434764516,6.79143035486,0.00825575896663,-0.306621425969,1.57175600571,-0.829254565472,-1.20862056392,-43.0399008933
do_nothing,-0.539049657609,0.142308211177,-0.393487254202,0.0304708963781,0.216835773009,-0.47568978426,-1.79259120548,-2.24579231128,0.0138285442033,-2.51437793349,0.135993894634,-0.635358866179,-2.05657389349,6.33442151474
do_nothing,-0.997148112111,1.21691513737,0.330952339319,-0.943211344727,-1.57241832617,6.76207731988,-13.2946503163,-11.972446338,-0.0120353533941,-4.39032010692,-2.0638595862,-1.02142350124,-2.53845939857,51.7272918907
do_nothing,-0.694405894007,0.868779250815,0.0892449950178,-1.09962162893,-1.92677226456,6.82310025996,-9.79791344425,-11.344293816,-0.0100090129331,-2.69110774982,-2.27212327384,-0.206742338449,-1.14744243711,-1.5149784576
do_nothing,0.504515193419,0.0244935733934,-0.386798610129,-0.425542361458,-1.10954734729,-4.41634251278,4.44850271136,-0.686547729986,0.0271801346779,2.20321030397,-0.267832282665,1.82746658379,1.86606518687,-70.9572163137
do_nothing,1.05641354076,-0.31812891015,-0.225091962621,0.324113933513,-0.0180943106299,-13.5122500122,11.69346157,8.78547640091,0.0344209187662,5.83180691184,1.6497032774,2.52623344468,3.71569429033,-37.6531409358
do_nothing,0.804588656754,0.185503009199,0.598708683059,0.440248416737,1.52051411632,-5.55519772292,5.37611933707,9.09861072562,-0.00996532874912,4.49983133448,1.92999243782,0.391669695991,2.4808046941,51.8802650932
do_nothing,0.872036487282,0.559869517406,1.11416846472,0.0364208076391,3.23942716123,12.4378961992,-3.57390752852,3.35115898875,-0.0401973641248,-0.826651438304,1.01474415823,-2.84034146547,-0.74468756789,64.1282361583
do_nothing,0.957091072331,-0.495226394444,0.537345490549,-0.140273368789,3.1353376654,17.8926306864,-4.63942952304,-1.25499777265,-0.0131584475196,-5.48912223884,-0.279287740276,-4.10410830322,-3.49972149011,-4.75637046512
do_nothing,-0.278391802207,-2.1083561126,-0.490707624669,0.307189432633,-0.0699949099817,3.10209930285,-0.550735641837,-2.62914856948,0.0199058219077,-5.33220888544,-1.57062943524,-1.80893519282,-3.99793464773,-38.1846000828
do_nothing,-2.21181239618,-1.508625942,-0.658889043962,0.837942873398,-4.08198372859,-14.094548399,1.06620779832,-3.09940947401,0.00524459093195,-0.404653044349,-2.0496190747,2.92691125689,-1.51208419825,-0.490957626315
do_nothing,-2.47800445822,1.7114596392,-0.03046881312,0.599096192676,-4.93360431848,-14.8995233506,-0.298085832072,-3.42257838005,-0.0213304345393,4.83261480543,-0.775762980417,6.44450643998,2.9765522052,18.7561758053
do_nothing,-0.551480503256,3.6779734502,-0.124768305992,-0.424643114359,-1.70845951052,-2.88388929113,-0.408285169246,-2.00923523031,-0.00284560475039,5.48628335791,1.53293960438,4.74333833063,5.94659437132,-23.9824987173
do_nothing,1.40939583605,1.17960818614,-1.37305409194,-1.24387928764,2.42759471487,5.83726057749,1.01279437296,0.920522255988,0.0342876019902,1.05740600674,2.54525781078,-2.21846150637,3.69975208385,-49.1887939313
do_nothing,1.89612345116,-3.01205813122,-1.7714632986,-1.02721230331,4.08572599517,6.10810060377,0.618773341767,2.44904278806,0.0251697356063,-4.08352428398,1.05931720826,-8.56954074906,-2.77506499351,0.720563562606
do_nothing,1.7814787173,-3.24883648524,0.535060325931,-0.10754224174,2.87225915259,5.07304255757,-1.92022406985,1.17262077635,-0.0195202061556,-5.28046902071,-1.32855855481,-7.46580524206,-7.16907097816,56.1783302718
do_nothing,1.76041226576,0.992496954567,3.94038695494,0.55104424628,0.414543251228,5.32353513804,-3.07162879837,-0.381480435899,-0.0308174669126,-1.9239677816,-2.14688358246,1.05362242028,-4.42336709165,36.9078766713
do_nothing,0.558092265886,4.00754250972,4.41049791749,0.641553678999,-1.90783563134,1.26493789907,-0.694918853758,0.662817515673,0.00188009318985,2.83758844898,-0.887159838711,9.02343467806,2.85302254094,-16.5397471498
do_nothing,-2.47446299201,1.65518824798,0.288776097712,0.653342550432,-3.13439720817,-6.98821705244,3.43305006725,3.04256481789,0.0178948883122,5.27430256555,0.837618109344,8.66292834208,6.83748815263,-19.4004044477
do_nothing,-4.85081009721,-3.16455407902,-5.11611534059,0.758336368261,-2.23957313166,-9.46833603392,5.93298853205,2.73888407169,-0.00670051040002,3.46428462182,1.35672697647,0.451850847208,3.43333443674,14.2649090091
do_nothing,-3.48312802054,-4.75501267629,-6.66323745323,0.384187119238,0.613750626428,-1.55376820215,4.3033791472,-1.3471989279,-0.0214754684619,-1.58550134073,0.440205612633,-7.79443292936,-3.21145192127,7.63603023608
do_nothing,1.01995553201,-1.72443308713,-2.69313165665,-0.682017544623,2.99046990445,6.81076774314,-1.61056102245,-5.32610307084,0.00467645262522,-5.80544699085,-0.810905170081,-8.85458244573,-5.79612523006,-37.9324057088
do_nothing,4.7548860787,2.60811122145,3.43966731552,-1.48444604851,2.31377923436,4.83505319757,-7.99877921635,-4.95027477961,0.0278433687327,-4.77916710686,-0.981824071528,-2.29443297982,-1.97094449863,-45.0914504209
do_nothing,5.02046182296,4.97860982618,6.85571750931,-1.00089826444,-0.784436552558,-3.32444917255,-8.60385733392,-0.763571384014,0.00802265446945,1.25330468425,0.325135543349,5.97334981756,3.77907364519,5.68553655179
do_nothing,2.54744151115,4.48002906197,5.4440861256,0.311018994283,-2.84642156445,-5.45285828171,-1.45302767968,3.00984191065,-0.0188678351913,6.26104391916,1.74019823181,8.96911472071,5.50146016316,45.1638911223
do_nothing,-0.68967291561,1.2895954183,0.796468403235,0.992691945216,-1.76646825275,0.642933098318,6.87764827419,3.74901630764,-0.00347948688204,4.75943401032,1.32406718062,4.31443545835,1.74475703427,30.8835472694
do_nothing,-3.6856416222,-3.57445681177,-3.97534055555,0.542927606416,0.858591422911,5.84281678795,7.78126840556,2.48095407782,0.0270886285845,-1.41654327785,-0.953359546749,-3.82039348383,-3.69412062798,3.27162993324
do_nothing,-5.59778254248,-7.10284370323,-6.41376625674,-0.0510511430194,2.25959998681,4.64453125027,1.36350195493,0.993059120052,0.00834386475232,-5.36509009464,-2.7080266566,-8.42042729001,-5.8962406036,-0.68477043416
do_nothing,-4.70190872994,-5.8693529083,-5.29988440227,0.0626485114287,1.86978773788,1.10536245349,-3.57206706524,-0.438619097798,-0.0511928335298,-3.71487989919,-1.9244737636,-6.04781221618,-3.23349288098,-5.866895745
do_nothing,-0.205124797402,-0.0265121327478,-0.850805927867,0.406804780976,0.841688565651,-1.1202404866,-1.29475707119,-1.68108772913,-0.0646014421443,0.294672573005,0.509819083014,0.475711859874,1.76999339369,-28.6337324749
do_nothing,5.34794610624,5.93737329807,4.61235781235,0.152693414123,-0.500878814885,-4.48584287513,3.42630982952,-1.67792521886,0.0153687169019,2.55925675804,2.12414491096,5.72776810878,5.17439371158,-25.8803852305
do_nothing,7.39572936448,7.5029045685,7.19584388607,-0.495347525561,-2.50196837191,-9.07758677122,2.42950973246,-0.470953176498,0.115121291572,2.97336176812,2.01266592122,6.74600754815,4.91259747125,22.4143885899
do_nothing,3.91523888081,4.16489265316,4.50899252815,-0.7109752582,-3.83961544879,-7.53429025357,-4.45862785279,-0.203323285053,0.107828443471,2.80994288786,1.19341493916,3.92257049512,1.76393120489,44.6665772911
do_nothing,-2.10778362127,-1.16587472744,-1.38870211627,-0.361353116217,-2.05005324009,3.82973670862,-9.15814415701,-1.82979241466,-0.0379996476437,1.09021043524,0.284734674703,-1.02003645724,-2.04397641773,-21.6436582544
do_nothing,-5.56945505733,-5.18455586435,-5.41101576465,-0.0186756553902,2.54747352689,14.8275710527,-5.55231028007,-2.57344626991,-0.190572131175,-2.88896538719,-1.18832787929,-5.70146723903,-4.5407343052,-99.3855457325
do_nothing,-4.34898867797,-5.85989106063,-4.57381040928,0.10539853921,5.6196915453,12.0440498186,3.51232890452,0.374219722163,-0.165682476423,-5.8459523772,-2.84405096584,-6.96111759599,-4.65408199932,-47.9206440117
do_nothing,-0.840713930232,-2.92639736871,-0.821204253205,0.322664428557,3.59151559985,-2.37151609787,9.98643443151,4.77570327679,0.0604670107526,-3.70122702096,-2.80424693019,-3.16800144965,-2.26532693193,122.145815003
do_nothing,1.41777755444,1.55583225289,1.88639141121,0.600054986236,-1.48842310556,-12.1692456395,9.01547229101,5.53963871492,0.270866718222,2.18425475623,-0.226783112977,2.95551721794,1.57541064155,210.337987832
do_nothing,1.50535621816,4.07624292371,2.05747791554,0.455567600437,-4.20741275266,-8.21036829812,2.51476534165,1.7268959416,0.216010242007,5.88946659406,2.82181966303,6.19158086759,4.70540028763,62.8898128622
do_nothing,0.932499980848,2.8601453182,1.01611424059,-0.0860784860079,-2.55123367561,0.899164899046,-4.0942392538,-2.40549471389,-0.0783579523173,4.29633500454,3.48000531556,4.33919458374,4.95347975858,-205.197480882
do_nothing,0.827104741798,-0.0782024016265,0.0336390709824,-0.31418917838,0.14434028002,3.20128356829,-7.05859968042,-3.78480697725,-0.30034102954,0.15527848758,1.41977582366,0.171784178666,1.87553497477,-304.890350187
do_nothing,0.875114061228,-1.31473755649,-0.67514321562,-0.00172944227953,0.478651469287,0.0457693671292,-6.30785137134,-3.78662459674,-0.211702892431,-2.69209450878,-1.15131269896,-2.53890319826,-2.43676324929,-98.4407893775
do_nothing,0.7831680468,-0.0901159829259,-0.543756612468,0.0678082495427,-0.479281435727,0.671683113763,-3.63828351009,-3.71274504109,0.0631722563023,-3.5310513516,-2.26987050987,-2.8448249266,-4.65715138876,223.119406514
do_nothing,0.890067850626,1.29942824644,1.08171899514,-0.623241207716,0.255318798263,5.38430919678,-0.272307187454,-1.57737974302,0.211901486734,-2.96429050359,-1.75323841746,-1.73758741172,-3.03214378257,331.24544472
do_nothing,0.738227503895,0.872766759146,2.69316901606,-1.20941592283,2.46862889679,4.78277580815,3.29468691408,3.37691477495,0.132801146618,-0.610841363358,-0.387100682342,0.0247617888349,0.750371114122,119.261027182
do_nothing,-1.07160006389,-0.875272371353,1.29054691049,-0.511643538909,2.98943733355,-3.8861744424,5.98749367936,6.80255687092,0.0054801095024,2.80342369139,0.955093969114,1.49039426926,2.93145558765,-178.619438258
do_nothing,-4.17560512459,-2.33965223456,-3.12293677462,1.1116292746,0.528192467688,-9.73321263142,6.21076026587,4.52965454839,-0.0210706341801,3.94521311845,1.35976789705,1.04281911299,1.51546808161,-256.883022375
do_nothing,-5.19380768237,-2.72611399881,-5.95215380676,1.96372778592,-2.4210482222,-3.10787867886,3.47488193658,-0.699175035899,-0.0193499419933,0.890265736145,0.407637841592,-1.27677267285,-1.49028718691,-83.8091124048
do_nothing,-1.48341055841,-1.90913394906,-3.30821197041,1.10521285214,-3.05142973725,9.05257484036,-0.958920346603,-2.88226964872,-0.0895582147071,-3.00635066271,-0.945090451884,-2.4165413165,-2.35404465049,97.3223548306
do_nothing,4.54569696352,0.286429477032,2.58470907368,-0.560749513649,-1.49944269301,10.9463061938,-5.14427102814,-1.64327161683,-0.147603000356,-2.75547491128,-1.05711697701,0.130310350885,0.032546665117,99.1547559265
do_nothing,7.38436655469,3.39684294677,6.00487022128,-1.51449806502,0.316957534274,-0.985291729936,-7.23044567713,-1.69660947539,-0.0603423031514,1.4369133518,0.36355302044,4.22913574345,3.02766967762,5.34927234422
do_nothing,4.76398177163,5.47556689712,4.7749665352,-1.25410463916,1.34407643694,-12.8520313082,-5.61585950694,-3.85432180201,0.10840886835,4.23338818512,1.72790529293,5.09940607024,3.51188173187,-5.6720275552
do_nothing,-0.306923364675,4.2460143703,1.54633517485,-0.373266159897,1.5531502131,-11.0338244472,-0.39829631458,-3.26786076705,0.166070071041,2.02948280113,1.48109695711,1.09904737639,1.11055263735,60.2399959557
do_nothing,-4.07018432711,-0.466016062751,-1.38440337759,0.404509077208,0.880193732781,1.48104245865,4.97467147713,1.67673931733,0.0707393588278,-3.04807501172,-0.172394398904,-4.59609850481,-2.23973770388,51.1341048567
do_nothing,-5.67585000274,-5.75675139545,-4.35090228801,0.750196853953,-0.311051480486,10.7765045959,6.05786154135,5.35273152971,-0.0287553082455,-6.17998609354,-1.8007857732,-7.59171045019,-4.51250072835,-61.0574007411
do_nothing,-5.27431366899,-7.49725787886,-6.4619982158,0.629729855895,-0.652308858921,9.49807721726,2.78352351798,3.55827751625,-0.0377034859256,-4.40508386286,-2.23832464839,-5.47677101416,-4.37299301899,-122.616781968
do_nothing,-1.90649288632,-3.80251981092,-4.1502506052,0.234860720247,0.501512485031,2.57981180848,0.0168004953787,0.38342099483,-0.0316321815523,1.7477835625,-1.19827801272,1.37092014584,-1.22838609071,-42.1629724823
do_nothing,3.77643378563,2.71362043145,3.00805369877,-0.0584889368902,1.35491362177,-2.65792410733,0.696188483251,0.9287366407,-0.0778398352147,8.19305105713,0.726198802073,8.87704810775,3.53263508942,64.7425455963
do_nothing,7.18993413063,6.58440125558,8.39686260015,-0.0422029991298,-0.23403716149,-5.06439169565,1.21339861884,1.99466264599,-0.0984800632637,8.82538077103,2.15406295001,10.0846925302,6.15455692724,61.6212029463
do_nothing,4.4196878621,4.64713427159,5.3712289476,0.0396314075366,-3.05047514869,-6.46801085133,-2.71403802833,-2.37629785784,-0.0129282679959,1.05118129944,1.87521497076,1.73062146045,3.87288220577,-4.30746603636
do_nothing,-1.63060038589,-0.334598368608,-2.97642596307,-0.165821764671,-3.27644850565,-5.70834570951,-7.79039240828,-8.80396552835,0.100406832322,-8.99246396168,0.351149371618,-9.20875898819,-1.1796845143,-6.440498364
do_nothing,-3.99278747098,-2.62847088886,-6.48432855136,-0.552982372369,0.297480904163,-0.694946672807,-6.37733899869,-7.31885381045,0.111449310251,-10.8971575218,-0.605247529891,-10.8631785831,-3.82719722295,42.6507962818
do_nothing,-0.965592185367,-0.527135722512,-1.24160867678,-0.634676733409,3.98772958418,5.90728681539,1.94256860787,3.01234556316,0.034104001678,-2.26449841036,-0.317396238474,-1.02777062415,-2.29158003675,28.2945611731
do_nothing,1.63633514575,1.55829288047,4.92707912505,-0.189936236563,3.71323606506,8.01841982702,8.12872682849,10.3288373559,-0.0155297648728,7.19426230043,-0.268598805169,8.58033834912,-0.241905864973,-53.5313442821
do_nothing,-0.71780844608,-0.595166399472,3.2297578308,0.436709602902,0.199626375836,3.60967185065,5.61419979464,5.99255405194,-0.0109233252085,7.47833510661,-1.52216777813,6.87737263969,-0.991941585708,-81.2384642503
do_nothing,-4.43114044798,-4.63497672136,-3.98589221553,0.745457243016,-2.35106315874,-2.45083280059,-0.770160262573,-3.08120467684,-0.0277680056158,0.807985239075,-2.38536011649,-2.21868582925,-2.39226458909,-11.6733789655
do_nothing,-3.25381259695,-4.5305691053,-6.77423526695,0.582608751128,-1.86865708807,-4.2183907082,-2.30301611433,-4.67932441455,-0.079083760164,-2.8587053175,-0.63596252773,-6.17206796181,-0.433601148685,50.1916924731
do_nothing,2.32541845439,0.844486307492,-1.34340321319,0.15987334472,-0.30845741054,-1.30477216199,1.10391187393,1.27983565147,-0.0788098009955,-0.38451015425,2.57247826716,-1.47148650844,3.88257518742,28.0988698657
do_nothing,5.8328744063,5.69047921834,5.39065798861,-0.24563763055,-0.00766756365966,1.56650132574,2.03825151038,3.98827121598,0.00352878509391,1.55767610368,3.52967695372,3.33522548269,5.30713479098,-11.014445584
do_nothing,3.9052626666,4.90599314329,5.78265219672,-0.484698833177,-0.577070644011,0.416558414361,-2.4057744275,-1.4660423967,0.0760415228857,-1.64623291804,1.00818628506,1.96148299384,1.86522244236,9.86979981285
do_nothing,-0.107534897741,0.495175648794,0.998290573651,-0.516283576538,-0.392428702455,-3.68478704015,-6.51794897632,-7.41994140645,0.0654171101516,-5.16734846655,-1.9045335715,-1.24397730426,-2.37529208885,42.6968181833
do_nothing,-2.09676225642,-2.04284965168,-2.37110523687,-0.329722637351,0.633451408695,-5.71071656116,-4.85695544306,-5.51888983206,0.0218284878441,-2.81096029009,-2.06723060442,-0.466436075619,-3.30270972011,9.22205416963
do_nothing,-2.29248851157,-1.34252711912,-1.81784142157,0.0427300004605,1.30965616195,-1.80113161472,0.600630492843,1.96457487982,0.0155338812367,3.16793722623,-0.287337508092,1.86873631178,-1.9644017948,-52.7692474993
do_nothing,-2.53265795128,-0.701066868164,-0.659407587561,0.418271102081,1.19351887331,6.06414466467,4.75005229347,6.78617352784,0.0177398105814,5.67991948526,0.598372046248,0.561128935557,-1.41786701217,-51.06896466
do_nothing,-2.18735151996,-1.92877306367,-1.40426526291,0.477455849557,0.788781043374,10.7874904109,6.03036400122,5.78090166948,-0.0282633664683,2.92794692032,-0.0306551255584,-2.67490769533,-1.35815122323,4.94267269246
do_nothing,0.0249210137758,-2.64490884082,-2.0246965423,0.0998690725376,0.179675050965,6.97325736145,5.27820061703,2.24431703066,-0.0843455802347,-0.72066759269,-0.505177510408,-2.37294214534,0.518013388609,26.708184921
do_nothing,2.46873430898,-0.658884716704,-0.158203086755,-0.312935228589,-1.01076050766,-2.86342644973,1.872006285,-0.842455800017,-0.0684616324031,-2.30947609159,-0.0994109671734,0.867150371941,3.38159242278,-0.363120085504
do_nothing,2.39936212815,2.19384924968,2.44320616193,-0.187329033755,-2.27716133738,-10.4570205965,-4.1427366032,-3.51520953296,0.00785596910746,-2.99467988682,0.189514135294,1.50828971427,3.64987798052,-3.87056238399
do_nothing,0.368116883701,2.78651793966,2.44012012938,0.376952875791,-2.21361664383,-10.2871091547,-8.37989279726,-5.38830611593,0.05413365976,-3.30128555677,0.0134993594094,-0.937484530997,0.593690106933,34.9787186148
do_nothing,-0.46260585121,1.28633158516,0.148450901283,0.514238583532,-0.33770549791,-4.01439196168,-5.97160852878,-4.36546053885,0.039485332647,-1.27210923619,0.415042563616,-0.904222888074,-2.10716674087,43.2676984696
do_nothing,0.77415141108,0.402970938597,-0.896437470715,-0.235522763373,1.95805797657,3.45346389715,1.18363547079,-0.101962035311,0.0203195193961,2.98868355463,1.54952048981,3.12952306935,-1.61605887084,-12.0942287515
do_nothing,1.47275754703,0.917631263498,0.58953694279,-1.02117495149,2.83144393956,8.81460259291,5.70593554779,4.22274793359,0.0272613243058,5.36059408502,1.70410025011,4.97987459456,0.206296183734,-57.8595264653
do_nothing,-0.21568125284,0.643599155632,1.59462968195,-0.663145145804,1.81384834714,9.87141587685,3.94932815052,5.15312880618,0.0195487664211,2.91975390417,-0.208569727475,0.438232379829,0.0882727264413,-31.6677763765
do_nothing,-2.66211002549,-1.80052502954,-0.559070577925,0.572281162541,-0.137764875871,4.57818117274,-0.0932318808481,2.45767634437,-0.0240453232378,-1.81668154957,-2.60843794451,-5.51899235903,-1.71288461763,18.6393119815
do_nothing,-3.30923680296,-4.31447878891,-3.76799910815,1.1032653497,-1.75961022769,-5.07031610119,-1.23441247835,-1.30526808719,-0.0548280865697,-4.26453440709,-3.0590644151,-5.85524991369,-2.17637518097,19.6291415964
do_nothing,-1.79080714696,-3.69727832401,-3.62778564219,0.221461861175,-2.18350103717,-11.0308532593,0.443592983184,-3.28232384192,-0.0360601099207,-3.13400483998,-1.22376263295,-1.30236715905,-0.0872417373096,-10.3522637243
do_nothing,0.659141731481,0.214226000691,0.439676632203,-0.785511376395,-1.20115897614,-6.98345982462,1.56888758895,-2.11357460765,-0.00446593577885,-0.352891461631,1.18202626114,2.20107443585,2.49209338203,-6.63880040174
do_nothing,2.95876568899,4.0173123694,4.02802939847,-0.441734744871,0.405488247136,2.55695458476,0.603369395199,0.969298669786,-0.000678933649542,2.07447758715,2.62121107426,2.66240308896,3.07722451356,25.9595683475
do_nothing,3.98408891737,4.37063337184,3.31542111687,0.704251360671,1.21019352382,6.87129783382,-1.61564344393,2.43733436148,0.000756380170178,2.83468301882,2.67133328769,2.77142670475,1.38272643391,28.8672255717
do_nothing,2.52791504647,1.53930764119,-0.120218065546,0.826608283631,0.641567965009,3.16358181139,-3.84867670904,-0.0566454301697,0.0334183934615,1.14154555957,1.39771071327,3.26269731085,-0.90520915989,-3.69366364432
do_nothing,-0.741810579306,-1.07263430406,-1.6410410786,-0.447885729539,-0.128345721991,-0.718527116074,-4.26411056198,-3.82719558047,0.0621828687976,-1.53363680813,-0.694801822117,1.72412533717,-1.81306272883,-20.233611741
do_nothing,-2.88097183459,-0.98893208225,0.178072126629,-1.37826583565,0.291916807653,0.390038089374,-0.777496440999,-3.33831660154,0.0343794846517,-1.62824053119,-2.28218498637,-1.91019170887,-0.748870074037,-7.76635525292
do_nothing,-2.27638820087,0.261715413899,1.72417371939,-0.574624539986,1.28460310296,1.09330193998,5.13935753305,2.2580186384,-0.0261400466697,1.5448062796,-2.20979376533,-4.19020014591,0.594273537313,-8.00600615128
do_nothing,-1.13683512904,-0.787319518423,-0.551652147359,0.989401337976,0.807060772267,-3.56451168732,7.33043135902,6.50844367509,-0.0498511668316,3.10107993176,-0.973615151191,-3.58098740434,-0.280649907743,-28.2283701576
do_nothing,-1.83074329566,-4.21190649058,-4.74454890473,1.31442971394,-1.44181284005,-6.89785144583,2.03437816096,3.50994367764,-0.0277399788637,-1.01002362067,-0.0554869847031,-2.30401213328,-3.04968397643,-18.3908718631
do_nothing,-2.2511435361,-5.27999406886,-5.13303064313,0.0754111612288,-2.8622004188,-0.302197995036,-5.32600288509,-3.59094332734,-0.0122834422884,-6.44889228022,0.25202346973,-1.29576063186,-3.59249938363,33.8678148211
do_nothing,1.28117110335,-0.28601085727,0.591870499563,-1.09455706117,-1.17981501834,10.0957829323,-5.7453030536,-6.0721720316,-0.0191517482079,-4.86667729623,0.999221172829,1.76792660676,1.00258969355,60.6027330704
do_nothing,6.77957026107,7.232691939,7.40125406979,-0.865928276371,2.05627758452,9.09342276177,0.948353291189,-1.22501889719,-0.00623311318201,3.84160082408,2.29113287251,6.75799383216,7.08200506258,13.8743056032
do_nothing,7.06528344444,9.18061017128,7.85848391087,0.266510007831,2.97288885836,-4.62839217181,5.1439262755,4.09974025748,0.0376810979296,9.58425646583,2.42931061602,8.04602964942,7.38396897215,-50.6607717726
do_nothing,-0.458824676068,2.55442095072,0.717268249464,0.969534429637,0.385725721079,-13.848959302,0.885939233194,3.08773854069,0.0589755313127,4.98867899171,0.308264932358,1.64153390003,0.213085555247,-49.3055485233
do_nothing,-8.49234265491,-6.26625403972,-7.09670647253,0.742427578335,-2.45063522922,-6.35349774137,-5.49538610839,-1.98155675734,0.0248861808637,-4.6356066756,-2.48689554735,-7.44268280138,-7.43905509407,12.0159925421
do_nothing,-8.06838270749,-8.69585397058,-7.90295615206,0.0589768713394,-1.97692248208,7.73475639262,-4.56127733969,-3.70664868704,-0.0203475336815,-8.39429534901,-3.27773046762,-9.95548129795,-7.94043375569,55.739737053
do_nothing,0.116190367783,-3.48567278368,-1.51047684812,-0.599216620382,1.09932851359,10.8938505989,2.70220674739,-0.0825931245366,-0.0264853898786,-3.49018449126,-1.4487544446,-3.66498160561,-1.81373526432,38.5317744389
