label,COUNTER,INTERPOLATED,AF3,F7,F3,FC5,T7,P7,O1,O2,P8,T8,FC6,F4,F8,AF4,RAW_CQ,GYROX,GYROY,MARKER,SYNC,TIME_STAMP_s,TIME_STAMP_ms,CQ_AF3,CQ_F7,CQ_F3,CQ_FC5,CQ_T7,CQ_P7,CQ_O1,CQ_O2,CQ_P8,CQ_T8,CQ_FC6,CQ_F4,CQ_F8,CQ_AF4,CQ_CMS,CQ_DRL
off_to_on,4.48354961183,11.7771713583,8.96371662624,0.0461091512344,4.63448745185,4.50381692932,4.89555263773,2.15473136662,0.0585787219132,4.79279419051,0.348108792472,1.26011711105,1.29218592781,-0.232468871735
off_to_on,0.648530844533,6.62065551455,5.03898648118,-0.405423959396,0.900813259259,-6.2415865645,3.20560764965,2.17868950482,0.00779772602842,3.88952107185,1.20360483927,-0.56871576483,1.22930336306,45.5866383382
off_to_on,-5.54021546022,-5.40855450164,-4.85500008383,0.170779427755,-4.24226274598,-9.4196312176,-0.986049064126,0.637968676032,-0.0340436843288,-1.08078994419,1.0142369198,-1.92123664758,-0.327867681863,44.2690322286
off_to_on,-6.98344683536,-12.3053731549,-10.3868278999,0.715304678237,-5.63299406684,-2.78570280086,-5.21133120264,-3.24271357476,-0.0406174067043,-6.06362289085,-0.477110478131,-2.86161827385,-1.99603660002,-16.4890608711
off_to_on,-1.03559448459,-8.21322433493,-5.84841480717,-0.199750722178,-1.51227186313,5.94594346177,-6.97332043623,-6.08010233075,-0.0328079957328,-6.99569269978,-2.0598037789,-3.41697917751,-2.43204689917,-53.4034663599
off_to_on,7.46332731805,2.77510531105,5.03624822244,-1.48971979879,3.91876030523,7.13021584311,-4.2003585783,-3.60825797757,-0.0290780693376,-2.26688092185,-2.092446762,-0.274884901333,-0.217733141311,-21.6127530302
off_to_on,10.4962952818,11.3536907346,12.3660871688,-0.820339104157,5.04966075019,-0.0425324967367,2.59372473476,2.85366453446,-0.0151001392473,5.50677163595,-0.173991054139,7.25506311629,4.0349111467,18.5785914978
off_to_on,4.54363971645,10.3305691454,8.76974224141,1.50009814417,1.44889661391,-6.31004996231,8.98855314153,7.13678652209,0.0184694061335,10.0059966669,2.22109552478,11.2892622623,6.19551726048,8.34481140177
off_to_on,-5.56235675671,0.53429377127,-2.97904385602,2.38574068336,-2.12723787459,-3.73022009778,9.62299162308,5.76461532834,0.0452027092534,6.37453896119,2.9532181305,3.69514545882,2.48214382373,-17.9601125122
off_to_on,-10.8634011619,-9.0649509083,-11.6003828568,0.368999770513,-2.22376503589,3.87242910444,3.04596180864,1.06089507149,0.0382530539005,-2.97857456359,1.2413922153,-10.3008054976,-4.85077081967,-4.25169002078
off_to_on,-7.02102398858,-9.59545312118,-8.82368948027,-2.0877070658,-0.570999388962,5.8263859109,-6.63736860673,-3.61137483872,0.0111553023572,-9.74338129421,-1.51873878519,-15.4931037259,-8.64545853888,28.8327683026
off_to_on,1.51293245765,-1.74026648985,1.27714531649,-2.02259624358,-0.397172726346,-0.847866944233,-12.410519369,-7.07676431525,-0.00565020597224,-8.11148689676,-3.01751219894,-5.78482078834,-4.85262094777,26.4174887615
off_to_on,6.64849059146,5.37935298536,7.19215050261,0.0165699317602,-1.37471957106,-7.19547900757,-9.14430712694,-7.46301424985,-0.00998534032251,-0.465529491591,-2.09980149976,7.72014459096,2.75645780615,-3.93230154407
off_to_on,5.15910769724,5.29632389936,3.86471638165,1.23706505708,-0.747468595671,-4.54940175081,1.71135404544,-1.76190369293,-0.0192881357874,6.01493954365,0.346952329259,11.4605552335,7.16631902975,-13.1050771311
off_to_on,0.77674041875,0.816336124927,-2.12939925576,0.713376717894,1.78846006887,3.85084193535,11.4474309582,7.79618001941,-0.0307949509323,6.70514891448,2.30242518513,5.46783016083,5.53570345595,-1.64236866089
off_to_on,-1.43629984072,-1.72987839339,-2.38329309544,0.02481524796,3.31860084117,7.80262788702,11.1691332745,11.8186237117,-0.0241981665416,2.56969916521,2.29838415667,-0.771050904116,0.627491996182,-11.3508168587
off_to_on,-0.547226266249,-0.83137040811,2.47070183359,0.208896700218,1.92799208961,3.7299442197,1.61104627819,4.38490385131,0.000390847633328,-2.18198726521,0.518790949681,-2.7185972876,-3.32524686619,-34.894516082
off_to_on,0.815198410661,0.609705778411,4.98642694595,0.389125158579,-0.83126965957,-2.32647202395,-6.88370694882,-7.14909425311,0.0189219099245,-3.7732169328,-1.40893750545,-3.3199636648,-4.09207435856,-16.6066027862
off_to_on,0.327079783854,0.788477430837,1.39364020648,-0.179049180876,-2.47258627388,-4.55677324505,-6.65220755621,-9.96629177389,0.0200580892875,-1.5117578568,-1.81790889563,-4.18045042608,-1.94879744416,42.5730492769
off_to_on,-2.04909916891,0.0375476767727,-4.46120941098,-0.7148340909,-2.50544443875,-3.96041221421,-1.5691998283,-2.47558782267,0.0172286231681,1.52394000666,-0.544407581716,-2.85196723236,0.927348910837,61.1284996903
off_to_on,-4.48921304854,-1.61877006251,-7.01732466306,-0.479759414448,-1.66114095537,-3.21108996693,0.260572689781,4.28539934501,0.0185225974215,1.36380271456,0.92057079486,0.73986724578,1.80473850067,-2.5453005919
off_to_on,-4.30386820949,-3.63279339677,-4.77747937831,-0.12608240882,-0.0220332853843,-0.874546647597,-1.1935658591,2.79257033969,0.01167641087,-1.95674737729,1.05287851453,2.54808443469,0.0267067283682,-71.0098317194
off_to_on,0.136835919072,-2.9400376537,0.393731920553,-0.288033728564,2.25652504098,4.43198049002,0.262070819155,-1.49492856764,-0.00965063327157,-3.72014780462,-0.0331412889852,1.23250392704,-1.72805121968,-48.0212623172
off_to_on,6.58570861285,2.39882449371,5.95366861025,-0.164431867958,3.50404799742,8.04166893359,4.84231409158,-0.529955955587,-0.0280772068464,-0.514304392367,-0.878897093811,0.769398611467,-0.471862078747,44.0457759025
off_to_on,9.0969433891,7.84993270664,8.78286597045,0.972808927005,1.98640106706,4.18589547373,5.39667157908,3.74894673355,-0.026595101225,4.59980122701,-0.536602011171,3.23941521154,2.82311813727,92.1361241896
off_to_on,3.74868559342,6.0178312278,5.74010592339,1.852180293,-1.3523118662,-4.03788474879,-0.244970170573,3.87437629152,-0.0126147847171,5.57627300514,0.426505004063,4.20933306871,3.88660758798,38.0702525379
off_to_on,-5.6212067197,-2.97164624077,-2.52439639672,0.68688356044,-3.36247862622,-6.8484648055,-4.49113675266,-0.817993374006,-0.00183904128732,1.18848283443,0.888430502308,-0.406073120826,0.627553811186,-62.8983518295
off_to_on,-10.0188880783,-9.58371433928,-9.56247926621,-1.76841574393,-2.24449227114,-1.59757349957,-2.0722535025,-4.16756679248,0.00639123484543,-3.75856546425,0.528661359372,-6.69267548875,-3.80541446912,-118.783271274
off_to_on,-5.02489121449,-6.30086717081,-8.49177939499,-2.62610253164,0.540275206464,2.66482876736,1.1322480192,-3.47404662427,0.019346363565,-4.8997015886,-0.149044114025,-7.16657397359,-4.62700049249,-81.9757315465
off_to_on,3.78746924329,2.79097206905,-0.0407050965945,-0.681963819773,2.17291675354,-1.11290166936,-1.55299989807,-1.96915465989,0.028998760346,-2.68468786148,-0.649756766642,-1.05252802702,-1.02509411414,34.3589614152
off_to_on,7.00955870265,7.5374158328,7.23001514689,1.85580443899,1.3495088595,-6.06427318839,-5.10842024229,-1.10078326838,0.0211122069786,0.302508256408,-0.779855691906,4.84223980369,3.09628616939,155.925457717
off_to_on,2.11389982284,4.20515618438,6.20044502418,2.2397091092,-0.849944984908,-1.1862977133,-0.621492582903,1.84696489952,-0.00014348302098,2.81359182201,-0.425146344442,5.17718245939,3.5711968701,167.91427018
off_to_on,-4.08519802399,-1.77900931186,-0.790028270229,0.485478819063,-2.03585511139,10.3106287044,8.26194306939,6.39382938693,-0.0165008721727,3.96893139799,0.295003573269,1.6296418195,0.229441647754,18.4590002755
off_to_on,-3.9127252987,-4.13582843007,-5.01957668297,-1.21514319853,-0.521712209168,12.9014868313,8.59100522629,6.37715946327,-0.0212038587743,2.15306158347,0.76428537662,-1.18066749568,-3.18970242869,-176.659294234
off_to_on,2.12330686662,-2.24044534764,-1.86130109255,-1.40987661873,2.60859527682,0.562943389908,-1.89290978991,-0.829126618806,-0.0216683367747,-2.07739810057,0.448386649848,-1.45092034885,-2.8574468694,-216.880522851
off_to_on,6.32589408027,0.796925885266,4.05039143921,-0.503377187871,3.65713199588,-13.2169549953,-9.79992155019,-8.04664299005,-0.0187982300931,-4.29037532039,-0.213592730289,-0.325765813965,1.26597290266,-52.6955333467
off_to_on,3.26883054337,2.48370611201,4.95677886822,0.465096483695,0.259035678608,-12.9778917475,-5.22756700645,-6.85635502801,-0.00435799788571,-1.16932032061,-0.215842651675,0.760627199386,5.09741170794,136.099769363
off_to_on,-3.75684855888,1.94348806206,-0.496500992827,0.89133378692,-4.67890898429,-1.27848811242,4.31532652845,0.862491858049,0.0183136217392,3.83439094693,0.481004592862,0.729136746422,4.30342169852,162.213317996
off_to_on,-6.94981882296,-0.531924780748,-6.02603830811,0.592074085163,-5.29396958499,7.18996200281,5.98142917808,5.69586562505,0.0306501399184,3.87489304364,0.609859686924,-1.22135897932,-1.1700015454,56.3230760594
off_to_on,-3.44112158037,-3.01422680926,-5.65077552773,-0.195870538112,-0.121685706403,6.43710488104,-0.332060529342,3.27088607379,0.0230950297287,-1.96802227673,-0.593295570033,-4.04658084834,-6.67606013322,-22.247137243
off_to_on,1.89122367195,-2.79163430933,-0.370136414248,-0.702738690381,5.18810375216,3.41743102949,-4.70723732419,-1.55780286958,0.00710602268917,-6.57286233079,-1.86561125774,-4.31087584123,-7.15752698022,-30.9997361804
off_to_on,3.39089893073,0.537798690956,4.19184465483,-0.339875325425,4.64453995065,2.86319801944,-2.73493656472,-2.76098431804,-0.00455985901957,-3.66969353632,-1.24511916842,0.341334293862,-1.74661722524,-57.108060596
off_to_on,1.57749053202,3.82694831901,4.71443908977,0.390825752577,-0.422938252318,0.150706340786,1.26665729945,-0.143464362771,-0.013875938467,4.01287524593,1.15195690986,7.0654041984,5.52500349926,-108.941531453
off_to_on,0.815299986447,3.60064100552,2.46483003758,0.461244848088,-3.48573314275,-6.75062366932,3.76253347296,2.65657291054,-0.0240135037447,8.01778927245,2.77625694779,9.18225828167,8.89934438035,-71.5318242152
off_to_on,2.05052667507,-0.0686391562265,-0.15301409431,-0.17775682973,-1.64616493542,-9.16049139224,5.01537390709,2.93898844917,-0.0252802426396,4.0927229388,1.60674488915,3.04235337014,5.32042189298,77.1999125187
off_to_on,1.85217075576,-3.73565197483,-2.21515454302,-0.534968149303,1.3215289524,-0.358386334941,3.41582509535,0.239939641537,-0.00948505155741,-3.56982509018,-1.2452278123,-6.91227223565,-2.6304867542,167.313443102
off_to_on,-1.3058800237,-4.03402510143,-3.15467210942,-0.152945991761,1.18170610968,10.4931611839,-3.37614433488,-3.78008577482,0.0122826702643,-7.49560409795,-2.72174583211,-11.3597590198,-8.00048458731,68.9481489533
off_to_on,-4.03676630615,-0.547876054444,-2.02378140205,0.278251972337,-1.15207306154,8.39464283801,-10.372414232,-5.37823087183,0.0221283761372,-4.39420794372,-1.36957346484,-5.47599875013,-5.65644111169,-94.2730982761
off_to_on,-3.20355977947,3.76242869243,0.561922325695,0.244911836832,-2.08207062678,-5.48654444205,-7.99195026757,-1.83519144676,0.0187172596271,2.40561480788,1.121897555,5.17767522334,1.70550592369,-112.280950439
off_to_on,-0.627031324132,4.60479397063,1.88297680022,0.232435049469,-0.642197393036,-13.2070989523,3.59715208115,4.03007580869,0.0130603308093,6.4026728915,2.06455904691,9.72851809263,5.60869864714,6.04031150359
off_to_on,0.367904392454,0.316882009533,0.502951101366,0.5169080237,1.27592259698,-3.94737953887,11.5389857274,5.74635437992,0.00713423515621,3.74901873417,0.748931723071,3.7952077315,1.60500596788,66.3501507535
off_to_on,0.429787745801,-5.3135375372,-1.28900533973,0.262279114177,2.28248813685,11.0388577591,6.9979673162,1.48234020205,-0.00564701475931,-2.99011694958,-1.14630575629,-5.28678502546,-4.7304306494,-0.84986148272
off_to_on,2.23706030399,-5.83332615051,-0.518630159828,-0.970087021803,2.28304168683,13.3324416095,-2.72274106303,-2.96028170544,-0.0210899067078,-6.71123570012,-1.64784295816,-6.85835334983,-4.42221841934,-53.1996172651
off_to_on,4.69850848699,0.587001544683,2.11160766727,-1.71426954863,0.9291217848,0.877050458268,-5.51880692232,-2.11544503081,-0.0242150276658,-2.75637397027,-0.391709624966,0.531445841792,3.22656114611,6.80177648606
off_to_on,3.80982971201,7.79766948243,3.19550632297,-0.348274070842,-1.81201653649,-11.0941955857,-1.3988269658,1.54488397155,-0.011459013939,5.46336391419,1.37047177413,7.76420154205,9.2236720276,71.3905974863
off_to_on,-0.780650080173,7.73856445413,1.25574424856,1.97073229745,-3.85611152158,-10.111825019,0.635658808869,1.84871095267,0.00332916781008,9.07573583799,2.02761495352,6.30995433368,5.8833351472,21.1312042534
off_to_on,-4.64023340644,-0.408410560502,-1.92363665081,2.17933888079,-2.67337014566,0.0595393763618,-1.95372773611,-1.8200392109,0.00979465237241,3.08136356173,0.83174715109,-2.34112013664,-3.97876134849,-67.9830947221
off_to_on,-4.90737756476,-8.95233716387,-4.08622367799,-0.381986207033,0.859129573173,6.86345692427,-3.1647792918,-4.36255920226,0.0128295251311,-7.4895658301,-1.48057572084,-9.54152771994,-10.7145617094,-52.5113385734
off_to_on,-3.39931138669,-9.71002111457,-4.12524021288,-2.51233249341,2.91817363242,4.2983746625,-0.258710114211,-2.82697696668,0.0169942489567,-12.0260074632,-2.9702475123,-8.96941614867,-8.47576023572,39.8124573898
off_to_on,-1.78864140934,-1.986040819,-1.38823073314,-1.33405943795,1.81999360942,-2.16184124326,2.57081546353,0.673683581931,0.01460796503,-5.28369767158,-1.96641162665,-1.34565863379,-0.0122608430205,61.7824914225
off_to_on,1.54191675454,7.3594385363,3.43282971838,1.58527924627,0.0803953571558,-3.64628764892,3.1126795523,3.73924478384,0.000251773293006,6.79629004408,1.10723483108,7.74075105324,7.50922481258,-9.53300227188
off_to_on,6.65340804619,10.4325750588,6.53738481311,2.28616537261,0.165260774194,1.76391086881,4.09146029713,6.04986499382,-0.0151386933122,12.8513639923,3.60422435834,11.8402906956,8.94277289155,-48.4683175873
off_to_on,8.47944071237,4.9779350461,3.94700296101,-0.129751063094,0.808722171474,7.04973238055,4.85889884013,5.97444834724,-0.0178793519783,7.53851130421,3.05657866854,7.36330166318,4.24583505589,-0.144157549207
off_to_on,3.10843168797,-3.9001005678,-2.43778299157,-2.39442099283,-0.29462889022,4.42111442795,-0.162680829029,0.494533563007,-0.0106424187141,-3.42218137188,-0.17208449307,-2.95709059446,-2.26589279472,37.6637219104
off_to_on,-5.12366277202,-8.37389619221,-5.52191104088,-1.66070928972,-2.27208459062,-4.94177166111,-9.95144162072,-8.44672760813,-0.00480756581507,-9.75664740745,-3.12347681554,-10.7362462379,-5.49101998918,-4.40094645166
off_to_on,-8.34882904638,-5.36918911224,-2.18982348774,0.913281462549,-2.44915770101,-11.2221055269,-12.8744076245,-12.2988358872,-0.00103902352452,-7.17970652315,-3.28660397069,-9.44590302895,-3.98997983947,-48.2572147101
off_to_on,-5.38296308674,0.632549474985,1.94426517708,2.21256649129,-0.685377850547,-7.22218508722,-1.98940022715,-5.3980721632,0.00747647377031,-0.376750248099,-0.965440184288,-1.54372529017,-1.00092655498,-10.9339560941
off_to_on,-1.44180905964,3.30368935356,0.738786580928,1.22376018665,0.817879853536,3.08324840106,12.2199093458,6.53033759228,0.0170714297203,3.76291627802,1.52338225461,4.64250494735,-0.0567135881311,49.2617875335
off_to_on,1.2150095875,1.99130674419,-2.91387817418,-0.473314094903,1.4605756943,9.8154764925,13.7817359856,12.1789441055,0.0157063734068,3.52027863034,2.38760639821,5.00920065987,-0.512529938512,34.9332688735
off_to_on,5.03826795252,1.07169258763,-1.50144573314,-1.3243266989,2.53020212341,8.66104405226,2.19230868979,7.66769156183,0.00297524803416,1.99974554697,1.62046026919,3.04868589479,0.659630650609,-24.6267406593
off_to_on,8.79423217666,2.42496127662,4.74104359047,-1.18865658101,3.34333363537,3.05554474022,-8.15151332293,-0.678656858562,-0.00758752660489,1.56963732274,0.255220931382,2.64563654761,3.51783893571,-29.8470142886
off_to_on,5.90976426605,2.62250393367,6.99488307237,-0.435938543572,1.02076172294,-3.04091673633,-7.8236826889,-5.64128382359,-0.0087792947758,1.29443087168,-0.795788144163,2.18775975829,4.59230116067,17.1329095505
off_to_on,-4.39093638342,-0.938283501598,0.752566168337,0.643192931671,-4.15445691946,-8.25525945364,-1.80451149957,-6.12090079122,-0.00780888729172,-0.412191854357,-1.17102556327,-1.30681769336,1.94054590863,23.8078448839
off_to_on,-11.5552747002,-5.01985569468,-6.99769949336,1.29495531365,-6.6924254361,-9.6234093687,1.62348142626,-4.37406262188,-0.00975426286799,-2.98625784161,-1.00907427693,-5.8222456207,-2.18338399701,-26.7357892893
off_to_on,-6.51744410798,-4.86867359749,-7.22107938314,0.652427724439,-2.50486185661,-3.06681210807,1.69161697856,-1.44678937642,-0.00759755426206,-4.36320798774,-0.704322016595,-6.39777683451,-4.64358890264,-47.0220784519
off_to_on,4.61960400053,-0.886274892119,-0.613024825097,-0.774836314964,4.54935764794,8.17203289311,1.3919751695,2.06080701573,0.00320658939418,-3.0928685605,-0.393262979459,-2.01098705667,-4.630392733,2.87641775867
off_to_on,8.11045107394,2.72673755509,4.89180150691,-1.18642489256,6.6327814381,12.2967124253,0.920871092763,4.19883719636,0.0129510018962,0.618280656244,0.286838453043,3.37451685692,-2.38115302449,49.120436901
off_to_on,1.42681293413,4.03450411693,5.00759717771,0.100857266706,1.8364739638,2.95699957204,-0.0897654652082,3.71725938727,0.0113534779296,4.66022889312,1.46809592419,5.90138728281,2.00808186651,29.726417021
off_to_on,-4.54341058351,3.88055001077,2.02582233589,1.37280351998,-3.676046621,-9.63033688743,0.318904623901,1.96372464263,0.00344031630653,5.67003680911,2.2017653071,4.72496075766,6.21922306712,-11.8892603212
off_to_on,-2.26895136691,1.87523339332,-1.10727398683,0.765111010795,-3.94929818645,-9.81005665132,2.09332030923,0.48525572305,2.244673357e-05,1.95248024189,1.19905537083,0.735310608528,5.55911319734,-15.5964460111
off_to_on,2.91036933744,-2.77464573517,-3.59064330571,-0.995277208687,-0.132813942427,2.5695991832,1.05646272865,-1.29319742679,2.95356498857e-05,-3.46627344529,-1.26120227275,-3.86887291446,-0.902117644791,-2.55290120622
off_to_on,3.17001210917,-6.57966738634,-3.97353854027,-1.53456712494,2.51287945576,11.1629932251,-3.72599484216,-3.74288611984,-0.00444414820311,-4.98607504605,-3.00336258385,-5.19694081093,-6.45189575152,-12.9939373738
off_to_on,-0.348384448742,-4.02654266649,-0.572982136402,-0.194718696688,1.61229286282,4.87288552372,-5.65878546617,-4.561342957,-0.0109143611529,-1.23250357983,-2.24501803804,-1.2171877041,-4.08875685055,-17.3437710108
off_to_on,-2.1286157929,3.54698970066,3.9931784631,1.1421465191,-0.838771754609,-7.71236774535,-0.132119253343,-1.7050630329,-0.00918986635742,2.54117539869,0.290363646078,3.83544929938,3.22577140214,20.718021999
off_to_on,-1.82975103403,7.12216285967,4.03988001396,0.850656119697,-2.17244891142,-10.6750982095,6.32182272118,2.63927597532,0.00046528155725,1.33736658214,2.26594641507,3.20773171686,5.46586285883,45.4309268648
off_to_on,-2.13012665853,1.7907933726,-1.01351320283,-0.302172208209,-1.48302006822,-1.45862263545,4.52796280789,4.29228750522,0.00646165874711,-2.39900550338,2.30440473716,-2.76836415711,-0.591101570986,-16.0080160851
off_to_on,-1.55896969633,-5.499007502,-4.43021621942,-0.617924019822,0.748784624309,8.0301988241,-2.87635825449,2.50160589439,0.00437130975248,-2.32304826405,0.885848114801,-5.67837479248,-6.50263624902,-100.888467529
off_to_on,2.46791455795,-5.17726046014,-1.42915899778,0.0708817886874,2.90277287329,8.12208149838,-5.06254693694,0.0103139265436,0.00246991418661,2.15719687383,-0.8321633505,-0.50234573469,-4.03114848904,-59.6613351751
off_to_on,6.04239315011,1.65995428499,3.54397640145,0.562417939681,2.55918712933,1.41680200485,0.0948027443699,-1.49451950205,0.00540517943669,4.78749232671,-1.91733395944,6.5811581988,3.58394525137,113.000670657
off_to_on,2.87770045185,5.65830354611,3.3214441263,0.266425206681,-0.841212286984,-4.17939628528,3.4618134739,-2.35048891757,0.00580662371894,1.91334374033,-1.59754908372,6.49540920948,7.03815240389,210.750987516
off_to_on,-4.44931083761,2.83780386213,-1.45553674848,-0.245561655275,-3.84964585651,-5.43007096944,0.468348641225,-1.83987138162,-0.00140141877406,-2.16103226628,0.212065345082,-0.213576800315,3.66010002223,64.2088588355
off_to_on,-6.19966494857,-1.55395661474,-3.93801239149,-0.477725465145,-2.41526782005,-3.72577066294,-1.85083540555,1.20324717489,-0.00829222027464,-2.26264867008,1.96031003285,-5.16213188276,-1.36244994716,-206.614215649
off_to_on,-0.0397436211798,-2.80100557478,-1.53342985104,-0.587949737991,2.12907699901,-0.178468319586,1.42989422115,4.00129070123,-0.00650054771867,-0.353747905043,1.50755890654,-4.43509211673,-4.11202683176,-296.84241545
off_to_on,4.74517744098,-2.6030399196,1.42209804252,-0.572169369648,3.76240815688,4.28001179144,3.21474794155,1.38910620345,-0.000897163581993,-1.44551061612,-1.00540311658,-2.09853817526,-5.27876782851,-77.5182092269
off_to_on,1.45352048596,-2.86278019763,1.584842312,0.0293248197037,-0.00771726359596,6.17846454927,-2.94338422826,-5.56484599903,-0.000345495725812,-4.24899742364,-2.58535440093,-1.31514349855,-4.64212771223,233.518113464
off_to_on,-3.68811433731,-0.89228118695,1.01588157083,1.11646144193,-3.93119689926,2.22684218121,-8.83807269814,-7.66616077804,-0.00240653459012,-2.39763825166,-0.966845598486,0.566679144678,0.274547288998,310.460129047
off_to_on,-1.83471254646,4.3739755207,1.7058861801,1.57954269528,-2.09548914348,-4.73988015822,-2.63970482709,0.619458602428,0.000919679000077,4.89241457371,2.15436336488,5.11222767118,7.54569556249,87.1926345416
off_to_on,4.17797362194,7.1374900598,1.28284718583,0.604171461073,3.26528519342,-6.89994071459,10.4558565238,11.0943231581,0.0074068592499,9.66552553673,3.07248760749,7.39427941313,9.37028897923,-180.959581685
off_to_on,4.5617700687,2.29341097476,-2.06355510357,-1.05190407769,4.54858101178,-1.01468601539,12.6472930992,10.4228259511,0.00749629169554,5.43717361837,0.779501793409,2.7635893794,1.97584943891,-225.460085419
off_to_on,-1.7694931357,-5.30217531813,-4.61644945482,-1.80338826786,-0.325786697398,5.96104351153,-0.74885248737,-2.06762786137,0.00077423433945,-3.94875404828,-2.04580521113,-4.93674137695,-7.41880107516,-62.1354553738
off_to_on,-5.83993064835,-6.39916675608,-2.0583014075,-1.04364610355,-4.86169645181,4.74682343716,-13.3109717473,-12.3735166464,-0.00331622019466,-9.37130836853,-2.72126196175,-7.76331011695,-8.94916633904,77.7561174963
off_to_on,-2.71516792568,-0.660178436956,3.06615011152,0.354325914734,-3.27721925163,-3.54864724737,-10.1751595081,-9.43818148547,-0.00153859229871,-7.3114988506,-1.37290044465,-4.23356846694,-2.59702490276,65.0398140028
off_to_on,2.08523459898,3.15018910238,4.1651022041,1.16809522673,1.68672350002,-7.41068679181,2.46125367272,1.59601865001,-0.00110990148196,-1.64261800803,0.384779591493,0.186521860345,3.27990738207,5.202626317
off_to_on,2.63302208543,0.668962674786,0.170719435526,0.934392453716,3.53868876453,0.0812904008999,8.53824539731,7.78200163458,-0.00527512296307,3.29832553462,1.67931073916,2.15103925349,4.03093917162,30.1486828166
off_to_on,1.0764008257,-2.09956897012,-2.91139546278,0.0777995721688,1.31799538519,10.3490670762,4.44806659402,4.99972807421,-0.00670977966484,6.48938251223,2.18348240255,3.7777019588,2.80562507367,85.3901741446
off_to_on,1.57897801561,0.736684615082,-0.888127212592,-0.530797363516,-0.551100645983,8.93649410713,-0.340815268917,0.131722854223,-0.000654571360964,7.39775003683,1.30379147104,6.06521420032,2.63151354005,36.1278154725
off_to_on,2.15356876938,5.27378080666,2.81223011836,-0.247034956778,-0.161252006181,-5.00087976721,-0.326687778576,-0.881422850754,0.00590748099516,4.36469129447,-0.749186381556,5.1365868051,1.39783581569,-90.9041800549
off_to_on,-1.11585561578,3.99590058381,2.54037065272,0.581371203675,-0.43608808241,-15.6659524712,0.0207319315649,-0.0275356611237,0.00549019518984,-2.19743533272,-2.09320982946,-1.48281797825,-2.57794426438,-128.716110207
off_to_on,-5.59291404013,-2.63439882112,-1.70330234218,0.672937827606,-2.73280938881,-9.96527028718,-2.80965461309,-1.26649939347,0.00180764704063,-8.06161425604,-1.24273276017,-8.91860877961,-5.64810662045,-27.0897315021
off_to_on,-4.84244794003,-6.97368820606,-4.85823450898,-0.651134917966,-3.26045734631,5.83490008866,-4.82331883316,-3.49186463,0.00175779117801,-8.94643823993,0.498042786481,-9.66447919402,-3.89523874435,69.5772084786
off_to_on,1.36076264543,-4.78374891245,-3.46253783299,-2.06803576373,0.946627491953,14.5312860857,-2.16684224364,-2.94792957987,0.00307564316937,-4.52464191919,0.649846031569,-2.56184093492,0.563549044035,49.1292975044
off_to_on,6.04448885424,0.623642093189,1.07763342144,-1.4279054683,5.92264036724,9.40603587189,2.28648624623,0.540847503898,4.90077239911e-07,2.4166097759,-0.660972726016,6.26071987529,2.97250015895,-8.19538076893
off_to_on,4.53595392032,4.3836492661,4.94551397686,1.28376664331,5.09245387782,-0.530033787623,4.24947529794,3.51848777008,-0.00456807281935,8.61630157714,-0.771632250296,10.2199469445,3.03559600183,11.455000445
off_to_on,-0.201311679486,5.07065783611,5.27756349546,3.21844278451,-1.48735659296,-5.68733734749,4.14751858235,3.73949165243,-0.00449009297523,10.6793137875,1.23958359503,7.23531325979,3.52361819317,59.220026057
off_to_on,-2.98921926919,3.13460640086,1.68514114935,1.89269461043,-6.54856804049,-6.82512349298,3.41649600438,1.92677211612,-0.00396527052119,5.72705042379,2.68767002351,-0.580513562062,3.51181817624,20.53140682
off_to_on,-2.74881506622,-0.853771824657,-3.32260428519,-1.47350401004,-4.79789547098,-7.57699079765,-0.113160883572,-0.698014317604,-0.0104243100918,-4.74040775206,1.0792087773,-8.36464070693,-0.718556765956,-72.5885622094
off_to_on,-1.37098443831,-4.6215671904,-5.63244641374,-3.1477242873,0.904159806012,-5.12424297865,-7.13612158048,-3.5644495118,-0.0134864062542,-12.9329421214,-2.04702889395,-10.1779665808,-7.4888403543,-84.7878858458
off_to_on,0.0463185502453,-4.69161094379,-3.28136604046,-1.39960720245,4.11777838242,3.57952856366,-10.927044818,-5.09894818158,0.00879699104783,-10.9598340623,-3.09658113709,-3.60167906659,-8.80443055322,-1.24279127309
off_to_on,1.12855202703,-0.853614179246,1.02286349752,1.45508785444,2.77023668277,11.6809385859,-4.12909272483,-2.84897892226,0.0494255778865,0.0882243668989,-1.20578223961,6.04907123417,-0.969290220282,51.4534915019
off_to_on,0.976682958441,2.62283258131,2.89684135956,2.07750143009,0.0872110283965,8.98140776376,9.08848990405,2.96597543573,0.0554180895145,10.1202100556,1.12792647638,9.51551420826,8.44588881833,16.4979707838
off_to_on,-0.253610031785,2.47035691919,1.67677820633,0.164085223473,-0.748950404104,-2.22253939463,14.9701996969,7.63871009902,-0.016194742981,10.5610610479,1.80256601662,3.70515861706,9.08469920883,-14.261856367
off_to_on,-0.354252753995,0.605613959137,0.639345432616,-1.55839485396,-0.000668522348568,-8.05024193273,6.54904231378,6.03506575162,-0.118187483031,2.90964124399,1.25452113968,-4.35971671627,0.968290274371,23.7474432192
off_to_on,1.72922158274,0.421871645165,1.61073868994,-0.972732233223,0.346017842125,-2.35500524245,-7.29806209244,-1.3985671479,-0.125508617406,-4.46839983519,0.601249176089,-5.89344395498,-5.88866327466,54.6004286664
off_to_on,3.19142435999,1.38255408294,2.12411919444,0.986230447791,-0.602691722985,4.2167896252,-12.6296983917,-8.14321486091,0.0262354884915,-5.9390669304,-0.177505537998,-0.640276035616,-4.58803689487,3.83219104458
off_to_on,0.742022131123,0.558726374132,-0.510094545192,1.81474864162,-2.12747120792,0.309875871982,-6.46835964549,-7.94271335078,0.217944426887,-2.87147523162,-1.20332826327,3.91525219493,0.86167474372,-63.16513898
off_to_on,-4.13396459354,-2.09684972306,-4.51164829569,0.527622420673,-2.76503361369,-8.60525912339,2.21414459477,-1.19079641331,0.22546159041,0.172505168896,-1.54469902073,2.36323821532,2.41946479455,-49.5796466272
off_to_on,-6.18206151209,-3.61339702493,-5.45621754784,-1.40786068366,-1.2226707576,-7.99348052479,5.21690307931,5.66478748016,-0.0264228978676,0.689932592003,-0.548900413387,-2.80382745566,-1.22951451984,11.5770364209
off_to_on,-2.66982754375,-2.44955799908,-1.82560353693,-1.9387992001,2.34125580847,4.07600181482,3.51499623751,6.96443170462,-0.318973145339,-0.329143499456,0.73145631344,-5.22217180286,-4.05410001645,22.3426694036
off_to_on,3.55210507714,0.21328217403,3.46015147004,-0.616925942972,5.39235185658,13.5177136921,2.43261394926,3.2205612413,-0.332051870758,-0.223831762854,0.910049792972,-1.85581266788,-1.23736352616,-11.6909677404
off_to_on,7.35047363392,3.13240932383,6.53207245124,1.15147447474,4.62009616068,9.54019131048,3.01406439288,-0.799466063137,-0.00758238701347,2.400594805,0.347854314906,4.51819997515,4.82795053493,-4.61485615943
off_to_on,5.80037481519,5.42440844266,5.55307654897,1.67966936336,-0.421789451821,-1.79025691604,1.60357379556,-2.2846484625,0.347840773096,5.35999879244,0.346609358405,8.06224697501,7.48899696341,45.969114154
off_to_on,-0.28285979934,4.58295340122,0.788243624208,0.636276837052,-5.86013551005,-7.71974106343,-3.37001948457,-2.73223404596,0.383510293421,4.07215649048,0.744402111996,4.59307413474,3.1399977419,49.5755262653
off_to_on,-6.82820920165,-1.4048883205,-5.50114637373,-0.766865329237,-6.81694103954,-5.69063230299,-7.71958418208,-3.88362858933,0.0856895930693,-2.8730844547,0.100817348375,-4.29965318044,-4.97075211099,-16.5533490606
off_to_on,-8.44662237957,-8.69513736369,-8.82546136342,-1.10264292424,-2.2775795551,-3.10135757272,-6.12634778173,-3.92091636476,-0.235714100177,-9.68632645479,-1.61251942243,-10.9564058788,-9.58449873203,-60.6925374113
off_to_on,-2.84376961896,-9.01406596769,-5.23327149251,-0.221706044461,3.83703586553,-3.66680487873,0.937438814554,-0.203474879124,-0.313473318798,-8.20260893088,-2.28728756714,-7.94406574114,-6.11693999573,-25.7534185578
off_to_on,5.51391450477,0.189730836306,3.58522753511,0.67517550993,6.41502515969,-2.36756140688,7.01803510772,5.37561136977,-0.171491273737,1.92397573944,-0.48435709629,3.29902274718,2.75832043026,22.3462532917
off_to_on,8.61772525282,10.2478945437,9.8660271566,0.513864766953,3.71257848552,4.61115096683,6.79038807909,7.2157832355,0.00522279373041,10.8698816379,2.25825170532,11.9649973205,9.21225607123,11.7849467681
off_to_on,3.56727390625,10.2765672704,7.2232232492,-0.36612320198,-1.44536515952,11.4064199693,1.74718144725,3.0134538023,0.120485101252,9.26955015308,3.05352008698,8.89486858946,7.61898619507,-20.511957857
off_to_on,-3.83365096244,0.262019570762,-1.85777025388,-0.75216459674,-4.43201300794,8.93220207859,-2.45388483847,-2.88677225539,0.191187383101,-0.722242174421,1.03231065569,-2.6657733098,-0.082823118781,-6.03660829989
off_to_on,-5.95436006598,-8.99063888726,-8.26553917447,-0.206587386306,-2.95326515347,-2.32232967492,-3.03887066856,-4.95079556792,0.204076582291,-8.33687815474,-1.84368558622,-10.359914681,-6.68159837143,33.7573131484
off_to_on,-2.07677192816,-8.63028103586,-6.22870179351,0.464895939026,0.957591723578,-11.0563732096,-2.18231790406,-3.05241168675,0.0980170847698,-7.05551706876,-3.03409310429,-6.84371600705,-6.91974651061,31.4801096211
off_to_on,2.08497704916,-0.644791870242,0.889471116252,0.527114606458,3.00461719184,-8.24247552081,-2.25518486532,-1.08902912123,-0.0992746676759,-0.574347796007,-1.75160931187,2.5650861441,-1.78728746376,-6.62017683751
off_to_on,2.26146394803,6.37141591422,5.33899715684,0.324439931833,1.07851550282,1.66967762413,-2.05075962293,-0.657445978436,-0.237123739487,4.04676784015,0.726603914089,7.42146650099,3.68955627635,-18.9089570393
off_to_on,-0.0683534763568,6.6144944999,3.63545126945,0.389299129877,-2.42421675926,6.06967428645,0.518510432896,0.332385968507,-0.20435732476,4.45748032634,2.36726414437,4.10288414841,5.35473136481,-1.71513124333
off_to_on,-1.16638359374,0.99049122602,-0.927987796423,0.232735775435,-3.22086250541,0.136234630924,4.04222526727,2.88040269045,-0.0563012282556,2.29651919104,2.02825460852,-2.2744012241,2.56879422815,-7.97552951194
off_to_on,0.0926123155002,-5.10603450772,-3.15963394801,-0.844316461067,-0.0278261111488,-6.70851297624,4.72261343552,4.41925062129,0.0750533983127,-1.12839444178,0.318697996693,-5.4077497126,-2.10329906194,-36.5369104253
off_to_on,1.88676781534,-6.00187738037,-1.38510183921,-1.96246494672,3.8745676354,-2.99458316175,1.43692007048,2.6005307046,0.136729148719,-4.36604231978,-1.11393906866,-3.54908541709,-4.65582769044,-21.989796429
off_to_on,2.0558974742,-0.340986420734,1.89390819439,-1.19279832097,4.25165220681,8.90167420676,-2.68574848135,-1.08217957547,0.153948158552,-3.98981931605,-1.31653965896,1.28057639718,-2.49325607913,42.772694469
off_to_on,-0.112132010221,6.35087858637,3.07956739724,1.5282464662,0.527257958403,14.3190291707,-4.09264141212,-3.44900713482,0.127067226761,1.41176560416,-0.793160762012,5.6110272912,2.64083177029,68.0774135204
off_to_on,-3.33533358968,6.06780651394,0.686341280833,3.35221919545,-3.70266519139,4.56909001862,-2.40258237157,-3.53173684403,0.0277415398398,6.46592847094,-0.377545172691,5.56016069609,5.24522545909,1.89252761457
off_to_on,-4.60429882397,-2.03563102588,-3.34359913362,1.74500943315,-4.47790910229,-11.3270410886,0.332593563333,-2.24931453316,-0.109135053549,4.07000965655,-0.00784298026155,-0.307184815136,1.7187788181,-73.7499031661
off_to_on,-1.46767411021,-8.65863892584,-4.87326921947,-1.91555176317,-1.34377741073,-16.9215662912,2.2413513482,0.0449407248048,-0.181516061629,-3.98482739498,0.715162798124,-7.26480076941,-4.50957887151,-51.8339828586
off_to_on,4.4586952711,-4.87935315623,-1.29976984275,-3.61503194043,2.44718032309,-7.5489418154,2.51915924138,2.91075615156,-0.136842825152,-7.40833324943,1.3182106599,-7.32936717959,-5.94482889555,44.4262436725
off_to_on,7.41805003582,5.59232926963,4.816075619,-1.60196092672,3.25700983022,5.69421603663,1.06980254221,3.92480366509,-0.0314596607585,-1.27697353889,0.892204965156,0.880287487793,-0.219324274714,93.4177196304
off_to_on,3.17824153549,9.73645674603,6.97305576675,1.58024644919,0.67445692235,10.5377663149,-1.25333116529,1.05211819759,0.0540408512251,6.11492550644,-0.365207158284,8.24176857716,6.06721981071,36.5086719164
off_to_on,-5.14866682287,1.75362461009,1.67025977519,2.53525088005,-2.03818434201,6.66002670126,-2.56656229734,-3.0241488599,0.102193194688,4.5278919736,-1.13240096902,5.65975902063,5.16653497202,-64.5798593034
off_to_on,-9.04907779033,-8.74678545469,-6.17487304395,1.03257399165,-1.45016542881,2.09506416298,-1.46730945577,-2.82424716842,0.126049584359,-3.33025399349,-0.726969291473,-3.42739217494,-1.7356564382,-117.90153742
off_to_on,-3.74465338695,-8.64997513771,-7.5438556113,-0.571625623526,1.87109488283,0.962537941296,1.19518157584,2.12188319889,0.106324520339,-5.73840863387,0.0441956433598,-6.97594907379,-5.91330005095,-81.5938939223
off_to_on,5.63180933762,1.88221635878,-0.232262495291,-0.844815694617,3.48482124365,-0.275079115121,2.81902472025,4.99988062007,0.0225790318895,0.684700954274,0.19782209651,-0.747767646497,-2.59146041448,32.2837025846
off_to_on,8.94564505781,9.83812460112,7.29438114252,-0.504665871675,0.325572415361,-5.0376193096,1.68617868094,0.469075473074,-0.0821202367363,6.30505286557,-0.0886534546534,5.99891356037,3.12416866966,156.171329955
off_to_on,2.49522627207,6.08335037603,5.80286979604,-0.451652432588,-4.77394021867,-9.76582736327,-1.11597786284,-6.80844574853,-0.131327283354,3.24672185138,-0.0358625774666,4.00097982533,3.87193276486,173.694674399
off_to_on,-6.28065653336,-3.80502376449,-2.7584599252,-0.371561138198,-5.62613371619,-7.60712993913,-2.69178749043,-7.09554314827,-0.104219648915,-3.3994415758,0.463997937279,-3.20795465729,-0.0854114905795,23.4291020481
off_to_on,-7.25249543408,-7.90034669979,-7.48838623928,0.190373225753,-0.23909112709,2.19347693443,-1.44999449631,1.27408974693,-0.0449266681822,-4.5513830532,0.796648941846,-5.65760820013,-2.63610770999,-179.85627846
off_to_on,0.245785331427,-3.08348232519,-2.73909555407,0.71541279145,6.00241335868,11.3561025134,0.923395286245,8.6830353774,0.0115148631651,-0.908974185904,0.492678269147,-1.60057651643,-1.31237486159,-224.476854869
off_to_on,6.65126702175,2.8988890777,4.82646476904,0.563378229084,6.30341709945,10.7486365095,1.33037703783,6.34260510623,0.0679693285539,0.26924907371,-0.351175006597,1.94741296411,0.355313520187,-55.1323223475
off_to_on,4.30189405228,3.22569537624,5.82221189697,0.0814679015754,0.527013235822,0.982840056014,-0.571652928949,-2.30661471389,0.114463493083,-1.47276696336,-1.18417731347,1.58386048532,0.00567941438783,139.604015949
off_to_on,-2.97283696889,0.268888706429,0.449699278153,-0.0610903720945,-4.84946600485,-7.50433018914,-1.36093700733,-6.39004158231,0.107869888589,0.506443597725,-1.19723985871,1.60282468382,0.212652605262,163.952088907
off_to_on,-5.48278499458,-0.0345566461779,-3.50162275426,-0.0442433461624,-4.64251678974,-6.38159880059,1.42185968968,-1.90072515525,0.0326403444077,6.64004867903,0.0246445047816,4.09549368068,2.59316775227,53.7832103943
off_to_on,-0.770680969535,2.24639899635,-2.41115142221,-0.424176033613,-0.460010973297,0.652626089994,4.59543685739,3.81907490805,-0.0584360807381,7.57142564966,1.56224758482,3.56069255395,3.21686170731,-22.9894344096
off_to_on,3.87551170239,1.87208400934,-0.332688161771,-0.880092757989,2.50802432082,3.16417301689,2.50202448773,2.67079458367,-0.0997106217906,-1.5916904717,1.61285846859,-3.41258207165,-1.31721982987,-26.7550355306
off_to_on,2.38165471274,-2.50244949308,-0.661841344806,-0.518273784968,1.98821400386,-1.8047416946,-4.52794492074,-3.54616267507,-0.0836574828359,-11.2941205295,-0.265443250964,-9.5806044689,-6.47240414251,-53.0819274983
off_to_on,-1.96077079548,-5.46128291905,-0.825585807502,0.61758343331,-0.00534954641195,-5.94970139781,-8.45564832483,-6.19412304985,-0.0462483890872,-9.26343507785,-2.01194330503,-5.84687583561,-4.66957953499,-109.638026241
off_to_on,-2.47439874045,-2.67455821702,1.76811506816,1.33739642309,-0.973716088354,-1.83700242021,-3.19505058231,-1.25600910763,-0.00712530107463,2.25229891009,-1.38364941462,4.60441812132,3.18974099321,-74.1970528697
off_to_on,0.829115880477,2.5764310125,3.83352278761,0.828773611962,-0.583979479085,6.41123432089,6.34356837452,6.04379876028,0.0368028059019,9.41754230187,0.943661449646,9.3363078826,7.56115778425,75.977206188
off_to_on,2.34008960913,4.15671937089,1.33404367595,-0.372521214706,0.37613401202,9.08488051216,9.21931812413,8.02830933106,0.0738459159308,5.55712064692,2.07063036835,3.60644591287,3.19305963922,165.666240681
off_to_on,0.204454908329,1.73395506269,-2.83392431384,-1.18206514812,1.34195405346,3.89850052794,2.20525726385,3.01642700526,0.0775177451369,-1.55575081216,0.729847150043,-3.69748086002,-3.62222018096,65.4223301722
off_to_on,-1.39819673193,0.161690269535,-2.47761833247,-1.07480901698,1.48620048078,-2.96996302092,-5.97649801907,-4.04829721182,0.0449526399496,-2.65616769842,-1.15115033802,-3.45374327838,-4.30146297968,-95.5118393518
off_to_on,0.0358712415331,1.10211672378,1.74479643197,-0.18893524362,-0.208120826196,-6.75085589242,-5.95068153436,-7.38843211484,0.00159414314634,0.607568012091,-1.32658193555,1.3859619438,0.208018790667,-108.072267401
off_to_on,1.06752402563,0.535764444757,2.49013510594,0.933774154728,-2.98655656516,-7.73586375387,0.601118493685,-5.26827948914,-0.0352521401605,0.809758477908,-0.159815189619,1.90454738371,2.20696962565,11.1423575194
off_to_on,-1.34041699658,-3.75134989618,-2.72227746114,1.3930399634,-3.78104614717,-5.41609516455,4.19185517717,-0.214186993857,-0.0665067689395,-3.12532693247,0.472857627003,-3.04499913558,-0.818580351106,66.6202135074
off_to_on,-3.72274261961,-6.88030276282,-6.47479824038,0.523701994353,-0.558405054261,2.28145121558,0.529919997247,3.8583217777,-0.0817797957119,-5.25183709482,0.0792402334772,-5.84315579922,-3.36860547459,-3.24532050487
off_to_on,-1.02922364093,-3.08688485646,-1.78383125815,-1.01444983003,4.23433251464,11.0578526744,-4.37060777273,4.69066464291,-0.0560127659384,-1.99799347469,-0.190285637637,-1.59396233225,-1.02807947918,-52.8108401242
off_to_on,4.77468849295,5.23381061021,7.10387561071,-1.49721834723,5.55546011144,10.417445779,-2.88401812404,2.90614277435,0.00879882203549,3.48649898731,0.316007424903,5.34798627962,3.38332029658,8.56496295343
off_to_on,6.33666740638,9.38506265796,9.62908403008,-0.238236025078,1.58529586293,-1.68551611586,4.02258722553,0.689646230447,0.0680225420418,6.37908368716,0.878288653616,7.57249350172,4.74150486031,68.9991562658
off_to_on,0.997755008451,5.0176845053,2.55676124655,1.22610052732,-3.81370611074,-11.540657035,8.00398909257,-0.71090905955,0.0817353059032,5.14804901213,0.695763395922,3.2924546092,2.3060346901,15.8063237921
off_to_on,-5.44553858287,-3.08193259618,-6.61347694445,1.02789378822,-5.38466945561,-6.39960439492,3.55242899396,-1.83387952891,0.0565037805491,0.836632075817,-0.145318104231,-3.10735771615,-1.29026446024,-69.1649737092
off_to_on,-6.36907735625,-7.54045645535,-9.47216802101,-0.450555211582,-2.24858908507,6.23523959462,-5.54715672975,-3.28424068745,0.0210976827844,-4.62362504262,-1.11445434564,-6.52711751239,-4.2787449425,-48.3701702538
off_to_on,-1.99305615078,-6.08161448487,-5.10224695523,-1.12094722641,1.78811041779,7.8805746071,-10.4042302916,-4.01850804152,-0.0157009810623,-7.87405180896,-1.62529939311,-5.06213869399,-5.58434548751,42.6439906988
off_to_on,2.62310242303,-1.24820379365,1.91391780417,-0.15833325822,3.12041728101,-3.69663241046,-6.22279403245,-2.25360340777,-0.0556928872984,-5.39601924821,-0.958733113498,-0.234912084369,-3.1706656207,60.3203752779
off_to_on,4.23974406301,3.82796975397,7.08421723278,0.962371078049,1.94370904205,-10.4290573732,3.42474942849,2.04618719088,-0.0789567710707,1.97247145466,0.976504977705,4.32846700059,3.03924437401,-10.0425858277
off_to_on,3.26610652512,6.47481723517,7.58017915944,0.725462075395,0.64594558392,-1.15019268775,10.5219288079,6.24725116542,-0.0583552186976,7.83236674682,2.59631560606,5.06170000403,7.89625470903,-44.8372913111
off_to_on,0.981512873077,4.25989631434,2.47633323464,-0.412170938621,0.154652780711,10.8811793037,9.61814540367,6.83204546094,-0.00325377667254,6.47738932384,1.80655207519,1.37171408289,5.54965760209,2.23154723738
off_to_on,-1.67194008373,-1.99956427538,-4.96896190961,-1.00282645965,-0.602940982188,7.86439466476,1.50033070772,2.30601703817,0.043564766683,-0.338154762377,-1.07035257024,-3.1878302909,-2.271041339,34.0005328365
off_to_on,-3.14044275629,-6.3208102531,-7.91712714817,-0.604546975225,-2.05595714079,-5.33580085233,-8.0330114297,-4.94158533847,0.0564801593914,-5.27634672919,-2.89727639239,-3.89286970835,-6.90522849194,-9.56685741309
off_to_on,-2.15602560944,-3.35473297291,-2.97107203279,0.161219102217,-2.66032714552,-8.85429842759,-12.0347722314,-9.47836750034,0.0475959626858,-3.9204260391,-1.45507075205,0.164791594566,-3.4978554907,-48.4036652523
off_to_on,0.104762312173,3.67285327244,4.50024721799,0.813243636547,-1.06176987181,1.48867752518,-6.91311576156,-6.88026342063,0.0327092268129,0.732633038398,1.47177448451,4.50711929751,2.64703881321,-8.1113021165
off_to_on,1.07287235803,5.53622855506,5.93663313175,1.15317225234,1.58970988449,8.24552745739,4.12275173277,1.60913252103,0.007239224333,2.7339189646,2.30579083751,3.65714927436,3.41666749605,49.0082979561
off_to_on,0.398724466828,-0.777530764009,0.254576280248,0.688374218701,2.86742155571,0.0665958213718,12.1100441494,9.00033882861,-0.030080421131,0.301127367518,0.347609171077,-2.50457843334,-1.2208987198,32.6799704823
off_to_on,0.303808505705,-6.98129399036,-4.89894481802,-0.774449427016,2.09466745222,-10.4896501507,9.69600885107,8.79713252936,-0.0561768309296,-2.80838481943,-1.6138311421,-7.56989373369,-3.88889610551,-22.9294367887
off_to_on,1.66253330024,-4.19314462631,-3.2813428961,-2.04031191702,0.632534991209,-6.56686164625,-0.957175199929,1.55940756295,-0.0490642955661,-2.27930163667,-1.32798486285,-5.12045026566,-0.413328569935,-24.7098257091
off_to_on,2.11913983119,4.70130954611,2.31480305332,-1.40777306863,-0.655510165495,6.97583748608,-9.44957198116,-5.83663294543,-0.0187969624698,1.74319155812,0.233860604452,3.52272860218,4.75459847165,18.8108577618
off_to_on,-0.293132715208,8.59318990546,4.64828405196,0.930757177324,-2.22214427835,11.2603120406,-8.10571630837,-7.42496339678,0.00806676433326,4.94522793752,0.937570341448,9.73266769594,4.98238163549,20.2525102524
off_to_on,-3.46440283518,2.79602977574,1.41643859745,2.52442684195,-3.53198769228,1.86235674338,-0.129587374062,-3.33552913171,0.0233406275491,3.63073590324,0.542484521728,6.83996278092,-0.0622604355873,-29.5120924093
off_to_on,-3.42085850659,-5.4521663713,-2.94000366477,1.49927135065,-2.27698169282,-6.070711939,5.22207977888,2.00704543106,0.0353018557324,-1.32739343309,0.293497237992,-2.33907165522,-4.85457065228,-45.9021802179
off_to_on,0.406770822134,-7.09102094696,-3.51262861717,-1.01647866175,2.07655086462,-2.36366738573,3.83478693982,4.67290815027,0.0413177662861,-5.42624734172,0.467431564689,-8.80879030657,-5.07455661367,3.00699138774
off_to_on,4.14363480196,-1.92613411421,-0.195598360017,-2.24157434304,5.56857832396,3.34833275025,-0.227647906303,3.49686726601,0.0278591163107,-5.03566673934,0.0630172106571,-7.19779269269,-1.49302339238,44.6610143107
off_to_on,3.83250040473,3.36910026296,3.12501688042,-1.07976065335,3.65636260614,-1.18513400475,-1.93185106589,-0.140364277306,-0.00287107512637,-0.616103055158,-1.17400882671,-0.26258663296,2.48495702344,26.0125667925
off_to_on,-0.433655694977,4.22554031733,2.73835670165,0.870173816407,-2.32001329755,-9.92202198408,-1.03120146414,-3.01942876208,-0.0290908497387,4.11628109661,-1.89846151026,5.55318812976,4.39065129158,-7.33363219807
off_to_on,-4.78069279416,1.5689518113,-1.40428028462,1.52132882703,-5.73126024469,-7.13598791341,0.35932411493,-2.19536095105,-0.0366472621093,5.42889265714,-0.87358757589,6.28709802368,3.3832847367,-3.93374683242
off_to_on,-5.00864595985,-1.5228231561,-5.05342596012,0.568597737945,-2.77774549886,7.70755258865,1.60166534867,1.48388021701,-0.0318202105519,2.28672552961,1.28134513561,2.25326434589,-0.145237520963,5.34415519102
off_to_on,-0.162342972407,-2.7470263141,-3.29932914771,-0.669221608506,2.69315716767,16.9746681819,2.28715649098,3.20624922066,-0.0222732807378,-2.77330421539,2.62711523508,-3.1229340766,-4.01787427291,-21.1935836558
off_to_on,5.99308230522,-1.10598563982,3.42059788212,-0.944053729385,4.37324136568,8.56602959936,0.554064368079,-0.0315600058659,-0.00414676722651,-5.17474295239,1.87339964479,-5.19998676696,-4.76277918284,-42.8143692665
off_to_on,7.38673323177,2.11541876541,8.05893431968,-0.180237264205,1.28724526347,-8.02647086184,-3.62747289885,-4.51409956566,0.0224620719853,-2.29299576238,-0.437320116367,-1.74830140232,-0.880058050981,-0.23160853796
off_to_on,1.48344927825,3.2714017593,4.48199471078,0.717890498015,-2.23973327695,-14.8727076993,-5.76069207224,-3.89443348682,0.0414952912509,3.1240811629,-2.42148722943,3.61875642872,4.4540307229,65.031712531
off_to_on,-6.85356106049,0.270123548688,-4.25816997397,0.77333288072,-2.90486163642,-7.58022104484,-1.81577095131,1.97686573003,0.0380892510463,5.00216081224,-2.42209407003,4.26589209567,5.80873638916,49.8235503348
off_to_on,-9.2859245888,-3.72989214624,-8.71791967792,-0.146584218662,-1.40019643789,3.08558457033,5.01303895581,6.10075186076,0.0176305808882,0.868759925058,-0.475874052124,-1.11017464234,1.39494380561,-52.234133716
off_to_on,-2.96438287428,-3.72977793067,-4.6344159241,-1.08950429922,0.527199535236,7.23249494942,7.09914568757,3.47304177037,-0.00422660785875,-4.61040419601,1.60855170385,-5.68350341655,-4.58975746028,-114.631779601
off_to_on,5.87622164715,0.133452428054,2.2584867444,-0.908367487642,2.37923142961,5.12891844104,2.24792670104,-2.38643712306,-0.0214667216667,-5.03195726375,1.96543811266,-3.09527741655,-6.39628549057,-33.8989285689
off_to_on,8.68822792864,2.79807396385,4.72662252125,0.408437567421,3.3296704503,1.40149838392,-3.53589340386,-4.62409208363,-0.0349613496438,-0.0804726482458,0.59479877349,3.65564646361,-2.70046665216,125.674063715
off_to_on,3.77428052784,1.94529041898,3.0840048619,1.5387734924,1.59216799285,-1.77539112964,-4.37404296291,-1.96001086473,-0.0382509991064,4.66944581426,-0.773304619528,6.19519716514,2.76720724985,185.042620451
off_to_on,-2.99782205963,0.90429390543,2.01894713602,1.21526698101,-2.48343974411,-3.20421046504,-1.47795609326,1.18932149842,-0.0225819080765,5.05983118035,-0.797739491687,2.10642769782,5.67606607819,44.2750602662
off_to_on,-5.56401869554,1.97857759048,1.90736502568,-0.360099737516,-4.94401584604,-0.881975413412,0.505531271612,1.77946490981,0.00611847117247,2.09492971963,0.0402729770968,-2.90983368992,4.65528450811,-188.532088655
off_to_on,-3.34241356626,1.74339072435,-0.776114833106,-1.72580846386,-2.6094642788,3.71552035718,0.395635671145,1.0098397026,0.0296632673649,-1.64145932076,0.394052261574,-4.01362054904,0.915269964013,-274.995961035
off_to_on,0.22786773429,-2.83016952621,-5.42357223077,-1.64223072333,2.22600151019,3.92409579711,0.194746542776,0.356628331262,0.0374303990589,-5.08554507871,-0.141536220117,-2.6077554012,-3.39949471897,-86.9614608001
off_to_on,2.12105696981,-7.30180925558,-6.23677798385,-0.176948504335,4.21082844501,-3.71752778276,0.493387043804,-0.797091186431,0.032312767962,-6.57791447012,-0.750635473609,-1.23069842958,-5.70741802417,218.90532363
off_to_on,1.66230681744,-4.78586880819,-0.960313734546,1.47300663536,1.70642364219,-11.5151497336,0.356268529426,-2.16769940378,0.0179430088055,-3.03157561976,-0.601599817588,1.08265970096,-3.93402820957,325.628129242
off_to_on,0.00621984339333,3.37013108948,4.75674123221,1.97668639625,-1.4971508342,-7.7596231156,0.488866229673,-1.13573274124,-0.00572604522266,4.96852252676,0.26183091271,4.6944985571,1.04013983194,108.35477498
off_to_on,-0.801127403429,8.19848147185,5.02801561839,0.905701658739,-1.59897541794,7.26032692991,2.17142128714,2.8589424439,-0.0313049319092,10.2188213339,1.10707925719,5.46398080074,4.83922234933,-195.078027182
off_to_on,0.566333524093,5.02169525809,1.59598836769,-0.843576684909,0.539050397717,18.3814435977,3.31907277223,5.24339353963,-0.0425262818691,6.12867839721,1.13242097033,0.335238908305,3.73808619579,-258.170911803
off_to_on,2.70262068919,-1.01490083535,-0.133815126156,-1.75793035816,1.37076524089,12.4266723474,0.172036419917,1.46728486326,-0.0314428017216,-3.99597067901,0.0795956128929,-6.06444157749,-0.684766927462,-65.1880807624
off_to_on,2.19979287866,-3.32745859972,0.284242165393,-1.17143421028,-0.412320385945,-5.63854351365,-5.97602822422,-5.76914678004,-0.00797192450041,-9.74793526025,-1.28120924888,-6.29875370673,-3.05958261243,102.649413918
off_to_on,-2.01562111075,-2.44394396973,-1.01346221111,0.0742645214901,-2.63126842001,-18.0388404642,-8.06110536246,-8.3254500046,0.0136515511022,-6.04718400316,-1.52104754699,-0.424095339461,-0.840939907318,73.145929196
off_to_on,-6.04645497931,-2.48276374059,-4.39915912769,0.731932305272,-2.5870191656,-14.1480956741,-2.00260334543,-2.40225303886,0.0287720417941,1.64399793356,-0.104339056255,4.25698614137,2.57474997502,-11.225235525
off_to_on,-4.86599031025,-3.32117159594,-5.32259337261,0.637810971656,0.077397748322,-0.350908297674,6.83759826148,6.3742565323,0.0363864571705,5.51082054378,1.55326284264,3.58020959914,2.45838281198,28.5402043293
off_to_on,1.38427689392,-1.47136781932,-1.31146213732,0.52599650026,3.26092649682,9.96934541255,9.45591421603,9.24385640865,0.0302712700758,4.20374519801,1.46205535458,0.89154250886,-1.24242203856,110.339066279
off_to_on,6.97686467154,3.17063985943,4.28579834143,0.591678964516,4.25046495707,10.918495767,3.89205367241,3.92712838462,0.00764223087689,1.22258254017,-0.377664022596,0.0312800000107,-4.30795232877,47.7307687197
off_to_on,6.82673832159,6.42952255445,6.96993737497,0.211424854143,1.89883807229,5.99708486845,-3.40815009831,-3.80902669604,-0.0195610544104,-1.22227984411,-1.75735756385,-0.206040024522,-3.64589587779,-114.993044524
off_to_on,1.44905528735,5.36099354676,5.6255416379,-0.701065572905,-2.20420335128,0.123911035807,-6.2220124876,-7.15239857626,-0.0340758576665,-2.87497006332,-1.05415865019,-1.88071071218,-0.218394689921,-153.895928757
off_to_on,-4.59521805379,0.875603314229,1.05579351658,-1.12528186782,-4.73889743389,-4.70762596624,-4.66608781953,-4.73978954529,-0.0315144773595,-2.75881140486,0.707636049537,-3.13941005504,3.10476861604,-20.2485360998
off_to_on,-7.17615573742,-4.63841635272,-5.57161563768,-0.430745729963,-3.49492689744,-7.05200139548,-1.97418221993,-0.127183282893,-0.0197496265288,-0.249391993391,1.40858682087,-1.55755682593,4.51657228789,87.7202229935
off_to_on,-4.80235817806,-8.44316910138,-10.3319288997,0.417403403315,0.511264125312,-5.12328632366,0.889452078913,3.1411784772,-0.00397405829319,2.36449792019,0.655514437031,1.28497346256,3.70617988601,46.0392042534
off_to_on,1.15228038705,-6.84918348709,-7.3051535006,0.226168699724,3.85057211908,-0.158968535479,4.36941535365,4.21949610626,0.0155487920672,2.21648050542,-0.174922411267,2.55308791476,1.13016550918,-19.8400076885
off_to_on,6.43941040381,1.34325461186,3.52828317651,-0.422925765796,3.67119708184,3.23032572298,6.25589149983,3.38354487189,0.0322365378932,0.0937877213572,-0.315077970677,2.54927673217,-2.12807288328,21.3887725392
off_to_on,6.13905809254,9.94247973682,12.2912771098,0.0429577157888,0.193392111165,2.67159399454,2.92849389833,0.383945503269,0.0336566260334,-1.06798532981,-0.484604224122,2.32231644737,-4.654116935,80.4342628419
off_to_on,-0.0833227411183,9.53147556278,9.14583712852,1.48474514818,-3.26686087437,1.17699253448,-4.41992031613,-3.84410002493,0.0172956007002,-1.03067816884,-1.0983275468,0.0393683388655,-5.4554158918,19.0463760668
off_to_on,-5.76198995205,-0.516069538983,-2.66714055131,1.75154358279,-3.05936147387,1.9418219007,-8.37758608927,-5.44716566096,-0.00441582226791,-1.60866135303,-1.08492275971,-4.94908341082,-3.90256223153,-94.9778344264
off_to_on,-4.13175748641,-9.01964770044,-9.73979642488,-0.257268381979,0.966144570987,2.82716169632,-3.41316373492,-1.21184148643,-0.0192180609902,-1.84236248521,0.441125343986,-7.08287683644,0.557997690487,-94.4037300056
off_to_on,2.87108980534,-6.42282342277,-5.22591137872,-2.57837998781,4.40828444757,0.102455281152,5.88383650882,5.52447024873,-0.0260410652367,1.06585013126,2.22139019725,-0.820679899299,6.76421733891,9.82789729679
off_to_on,5.84286388665,2.58663271998,3.20192531415,-2.46546410686,2.65766443708,-4.27477076804,8.69362725548,6.47585913606,-0.0266901813636,5.31959587486,2.01213832178,8.69088485281,10.0918984371,56.5739641082
off_to_on,-0.0409330368861,5.74325080444,4.69224246411,0.0537394741424,-3.13112126262,-4.56771236407,1.21639476532,-1.07278797135,-0.0173863833828,4.73396319019,-0.36771329212,9.32756506467,5.68418109395,5.65286690336
off_to_on,-7.67957136362,0.136325200109,-0.77395940309,2.25134437038,-6.31896125367,-0.354198073117,-7.63704455807,-8.50464866153,0.00273752307634,-1.99774469475,-2.41784305335,-1.35219934063,-4.66698716808,-17.6134651954
off_to_on,-6.50463627037,-4.84255990471,-4.43173027214,2.08786997027,-2.59661265609,2.21240553694,-7.04826992137,-5.73413140073,0.0225590957662,-7.44905595827,-1.91299471453,-10.7908237992,-11.7538516412,39.745598607
off_to_on,3.49953172369,-1.87612733379,-1.50269354942,0.26353560445,4.18431006197,0.133130201939,1.69711619614,4.55245276679,0.0288436297075,-5.09682190581,0.362481710458,-7.55724683553,-8.49483821146,67.1202590519
off_to_on,11.0051050784,4.38309142649,3.85580833813,-1.19336468572,6.5093385044,-1.37303722465,7.09108575483,9.17260051165,0.0212622320942,1.44074958489,1.68060881863,3.45161908523,1.30543542895,-4.96548112763
off_to_on,7.1851327026,5.25354521703,5.62069792036,-1.21310016218,2.47930302245,2.24740437418,3.03583714657,2.27831443106,0.00894211681321,4.19938473809,0.810650114762,8.6321026371,7.47517610113,-76.359935894
off_to_on,-3.85106060905,0.14508325436,2.68155717212,-0.187256150722,-2.64165298788,6.07065766758,-3.4997604857,-6.27076406358,-0.00364756575716,2.50998573311,-0.630617850049,4.06491640833,5.78686238862,-47.3093552034
off_to_on,-10.7229171768,-4.49946906905,-2.29329526536,0.82117396715,-3.99779595791,2.57229008668,-3.31955815325,-5.02955828754,-0.0171539790703,1.8874329445,-0.561586357995,-2.02697024098,1.23617432928,18.4418656235
off_to_on,-7.76929975497,-4.82251607502,-6.325417223,0.811553120777,-2.40065610818,-5.4847362231,1.92302660203,2.69681284714,-0.0266657607915,3.04839746459,0.709503609677,-3.27963242664,-0.897439306113,15.9211827554
off_to_on,0.808451011978,-2.26324219186,-6.60479243433,-0.417360354199,-0.755133938698,-7.45561167263,3.38091637502,4.63155028627,-0.0230737284301,0.596385729246,1.0161187263,-2.32409624736,-1.48330925536,-21.6513997028
off_to_on,7.62241616052,1.46695860454,-1.36923902666,-1.65794670286,0.784885860873,-0.552059102067,-1.14600155109,-1.61558374624,-0.00682110698543,-5.93159092429,-0.459195808745,-2.49541559296,-2.70914517541,1.23699019236
off_to_on,8.68511150357,5.7460920701,6.54959137036,-1.17078786786,2.93961236182,5.3449003711,-4.49718388428,-5.57112421479,0.00995264471227,-8.23643871349,-1.7941895971,-1.23628794565,-2.50102689686,60.3642586803
off_to_on,3.91576985404,7.3491482353,9.68283702536,1.0704846474,3.54853087195,2.26685351439,-1.72501686384,-0.772759057495,0.0180846180367,-1.29253371194,-0.92906153597,3.42493853571,1.14278412839,50.8001582146
off_to_on,-4.08003028471,1.98705543408,3.48518544612,2.71298838473,0.264383289516,-3.90217954935,2.74298519984,5.36560749669,0.0194244869734,7.30523436469,1.2319779955,6.34691228134,4.04721606792,-26.8031595862
off_to_on,-9.91473329037,-7.88286508125,-6.75264453228,1.64890813672,-4.10675193835,-2.73475626485,2.74020442199,3.68267490286,0.0172242788937,6.92241059523,1.80840281868,2.0223399542,0.781367619615,-62.2396447257
off_to_on,-7.95754342968,-12.1785980272,-10.3025936313,-1.1432722249,-3.86597272817,4.51982202958,-0.404556662791,-2.58612341453,0.00861495360679,-1.07178348396,-0.0300448298432,-5.60631874231,-5.60051454404,-17.1614178427
off_to_on,1.46787376464,-4.62486292934,-3.1069383537,-2.62309553922,1.30704189961,6.84910394675,-1.19661550519,-3.72519385042,-0.00693233129499,-5.51507140635,-1.7114002742,-7.07623536743,-5.79653100785,22.3618272862
off_to_on,10.1348022533,8.08651651987,7.23225467807,-1.45124882733,4.846270433,0.256873424942,1.04129692157,1.12320149572,-0.0200253650435,-1.31281819674,-0.8084100896,-0.251762355106,2.53862065584,-0.0231240868728
off_to_on,9.64899773178,13.3042289238,9.92015339173,0.59401085597,2.11614670817,-6.47401217736,2.12629320004,3.72141137341,-0.0209974539977,4.58368476834,1.43474976716,6.82016172585,10.1164214753,-25.1544650415
off_to_on,0.790357043235,6.92086305566,2.54236918198,1.24851896251,-3.07318948268,-5.09297499703,0.265008719538,0.337863338248,-0.0121602154003,4.06001349378,1.77718313177,6.43853244883,7.67564314763,3.6326033965
off_to_on,-7.57648738761,-3.62456182521,-7.28682722797,0.496624703705,-3.99740600631,0.737458147609,-2.08537398987,-3.52001631504,-0.00250930563155,-1.97652922724,-0.421556867867,-0.339711652882,-2.4158735893,40.5599301766
off_to_on,-8.60753618818,-9.62872415486,-10.3698622177,-0.109569466661,-0.271098213513,2.40526486924,-3.11952476239,-3.13205016635,0.00526982648393,-6.88343124461,-2.27664921525,-6.83514032421,-10.0349993378,25.2531590255
off_to_on,-3.54693000796,-9.04057119796,-4.29220183455,0.14465271772,2.61531373276,-0.62211995356,-3.27726815094,-0.974501247381,0.0135868582991,-6.47007715514,-1.39220122045,-7.82825216491,-9.17284081047,-11.4052520478
off_to_on,2.27591050352,-3.96380213108,5.55960929118,0.557513862327,1.66707437963,-1.46962015729,-1.731936551,0.0536476501506,0.019275231224,-0.846846868605,0.992437888436,-2.23088627224,-1.92700749236,-10.8694185014
off_to_on,5.62857109081,3.45922598397,11.0892136458,0.380332687659,-0.335662159145,2.61615139312,3.18992985866,2.2133670659,0.0150890459301,7.1602640203,1.96047843764,6.65926842547,6.1346272371,5.67434690409
off_to_on,5.86120711558,9.63402018535,7.75710603944,-0.314382012241,-0.314774869115,6.19276994896,8.54436458118,6.47592519457,0.00204470050139,11.7046493741,0.77542568954,11.4034032208,9.77874977849,-15.3770500202
off_to_on,2.81315623592,9.14265784951,-1.88664413639,-1.0325740473,0.630504377977,3.84059033902,7.33670816447,6.85594527769,-0.00954185911651,6.61779042185,-0.714090655352,5.72184815703,5.79902622209,-47.404131712
off_to_on,-2.23055969967,1.0470505838,-9.84693982193,-1.27360645706,0.149696775344,-2.68190605299,-1.91754062541,-1.28928652612,-0.0133601324307,-6.23043367493,-0.932128069528,-6.73007258265,-3.32552053629,-19.169724515
off_to_on,-5.36792778656,-7.10852317638,-9.3448385458,-0.606515343148,-1.16405914225,-7.5150772927,-10.5768191525,-11.1019034362,-0.012888476691,-14.6280595201,-0.250898079373,-13.0487636334,-8.69419927108,52.0683730801
off_to_on,-3.77129596034,-7.16498546394,-1.37121749323,0.831106801729,-1.26833834847,-7.36849151418,-9.5300836029,-10.9398251014,-0.0114446481457,-8.73644513217,0.229543239248,-5.72104586427,-4.05828540213,65.8690962976
off_to_on,-0.0203053558329,-1.1126083871,5.98789919269,1.88964936467,-0.364807230474,-2.93774382229,-0.676869031198,-0.369540605937,-0.00570584447375,5.28786647768,0.200949423141,6.4830963885,4.57987937237,-7.78421036205
off_to_on,0.96313805174,1.80509505783,6.04243016196,1.36464098328,-0.101027819534,3.41556008038,6.21114560575,8.73581436351,0.00572796458016,11.4755584363,-0.0353673578458,8.80981766436,5.2360409512,-71.9046032684
off_to_on,-0.661533956113,-1.17149242268,0.801507706394,-0.365825503335,-0.148561078999,8.58143536125,6.21644823036,8.18109187,0.0152905092137,4.25467330368,-0.277815926847,0.195798629579,-3.09587970184,-38.8546554101
off_to_on,0.345264040408,-2.35871493948,-1.94444570417,-1.50552055478,1.24397681444,9.13089351655,3.19304287963,2.67667456537,0.0152344556115,-4.96632561559,-0.323429466467,-5.55671697662,-7.66373996714,48.4243158421
off_to_on,5.33350859191,3.62164280352,1.18510427472,-1.03606082508,3.32285345531,3.90291463922,1.451227981,-0.00441272915201,0.00813651978141,-4.20461392798,0.142071041809,0.127712325605,-0.14120494119,82.809986447
off_to_on,7.46568096923,9.69396846609,4.50967393446,0.0605591892471,2.6369313015,-4.0789419585,-0.102632152054,-0.578294686623,0.00152266658315,3.25691412216,0.900466474275,8.01428104577,10.0697332737,28.8438373978
off_to_on,0.688488551864,5.58280906523,0.878601331607,0.357043742991,-1.89753085322,-9.93157493215,-3.39475542234,-3.84703628379,-0.00343874039387,5.34795119124,0.988552277037,4.6341942441,8.39386521361,-59.2429292822
off_to_on,-9.74145027665,-6.22516251598,-7.74868577751,-0.0365274017066,-6.05977098707,-10.6000095814,-5.97982891327,-7.92109036789,-0.00983394242726,-1.22551866455,-0.12838026816,-7.64243505947,-3.98250042718,-112.257196118
off_to_on,-11.6741915603,-12.0913833054,-11.1058676117,0.00234373895498,-4.72177078078,-5.46060730687,-4.37137163144,-6.02226992424,-0.0150006517468,-7.69233921308,-1.49095763472,-13.2564444446,-11.5743377646,-86.2747514895
off_to_on,-1.52628455115,-5.30198809528,-3.1414268214,0.614001779212,1.60394138424,4.21296770902,0.343749772639,2.19242866737,-0.0121940968292,-6.29875023083,-1.53600025396,-4.69845999783,-5.93406675749,27.0861111135
off_to_on,9.9895242104,5.13907748846,9.33683278909,0.743807604868,6.67855818451,13.5521734821,4.04367272586,8.5844137986,-0.00188996031914,0.678962029104,-0.022857763425,8.07517595767,4.39889096584,160.991747554
off_to_on,10.5234882279,7.29224778443,13.6499425196,-0.0358057502801,5.34054512936,14.4224413436,4.98122443566,7.23528032332,0.00731779935509,6.35228700922,1.56407388272,11.8035443233,7.62658048919,180.153336875
off_to_on,0.890651887625,1.68966780454,5.76775374268,-0.710074428757,-0.846610634274,3.12263663615,4.16938669471,1.46250664271,0.0103680220683,7.50859312679,1.6638851088,5.80817550827,3.50257535766,20.4212946544
off_to_on,-7.01009536312,-1.99071469302,-5.60831916155,-0.386180664959,-5.45961034994,-11.8964859142,1.78578001965,-2.35513882026,0.0104105622193,4.57440796078,0.25755745221,-1.30748041679,-0.793807783089,-185.340570728
off_to_on,-5.41873468316,0.101024516302,-9.82714505281,0.26241067326,-4.19859729536,-16.0451250287,-2.6835955899,-3.24354608633,0.00991734203211,-1.61529456683,-1.27119689348,-4.98355680729,-2.61274927425,-220.852504135
off_to_on,1.0944347169,2.05956597032,-5.63094738456,0.0452611559002,0.778639933343,-5.44606768796,-6.86914773337,-4.10804464598,0.00544960474489,-8.40057978104,-1.54734845304,-7.06111546858,-4.05497750044,-48.7753745858
off_to_on,3.52256688444,-0.798408937703,0.238979236707,-0.763144991467,3.68912863023,7.14716097864,-6.29916274683,-4.91484643322,-0.00439424519855,-9.84360920883,-0.391838415342,-7.35693724239,-4.18287001945,135.285668462
off_to_on,0.130434751711,-4.4374302917,2.69773388351,-0.661046304872,1.76266788288,8.08376925067,-0.296290729584,-2.39507157488,-0.0129124572394,-2.39649707076,1.08095311754,-1.98916048742,0.275236284948,153.873848951
off_to_on,-3.06389345996,-2.98660075364,2.61966810132,0.763088489073,-1.86598941156,0.330208485771,5.87032698819,3.72638573815,-0.0132363224977,8.36776439431,1.44840644307,7.67637299435,6.73929622063,54.2299226204
off_to_on,-1.4715052979,1.94041374972,2.46296095703,1.84937821129,-2.32250284474,-2.08844674192,6.73112442127,8.2514909398,-0.00744042418707,11.6544464965,0.332073438089,11.9273937291,7.18658851511,-12.627355523
off_to_on,2.51134831553,3.87342006729,2.10921054221,0.933338055651,0.869874406908,4.64989345019,2.55148879168,6.03430880347,-0.00177813970024,3.66983370028,-1.13902519699,4.30001296914,-0.679176314244,-23.3693958955
off_to_on,3.73873142549,1.07701749278,0.609972321862,-1.22580020408,3.3370205548,8.26675598704,-2.23497214165,-1.61936996887,0.00287013191313,-7.29755292014,-1.44010221386,-7.72464990107,-8.4225785869,-60.8976056981
off_to_on,1.07055957182,-1.6940084822,-1.07178708924,-2.14047072683,1.61951056821,-0.869899911689,-4.51279925813,-7.64352556159,0.00890032182524,-10.0852800786,-0.270105938245,-10.3844226836,-6.96283421908,-113.70200633
off_to_on,-2.16977163689,-0.846969983884,-1.57480050219,-0.736539711937,-2.37859602011,-13.7595837894,-4.01744664478,-6.27844454877,0.0135829420436,-2.8856094772,1.16898933113,-1.17047652559,1.85369074497,-67.1563714566
off_to_on,-3.02317047508,1.27582026758,-1.59567152331,1.22078188065,-3.95766334346,-13.666722258,-1.15619344321,0.928682722713,0.0109863569213,5.85232277999,1.50114626805,7.7620073025,7.85278403774,81.4627966439
off_to_on,-1.73835187549,0.864198390577,-2.29696953974,1.42691995708,-1.50446416394,1.06868042724,3.06973801393,6.40317565404,0.00173450865914,7.42565141476,0.487472848713,5.45136591409,4.92348410236,159.923999595
off_to_on,0.0749075286727,-1.49945123391,-2.41978158777,0.0142761151336,2.02471626266,14.3431225581,5.27079495829,4.3014510447,-0.00660682909314,1.47668064888,-0.960120319282,-4.09604906497,-2.84891897491,58.4609291104
off_to_on,1.7764393575,-2.14212730356,0.175926066866,-0.835882739279,3.19732308852,12.6142002426,1.95845144962,-2.9610097575,-0.00963752409396,-5.0799129291,-1.65211476943,-8.08816630934,-6.9203360839,-92.5415112135
off_to_on,3.02686285072,0.146836758908,4.32679913528,-0.0481625521996,1.73957498341,0.0426647107903,-4.63829956436,-6.96203095726,-0.00987142592977,-5.70230821099,-0.960681195737,-1.59722537784,-3.34129504607,-102.296227368
off_to_on,2.46546140589,2.52415830854,5.73290876613,0.89832909916,-0.372040858783,-9.2768853387,-6.61880412349,-2.67047555245,-0.00914200456254,-0.247978428247,0.67617178176,7.28647582732,4.04551455236,8.42456126993
off_to_on,-0.75933441877,1.91427148805,2.14658848904,0.256176661848,-1.66323442541,-7.94538201053,0.131641177276,5.58616676032,-0.00455779716491,5.47857165868,1.85296245839,8.46685286339,7.63287450683,60.8610285743
off_to_on,-4.41819308886,-1.28559179672,-3.52860684198,-1.30893294828,-1.82815076001,-0.0501713545261,8.59235863974,8.8611211752,0.00458521345874,5.53916373674,1.32633376716,1.27609588414,3.29133711982,-0.144951848295
off_to_on,-4.44115195579,-3.65939585685,-6.29544808137,-1.54732364233,-0.914533349739,6.08838615,7.63643911302,3.47263493229,0.0121276644628,-0.299083511668,-0.539119881765,-6.59092862589,-5.1283290018,-44.7645414111
off_to_on,0.150799421146,-2.24148661398,-3.96765288763,0.201372109694,0.556907744337,5.16496610192,-3.3216001311,-5.48673523404,0.0122187082664,-6.24377098846,-1.87035109379,-8.24491615426,-9.02404636969,8.28790503503
off_to_on,4.99893806877,2.32422226935,1.40056974455,1.98991926951,1.25207913363,-2.1607486278,-11.8509196503,-10.0216098989,0.00683057921574,-6.31340092309,-1.31288069635,-3.34986652456,-4.12262914218,61.2720368862
off_to_on,4.86865147178,5.67559823535,5.45204757265,1.75371842045,0.396062833319,-8.90980456996,-7.50124327213,-6.68395860147,0.00134950392061,-0.46108790603,0.398819405174,3.33622219393,4.48238416675,13.829646316
off_to_on,-0.0643379817386,3.61818427258,4.57855801251,-0.191451647756,-0.701653135048,-6.61383402782,4.79978828136,1.65981254951,-0.00337427935153,5.61160090314,1.43729002649,6.58983804825,8.11030583022,-63.4056179358
off_to_on,-4.20138415331,-2.86251035839,-0.832472469023,-1.79362392718,-0.0914269929858,4.77129951965,11.1158911162,8.96725765782,-0.00896737224269,6.56849147771,1.06886631853,4.53044842129,4.34564574486,-46.9007185779
off_to_on,-3.19163067621,-7.36886644217,-5.4039464304,-1.71700004145,1.71959548849,13.7291664629,5.95197430986,9.98727406112,-0.0127066570293,2.45792571411,0.0959830349363,-0.205760005818,-1.41642703236,36.2512679313
off_to_on,0.988796524799,-4.65639295734,-3.55906011546,-0.36393658862,1.88624976893,9.43344960853,-2.73875567539,3.5361969466,-0.00967988308012,-2.47379115404,-0.599985879475,-3.07141766025,-3.71128209452,57.6824350094
off_to_on,2.82993690132,2.83638901148,3.1380256581,1.09288848206,-0.780450919855,-4.1152083374,-5.89001536931,-5.84886973721,-0.000953505251409,-4.68152979847,-0.917603445824,-2.37397797811,-2.81016877501,-3.23550449573
off_to_on,0.21245650167,7.127739078,6.27354152793,1.74605325273,-3.55887287874,-12.5268044476,-3.84366761959,-10.5482037927,0.00669378873899,-3.97549576584,-0.86630609054,-0.854793438556,-1.86767675239,-39.4834109367
off_to_on,-3.18337538309,3.87423127865,1.01068417598,1.15083214516,-3.03525632002,-9.24297335875,-1.69202749834,-6.574964601,0.00950046907468,-2.0117397948,-0.180762965941,-1.44095049668,-1.63115884737,-2.24717516421
off_to_on,-2.59422461868,-2.65793134799,-6.44792588126,-0.478855773412,0.442483731391,-1.66010151833,-0.278154797371,2.1140969002,0.00953588966648,0.195158074567,0.862765738935,-2.64501831662,-0.521792118257,28.3864575811
off_to_on,2.00632178495,-5.09766110167,-6.26221834499,-1.93964002669,3.28544154275,2.41932446487,2.3823948886,7.48833096298,0.00820547421001,2.59643281608,1.19881574953,-0.589906032095,1.863736162,-6.45856391558
off_to_on,5.73864500661,-1.68110922255,1.64294408517,-1.73118225133,3.15977215602,5.14076136947,4.4973958552,5.74093933535,0.00325292806111,4.73061651318,0.364469140304,4.62777985792,3.98251067933,-43.0889939498
off_to_on,4.15583256216,2.67233892833,7.27365671931,0.249971930587,1.07768793975,9.77473633931,2.4658668746,0.408764122458,-0.00529827520661,5.06208556488,-0.568301115005,7.53999329723,4.34314823703,-11.2743462727
off_to_on,-1.89412324688,3.08895698349,4.24830832955,2.13161367893,-0.970487607889,10.1555221591,-1.73023636675,-2.76062834233,-0.0117717821782,2.1884303977,-0.43062107362,3.72308215126,2.36267587157,42.1482782994
off_to_on,-6.87854298909,-0.0112171914159,-2.24203896863,1.90105300244,-2.31204331478,-0.507635942722,-2.26504177284,-2.15295798133,-0.0113321913894,-3.19092034052,0.215932405511,-4.2435332821,-1.86426451118,34.0301375616
off_to_on,-5.96821911472,-2.69678116979,-4.04764706765,-0.261344262353,-2.72745875918,-14.4096684888,0.801264653775,-0.552273950755,-0.00601177205719,-7.72886020129,-0.072639082747,-9.17345604621,-6.51943919932,-15.5760317273
off_to_on,0.104446528976,-2.39813381304,-1.26772600296,-2.08223798527,-1.38423093714,-15.2727465191,0.80784934657,-0.578204626873,-0.000540949985221,-7.58347739912,-1.16725475986,-6.85975803319,-7.63376325765,-23.7508197054
off_to_on,5.62850174686,0.121598388299,0.256961051638,-1.73116875704,1.53213939676,-0.880304836915,-4.01243290151,-1.65856978246,0.0042168571897,-1.93284308936,-1.23467550874,0.284192509947,-2.61132029513,12.6561508505
off_to_on,5.641361266,2.35294195604,-0.937921990362,0.23203729824,3.42133778085,11.8911522658,-5.73889670913,-1.41577283564,0.00923897292624,5.58863245314,0.541079105998,6.54414693975,5.47239669901,18.6692411172
off_to_on,0.982431235827,2.37509595726,-0.86762645398,1.68784925894,1.86762923615,9.38735500411,1.20654743267,1.10931844211,0.0118901410925,9.54383064374,2.4116725128,8.04538347802,9.63042309182,-23.700001837
off_to_on,-2.96244381992,0.290638295449,1.88184667891,1.35038973083,-1.65230644543,-1.1637900987,9.30766425558,3.9839488968,0.00825996992482,7.14799728652,2.14653262545,4.63036522872,6.1383603434,-43.5972054554
off_to_on,-2.56738989587,-1.75882674078,3.53951192538,-0.089708794307,-2.9752307706,-4.21123542152,7.18582495324,3.95169609888,-0.000108574298523,0.208668347038,-0.1471599618,-1.29364840331,-1.6305718632,-2.66780557032
off_to_on,0.15612813765,-1.56213265583,1.68405425556,-1.06344705245,-0.617556901574,1.35675303194,-3.54519769076,-0.114554158627,-0.00709094325772,-6.71578229591,-2.27298581586,-6.36007145727,-7.21396615162,41.6403576351
off_to_on,0.855943871529,0.500222260645,-1.03625038539,-0.855435139867,2.19892520524,3.28351764361,-9.60121178585,-5.00607371271,-0.00951479831769,-9.36067554276,-2.52753606121,-7.52072664347,-7.163869979,32.094512083
off_to_on,-1.15535979716,1.56051480833,-1.87381544446,-0.036741765115,1.97736053898,-3.10915534722,-4.21373248062,-5.47033270174,-0.00914508648674,-5.83486247583,-1.07716577141,-3.62374645768,-2.5236803594,-3.61990234252
off_to_on,-2.30898022752,-0.092504410109,-2.01248765523,0.491314140856,-0.492639501389,-7.663651128,4.53951446408,-0.0530324015871,-0.00711355825845,2.03213752754,0.886086498329,3.1243506623,3.32413724861,-14.0663443234
off_to_on,-0.237909653522,-2.42699055792,-2.75285068057,0.434259518647,-1.82031851129,-2.07602347607,6.14464429104,5.97218502601,-0.00178500319387,8.60814161013,2.23577851215,7.68272827373,6.47490645901,-7.37216061323
off_to_on,2.66160929119,-2.15402895099,-1.88793548006,0.0747400638701,-0.928846051942,6.5297713311,0.95070676193,5.6112844632,0.00617519857123,7.99929816333,2.17545604618,5.84061485583,4.29551500343,-12.7302766843
off_to_on,2.72695926403,0.844449759191,2.13101582101,-0.258481417318,0.147809063913,6.01516791875,-3.52580073467,-1.43760909625,0.0115503049957,0.168972119303,0.583600086275,-1.2267675981,-1.6868602829,-10.8516964974
off_to_on,0.305639325065,3.3856646912,5.6319438178,-0.37647336538,0.00616419732954,-2.75508708313,-3.75261504321,-7.44358242263,0.0104503110924,-7.33038121285,-1.43410271861,-6.73038413434,-5.59675816553,21.8970935879
off_to_on,-1.0930270845,3.12326746946,4.06350522299,-0.123528007478,-0.188654745074,-7.14720820268,-1.59489698785,-5.26615035077,0.00503223458878,-6.57971352317,-2.15938531216,-4.76867657618,-2.97271157518,37.4010967381
off_to_on,-0.292704219641,0.826282230218,-1.02231197785,0.447331470421,0.783668765147,-0.679222700193,1.52902490803,3.05623122771,-0.000477268717841,1.39714368287,-1.05411294562,2.4341853361,3.21318465896,-22.6099742274
off_to_on,0.0522953808753,-1.72266922709,-4.08216199072,0.791373365746,1.89024083866,8.23763564189,5.05035174567,8.50070561071,-0.00518023516292,7.18896000373,0.546255674797,6.14104032548,5.23091404332,-98.6908914992
off_to_on,-1.71878928476,-3.74247356292,-3.43245184786,0.279122138782,1.46567434795,7.82273766063,5.60394463054,5.39069012974,-0.0095316566986,4.0674603494,1.04569463896,1.59624883695,0.184993229266,-55.0143361748
off_to_on,-2.96659888954,-4.27332976414,-1.96706069414,-0.84737764593,-0.266346530833,-2.07453250627,0.012227399604,-2.72276831878,-0.0110500532215,-3.93929417484,0.436681504329,-5.3821370398,-5.81957621786,113.634928881
off_to_on,-0.668488636749,-1.53425596775,-0.750067974126,-1.36440786268,-1.81668638883,-10.5506189999,-7.70898894562,-7.82765669699,-0.00676099300957,-7.29779981236,-0.0608538069692,-5.48132340858,-5.09944651689,211.62352619
off_to_on,3.27091429678,3.95063179775,2.11878063574,-0.434534148981,-2.52419992595,-8.97336286317,-8.68329650291,-5.92810104227,0.00133766235027,-2.58922957108,0.174583716338,1.72401287858,1.90964586054,68.9525254189
off_to_on,3.94802886403,7.21812338343,5.40549231465,1.12200059692,-2.37495693611,0.222563642182,-0.648088081635,0.301093986713,0.00766659691255,4.23797423252,0.505800933677,6.93950526097,7.14369281223,-205.140784233
off_to_on,0.372609662174,3.57146241725,3.9942200291,1.57002927507,-0.68124219533,7.98273977241,7.89426601135,5.42616945859,0.00957899165899,5.89294886647,0.176461520034,3.50681384787,4.67493685053,-304.175781186
off_to_on,-2.85450901207,-4.38945914024,-2.61764668911,0.362171704426,2.76276936915,8.59602918239,7.96170575658,5.93162714323,0.00864745640793,1.84327053546,-0.609757747145,-3.88167346026,-2.57631267547,-84.7382621792
off_to_on,-1.83308567025,-8.05682860213,-6.74783072752,-1.11036428878,5.43156835281,3.54938603949,0.759342221986,2.06549734531,0.00586349058127,-2.64197145621,-1.01924635647,-5.81884613508,-6.70512013893,237.145873165
off_to_on,1.37302659756,-2.93642451438,-2.50693660434,-1.20783727689,3.70701072752,-2.45784309301,-5.22620791994,-2.78469173721,0.000188014832974,-3.16275176861,-0.592889593536,-0.461092691524,-3.75385771583,319.088615512
off_to_on,1.88445634156,5.21652517647,4.73497391444,-0.00648140999591,-2.11839655896,-6.11394969562,-4.88263250131,-4.60553388363,-0.00715996542487,-0.155115641373,0.329252998852,5.01632222399,2.56895755699,87.1095558728
off_to_on,-1.18420223243,7.12400848698,5.12605470564,0.957211898275,-6.60981749789,-5.93584680725,-0.522768415523,-2.29474619397,-0.011395376197,2.53008100881,0.969089890315,4.14249890685,5.53856608119,-188.798454542
off_to_on,-3.6685227867,1.20986575168,-1.63275625008,0.646805617603,-4.92235195421,-1.62132500167,2.87951816606,1.14824823025,-0.00949910506248,1.51752597074,0.775842529324,-1.69076855311,2.55837883541,-227.524393972
off_to_on,-1.92702452454,-5.22263901388,-5.99746412309,-0.393559627187,1.28804882186,4.2734878814,2.73119486058,2.1292065542,-0.00382372147234,-2.79413223315,-0.0623141154597,-6.12207317679,-2.66992771888,-55.575311657
off_to_on,2.60361130277,-5.58133225701,-2.35008140529,-0.926542849242,5.60418631849,6.1073002501,-0.256317876585,0.761754084614,0.00174192991457,-5.79499600258,-0.709608328995,-4.75048964594,-4.56031945068,80.8887000812
off_to_on,5.11637190715,-1.09063265482,3.79237299914,-0.433195712723,4.07058968686,0.889906515515,-3.08556135376,-0.0825937115482,0.00624054849748,-2.78554892042,-0.51509131357,1.52384785289,-1.54206181907,59.5605909201
off_to_on,2.72965878351,2.78532878045,4.66324255717,0.551207777934,-1.02428800715,-5.89957812514,-2.56383292439,0.419827598033,0.00975199994402,5.00194699198,0.21447246869,7.50106850027,2.74860705847,2.05464593004
off_to_on,-2.42531230877,3.65402174105,0.648330239306,1.10039236301,-4.40345606236,-5.08950596149,1.28315903241,0.0992191971602,0.0100490827248,9.89682143891,0.559968721591,7.37161381129,3.8103707744,36.7397232464
off_to_on,-5.14693167107,3.07633698107,-2.24605067035,0.668490104398,-3.1359500172,3.74676024315,4.28749085624,-1.63628853189,0.00505399109047,5.72729421222,0.146221995053,0.0848867453206,1.00891130109,91.5915027933
off_to_on,-2.45914592785,2.02989689112,-1.52602214007,-0.462628768602,1.369665499,9.55059794205,2.8076601844,-1.74509074778,-0.00279712091586,-4.29842607826,-0.433035175677,-8.00298326159,-2.34572816806,30.9052306359
off_to_on,2.70896576944,-0.639752868426,-0.0226942391636,-1.27348374918,4.94821633767,3.65860185005,-1.43179216893,1.3975315378,-0.00837789189075,-10.3711428725,-0.494595153169,-8.6078157497,-2.95467892741,-100.677977592
off_to_on,4.16605291757,-4.72978455987,-0.25748560501,-0.884470102254,3.84771876647,-7.54315678134,-3.68900980902,3.80351217348,-0.00953999076717,-7.04191379545,-0.128530818645,-1.07764264957,-0.746056861375,-129.536291908
off_to_on,-0.125558164724,-6.70381331655,-1.32530071505,0.374534379541,-1.81820199279,-10.2655612964,-2.46622440907,0.965370581975,-0.00782909517145,1.19810247067,0.159367763803,6.26462369468,1.66814543283,-20.4553815069
off_to_on,-4.64338953018,-3.36426213514,-1.27317672041,1.13423855104,-6.9035841136,-1.80380108126,-0.199551476171,-4.26672287843,-0.00427803806487,6.134737954,0.28072861457,6.16017076504,1.93236935587,71.8053311534
off_to_on,-2.77380953031,3.52695486215,0.408332826379,0.60163637782,-5.46586849308,6.4144286735,1.50649469775,-4.28477456209,0.00157798303404,4.89849543915,0.482050609483,0.758722695676,0.129366404382,45.8704643084
off_to_on,3.97599087826,8.17146662696,2.7503649076,-0.396779648158,2.15493639935,5.3162339569,3.01410358337,1.99011169385,0.00811693451275,0.998679222023,0.60822884269,-2.8322979203,-1.53230394968,-6.95824820545
off_to_on,6.89809836526,6.46607960882,3.7558427927,-0.562771907399,8.13769914547,-0.346820315552,2.99626383985,6.03249294816,0.0110522942298,-1.33374551908,0.149428563414,-2.19178973741,-1.04553108597,18.5276593951
off_to_on,1.37354226775,0.01238186437,1.51355068212,0.0584369002128,5.57969522197,-1.34495105661,-0.918863758105,1.39016264149,0.0082251384132,-0.968988438727,-0.798537561706,-0.403237217714,1.1600345475,61.0837659465
off_to_on,-6.4274046178,-5.66026160298,-3.00125171877,0.302693350409,-2.76294590214,1.98191680384,-6.03696066109,-6.06495338656,0.00225211395797,0.721649229851,-1.24260528238,0.535120772968,2.43966128514,12.7219761806
off_to_on,-7.21817334585,-6.35226187901,-5.30169000897,-0.19618186856,-7.23884391739,2.22872573727,-4.98708204757,-5.4482785506,-0.00320307709317,1.29808603669,-0.476083563983,1.36222029233,0.805590119111,-79.8602279358
off_to_on,-0.479063840183,-2.6561511114,-2.40960435905,-0.460438607122,-3.08079902954,-2.29801118065,3.57564376776,3.49224703585,-0.00717333799614,-1.36256356135,0.777907481442,1.17857550863,-2.54386185993,-83.3714255146
off_to_on,5.58999792209,1.37828798906,2.40644862121,0.113748988854,3.88789503525,-5.50978418948,9.76912026112,9.07934738285,-0.00958879361969,-6.0549039883,1.09008813684,-2.08772498475,-4.13609614309,2.84390488011
off_to_on,5.1120589149,2.69136747692,3.4629823674,0.64400162065,5.05720953558,-3.56930299823,4.4806650857,3.49200982551,-0.00863458391797,-6.94906515319,0.207102575862,-5.48485244344,-1.79012367621,50.6004836716
off_to_on,0.748607528034,1.97964587836,0.69830253564,0.204243453207,-0.239391091125,0.443707536449,-6.7151338203,-6.48064403962,-0.00308168285181,0.580036170326,-0.526497962769,-2.20512985952,2.99589236425,15.0676711175
off_to_on,-2.05371388739,1.7257445587,-0.640012188483,-0.548450396047,-4.89872150503,2.97659760163,-9.77099497362,-8.76137241942,0.00430761996242,11.6063051147,-0.0532373327239,7.17184466973,6.11057253541,-9.28018951683
off_to_on,-2.34951751295,2.17462509904,1.20166222103,-0.404742537194,-3.5837707627,4.45891296385,-1.53226795448,-1.79101028024,0.00889786097614,13.7457989737,0.745984358074,11.0567167043,4.18463673945,30.4030733578
off_to_on,-2.24962060276,0.977072760864,1.53802317727,0.335298769176,1.53269468089,5.05820359443,6.14403005037,4.97779655148,0.00908675996956,1.56645581283,0.24037362836,1.41800005875,-2.24479907889,53.4371919641
off_to_on,-1.67141255465,-2.60985535198,-2.29917913144,0.338593214794,4.80042383833,2.15103583635,3.94850368625,4.726645633,0.0065377855507,-13.9803931731,-1.32203689034,-12.2433435913,-8.05125341971,-3.43323810883
off_to_on,0.935280056973,-5.16467444699,-5.0458529326,-0.395988150842,3.65896664613,-4.22045743413,-2.14921232113,0.795570156163,0.00242638709611,-16.1387052488,-1.71209535995,-12.7030256358,-7.10799779096,-66.7738026989
do_nothing,3.93191880763,-2.95571321758,-1.22141198062,-0.383171448397,-0.16333266516,-8.3013537552,-1.66420192477,-0.658819811524,-0.00325043841669,-2.23412000632,0.155507669573,1.75887324038,1.2602933326,-47.854298945
do_nothing,3.2990606936,2.42380113042,5.06356457564,0.725231731698,-3.55319294189,-5.52820462069,3.95303044157,0.401280058402,-0.00869966768575,12.4391189706,2.21308486313,13.5914232585,9.57074909695,11.5153360887
do_nothing,-1.18310598759,5.06176630384,4.93711216459,1.13878719072,-4.18365191405,1.1141434256,4.59816622152,0.117282860757,-0.0102521252806,12.6559199264,1.73703823934,8.71587872045,8.7562426814,19.1243088442
do_nothing,-4.41484943747,2.04593976175,-1.86393398292,-0.315754559956,-1.48742162677,5.76255142314,-2.07391745708,-1.94537478647,-0.00657676239116,0.587726458748,-0.780308098734,-5.34974937198,-1.24751653692,-10.8563734303
do_nothing,-2.5086125908,-2.6303947753,-5.86479674082,-1.9053895337,2.36959913913,6.95136267866,-7.33961806114,-2.69784549547,-0.000512831503911,-8.80873233259,-2.0878069572,-10.6743688632,-9.97180625652,2.35995026717
do_nothing,1.93755078972,-3.17745621186,-1.49319942648,-1.22355105246,3.56365614271,5.58276619231,-4.93861845917,-1.23969874623,0.00452228356558,-6.57239353206,-0.642545045817,-2.53485203803,-7.88448434764,50.9651734547
do_nothing,3.48782996409,0.62020552902,4.9279368682,1.12178335211,0.815271894045,0.119052660162,0.877083646549,0.14304119872,0.00766570131354,1.67185000206,1.32266136163,6.85965064478,2.30375621113,47.1448471974
do_nothing,0.905131424688,3.49784848594,4.55999177287,2.13779891557,-2.29967427336,-8.9842843607,3.67513836344,0.631766852839,0.0088913580515,5.47288687792,1.15558375744,6.3830485213,8.92899846145,-21.0310948946
do_nothing,-2.15198628778,1.65935344386,-1.72259640827,0.660047998681,-1.59346139421,-13.2305646124,3.71071918298,1.99710347668,0.00687362719924,2.19080148296,-0.519093854681,-1.15197958043,5.26436854897,-61.2361935732
do_nothing,-2.4493866357,-2.71587866664,-5.6634899651,-1.16921024245,1.81529800948,-4.23925763186,3.79179676018,3.9970388459,0.00109930101482,-2.65014293127,-1.1797762184,-5.97909209471,-3.43237187298,-25.4586286646
do_nothing,-0.417920481836,-4.48238114125,-3.15344216131,-1.20037951701,2.82327468817,11.643901697,2.45414019238,3.04688482519,-0.00553309206333,-3.79342416304,-0.2993678185,-4.11827192805,-7.33921838077,18.8453125537
do_nothing,1.74153110841,-1.4694180284,2.03947558733,-0.10315418231,-0.298183303304,16.8553064597,-2.25585605853,-1.92772502003,-0.00896594833275,-1.11238308694,0.413987823358,0.943010753652,-3.17697273987,8.25958260622
do_nothing,2.58295021609,3.44834273221,4.77113696396,0.315626115168,-3.35778777494,4.58115564935,-6.23640125143,-5.89791455563,-0.00816487742261,2.43156987111,0.237994375938,4.67243621263,3.86942306689,-17.9521076739
do_nothing,1.54744836618,5.38390713283,3.63104980209,0.028592963007,-2.46545480566,-11.2010925787,-4.01322825114,-3.86648217021,-0.00494817455216,3.98425237389,0.346863680801,4.83137151861,6.80540025725,0.0582324572257
do_nothing,-1.1090429125,2.06300958635,-0.223040624816,0.221400788338,0.554180876593,-13.522160793,1.78143988853,1.60812663161,-0.000615333614009,2.02244115966,1.06184325843,0.979953641378,3.10753908328,36.0854376797
do_nothing,-3.45998441861,-3.78829855228,-4.50606874918,0.749959741875,1.67428538064,-3.27883064235,3.14696483859,3.54659114384,0.00453847660706,-2.51438307567,0.736018085537,-4.65411330399,-3.93587686315,29.7092810512
do_nothing,-2.90387915547,-6.42919173457,-5.47867535422,0.297369409763,0.877633781845,5.42198256682,-0.958988104624,0.412144818959,0.00875348670827,-5.579530696,-1.24094728026,-6.84139028881,-7.83500970283,-6.92596434652
do_nothing,0.509528843693,-2.6166676042,-0.860582074512,-1.0304669482,0.969311881419,5.46883988708,-2.63213017117,-2.05478059939,0.00903341665004,-3.15640162108,-2.47940896167,-2.19279467129,-4.17846274827,-17.3026415742
do_nothing,3.23665350284,4.33743969773,5.44275731182,-1.32061573621,1.76654429676,2.40928031749,2.3812546949,0.268260956318,0.00477078199584,3.45850544595,-0.801767028661,5.43577599666,4.25931948222,-3.51112974483
do_nothing,2.44812477372,7.29143483181,5.99796346382,0.275061229261,0.310810306015,1.85986621247,7.26983379159,3.88944252386,-0.00109054650952,7.51173485069,2.01196687981,7.94444051097,8.83339606039,-13.6148142718
do_nothing,-0.138886238288,3.00409535934,-0.377107491372,1.89808712743,-2.96260293867,1.72060463525,4.10800179384,3.29815536843,-0.00545170089879,4.03114520962,2.33168064733,2.41008446411,4.24579806651,-39.3123483054
do_nothing,-0.812093775353,-4.03047504949,-5.73352907839,1.35686171908,-3.33834480144,-0.979661284971,-4.18567026279,-1.06014759006,-0.00764519100622,-3.87063700099,-0.0723041018356,-5.21877483414,-4.44967614992,-18.7354965863
do_nothing,0.558166433258,-6.75273383742,-3.38361212233,-0.856805694632,0.77535571332,-3.87926183865,-8.18588010027,-4.25503553857,-0.00778753243282,-8.12620430105,-1.73099767007,-7.16995753684,-7.45683489889,46.6291824362
do_nothing,0.413854991695,-3.40577110275,2.68072779361,-2.19083291077,3.97649731396,-3.9661589745,-5.02730361064,-4.08613210242,-0.00502022453216,-4.79020693588,-0.678151751722,-2.42815591757,-2.43332149415,67.8438908956
do_nothing,-2.59269412929,1.61204710013,3.75420281073,-1.23410427457,1.24294964326,-2.51827894367,-0.158455083074,-2.41337516741,0.000630005057672,2.13406183572,0.908528893967,3.34260824955,3.236147453,1.07187757616
do_nothing,-4.6289689174,3.89769097716,-0.897743099601,0.820191155815,-3.89839031332,-1.27820860308,2.55487133646,-0.273632699403,0.00630657513986,6.08001317917,0.482017041813,4.82000383781,3.18522935719,-70.4801869534
do_nothing,-1.68251468322,3.34739902739,-3.71755888459,1.83951169368,-3.67920766091,1.37107750051,4.77820149273,3.30631034648,0.00857783557036,4.85101464077,-0.95545696833,1.97299510891,0.0593963336422,-47.7106537357
do_nothing,4.32162610668,2.01505350317,-0.679307076477,1.02859677133,2.53019386213,5.98484302273,6.72400596723,6.80859328766,0.00693848028054,1.1256774873,-0.835000279333,-1.32589220512,-0.314434531063,42.5912756326
do_nothing,7.16716412187,0.497803395063,3.34240214099,-0.563741386653,6.66149693694,8.01281270187,4.05254663465,5.54534867167,0.00332115991501,-1.90829452236,0.737155513662,-1.83633553982,1.66384924047,85.8536602893
do_nothing,3.70859115456,-1.72374315666,2.88853682481,-1.26452444211,2.92263733552,3.33437653449,-3.96776300137,-1.49481468302,-0.000922023042584,-3.19741655125,1.32627182336,0.117497015787,1.13773946095,30.7671453601
do_nothing,-2.7745246443,-3.92809505972,-0.393037649277,-0.423509181464,-4.40538023502,-4.85638015626,-9.32695819741,-7.73610748332,-0.00534427160657,-2.92554197661,0.111347947712,1.40947068022,-2.3004295971,-63.1613365669
do_nothing,-6.74494804138,-4.25531766565,-2.02215292487,0.865622708313,-6.95292085385,-9.44156981196,-4.95361909394,-6.29749980764,-0.0083479032674,-1.48720777155,-1.06978375199,-0.310759163077,-3.74339190292,-111.588070093
do_nothing,-5.74475520858,-1.85714020497,-1.87357076457,0.876608966415,-2.73063846569,-7.63279070621,3.8726138038,0.590910787126,-0.0075890574919,0.124304604449,-0.770182514229,-3.58746157428,-1.13950651818,-76.4668265614
do_nothing,-1.07389179213,2.18805034288,-2.14071679844,-0.602977715482,2.94458301588,-1.80110957943,5.50695246375,4.20632540772,-0.0030394983017,0.737333591656,0.195262629968,-4.26839007919,1.60961388459,32.1999392164
do_nothing,4.33880514068,5.60914720104,-1.52435738313,-1.71232088691,5.01032875431,5.12157511675,-1.33169151085,1.20662331305,0.00237941852048,0.763014852073,0.579961674416,-0.19561999603,1.56542566715,151.615587773
do_nothing,7.10640364607,5.87770986646,2.40894178469,-0.774208805549,3.25072425776,10.0120681899,-5.08986320332,-2.11524613291,0.0059432502466,2.03986907099,0.516941551288,5.77251489323,1.31465587536,169.7624047
do_nothing,4.58633652782,1.75493868382,6.4789564272,1.34714070455,0.0115434730617,8.25183188458,1.61599022446,0.569289759077,0.00721885854995,4.54937485543,0.490190724442,8.17198681817,3.13736150099,25.3292793526
do_nothing,-2.18206456075,-4.49726670078,4.19223620711,2.1959095029,-2.78323876556,-0.957015656059,10.0301207036,6.02835881268,0.00648798515141,4.66864195545,0.0688008309774,4.14812251298,3.34163133021,-173.351630132
do_nothing,-7.45446289427,-7.61921413345,-4.10058341891,0.869716118792,-3.62757436598,-9.31427374249,6.84212518774,5.679402431,0.00328616067767,-0.782688631997,-0.989170523638,-3.92940017635,-2.07434769862,-221.489281284
do_nothing,-5.76534024807,-4.41190611186,-9.24180675533,-1.01646156061,-1.64023016342,-7.38329848305,-6.50249808851,-2.38150335833,-0.00198596340662,-8.78481475241,-1.52998325289,-10.2321623925,-8.79515395371,-61.0172539353
do_nothing,1.45045129088,2.06870724596,-4.5700482022,-1.67303296481,1.64704765205,1.76716160906,-14.5360567838,-10.1627566646,-0.00663956346367,-11.2387335109,-0.45613386154,-9.56245013515,-7.8590467634,130.412044016
do_nothing,6.65028479051,5.62714344779,4.96166322207,-1.10817289918,2.88241672459,5.29625165719,-7.81587929765,-9.26957046503,-0.00786324266696,-3.75291745112,1.29370427996,-1.39563396803,1.84679552599,161.674244902
do_nothing,4.71095078456,4.04266015189,8.85913673685,-0.221483955389,0.928986801822,-0.939598724084,5.58617811151,-0.303328990944,-0.00560224443598,8.08049156367,1.76259989985,8.55205549157,10.6263919681,60.1611438522
do_nothing,-1.38901185134,0.573668118823,3.74211568203,0.688601288839,-1.34456877957,-5.8757228946,11.7415695332,8.71629425004,-0.00183584861102,13.5803214586,0.648280004019,12.0393576117,9.59992964741,-15.8762761754
do_nothing,-4.86033228789,-1.51371483686,-3.99223637751,1.44140382484,-0.966709903778,-0.256415122328,7.60464287144,10.8716986719,0.00210287046484,8.12018030298,-0.521021623463,6.00494914775,0.855763781286,-24.8403634618
do_nothing,-3.09642246891,-2.42007488914,-6.74495253887,1.17238808516,0.960286100171,8.65856816114,0.585597266456,5.42210688781,0.00571814822139,-2.49415094733,-0.774649091287,-3.6544068575,-6.73536740948,-54.1445196225
do_nothing,0.810452301186,-2.7799375428,-3.1522693121,-0.413142700193,1.10896351574,7.97724130316,-3.988788797,-3.43552100822,0.00763542800837,-9.05905380207,-0.712356085207,-8.17883514732,-8.10120779378,-110.289852212
do_nothing,3.02132590741,-1.1614280252,2.58175119367,-1.68232667402,-1.03193832233,-1.55909351696,-6.94537026654,-9.83764046489,0.00609849833034,-8.25924483351,-0.874680350671,-5.62194754291,-4.74323718453,-76.0332946581
do_nothing,2.47793858462,2.45268004652,5.31423715309,-0.819099610841,-2.46912905513,-7.87949853224,-7.94164116415,-9.20517650093,0.00151518224436,-3.69117836092,-0.649539140059,-1.69559277716,0.150461332826,71.2823574772
do_nothing,0.0473544665119,3.93398893093,2.67923921698,1.23549432486,-1.03614401667,-5.89794868408,-3.14643415692,-1.57476226345,-0.00331505448778,0.354064451303,0.418410859878,-0.766447200822,4.51768159975,161.835292434
do_nothing,-2.64215144507,0.206342776299,-2.89202382717,1.56898677256,1.8019388328,-1.95845130862,6.38095932069,6.96395575493,-0.0060644604929,3.15727512823,1.42943779736,-0.106078292061,6.22814851032,66.6402760913
do_nothing,-3.08933185409,-4.6036483107,-5.42371844681,-0.543791785498,3.09943749497,-0.360845102462,11.2539416025,8.85849275453,-0.00653426361175,5.57143780485,1.29733045288,4.22328360984,3.80155328701,-91.3786840571
do_nothing,0.19419071212,-3.47432758083,-1.38538603923,-2.248899247,1.75632224483,2.47018349995,5.06301441441,3.00589757995,-0.00515593435759,6.59033030826,0.339640415882,9.14099090277,-0.741527187656,-105.832553947
do_nothing,4.3915010419,3.0983496349,5.08524720304,-1.03489669659,-1.01888625635,7.33584958865,-5.20756847062,-3.65200713602,-0.0017755430074,4.04145380688,-0.366388448865,7.26301293726,-3.15564699938,11.6221052124
do_nothing,3.99174704335,6.48360009018,5.98090857198,1.60904434616,-3.1961177845,7.20964346897,-7.49640381144,-4.34545672653,0.00296572323572,-1.90313178955,-0.64690287111,-2.48832469858,-2.32207110795,68.5222955105
do_nothing,-1.98655571004,1.61725721973,-0.488985076161,2.2654543539,-3.0881493995,-0.84186221415,-1.29563657712,-0.534253628113,0.00662091432315,-7.56361022824,-1.06883103454,-11.6225662457,-1.44257751371,-1.12547285813
do_nothing,-6.90912942115,-5.5482324736,-6.85889194286,0.332324957176,-0.353211356289,-7.96418972075,2.46639825958,1.1098777443,0.00695861265007,-8.62761096921,-1.42448921805,-11.2640089093,-2.49930886918,-54.871127244
do_nothing,-4.08246735918,-5.9598904377,-5.59729153498,-1.46348126393,3.04213378309,-5.89579983817,-1.37255114118,-1.45166765996,0.00428703062978,-3.9167822799,-0.731128485752,-1.85949383082,-2.62200834686,2.94604917629
do_nothing,3.96268842465,0.523630131217,1.4785096252,-1.12670419238,3.87274903414,0.298547211698,-4.46864544198,-3.13237716903,0.000568671845845,3.46913377436,1.02632969549,8.07362817806,1.29201208425,65.7784994526
do_nothing,7.78156291326,5.63076119285,6.09673216325,0.189898019218,1.02276529318,1.23893247201,1.05170064507,0.0124432533349,-0.00293740061021,8.3078906652,2.29780230315,10.7939195568,6.47493663668,17.3796443865
do_nothing,2.84622781868,3.72222914258,3.99875298552,0.477839557014,-2.71340774005,-1.11546208872,8.93859687012,4.44088853702,-0.005753448577,7.09386447717,1.73698494869,5.2604068266,6.59580267121,-66.9230531674
do_nothing,-4.74228683798,-2.10601724253,-1.12142054892,-0.206979706844,-3.44695113523,1.66229417489,7.47107123429,4.34434550854,-0.00674832302631,0.956702117835,-0.123335897371,-3.49758468425,0.140770110158,-48.2971971534
do_nothing,-6.09975606078,-5.03176469976,-3.53054837248,-0.406714358956,-0.599116009643,7.59936289579,-2.68962748487,0.240771886799,-0.00467273695425,-4.93210290295,-1.57866672372,-8.37976050869,-6.67843552852,43.5096310315
do_nothing,-0.354444567365,-2.14908633013,-1.80573086596,0.253294199373,2.56173308218,5.84001563098,-9.16591401703,-2.32382119067,-0.000245439857842,-5.79234497621,-1.66885704334,-5.24568974292,-6.82599952659,64.1307710602
do_nothing,5.02338417551,3.52434162997,1.19772732203,0.75384990351,2.69316082624,-4.49629153245,-5.68370670796,-1.50370347106,0.00392423800454,-1.76905419115,-0.803754553588,2.88364736261,-0.564854133021,-7.32377925383
do_nothing,3.551215873,6.20278691804,2.03133384417,0.464063116779,-0.212975924248,-10.407041582,0.588834400721,-1.16631100045,0.00590287563578,2.37194812325,0.155722732859,7.33076384292,5.01787275278,-47.3313299919
do_nothing,-2.96384869426,2.27077502624,-0.412041849033,-0.110847064183,-3.13674163725,-4.31813650689,1.95751332481,-3.20192373361,0.00570729914063,2.49514892041,0.737084411497,2.65255439865,4.14665965441,-2.54447484663
do_nothing,-6.69408493479,-5.53515190688,-3.65734221671,-0.409012878128,-2.98473082616,4.52364853952,1.1862905919,-3.32099564059,0.0038890646293,-0.579039125382,0.853240238311,-6.07662453637,-1.39040749882,32.4111776631
do_nothing,-2.43621826488,-9.04398439142,-3.19740467532,-0.538774085098,0.566237367792,5.00532029558,3.72588007556,1.84315365642,0.000525045612484,-2.64509206839,0.591334641813,-8.27999152528,-4.64327166597,-8.41422400362
do_nothing,6.21866065613,-2.9146950909,2.33903597706,-0.617892478695,4.36183009348,0.342085509574,6.29953805502,7.47489159518,-0.00360753507316,-1.2439686263,0.197323917388,-0.777664121581,-1.54020138521,-48.7519984636
do_nothing,9.75463491906,7.61906359504,7.57851383515,-0.27317220545,4.27226850997,-0.186591235914,2.08549170162,5.96577579322,-0.00634180747768,2.06040032766,-0.0683368195648,8.06132279849,4.46405647472,-9.62941318702
do_nothing,2.95250542538,10.9748965082,5.39157964278,0.634121163939,-0.401004734707,2.35200883726,-6.30461216321,-1.90061226427,-0.00596769608282,4.17973387204,-0.21194479422,8.82394918438,6.2869185787,50.6696822893
do_nothing,-8.05269243568,2.78570113057,-3.45712261425,1.32995416602,-5.22667585944,0.362463818653,-8.66235233437,-7.00871944931,-0.00307103417136,3.55281907732,-0.422645906651,2.01708875437,1.23203560303,37.4550393542
do_nothing,-11.4149170644,-8.18673104636,-9.46462127589,0.858015917203,-4.92964362319,-4.74501375386,-2.03984018505,-3.9953300918,0.000455082088813,0.417214168641,-0.646673480446,-4.61465565428,-5.92641142909,-20.555341356
do_nothing,-3.19720123789,-10.2630476925,-5.74021428669,-0.618504487519,0.348897583343,-4.06802433347,4.84520637932,1.94946523048,0.00346447215626,-3.94240202559,-0.53588953976,-6.51203448503,-8.04163678041,-27.1190993083
do_nothing,7.48878749188,-2.22131923958,3.112045639,-1.73934747219,4.78472326679,2.60013397883,4.39359188662,2.96758392147,0.00553923561545,-6.91261593205,0.0196857836482,-5.20861675686,-2.92769916453,15.7968648035
do_nothing,9.25431223867,6.6990487275,7.15864979153,-1.3161261922,3.71342618044,5.06289018514,-0.0987659006623,-0.896700010238,0.00578710897308,-5.32390211901,0.5748770214,-2.54354176601,4.74625491064,20.0002643542
do_nothing,1.80994882842,8.13285525461,3.66377193254,0.387226440672,-0.893669674896,-0.412773047335,-1.45989138473,-3.03416881432,0.00337993399701,1.0301968394,0.631156414609,1.89000760086,8.12419517755,-29.5072335049
do_nothing,-5.09506625756,2.27963941404,-1.31954750338,1.83521445859,-3.32915279041,-4.55324055115,0.710535431081,0.0478673724438,-0.000759107767771,7.29995588897,0.303353023464,6.5531478212,4.37183220647,-48.2464628575
do_nothing,-4.58709040495,-4.65045932224,-2.61421908783,1.6752616134,-1.32755852506,-0.559228158041,1.88019363182,4.6822999467,-0.00425330622149,7.71966113026,0.116471941867,6.91411100739,-2.87320641318,1.47829963718
do_nothing,0.283181422456,-6.86718719458,-1.50514631647,0.0400973525499,1.81979777802,4.62598790096,0.665669369426,5.3491443774,-0.0055425926106,2.23719777396,0.156601216022,1.75170065041,-6.71730012931,48.0552469512
do_nothing,2.83021266351,-2.87497891531,-0.870772262107,-1.58009885989,2.10899454832,2.34887790741,-0.982611736547,0.812260095325,-0.00482881461942,-3.33986898654,-0.0894663631282,-3.56062084962,-3.59783095045,31.4900328442
do_nothing,1.29868824051,3.72234175882,-0.231088227354,-1.77483776633,-0.39692622968,-3.27430865652,-2.67221197136,-5.23986372843,-0.00274845234334,-4.51589003072,-0.781275945443,-3.93520328949,2.75364155986,-7.51103183326
do_nothing,-1.26529978467,6.63164411851,1.45101999615,-0.500797633387,-2.45678388451,-3.02899562435,-4.39901659261,-7.47229763077,0.000461319525456,-2.82915375136,-1.09753237136,-1.63769608922,5.05529297538,-12.236335996
do_nothing,-2.24895052463,2.75162755466,2.14615970035,1.02595593626,-1.85959133193,1.49047116174,-2.83687259794,-3.20439082944,0.00396565135501,-1.93719368549,-0.243936683165,-1.91962769797,0.897722536738,-2.33310829914
do_nothing,-1.30966820843,-3.70998856657,-0.0576445384609,1.53152017825,0.52992499323,1.48120729312,3.98305194992,4.24505598379,0.00588875421591,-1.7894908898,1.08973155859,-3.9090379371,-4.22048575882,-14.1347905557
do_nothing,0.992301516625,-5.45630967404,-2.64849369387,0.711052762148,2.34044829494,-2.74997665706,9.51352865474,7.3123504348,0.00497258077531,0.201540606601,1.24380258111,-1.78168137966,-3.79450791748,-18.0879995608
do_nothing,3.16504801721,-0.998855568455,-1.81938862756,-0.635686533417,2.14538069522,-2.0305358811,4.85338858129,2.37400393296,0.00200153836392,3.76852735628,-0.107531507748,5.1276688276,1.47073929434,18.9490966842
do_nothing,2.60740713919,3.47279993032,1.35186397919,-1.23092000855,0.324185668309,4.63434662389,-6.75328919447,-4.53819462511,-0.00123986466762,5.38785089982,-1.15616530046,9.46831680969,4.99143128568,41.21994882
do_nothing,-1.32185158319,2.30852732145,2.16924885568,-0.397485230076,-1.67035271159,6.32909871534,-10.8213967473,-4.3758723089,-0.00373989131718,3.28236391289,-0.352292462644,5.43861284283,2.91991065517,-20.051619554
do_nothing,-4.63185155256,-2.31072972608,-0.321232598793,1.04216255922,-2.41474881918,-1.89710607631,-1.30231161621,2.56603152147,-0.00516101736997,-0.462813891105,1.17911766401,-3.29232385544,-1.80385495002,-100.4275157
do_nothing,-2.48975334229,-3.56065468703,-1.56907854823,1.26212511589,-1.25067665279,-9.03031807975,9.2517768579,6.32365973934,-0.00482974805752,-3.34003611173,1.04929226092,-8.41887462848,-4.1407103563,-54.2314756588
do_nothing,3.82071445973,1.15089705751,1.36874676145,-0.442935155107,1.25128261977,-4.16240782595,6.61895375036,1.09396710269,-0.00225673208726,-4.84522018683,-0.82652165334,-6.62740569096,-2.53415889735,119.10230059
do_nothing,6.82393574339,6.80314825914,4.49890872648,-2.23242744021,3.12766267805,6.21167286035,-4.76034220127,-6.48134600746,0.00151572495237,-4.55009893741,-1.87593001958,-1.17290452616,1.0261691338,213.019505725
do_nothing,1.49897943545,6.08558596733,1.79394600793,-1.54706586611,2.07835680003,7.6461491923,-8.64077156691,-7.01431912916,0.00436290157869,-1.26332360507,-0.594237188902,3.53011738173,3.59219153382,61.8048964722
do_nothing,-7.72380982416,-2.58871925239,-5.93684711168,1.38192917188,-1.91922404761,-0.755551823748,-0.646460267982,-1.1508762877,0.00506309686652,3.77396493555,1.19222817361,5.14231373899,2.72956517192,-211.03468786
do_nothing,-10.7151629015,-11.8907625412,-10.2812537044,3.18780481321,-5.06766534763,-6.25255780703,6.8950969465,3.5954048175,0.0039669016653,5.99595173382,1.10867447231,3.06869528857,-1.62864282625,-299.623325984
do_nothing,-2.48504062133,-11.1986569364,-4.40967345641,1.49049789874,-2.88899468075,-2.4262747471,4.53706588885,4.83289454506,0.00176270090702,2.96736032861,-0.204030140549,-0.964619796307,-5.24786530526,-76.8893966616
do_nothing,10.5050534276,1.89814705838,8.12282219199,-1.77480665161,3.74380422835,2.86198570205,-1.75232781214,5.74749511959,-0.00120782377467,-1.52150650095,-0.359023861853,-2.79013735446,-2.83947750752,235.602658116
do_nothing,15.51125008,15.8333689336,15.3524582292,-2.74535166677,7.64138757406,1.88812232916,-2.64532034755,5.34284762258,-0.00410600475427,-2.35124208357,0.760672088723,-0.166351346435,4.330436026,310.204732243
do_nothing,6.03289609902,15.2402043305,8.82084747771,-0.707082760723,3.17881202822,-1.46026630427,-0.0141590982998,-1.4312788979,-0.00533890717787,-0.276774135795,0.833447644338,3.09718001011,7.6482757872,84.1599148814
do_nothing,-10.2691218289,-0.973609181593,-6.56197707324,1.28428149501,-5.66930767994,-0.479344077849,-0.932479702942,-11.6245326538,-0.00402953380062,-0.0176432447488,-0.880736284162,1.41757133859,1.85833673698,-182.164414482
do_nothing,-17.7406843091,-16.1210258181,-16.257781789,0.958580570393,-8.81978484018,2.51088976827,-3.8785025569,-12.7548675072,-0.00109393893972,-2.27564277017,-1.99548329655,-4.12352302268,-6.55924849616,-221.348401039
do_nothing,-8.76843347675,-14.3277327954,-11.0582987807,-0.302833723128,-2.37534469297,1.28713534895,-1.54486115337,0.0986711552571,0.00181559315048,-2.83658583372,-0.688114358385,-6.25027089998,-7.18844781972,-56.5105349436
do_nothing,7.40285118455,0.924736528224,2.98817414485,-0.249837419214,6.19450500364,-2.63928301145,5.19098975503,13.5910706835,0.00382775316378,-0.0104638026495,1.28492818931,-1.58021661242,0.0401606299657,78.0480040347
do_nothing,14.5209967259,12.2085818709,11.6710605248,0.65817561288,7.38120199038,-2.64309872812,6.85281055413,11.8325624886,0.00469118569445,2.47627858189,1.25897452291,4.51166236825,5.16142773136,60.0199333326
do_nothing,7.29373059125,9.48808709025,8.44213359357,0.510837465784,1.07906596592,1.14749944137,0.0788311235349,-1.85608861904,0.00392516396387,1.98318994358,-0.217220160023,5.63578324817,2.78680758892,2.06964349753
do_nothing,-4.10198059433,-0.820868784607,-0.180583644238,-0.529478699832,-4.74040166841,1.90835923697,-6.51112907682,-9.57176584884,0.00130777322564,1.17593831139,-0.470592491125,2.59394916485,-1.22943214403,32.4450090386
do_nothing,-7.62266770282,-7.30288197375,-4.69221652356,-0.578116655834,-4.6906040787,-1.70058185852,-4.84117417766,-3.69075994375,-0.00206293828937,2.34614790222,0.836368755094,0.0478904874388,-0.43879653776,87.7072960717
do_nothing,-2.68793096148,-6.14361977818,-3.33615534406,0.459616017233,-0.860873483712,-2.51641384011,1.51562055322,4.41393660407,-0.0043158776527,2.23905458264,1.18801525744,-1.20732878663,2.19805034202,33.146351429
do_nothing,2.50742356225,-0.431258148102,-0.618120993329,0.498149671915,2.33563868376,2.85855040628,3.93882948053,2.92605587299,-0.00452654181251,-2.30255493932,-0.579257297463,-3.30129218079,0.577590157818,-95.4146241988
do_nothing,2.62123427663,5.62834935449,0.559459441511,-1.02786729983,3.34134720885,6.8210431237,1.12702139967,-4.03641494027,-0.00315978990323,-6.99073321029,-2.25253175466,-4.94841689222,-3.61385275863,-127.731266662
do_nothing,-0.546030588827,7.61583774513,0.767433298182,-1.70520580721,2.32997731538,1.77316154693,-1.30221883431,-5.17331751581,-0.000930425132569,-4.98341805407,-1.58223775469,-2.47366213256,-3.69119107727,-21.5689485769
do_nothing,-3.0663279478,2.11832116901,0.279043029856,0.124697959272,-0.687754653314,-7.2303561288,-0.42011330629,0.772813816684,0.00175575881305,2.25806769541,0.501948396536,2.88724159065,0.847409474562,72.4463698791
do_nothing,-3.02291044876,-7.43054778081,-1.43003893802,2.32611897506,-4.02914101161,-8.58903686827,1.1224533301,5.42243050574,0.00409112265369,6.03025326681,1.65050504057,4.94877313873,3.61810383273,47.416352414
do_nothing,-0.108880255587,-10.7415242085,-2.61808176266,1.87906302707,-3.95230727469,-0.492682364512,0.758975296168,4.24530122692,0.00474761691668,2.88979143341,1.42181680653,1.61489915241,1.60191652689,-9.2131710607
do_nothing,4.28466303256,-2.68106123319,-0.377745757192,-0.583081167271,0.527849799622,6.84757963466,-0.828163845171,0.671514248505,0.00316460395164,-0.889413267332,0.900593841713,-1.53631312441,-1.01395876419,13.4317133266
do_nothing,6.17567380169,8.18799826372,4.15981046386,-1.77360505309,4.68258335519,5.71475777226,-2.20662684899,-1.87308261843,0.000337777653224,0.14458058957,0.226824024984,0.153625845327,-0.617734286506,59.263601559
do_nothing,2.4112320262,9.73689835364,5.68949484767,-0.669154177019,3.55135179453,0.207048353307,-2.52910976557,-3.68848735416,-0.00222322329982,2.27022741257,-1.1392677789,2.95836764479,0.601500372246,15.5417479693
do_nothing,-4.07295319403,2.14902183316,1.61958112647,0.408481351628,-1.09630515296,-1.89244094366,-0.449071472399,-4.09143832289,-0.00378388308117,-0.399813949279,-2.26893630148,0.586663874171,-0.140678517466,-77.4424535925
do_nothing,-6.4227276187,-4.01616144966,-4.08336226094,-0.131024180121,-3.18101909067,-0.388087639091,3.98658517993,-0.720580941156,-0.00417803897157,-5.61560906038,-1.43472452163,-5.5702075395,-1.28511158107,-83.6721463443
do_nothing,-2.65990476429,-3.77904585535,-5.99506187963,-0.796664132829,-0.931905343735,-0.499065674857,6.37087578076,4.34178785265,-0.00309296684735,-6.13563829599,0.880659736428,-7.57574251557,-0.714029714521,3.4780087161
do_nothing,1.75442055244,-2.3249870612,-3.43833916703,0.0662378838746,1.29181751298,-3.10079514361,1.94369932216,4.65982649769,-0.000516155847661,-0.581174619575,2.02225373041,-1.67035413151,0.114909505152,53.7972805767
do_nothing,2.06120553093,-3.0501108916,0.554314311108,1.36174173005,0.235570876734,-3.629573335,-6.28477360353,-0.909249314321,0.0024440268058,5.2446648815,0.926108995109,6.84422528098,-0.227329216464,16.3995177147
do_nothing,0.467653548929,-1.52653385919,3.63460322792,1.15605144525,-1.67162766007,-0.114741445595,-8.77439861438,-4.71124190627,0.00416184581128,6.82393530926,-0.358240707986,9.99997553672,0.412984293332,-12.7034568377
do_nothing,1.03007627561,4.2271316124,4.65254271304,-0.124913541929,-0.956889896939,3.56763449023,-1.66347781572,-1.09035422921,0.00397009012447,4.66270807413,-0.0712691713282,5.07076589452,3.05772807329,26.3477963543
do_nothing,2.50471006656,6.90420959775,2.43873883289,-0.638357788022,1.37854433263,3.87487526646,6.93994233505,4.49869504717,0.00241959853081,0.0440866590885,0.478015159734,-4.15641707035,3.2856976464,53.2426668034
do_nothing,1.24142046376,0.971419399239,-2.08522897247,-0.273476220776,2.0537728,2.243141053,7.08288130142,3.32591930462,0.000233966936111,-6.19507764899,-0.55496664548,-10.6856607231,-2.21739510412,-1.87442032786
do_nothing,-1.70472243722,-6.31837863171,-4.38707711891,-0.448956492064,0.745442593445,1.01591444914,-0.157878471409,-3.30092412135,-0.00214596817045,-9.66917307555,-1.97450855115,-8.72646778813,-7.67603777243,-67.3432862641
do_nothing,-2.23089889407,-4.46303186262,-1.32335693076,-1.1462392584,-0.303895709419,-1.06957603229,-5.14939528124,-5.96597560065,-0.00396689963483,-4.62821064609,-1.18666437224,1.1761786542,-4.48203501728,-48.8117025605
do_nothing,-0.54717759727,3.81015132943,3.24438806551,-0.694542346943,-0.472616273268,-5.16290788716,-2.96865341101,-1.13378783164,-0.00414527037589,6.35130189954,1.36764574714,10.3312750171,5.21897640907,14.0094412982
do_nothing,-0.629693779592,6.0724265243,2.65693108837,1.09612904393,-1.03244022002,-7.0413549676,1.71879715681,4.40244510408,-0.00238167547667,11.4785296838,2.38828343893,9.32867252995,9.45164704308,23.2040098449
do_nothing,-2.37902957964,-0.908112712632,-2.67472701473,1.99039159681,-1.77381535797,-1.54075598232,2.91647282311,4.21544300436,0.000287653283539,4.21036024354,0.589430567489,-0.679681559946,2.82530126235,-10.3981907081
do_nothing,-0.984264961074,-6.54412849851,-4.97732260714,0.632029449453,-0.853309362459,7.91625266682,0.682913201459,0.507166038535,0.00249841641703,-6.49127861062,-1.37898207921,-8.09008617115,-5.75867328002,-0.797784865113
do_nothing,4.1162223024,-2.90979349542,-0.322365868859,-1.1660373923,1.54347919453,10.4215108735,-1.53896762793,-1.43909202122,0.00364600892663,-7.52900574634,-1.00258149322,-5.11094396854,-6.01661915801,49.0288640788
do_nothing,6.1578921628,3.91350450659,5.21771085225,-1.05132177068,2.47590830088,1.21863758743,-2.33545942181,-1.41716193354,0.00364691482447,0.254543653085,0.492274328659,2.27316685021,-0.189361912276,47.7306730277
do_nothing,0.853774082626,4.20406020664,4.2194880554,0.381589008654,0.434723888658,-10.1562506121,-2.05498550094,-2.14714491292,0.0023349527729,4.30149577565,0.49307361463,3.30672474123,2.37098421462,-21.5202508225
do_nothing,-5.94311565229,-1.11150179579,-1.5219328305,0.705032069091,-2.08678875957,-10.2379341175,-0.324985962831,-2.76506281568,-0.000140128788044,-0.359484027332,-0.776728612805,-2.08167661261,-0.23296281558,-63.7157748118
do_nothing,-5.77091892275,-3.62330475455,-4.17294084362,-0.544166376794,-1.83514915969,1.60275685227,2.68783914719,-0.241039023923,-0.00269314305224,-4.37782513818,-0.899251381769,-3.99701208659,-1.47081827061,-25.8578157347
do_nothing,0.639404560111,-0.447385926405,-1.20341635893,-1.33269857986,0.928300752918,11.8159583668,4.35958905303,4.06581101492,-0.00393184622866,0.178101722552,0.608689339604,1.90997048445,1.67820133429,22.2672726386
do_nothing,5.02271909201,3.32114423153,2.19500252855,-0.352581983421,2.96399239933,8.73222554687,2.31307004875,4.82035297167,-0.0034111835692,6.87838145678,1.47465558434,7.66384003913,4.20644379549,11.2963711385
do_nothing,3.24951666012,3.3237363369,1.66463915874,1.17893889543,1.93882848641,-4.05027799527,-1.73553343985,0.41977339999,-0.00174569305136,5.03357379431,0.321165190999,4.75697734399,1.96899524048,-18.6309962929
do_nothing,-0.769452625713,0.538212830934,-0.842305395074,1.4881361551,-1.40119266181,-12.4703020969,-3.70384178399,-4.04961430262,0.000345154435265,-3.57096193802,-1.16034810471,-3.66188483508,-1.90028412147,-1.58085451485
do_nothing,-2.54987952134,-2.55597961832,-1.60040582575,0.507110715699,-4.16935901064,-7.87284077831,-2.40408893602,-3.48431219586,0.00240825087054,-7.49216688795,-0.844185488957,-7.79467889123,-2.84367470121,36.8181894941
do_nothing,-2.33622048264,-4.77455221059,-0.635181296384,-0.61466070639,-3.62937644043,4.37808428391,-0.474819343141,0.579748544041,0.00376154163497,-2.72603005759,0.645133576582,-4.52105922729,-1.84870084795,30.6191257842
do_nothing,-1.60832368771,-4.55311374391,-0.0439863942549,-1.113775607,0.415594976514,11.4718674287,-0.0590829479138,2.47134137519,0.00354593100835,2.73415314722,1.01168637607,0.526395934341,-2.09034573449,-9.27231062994
do_nothing,0.254013608146,-0.422724912387,0.0940026004808,-0.866433601833,4.63861077502,6.66378491101,-0.185721438134,-0.0210823247323,0.00167652552913,2.34419543294,-0.263636228557,2.60116563772,-2.34032753347,-20.7635564123
do_nothing,3.06258336366,5.3094994372,0.973272715061,0.033452646631,4.83639914466,-4.05662040256,0.844833052064,-3.0985229095,-0.000800257339083,-0.0422785931863,-1.28962838122,3.04648635495,0.850929895339,-3.45553030355
do_nothing,3.82584655084,7.31005967772,1.99500433088,0.989712934253,0.733596515891,-8.70103723304,2.69195728508,-1.95529508168,-0.00266508611117,1.30747401569,-0.578855876109,4.02344461762,5.97504770449,-10.5720474728
do_nothing,1.06655974767,3.57229404981,1.46860617204,0.921343181103,-3.1659986046,-2.77895745604,3.72612078018,3.23940082532,-0.00343644197549,3.83929723631,0.95152719188,3.76751884201,6.98754904165,-37.7534633234
do_nothing,-2.00638827084,-1.9476347128,-0.388652940578,-0.380868395981,-3.0197597118,5.3898175032,2.90336049656,7.05068750259,-0.00311055572829,1.60882137375,1.38365587275,0.137731970586,1.51284440014,-19.410344869
do_nothing,-2.14046495182,-4.656068776,-1.68557435723,-1.42666169978,-0.46525145311,4.99810371002,-0.107463188248,4.3431075843,-0.00164834552609,-3.99215256961,0.297206052329,-4.6730122815,-5.47342517012,47.1574454439
do_nothing,-1.13936135346,-4.38553762173,-1.754255054,-0.691727062112,0.251565460463,-3.10772316964,-4.84586549895,-3.86365685384,0.000678095907738,-5.83582453692,-0.959396537799,-6.43736205692,-7.68001240531,70.0541486881
do_nothing,-2.2535527988,-3.30905870164,-1.58262041241,1.16349115383,-1.27147128543,-7.44559906365,-8.58419770371,-10.378211942,0.00283272498767,-1.96947078252,-1.11857040588,-4.11277566015,-4.32167200177,0.957880974278
do_nothing,-3.63964535888,-1.72874141442,-1.42843495917,1.92724709699,-1.33245446501,-1.81645027797,-6.83332624885,-8.48984662064,0.00364399662327,2.04516453561,-0.310314661216,-0.0400194128596,0.745515855122,-74.302030414
do_nothing,-0.603635875288,1.26041463149,-0.199325639272,0.68372904682,1.67515429125,6.0576968707,1.72764946928,1.03708584224,0.00285845807287,2.27767899498,0.50891334436,3.62656746353,4.23482251693,-50.7794584687
do_nothing,6.04543503848,4.71809577816,2.28517055994,-1.13720287219,4.38467536381,6.08957448121,11.1837536601,10.1795714817,0.00113585612786,1.52310058493,0.775203083078,5.95942281255,5.39804513851,44.0260330274
do_nothing,9.1632975497,6.25182345829,4.18467178939,-1.78822230133,3.25878975787,0.350352723539,12.4882553215,11.1913536049,-0.000819604866982,2.85361445659,0.576221367389,5.78526544657,4.26731860848,89.3085439998
do_nothing,4.30874207962,4.66498592548,3.6234538188,-1.13793380481,-0.569015729842,-1.70768903876,3.27840021922,3.62728340068,-0.00256189503894,3.56728227366,0.0968196760301,2.25435948479,0.854139108535,31.634365782
do_nothing,-4.39845430955,0.440030984727,0.675142753996,-0.0729436445414,-3.41915063334,0.762863307156,-8.25745863667,-5.90944783169,-0.00349271945857,-0.102962260396,-0.552983944183,-3.02058687088,-3.52843707623,-65.2610709215
do_nothing,-9.5355025123,-5.11208927685,-3.10147919521,0.917872194633,-3.86016125726,-0.649877707027,-11.5580533409,-10.0410981728,-0.00295765323601,-5.68548567045,-0.961390400385,-6.70505434814,-6.0298565152,-113.590439516
do_nothing,-8.27055755,-9.26050624212,-5.88204494718,1.62913982525,-2.80628150847,-7.43431598124,-5.09600598398,-6.54403766621,-0.00104558327448,-6.93726697102,-0.549334362416,-6.90270896409,-4.56980764906,-76.2946663004
do_nothing,-2.75447346424,-8.1241146473,-5.84530131808,1.43543150441,-0.556832501703,-8.82442830454,2.69499955401,0.641073695735,0.00121165333418,-2.3623451629,0.524281852743,-3.94237100155,-0.0731467747736,34.7504996026
do_nothing,4.07519117345,-0.613877119387,-1.868868505,-0.00346846241976,2.92106693044,1.384384205,4.09773150933,5.37852753414,0.00273831802355,3.22739111917,1.12416025465,1.37342727904,4.13598119222,155.641089818
