label,COUNTER,INTERPOLATED,AF3,F7,F3,FC5,T7,P7,O1,O2,P8,T8,FC6,F4,F8,AF4,RAW_CQ,GYROX,GYROY,MARKER,SYNC,TIME_STAMP_s,TIME_STAMP_ms,CQ_AF3,CQ_F7,CQ_F3,CQ_FC5,CQ_T7,CQ_P7,CQ_O1,CQ_O2,CQ_P8,CQ_T8,CQ_FC6,CQ_F4,CQ_F8,CQ_AF4,CQ_CMS,CQ_DRL
off_to_on,-0.906351594052,-1.46122379566,-1.17787880871,1.1327521482,-0.519334839178,2.93797019799,-1.60924804041,-1.95975271641,0.984300385255,-4.43087209739,0.353128180318,-2.23768059831,-0.332229327679,43.9844281557
off_to_on,-0.726075278388,0.801887094547,-0.352884420847,-1.14197200038,-0.928615167885,3.99232338718,-2.37463551231,-2.62581738699,-0.946248350955,1.95962122573,-0.162591967199,2.39418684111,0.0622869850028,-31.5863417683
off_to_on,2.77320842965,3.02212086825,2.8260370211,0.787494419564,2.44947058704,-3.3620354309,3.95658501345,4.60320090973,0.932136871644,5.35682846558,1.3216521771,3.94969131934,2.26995993921,5.46875045903
off_to_on,-1.91019806784,-3.0206915506,-2.31912891038,-0.4516832056,-1.65726091332,-3.43336016756,-0.63308800701,-0.165584403608,-0.914580364792,-4.49035239889,-1.77295179461,-5.30639093412,-2.16106452257,-12.5174101003
off_to_on,-0.328863106606,-0.644840522178,-0.10776990187,0.805710786954,-0.241830263493,6.47805210545,-1.73566713226,-2.70976022088,0.870075824774,-2.33598007383,0.714311712463,-1.64171298375,-0.198439600759,18.8260226145
off_to_on,0.57217113168,1.28267929701,0.666603104979,-1.31123329697,0.430905348845,-1.92551753888,-0.283593583582,-0.735441654196,-0.829442290588,2.89977223128,0.0410830662453,3.95093847285,0.403857420605,-0.118149618398
off_to_on,1.26028211036,2.11553091609,1.18445584774,0.939841137706,1.31451976766,-3.57618535809,2.64340576539,3.96011263863,0.809510121137,3.02048488205,0.84956326093,3.05455916158,1.86236218951,12.8376679227
off_to_on,-2.4298777678,-3.36884298101,-2.42537790001,-0.250606443141,-2.43325325875,2.48769309892,-1.99076326245,-1.93876878932,-0.777744450817,-4.86251825438,-1.77710474937,-5.9464252785,-2.41428408497,-64.4906770367
off_to_on,1.2275452024,0.0946599080427,1.06130184272,0.515401768527,1.17435952178,2.80878930202,0.32084963872,-1.00479495969,0.724362706581,0.149891954367,0.870099626026,-1.05402708425,0.171733326607,65.8315081107
off_to_on,0.81985836691,2.39024915375,1.05024502857,-1.19952078238,0.868068709007,-3.94953794243,0.41795123467,0.800493206192,-0.682573409234,3.20198873082,0.501419100207,4.86468514016,1.26797024708,-1.10881580123
off_to_on,-0.736891246301,-0.148024032844,-0.699104829299,0.911176168053,-0.713947193844,0.297411626041,-0.69712962969,0.453653144568,0.655660819106,-0.954135386477,0.0612021145202,1.23668684451,0.0590034305338,-26.4108731189
off_to_on,-1.44424208419,-3.03209376722,-1.70544031029,-0.163027919038,-1.50252580331,1.18485858824,-0.032697232571,-0.904692353657,-0.611389031798,-2.70421819243,-1.58126380555,-5.543241568,-1.76747259361,-14.3031595113
off_to_on,2.06461295925,1.99274469283,2.16121389869,0.354501097761,2.15200785167,0.365542354306,2.01129637321,1.42083566086,0.552923697886,3.08223739537,1.28261032233,0.87141600205,1.39931542018,28.0273207234
off_to_on,0.07517908989,1.39358880155,0.313004007462,-0.955765454442,0.0930997124368,0.177108021624,-2.18712887063,-1.34521919145,-0.510781392397,-0.427964877929,0.322501816731,3.33626239839,0.157933921649,24.5714903393
off_to_on,-0.873256451302,-1.3151926905,-1.21508418074,0.620320735421,-1.33790060855,-0.892342807295,-0.472047290653,-0.0547934252298,0.476386510657,-1.60216134632,-0.256433512373,-0.249065955078,-0.459884643767,-68.3421309206
off_to_on,-1.67757758502,-2.20921990199,-1.58274993002,0.0835599265316,-1.00889437105,-3.1093197453,1.2688016625,0.352937539031,-0.422345163819,0.29954708649,-1.37445507585,-3.35037734119,-0.974413823913,57.5042235346
off_to_on,2.70957560847,3.02316545449,3.02730614367,0.120522988834,2.84080630681,5.38485983,1.52925520704,1.22518844992,0.362294623075,2.25016440332,1.40009688414,1.75699816254,1.88766081763,-26.3767772681
off_to_on,0.79960476273,0.703052821803,0.288328502731,-0.690820350187,-0.238806779733,1.66858900222,-2.04358576574,-1.12621697767,-0.320164781462,-1.58692459317,0.524080034279,0.946640856354,-0.449091494826,8.31070302939
off_to_on,-3.18108668955,-2.87336812657,-3.00816295416,0.516927116395,-2.68096655481,-7.92174929344,-1.63286133286,-1.15760416984,0.278615526952,-1.43684540727,-1.04063408861,-0.939539880754,-1.47635291335,-10.5423532937
off_to_on,-0.152173340417,-0.115715371235,0.286708659813,-0.0637760673576,0.547748266117,0.800796597349,2.21716835829,1.09861309363,-0.218234812904,1.36884791189,-0.777975717478,0.102572753433,0.755316113261,20.5316145124
off_to_on,3.52493842399,2.88954773033,2.97309817186,0.101106214511,3.05470149423,8.84882719721,2.29395191333,1.49771959215,0.15956734614,1.59533122823,1.5313725213,0.123271958887,1.49289313852,3.64389166315
off_to_on,-0.930411798678,-0.696842497899,-1.02241969088,-0.167197635376,-1.59602011288,-3.70866959767,-3.04233528463,-1.39590109956,-0.117609745714,-1.45136984552,0.291389230261,-0.598380322442,-1.2859945544,-57.4762949701
off_to_on,-2.78690522468,-2.11301936073,-2.14023164496,-0.0497894023682,-2.32306634644,-7.55718652656,-2.26011564791,-1.24514953669,0.0701030077609,-1.60585923404,-1.36959102397,0.894076143,-1.00314995932,47.2776083454
off_to_on,1.04307783564,0.483791235531,0.735576398937,-0.0379733855433,1.66293145877,5.14228782911,3.33075353247,0.918973632716,-0.00713151357232,1.13468058182,-0.288623009436,-0.163262839212,1.0651053506,38.2032220941
off_to_on,2.36756619489,2.00332494552,1.97504028705,0.243878186177,1.99304148132,5.86174739767,2.52918520524,1.5641268115,-0.0478308045722,2.16419060883,1.45676691721,-0.636215536996,1.07645603095,-49.3993298032
off_to_on,-1.1468960366,-0.486721071476,-0.712563349552,0.272196676752,-1.72629622871,-5.95024531161,-3.95562358773,-0.695757982859,0.0894327186092,-1.31539356558,0.256231063752,0.578623310017,-0.994403040873,-48.8225485337
off_to_on,-1.76331193815,-1.87499304944,-1.73920058642,-0.798981003627,-1.62868304382,-3.33115543259,-2.21648413546,-1.75369717574,-0.140917612047,-2.36552322728,-1.70265830048,0.00557089691405,-1.25272515962,60.050923566
off_to_on,1.05711231286,0.697040315846,0.9110059488,0.049747941613,1.75069813586,5.30486551609,4.19410816316,0.46178557884,0.20277322427,1.55349962886,0.15512631153,-0.494253156121,1.17920424559,68.176429201
off_to_on,0.664431655066,0.967809017019,0.688184617441,0.802287718995,0.799274339683,0.797947241792,1.2819400852,1.48064560417,-0.252362415212,1.71083578878,1.30995571201,-0.069195319433,0.835451655283,-94.9885906081
off_to_on,0.510554938957,0.563337017655,0.307468628576,0.21870785826,-0.512647355285,-2.70916140339,-2.62353407886,1.04317369214,0.293214803042,-0.194625404559,0.29293212244,1.63870122406,-0.302546246425,-43.3902995761
off_to_on,-1.59221633424,-1.86920294868,-1.30921191944,-1.71560964368,-1.76213088962,-0.675705135814,-2.57278431384,-3.19047353624,-0.3461047379,-2.80857799531,-1.93222719441,-1.41646262644,-1.76328754029,64.4958002711
off_to_on,-0.125673779869,-0.1463954389,0.0991636530767,0.869090208711,1.13290214953,1.53002791806,2.80596881243,-0.455273273269,0.403484898492,0.221194258808,0.424346177552,-1.42218282502,0.777803908299,99.2358554873
off_to_on,0.895766636739,1.36955495768,0.358217003893,1.06752821574,1.03179601859,-0.0250250963622,2.77577654129,3.43723248018,-0.446610895777,2.93099974074,1.23199787487,1.7825453852,1.42151574208,-125.577234334
off_to_on,1.10073368953,1.01580506096,1.09065721572,-0.461336860267,-0.216772055997,0.647959069006,-2.13985137483,0.497359580977,0.485993327336,0.580314232405,0.282562018293,2.43270342137,-0.0012678421087,-49.7745697153
off_to_on,-1.32243424562,-2.13351225412,-0.854950353035,-1.96493840165,-1.74342415704,-1.35123937691,-4.09814302928,-4.11295357428,-0.537377644618,-3.97939567862,-2.00417631207,-3.59264391453,-2.34689779712,66.3381506207
off_to_on,-1.19577643845,-0.740520512195,-1.24118629299,1.99909204014,0.728648073569,-0.416469551335,3.08929697093,0.555758251702,0.587493490689,-0.226548472956,0.586629750629,-2.08394408877,0.481229607755,131.402554915
off_to_on,0.733694930845,1.70800314016,0.40967955499,0.4651564864,0.845768545376,1.05081425016,3.40871072297,2.73032529135,-0.623515748381,3.49996388728,0.934313313578,4.25948762554,1.89565984243,-147.186987512
off_to_on,3.26172028411,2.43501874952,3.25146503275,-1.06089884759,0.863851680354,1.30987858816,-1.74509088236,1.13699075184,0.660348639608,2.0770565588,0.828929980862,3.29327573219,0.995982126417,-61.3883604771
off_to_on,-3.50669479553,-4.65245980558,-3.40523472927,-1.21559995006,-2.74399246133,-2.67514541167,-5.45105699427,-4.44264611494,-0.707263784822,-6.16694316699,-2.64786052195,-7.88578761842,-4.43270577042,66.4166765362
off_to_on,-1.32310310783,0.114785120946,-0.977108352383,2.32799637352,0.81686761095,1.4112943958,3.67259218884,0.355144630558,0.74802789687,-0.144030628703,0.853548048211,-0.124409951975,1.29903779372,156.756314311
off_to_on,2.95762708964,3.86575662678,2.7702843228,-0.611333711422,1.41118291263,-0.371577465954,4.11070799373,3.13046313978,-0.776608361924,5.29459280363,1.28178670345,7.16798531998,3.38531799916,-152.399095685
off_to_on,1.68027861853,-0.104353852564,1.15801345581,-0.53937352753,0.422459932236,0.0791262840601,-2.66332989749,1.02180164644,0.809502532228,0.997266000712,0.37672576963,-0.133018495864,-0.86201572857,-83.030728129
off_to_on,-4.72455801694,-5.31946823531,-4.369320023,-0.813230199874,-2.9721527746,0.680657553001,-5.36778311481,-4.88719113195,-0.84920726433,-6.98178700623,-2.86257606518,-8.34795087861,-4.68428147935,70.1296153117
off_to_on,1.28529117345,3.16409540732,1.70700020434,1.97011671295,1.58988303966,0.0386886287735,4.4253654789,0.997285284567,0.879274222447,1.22026912829,1.61293444362,2.85827980834,3.30996289206,171.456487784
off_to_on,2.56963531621,2.96133583237,2.29072384671,-1.05910396317,1.01854192046,-2.96037409179,3.68578879753,3.42439525024,-0.900241659109,5.31448396489,1.03544974794,5.99373843214,2.49013057858,-143.42841314
off_to_on,-0.860410366413,-2.70229026442,-1.13717984285,0.17346895648,-0.216420951814,3.47872974382,-3.47056434506,-0.381489718797,0.927616131167,-0.572344534592,-0.244484567679,-2.0157510779,-2.42806805706,-109.982146872
off_to_on,-3.11890344947,-3.50010478534,-3.24527491682,-0.870446108813,-2.27634478046,0.284507833083,-4.75249601549,-4.63056778866,-0.957825654478,-6.16389336738,-2.57146947582,-6.6073419955,-3.19908498515,76.161518806
off_to_on,3.56707728537,5.45666363401,4.0019936219,1.4784027307,2.28495884103,-2.39792938968,6.17825863258,3.62794024387,0.976556298243,3.2400636475,2.56958257326,4.37288995043,4.84165015343,176.088874126
off_to_on,-0.777754645883,-0.386766807271,-0.21838928058,-0.874588635443,-0.457394364781,-0.954321181036,1.0044243006,0.571081964813,-0.989804454045,2.32363371123,-0.0212607267535,2.91204384315,-0.529427597203,-124.999229995
off_to_on,-1.03088916398,-3.07141208619,-1.96761560166,0.514629345693,0.0357844904268,4.40745785497,-3.86403303875,-1.40154882609,1.01004992298,-0.723370592643,-0.654615581989,-1.800723676,-2.15827509071,-136.392683414
off_to_on,-0.104992158137,-0.275932909327,-0.759953207532,-1.12857108965,-1.14860643661,-2.56353023279,-1.42105330872,-0.829624499044,-1.02910679181,-2.91328173314,-1.38088092559,-3.68070713817,-0.330382767911,81.7624463265
off_to_on,2.26322939049,4.17707744704,3.69548464782,1.40899552977,1.61114525421,-1.30132199151,4.82678901199,2.20461191105,1.03647732736,1.66207492974,2.533415325,2.97735256187,3.13582024582,173.006190889
off_to_on,-2.2652223288,-2.23278404432,-1.83332510998,-0.990371722356,-0.876182986548,1.3698567319,-1.34490513745,-1.70371124047,-1.04190973704,0.298428236476,-1.12289426748,0.90345701751,-2.19878203753,-101.647515823
off_to_on,-0.156374087918,-1.7481120341,-1.81326983067,1.01596251754,0.299977128466,1.70040992095,-2.15044916659,0.505795113198,1.05357081307,0.943509035166,-0.293077491055,-0.512215610785,-0.336697796646,-158.755334596
off_to_on,1.1356447063,1.0424500081,1.05355355187,-1.38997754542,-0.784815382188,-3.00253928701,0.187437067191,0.0766778216608,-1.06054141191,-1.50920461054,-0.491902611256,-1.79131806936,0.72385692602,85.7750715345
off_to_on,1.74153472765,2.91201416383,3.18172722419,1.02643648473,1.68200745069,1.34236370023,3.38319098028,0.94422749148,1.05702148397,0.329419583005,2.08117686705,1.89510706704,1.33262019479,164.799417045
off_to_on,-4.37869524381,-3.90130786153,-4.29443226513,-0.526818136203,-1.78955901697,-0.299892648416,-3.2164337672,-2.51822253442,-1.0545455868,-1.41199593973,-2.12828439091,-1.85571484493,-3.08133715906,-77.8713292982
off_to_on,2.04656852823,1.12877619078,0.804147175695,1.10142795865,1.04681995841,1.60752555192,0.386260412425,2.1938025634,1.05649494139,3.19325286927,0.82947020834,2.10618283775,2.24780910836,-174.70537088
off_to_on,1.97648222678,0.89253748001,1.70492476246,-1.75012391207,-0.61243817277,-2.02574622372,0.698446849588,-0.398067928243,-1.05119104117,-0.926632392055,-0.119546500567,-0.0294767889593,0.148408344161,87.778529949
off_to_on,-1.14757141747,-0.0766448039956,-0.0138858319669,1.03968520745,0.925055735061,-0.292039955679,0.812335349008,0.0629565367956,1.03761388712,-1.89012776398,0.719628933388,-1.43652811908,-0.867608116633,153.852995554
off_to_on,-3.15118346498,-1.58115650734,-2.46372953282,-0.195237741076,-1.12145486848,1.0775438169,-1.97920630804,-1.26454554197,-1.02717813964,-0.653467439012,-1.58773026504,-1.75796668479,-1.10098019831,-57.064817827
off_to_on,3.91489243795,2.29725826034,2.33785114801,0.849820196,0.980865461164,2.45784503199,1.32797339111,1.50043173071,1.01875943238,4.24105988961,1.68477768933,4.34687324436,2.85872952479,-183.554456681
off_to_on,-0.26177161916,-1.709842495,-0.761126269263,-1.71310159104,-1.16763763387,-4.48638233515,-0.451514096598,-0.745926293729,-1.00169335493,-1.85347640914,-0.987690691071,-0.52311482358,-1.76853963647,88.1879741638
off_to_on,-1.9810471797,-0.0941469844786,-0.213031825713,1.10056225612,1.16225765318,-0.0281715915852,0.3400118676,0.664543411953,0.97913700993,-2.47969551443,0.169607040083,-3.37733808794,-0.632839972668,142.062483525
off_to_on,0.15889022376,1.21720011122,0.205963322877,-0.339598904407,-0.191235918409,4.29614486756,-0.356388460404,-0.836022561186,-0.960797965589,0.968515722844,-0.182882525613,-0.107246541086,0.858556909878,-41.3338894384
off_to_on,2.52539929831,0.855475315156,1.06757846316,1.00361088646,-0.0904431601888,0.0384527877845,0.972200637876,0.725950623823,0.941920845452,3.72485519541,1.3609921233,4.98617701272,1.54564767529,-185.962061563
off_to_on,-3.09353925002,-3.99440113328,-2.96642171989,-1.57352865428,-1.78223836166,-6.97193057512,-2.64409374672,-1.57499110443,-0.914209183097,-3.82042068212,-2.31310622859,-2.936556349,-3.29009098554,88.192272989
off_to_on,1.71967264509,3.02472144602,2.74567838546,0.556108059884,3.06309220586,4.9515605601,2.82676492778,2.60068250203,0.883901553701,-0.0813871094537,1.35209582816,-1.45711107384,1.93599451106,128.512521013
off_to_on,0.177568516475,1.20509825109,0.128032531576,0.164927650506,-0.925885777618,3.10441005194,0.129770005577,-1.01618883374,-0.857904104428,1.48255708308,0.464468696281,0.555584392695,0.553055053677,-22.7804116281
off_to_on,-1.18865814123,-2.24500897501,-1.72486082388,1.11283159358,-1.65758137098,-4.80013659103,-2.35724189275,-1.8072044553,0.829082402159,0.560494834868,-0.409327453364,2.10868075443,-0.861585981654,-203.05020814
off_to_on,0.451238263914,-0.908018578295,-0.112696224624,-2.19678968321,0.523133617547,-0.892218220752,0.13803137822,1.20649603779,-0.79231660564,-1.62056594465,-1.3463026519,-0.639734014823,-0.659610448935,111.846494665
off_to_on,1.57671588071,2.83514551293,2.3088482751,0.811345751376,2.3552857464,4.52569794428,3.33871917504,2.54340278746,0.755570320277,0.792024803908,1.93343199682,-0.91982817833,1.55292417429,115.185808942
off_to_on,-3.16728771727,-1.84381284438,-2.24911551,0.904377754214,-2.54682352558,-3.25577441595,-3.03628265012,-3.91365739206,-0.722423587473,-1.01775573675,-0.781971573491,-2.03594506293,-1.67745691487,-55.7137056137
off_to_on,2.06752597369,0.539354438345,0.734762895843,0.066917236442,0.342197802323,0.881253131084,-0.377227678995,0.576332324458,0.684755779377,1.69964327438,-0.00666138468148,3.48924539715,1.4491938675,-140.190079342
off_to_on,1.75465792414,0.911787531433,1.12158153379,-2.14265833644,1.10516869522,2.17347617183,2.51314855289,3.11063562791,-0.640858308034,0.165385640984,-0.131235202747,1.44941101142,0.36800968212,87.6242366025
off_to_on,-3.20930100535,-1.71587694416,-1.46357159528,1.72117425071,-0.532052359238,-4.16384871366,-0.688018386699,-1.63439797815,0.599034740551,-1.76557823124,0.357313976868,-4.14128935328,-1.98444440466,80.4008658411
off_to_on,-1.90467614626,-1.78616646839,-1.99811995809,0.558253963797,-1.55855464443,-1.0407486607,-3.65115464438,-4.10022458161,-0.559568138575,-1.67690640992,-1.09245287604,-2.55040423034,-0.967220635742,-22.7921295305
off_to_on,6.86426743761,5.97917900496,5.24509785914,-0.93455537365,3.14350699111,9.0234790839,4.8127797458,5.88705472665,0.514666176245,5.15972476504,1.95599795243,7.76498746008,5.19088489416,-128.657367804
off_to_on,-1.88847358076,-1.57578845604,-1.10832028765,-0.957472468541,-1.27033948785,-5.00584162523,0.646567740736,0.793315614402,-0.465748770826,-0.624173915648,-0.662731491232,-0.381016324242,-2.02379283615,72.2516731688
off_to_on,-6.78584538954,-6.77476058867,-5.71532322447,1.68294176227,-2.53835670773,-8.41061330026,-5.65493814356,-6.83165074081,0.420245428105,-5.63362201176,-1.82521811602,-8.15019220032,-5.174084978,52.8849034175
off_to_on,4.1061669801,3.80994070439,2.933544181,-0.215650420935,2.09480419397,9.14180368993,1.33137989092,1.69413294234,-0.375633535428,1.68508134199,1.05366309335,2.25691886278,3.51009766242,17.1188911973
off_to_on,6.20792477135,6.99574051619,5.92293678931,-0.561941878129,2.6283340193,5.68128383743,5.94860593919,7.00490354692,0.32551140821,6.20275717912,2.32640548475,8.16764633897,5.08711126394,-122.905866267
off_to_on,-5.95257182118,-6.0055498346,-4.88685911764,-0.500882836757,-3.3592334462,-10.962526307,-3.20019889154,-4.23000852893,-0.273748142358,-3.03795024181,-2.22899165966,-4.48356886223,-4.99028804759,27.5253911035
off_to_on,-4.2127869011,-5.57869832535,-4.5486575998,0.885351156161,-1.59399813068,-2.02299193442,-4.87257066398,-5.20814645384,0.226000284641,-5.51579399902,-1.46500236189,-6.18326837378,-3.71700684653,89.7296696294
off_to_on,5.46769133358,6.15305882399,4.87298496799,0.334168023673,3.05413674202,9.45448799461,3.16374130413,4.29434898434,-0.177750482137,2.69550208515,1.9602716468,4.3954601861,4.54635015387,-19.9217040914
off_to_on,3.6738834824,5.05755587327,4.14412527584,-0.607307266115,1.78118572595,0.787779614991,5.01999479878,4.67493315963,0.124686980114,6.16410983628,1.47081383839,5.36896572065,3.57210824032,-35.0300105647
off_to_on,-5.54056269466,-6.51313359625,-5.24940064369,-0.776522506245,-3.55270864915,-8.1251075845,-3.92954216478,-4.82933888295,-0.0722099404097,-3.44514298057,-2.08572933437,-4.89311644909,-4.61229724366,-91.0840553234
off_to_on,-2.18784303018,-3.61551943652,-2.70686060976,0.991059712767,-1.06348878109,-0.0454211647317,-3.97986240274,-3.00834832514,0.0236960724032,-5.50775905646,-0.972404534522,-3.23025335253,-2.63870625886,138.346065625
off_to_on,4.12460824949,5.42079950421,4.18659407773,0.655532067688,3.0707334132,6.25675158282,3.51579531746,3.69416042656,0.0264014641514,3.0515059913,1.49180300637,3.69956721573,3.45775908757,43.2414358287
off_to_on,1.47697091063,2.65640944002,1.7138464799,-1.12328838776,0.774756768829,0.639527404709,3.05981882572,1.95534681888,-0.0800104552387,5.02303882785,0.903797440047,1.49350078366,2.41392824094,-125.654848332
off_to_on,-2.02958225816,-3.24017184221,-2.0913927229,-0.357264141063,-2.2480208059,-4.99575221671,-2.13929678651,-1.40391955861,0.131189870332,-1.76899694727,-0.645468474204,-1.10904810216,-1.86703632032,-61.1439424953
off_to_on,-2.31875799861,-3.46928744389,-2.31689797222,0.786862223422,-1.1633794983,-2.426700158,-3.30788571988,-2.87391686055,-0.178948267829,-5.91231395166,-1.63988936475,-1.72500199148,-3.44687888253,144.524755147
off_to_on,1.45148406249,2.46402335466,1.18169555216,0.522704159352,2.1042503147,6.22228760639,1.7181301342,0.690373021392,0.228903523356,1.89659378224,0.764472530081,-0.174979243308,1.70002696117,77.6447071754
off_to_on,2.10979268539,3.55724101186,2.31376790369,-0.826163619571,0.811329962428,2.14848191171,2.64892892458,2.99446917154,-0.280688988141,5.59950431462,1.53616548851,1.30496797335,3.36056538765,-212.779656615
off_to_on,-0.273086570452,-1.36025720581,0.146400343051,-0.100068733685,-1.1278986366,-6.91417399707,-0.519620915498,0.316335274248,0.328734361545,-1.25633500848,-0.180903076406,2.13894792249,-0.913855868765,21.82723483
off_to_on,-2.35577463278,-4.0967663154,-2.9718164585,-0.297663522553,-1.23867377057,-1.6709736882,-2.35764331578,-3.39944335317,-0.374186194382,-5.7370867775,-2.24244633481,-1.88796171671,-3.62183088084,118.84728802
off_to_on,-0.227470080887,1.17917952175,-0.501202146048,1.41690973868,0.845263261585,8.25650424034,-0.54407965563,-0.656603247177,0.421916557001,1.25903425108,0.749585022646,-3.07506266936,0.747028582222,44.813293725
off_to_on,1.56399345574,3.35955982978,2.59815653667,-0.511299148558,0.87952823859,-0.671919062957,1.54108467585,2.70138020454,-0.469665004057,4.72513995148,1.49605766502,1.64828500595,2.67117265472,-172.233293265
off_to_on,2.19558581873,0.477098755516,2.04017590499,-0.986602222962,0.604370746695,-7.42317419554,3.1094040528,2.52231540485,0.512949045922,0.390591381614,0.288356865882,5.07341730499,1.16439640041,24.9876481838
off_to_on,-2.95455291636,-4.63514002842,-4.26791992031,-0.274401264892,-2.38473965412,1.14214366405,-3.38886064001,-4.22155387232,-0.554544108335,-5.9873000029,-2.5946683679,-3.44569646057,-3.9350200432,88.4343940499
off_to_on,-1.18011401254,0.765272264693,-0.325043338537,2.43221589966,0.597203889068,8.56047841503,-2.34623779929,-1.3432515314,0.59799480264,0.896436811607,0.915736940934,-4.05914673737,-0.420935602281,39.6165075431
off_to_on,1.11468480658,2.52829784847,2.26430085038,-1.42308588331,0.838720993436,-4.34103488095,2.20278381455,2.38036125475,-0.639753570905,4.19390626648,1.21201654276,2.05426824825,2.37742912266,-127.391698276
off_to_on,3.00017113384,1.08417080721,1.6284337696,-1.0080757418,1.10727720015,-6.29868323111,3.90947094195,3.19383944694,0.676878033118,0.39023872005,0.269914261048,5.94456590797,2.38098867476,4.8398303862
off_to_on,-1.66067258854,-2.9223610628,-2.48172812352,0.375351458487,-1.8982046929,4.46551242404,-3.19015259946,-3.13136193657,-0.713115040559,-4.64357415089,-2.08558842284,-3.51090293371,-3.46957799359,69.3920569384
off_to_on,-2.66463582592,-0.882681659086,-0.945620797719,2.0504610488,-0.315703118932,5.90685389737,-2.96356321002,-2.71301109098,0.750380867191,0.675582559889,0.8954007064,-5.10708673807,-1.68569254008,34.6376407735
off_to_on,0.192318819855,1.50250224604,0.55727002846,-1.84853092462,0.421164847556,-5.72176706829,1.68682934911,1.72482631988,-0.784535869748,2.74082620797,0.389780402853,2.95561003078,2.18034544283,-79.3862271674
off_to_on,4.49243216139,2.69208734459,2.70274139022,-0.211849717298,2.20060695095,-3.6779619618,4.10298196869,4.48979272049,0.814343412923,0.358262130478,0.69411099686,5.81567112717,3.0359586915,-24.7621539003
off_to_on,-1.54658110369,-2.85536192682,-1.50906565019,0.162416531431,-1.91664669142,3.75000852696,-2.26625797095,-3.10648322485,-0.843832539323,-3.08803746527,-1.64410019722,-4.8457973851,-3.17364482906,59.8368136469
off_to_on,-2.79524438428,-0.933551398187,-1.15940497214,1.560077904,-0.816163868548,5.43188899437,-2.51571483721,-2.94440912567,0.873269773235,1.72725352253,0.914512100039,-2.49723293971,-1.32227385332,25.6646871242
off_to_on,-0.920570288225,0.319607428012,-1.17863818042,-1.6052899197,0.0168402407032,-5.80851457325,-0.740972320912,0.900290463722,-0.898595007881,-0.742152304041,-0.553474972172,2.14394813233,0.395477185202,-32.8130167244
off_to_on,5.19373545853,3.22820599189,3.76207939175,0.244754554412,3.03129065593,-3.08599333595,5.31706934057,5.43293652265,0.920178296627,0.976116309335,1.16861367562,3.10507383997,3.78528562337,-55.024654131
off_to_on,-1.26411227336,-2.17519647048,-0.820458342212,-0.211820179868,-2.2419447828,3.5295187754,-1.0956261953,-3.40884158826,-0.941712485101,-0.149124199565,-1.10061576529,-2.79027142619,-1.98106288374,56.8293124424
off_to_on,-2.74121131784,-1.11813010802,-1.83026245444,1.3699550475,-0.705365375767,5.16304667854,-3.74948046146,-3.25360507448,0.962031740043,0.420703753585,0.529045662984,-0.124028120553,-2.11831768178,15.2409752743
off_to_on,-0.729099333124,0.331275619217,-0.74865664771,-1.63367159877,0.216142199944,-5.45333329402,-0.16862029641,2.45496125019,-0.977712748733,-2.3726976253,-0.766922175657,-0.616978039426,0.103810162865,1.04222958182
off_to_on,3.54506222093,1.89997245016,2.6420007384,0.99015455783,1.85600233331,-3.7161264605,4.49483113113,3.36362212382,0.990424322127,1.36574137917,1.14993766839,1.11722229487,3.46494688957,-70.8147150523
off_to_on,-0.210995485317,-1.23821996419,-0.461167415269,-0.723419848313,-1.23415214731,4.96237979037,-1.3761705012,-3.9629090086,-1.00305196198,1.54201301712,-0.875377326867,0.687540133609,-1.45596718575,52.1101784798
off_to_on,-1.11252917556,0.567818312277,-0.0891958527662,0.821084142515,0.337996037174,4.03460522007,-1.37734420711,0.247843803191,1.01338558086,0.404821495479,0.939403519294,0.75986128454,-1.10838868101,3.31113170413
off_to_on,-2.67538295196,-1.82650251586,-2.34390951319,-0.829452272015,-1.79427581337,-7.11771023567,-1.56920572462,0.653773721437,-1.01902095472,-4.61991441199,-1.46771500709,-4.15385638464,-1.17501521364,24.6499974427
off_to_on,3.21719542024,1.59542186429,2.16398141439,1.04842676514,2.08380619039,0.282439747539,2.91312936865,1.16585777567,1.02248529288,2.41107148604,1.11541953973,2.07919968996,2.95634690559,-72.4829811836
off_to_on,0.506574865132,-0.0699110531149,0.126913231542,-1.33125059164,0.0785352264277,3.35050310739,-0.159520261505,-1.94730410332,-1.02557633513,2.7004346869,-0.424915970871,2.15309437708,-0.714046725486,43.117138818
off_to_on,-0.363588830078,1.08383990151,0.718045392777,1.027954751,-0.00216558604216,0.823556486576,0.156919919822,1.68951668974,1.02551695472,-0.669044646015,1.08376697943,-0.0535507147802,-0.0705977429106,-7.38950739972
off_to_on,-2.66014700977,-2.557364975,-2.52454780641,-0.625629627144,-2.64698133234,-3.54869915026,-2.62125501575,-1.17722049636,-1.02110289047,-4.65710910776,-1.93969745356,-4.029701036,-2.10387506203,39.0927960135
off_to_on,1.13227138347,0.40664212698,0.659473801636,0.994809551684,2.23024219942,1.1843779014,1.16490621668,0.0477169795809,1.01522999448,2.76384938483,0.920390272784,1.66562187668,1.63346318672,-64.1430785323
off_to_on,1.68505899863,1.58479655884,1.1708762008,-1.42167639427,0.94496621505,0.298502251328,1.45072500579,0.249662115595,-1.00852816291,2.56895317979,0.372664940438,2.18927227044,1.01111337092,31.6331983664
off_to_on,1.04612710403,1.05329150386,1.06520703735,0.960552111544,-0.612004342166,1.0306718858,0.710266654399,1.2317847747,0.998138097146,-1.30887309191,0.600963407254,-0.0582797584275,0.0940229026467,-15.4369290821
off_to_on,-3.92686817228,-3.49143886992,-2.69459087694,-0.553609665826,-2.60689161135,-1.37762783975,-3.10852036933,-1.94087742816,-0.984041004278,-3.10861158464,-2.19504349917,-2.90898591344,-3.06516419125,44.887475412
off_to_on,0.534716037533,1.06493553021,0.584111018107,1.15083323733,2.3714147675,0.2651742359,0.690895718369,0.854204110384,0.969039080337,2.38293820558,1.59621676642,1.27613888757,1.82438331238,-49.5150149037
off_to_on,2.04970256664,1.04275566077,0.10576364432,-1.54045559545,0.429136518166,-0.272635215394,0.682180963303,-0.874434452539,-0.952694331039,-0.0500990558082,-0.167403093487,-0.436916895334,0.909168612408,19.8204178728
off_to_on,2.17812472709,1.46962076447,2.36742438397,0.731656749703,0.120106085039,1.50174391199,2.63111277668,2.21702809482,0.932487973533,1.73520397848,0.574356851856,2.76000102533,0.648719266006,-20.3836353535
off_to_on,-4.83116023618,-3.27476784588,-2.3330183371,-0.183805897183,-2.62831157793,-2.3590283349,-3.32917206408,-1.45959658772,-0.909409417354,-2.53444230989,-1.69980981823,-1.68896528318,-3.17342289984,43.3448004586
off_to_on,0.120601623192,0.669211206143,-0.604936577105,1.01066735885,1.68838001199,1.86284802011,-1.10514533281,-0.664710648294,0.885793154425,-0.929717494037,1.24525664451,-2.19022685204,1.34266602562,-31.8708403625
off_to_on,2.96222292931,1.15730081485,0.414524248564,-1.63818930842,0.790825153454,0.105595973407,2.22948875304,0.0758277505899,-0.860370652086,1.66583201947,-0.209885350479,0.450120468449,1.28318115915,6.86225384224
off_to_on,1.11894175091,0.717045511981,2.20464282022,0.832729430598,0.0711736131733,-1.41571851925,1.94941162745,1.91739301278,0.831273986756,2.65648978255,0.510145078476,4.38982325851,-0.000171382312891,-12.794576355
off_to_on,-3.55805846056,-1.65092337442,-1.31291712734,-0.158648905103,-1.99733460183,-0.347444273617,-2.93504304527,-0.979872596181,-0.800211105328,-3.41092791627,-1.24497801933,-2.2612952074,-1.94405468941,18.3001773443
off_to_on,-0.358341001735,0.05792555193,-1.23820675661,0.896505025995,0.836383372729,2.65134173756,-0.561234233718,-1.00459032738,0.768801678606,-1.41557473472,0.907397381354,-3.34665082356,1.00254800249,-0.828565582382
off_to_on,2.04952049097,-0.196288246856,-0.289327246661,-1.4985533098,0.643504963683,-1.52006997751,0.724182022193,-0.42045446987,-0.735265958609,2.3202717793,-0.350607158628,1.44176348335,-0.0145271176547,14.0882581249
off_to_on,2.22687731847,2.09500876837,3.04770802876,0.618460452036,1.0484853262,-0.490074625783,2.49939861819,2.86570410846,0.698558386946,2.72081775722,0.698907732609,4.33239404224,0.991706010182,-64.5371640828
off_to_on,-3.9107921603,-1.43282433369,-1.4739053871,0.211641029859,-2.51359795223,-0.684737621717,-1.90933743395,-1.60325627103,-0.660761630408,-4.00895211621,-1.08925103056,-3.1600987426,-1.27451871938,65.6816630227
off_to_on,-0.301675339614,-0.689485437938,-1.15464283851,0.537745557118,0.473521390432,1.90455632631,-1.28476690146,-1.04071333008,0.622674943481,-0.754904966181,0.671286170598,-1.65681538643,0.267393611261,-2.08822338378
off_to_on,2.27856065272,-0.108705497579,-0.149409507465,-1.45502943964,1.33101950204,-0.0707271260255,0.238995187655,0.308991859826,-0.582350289294,2.47279945683,-0.301142788907,0.88724927253,-0.458040377053,-25.7008078329
off_to_on,1.140238025,1.99487235667,1.98635149125,0.753503909781,0.497291868679,-0.377367385138,2.95968559295,1.99800000072,0.539594353585,1.3990622698,0.638886337499,2.2046395434,1.21297584299,-13.7253717611
off_to_on,-2.80446802819,-0.698805528026,-0.344840791845,0.415475938916,-2.39409340964,-2.03289295229,-1.54889211857,-1.46253589443,-0.496523222853,-3.00289692931,-0.828355223519,-0.828336508515,-0.260322870806,27.8883436916
off_to_on,-0.223865792259,-1.47729635156,-1.28980883005,0.000313438635539,0.792769789787,0.983617251836,-2.29451220173,-0.929021658381,0.453143903765,-0.237359867033,0.266315894617,-1.22893542762,-0.763571005449,23.393905847
off_to_on,1.97266310293,0.414236066256,-0.111122190304,-1.23987502561,1.41594136137,2.92491156281,1.8421511405,1.37443625428,-0.407654014539,2.04280393968,0.195353987897,-0.303964244708,-0.231672936787,-67.6727810399
off_to_on,0.361253242486,1.62327128452,1.3189315042,1.03867705312,-0.646039390712,-0.893625247655,1.76290123168,0.382604948456,0.360618334234,0.0900846216435,0.225703838596,1.12702333411,1.11054659865,58.1116717267
off_to_on,-2.21843552624,-1.06172513426,-0.451602018781,0.341419046105,-1.35893049068,-4.55813362012,-2.59560325838,-1.85791872637,-0.313894937934,-1.84436933151,-0.881107428093,0.299463023367,-0.241660849284,-26.5007109291
off_to_on,0.911974499767,-0.130835454081,0.184585520699,-0.570124647251,1.52861839945,2.05992062326,0.382933732589,1.66406721392,0.266835035877,1.19648394243,0.730651874472,0.777147167323,-0.0768513103988,7.17068410331
off_to_on,0.615711970173,-0.535486574194,-0.948277897375,-0.600210545391,-0.40798154392,4.39350755409,0.617527821055,-0.26792607299,-0.21802659472,-0.452635634828,0.0125912159555,-2.72718481312,-0.979568385226,-9.47273239734
off_to_on,-0.0135114630816,1.05877010373,0.500167243662,0.968723089773,-0.126678405551,-1.53863312124,0.560990665896,-0.788252099082,0.168606616896,0.444288951429,-0.221588655128,-0.208550490017,0.945481402961,20.1813290954
off_to_on,-1.1002203495,0.124078907032,0.364617675382,0.063112538533,0.11545371647,-5.13904552893,-0.927100471328,0.377956172745,-0.119966432469,0.123254428791,-0.263616993175,3.51683956163,0.346278407203,3.97930439056
off_to_on,0.508010327772,-0.944504639413,-0.0156285662312,-0.503405388604,-0.237240462186,1.25431239214,-0.834878420584,0.397995423594,0.071009390111,-1.08027843649,0.300034326265,0.00898114133539,-0.625405498497,-58.0842215017
off_to_on,1.24866992659,0.311648000153,0.135959575831,-0.375389859908,0.220844034856,5.80218088057,1.88923318642,0.0699911650414,-0.0208650671958,0.93150190464,0.410985464826,-3.96580959698,0.217791762019,48.0192763346
off_to_on,-1.55649771761,0.222156485102,-1.15602288047,0.662552194001,0.0956002708568,-0.887927196249,0.231358091931,-0.631218902842,-0.0289947337001,0.57652203424,-0.482908413165,0.0601916827019,-0.421245290523,37.2714470675
off_to_on,-0.396356955079,-0.0897275668679,0.346201675949,0.455784112288,-0.136096932725,-6.42048314898,-2.48364880549,-0.242220164241,0.0777554927428,-1.66247284533,-0.482323606469,4.31593296301,-0.00534046922139,-48.7632712715
off_to_on,1.5926095537,-0.0672981238269,1.33693619001,-1.00482704623,-0.299328246564,0.351371115416,0.33041254373,0.569282629695,-0.126723425502,0.261964574991,0.59026988683,-0.61942155817,1.00000824992,-48.7090978763
off_to_on,0.169476571179,0.373031386902,-0.0741674816696,-0.0757554309801,0.570636849136,7.31584544978,3.33119287901,1.0990932056,0.176176699545,2.37580689047,0.820341322546,-3.43464241798,0.101096874677,60.2625345211
off_to_on,-1.71313775263,-0.44865834133,-1.83519874513,0.795845878812,-0.174454690847,-0.181113398852,-1.47859355441,-1.30689477479,-0.224556556183,-1.76394975197,-1.24243600742,0.251747544728,-1.93321054901,66.806290212
off_to_on,-0.0384744361034,-0.45452256202,-0.189746057792,0.305561163796,-0.421344560618,-8.09030842912,-3.69562118792,-1.67082769644,0.271637154954,-2.33823073313,-0.455468067055,2.35673245203,0.239431388316,-94.0797446758
off_to_on,1.56586758286,0.718678957503,2.23060791954,-1.44356284027,0.245279540528,0.373797769889,2.68321073391,2.44098612268,-0.318704550763,3.04553998355,1.20081439341,0.824477600471,2.3802825331,-42.6844679889
off_to_on,0.711744674126,1.11880624637,1.02938635911,0.761129473215,0.747863580505,8.77651452426,3.81547712379,1.90278889043,0.365486459747,2.28109843345,0.823394034022,-1.13548999763,0.0267257038381,64.310135805
off_to_on,-2.6932916254,-2.21860894268,-3.96705341544,0.4343029194,-1.26228380502,-2.02911696833,-4.60775659909,-4.47656209839,-0.410559274985,-5.14830895964,-2.26799998944,-3.64303024442,-3.85431402391,97.4906494696
off_to_on,0.45811074768,0.318184475056,0.326862489471,-0.140668228441,0.581451205452,-6.31552265435,-1.55746386021,0.486952437144,0.454213752372,0.156320393692,0.601227086481,2.87245444615,1.5069148087,-124.505457847
off_to_on,1.3786026275,0.958502125495,3.08481197885,-0.911371905692,0.00348643052929,0.161304065615,3.3452435832,3.10333567871,-0.497526207049,3.93085504432,1.01201771701,3.37999269695,2.84512179626,-48.5901060419
off_to_on,1.00354466024,0.978395242888,0.672639730929,0.963031521851,0.64002389526,6.55108477469,1.80743053475,-0.177746545967,0.539788177739,0.283519975166,0.280173407579,-2.24583839405,-0.480460287789,65.9351917213
off_to_on,-2.37189292684,-1.86889303765,-4.16662792152,-0.411892012803,-1.24396498797,-0.122754729921,-3.61404003911,-3.28983601039,-0.579880705557,-4.5654828768,-1.70162703143,-4.94277325199,-4.00726378372,129.35054212
off_to_on,-0.593619436816,-0.626164904711,0.324692158547,0.581851284537,0.461460736698,-5.25223592974,-0.574493256864,1.19369731799,0.618478927223,0.699285834382,0.630987916781,3.59921512082,1.30899942157,-146.108310818
off_to_on,1.764318007,1.37606779489,3.15719630043,-1.01422230023,0.355117806397,-1.48603902644,1.94789355212,1.5883284901,-0.656320876093,3.6332683568,0.365974433788,4.41384955614,3.47326856512,-59.8206662845
off_to_on,1.68319219854,1.61019089033,0.411140260118,0.670052197655,0.375933084731,5.46975688273,1.23253432291,-0.0212174522455,0.692421533076,-0.0600164694148,0.786234589539,-3.38466873558,-0.63749975828,65.9990958474
off_to_on,-2.86497527653,-2.47301327138,-3.55004526533,-0.25897839451,-1.41371305275,1.82599573103,-1.86712296328,-1.88255459558,-0.726068197443,-4.42930887006,-1.4835188279,-5.19840511713,-4.51286850821,154.409627369
off_to_on,-0.355718572734,-0.190149540027,0.838541106989,0.782272480588,1.2006764288,-4.35240312994,0.14269757639,0.993092548663,0.758156547106,1.88860792364,0.323087477377,5.56496950774,2.32610863972,-151.406625621
off_to_on,0.55128166083,0.0267321795858,0.535391616091,-1.33810232014,-0.708719119108,-4.71528475697,-1.5812427643,-0.915802393032,-0.789027750045,1.65801054234,-0.162138444837,1.90679282591,2.08222747449,-81.1798071744
off_to_on,3.23048915821,3.18277922147,2.54302145281,0.836481098032,0.921262150846,7.95736956045,3.07912855407,2.22455562236,0.817595861764,0.446706177699,1.72252152013,-3.03025529134,0.0355633373739,69.8447600495
off_to_on,-2.68316373105,-2.1961552798,-2.31875706356,-0.220711586486,-0.867871529046,1.63115312205,0.238780075651,-0.822798979548,-0.8435848085,-2.93593541386,-1.6884278617,-2.72787084308,-3.60203305199,168.847747833
off_to_on,-2.02168099387,-2.0294599241,-1.97622617731,0.6660184165,0.444560649853,-6.79480265472,-2.3150684944,-1.44785277939,0.867943764243,0.920849332945,-0.190655915737,3.9934090275,1.28221607767,-142.579181561
off_to_on,1.49449250815,1.00580310359,1.21857247848,-1.35322588461,-0.971133089636,-0.932172095084,-1.94629864071,-0.607106006088,-0.890625965807,0.822492477245,0.156071288826,0.0550304265463,1.64714703189,-107.937743333
off_to_on,3.44603095737,3.71738684624,3.87267317436,1.16344863906,1.61415801655,7.29277104248,4.30612456759,3.36491415972,0.910609125085,0.695524811556,1.81071336586,-1.50716887815,0.593998604876,76.0734028181
off_to_on,-2.71059534368,-2.66656556273,-2.88776985202,-0.71929766013,-0.460575185679,-2.95227058503,0.747761521964,-0.604196305523,-0.92802007448,-1.16297500406,-1.76555762949,-0.141151659961,-2.53555253439,173.299399697
off_to_on,-2.30896519729,-2.3932114337,-2.66174052179,0.865693342571,-0.724175501522,-3.21723691538,-3.52609349646,-2.5723873971,0.943715550709,-0.199927522023,-0.0872351120878,0.927097478679,0.166433351243,-124.332620009
off_to_on,1.01393774193,1.2925634568,1.44493535646,-1.05375075664,-0.89954929269,2.94129889177,-2.0670545992,-1.16276465622,-0.957325629174,-0.935821267303,-0.214109349724,-1.75524030179,0.621890003677,-134.230977714
off_to_on,4.72989906056,4.41730163318,4.7870616012,0.80634032315,3.01545939145,1.36529141493,5.96404249128,5.69069464721,0.968023871207,3.33705670802,2.20840098321,3.04064678471,2.57826143604,81.8681317377
off_to_on,-3.78784159435,-4.20539709605,-4.22578782964,-0.798456968231,-1.79027259533,-4.96500338942,-1.49945478697,-2.34240344044,-0.976257192385,-2.02423188271,-1.94525617672,-1.42515310981,-3.23283340786,170.148003162
off_to_on,-2.05169788103,-1.27786428216,-1.76906653801,1.23109980179,-0.548968284737,4.52419946941,-2.57380627421,-2.94285760022,0.98268248823,-0.90543179358,-0.0102390283916,-1.52825346654,-0.206252800027,-101.186594462
off_to_on,1.56126198721,2.04702734764,1.80482903358,-1.19459007142,-0.26983151339,0.716048022504,0.145124878253,0.784702675019,-0.986709449974,0.143293559674,-0.101424772818,0.188728142711,1.02252862402,-156.53601902
off_to_on,3.87440850679,2.34451388052,3.23326304234,0.606667496398,2.31854586428,-4.16367581198,2.51515474286,4.00265289534,0.987793787384,2.36713678989,1.73145712239,3.41471894981,1.99201771342,86.0247314973
off_to_on,-3.46801322822,-3.40221956728,-3.10088706956,-0.62468086596,-1.52135669533,-0.302257977686,-1.6671369812,-2.53845456012,-0.986590042762,-1.96360642478,-1.5920572348,-2.50377460418,-2.67355217398,161.993010527
off_to_on,-1.90141141554,-0.0817614191944,-1.49279355303,1.36457698203,-0.296849841658,5.4098210471,1.12817655104,-1.60660859327,0.983495534108,0.0805600787917,0.261967977404,-1.19358238551,0.0222027806454,-77.6257249891
off_to_on,2.24140709413,1.55089772295,1.60304248384,-1.45684628484,-0.433290026442,-1.94670212933,-0.778468329548,0.960322712785,-0.977819860318,0.192617858002,-0.391787277799,1.0793062527,0.932980530064,-172.465798285
off_to_on,2.43095133735,0.775744452842,2.34070896928,0.594059453363,1.85825253214,-2.93750401493,-1.52246573811,2.02268141768,0.969336285571,0.274312529959,1.34451716894,1.61751123243,0.727668352999,88.0945889148
off_to_on,-3.80607697119,-2.79497136865,-3.06531414233,-0.255542949529,-1.18499056129,-0.571969375403,0.768946837122,-2.1048417963,-0.958785382963,-1.03481263724,-1.28294324273,-1.99493734012,-1.90985625567,151.204409401
off_to_on,1.18448184292,2.55279253291,0.743066347745,1.06721183102,0.466888520685,4.81191405885,4.99087984738,1.14920354465,0.946293693223,3.02760307022,1.00673447787,1.56447807321,2.10957751492,-57.0293956994
off_to_on,-0.0664840587809,-1.15377622659,-0.414216055138,-1.60269644329,-1.49277114604,-0.926421801646,-5.7132103511,-1.58180270594,-0.931188685566,-3.28049766718,-1.38011902176,-2.4668894743,-1.79832614647,-181.308941954
off_to_on,0.64123043335,-0.354676734501,1.45021502416,0.874881393731,1.68577683956,-2.12702349867,-2.28832598801,1.07812878323,0.913548569013,-0.662084118978,1.12076618197,1.1216301855,0.0508153779865,88.4821880057
off_to_on,-0.350556088381,0.460511190245,-0.797871356409,-0.107535678748,-0.164756073158,-2.4207018837,5.33208228741,0.380442805678,-0.894087677533,2.91512001801,-0.147297973832,2.37664486981,1.24315294142,139.647693472
off_to_on,0.803653897708,1.49751060359,0.00610142783834,0.646171302495,0.119908560989,3.4960288488,2.89536555566,0.501909488473,0.872692891898,1.50433458647,0.39294988876,-1.05997875102,1.03344884212,-41.4885868814
off_to_on,-2.42037022461,-2.43808020352,-0.888169949703,-1.61603281654,-1.65832695991,2.78158964064,-7.02871929188,-2.05529891043,-0.848808695579,-5.12315637365,-1.55729165973,-4.41019486517,-3.53996169251,-183.705193942
off_to_on,1.22191742026,0.115396351163,1.28876657891,1.37913947513,1.10903890306,-2.30608262303,-1.2938691967,0.307894589859,0.822766731549,0.559399610466,1.25243012065,3.84726480119,0.971460716867,88.3790760875
off_to_on,2.00532092666,1.49326815284,-0.356138803802,-0.32145138952,0.741893209693,-5.73969475206,6.01316824161,1.38279680683,-0.795166304585,4.09397684367,0.044567389196,2.85134345197,2.62770042683,126.374718075
off_to_on,-0.739172842238,1.11066992863,0.526614786321,0.159753840299,0.374422818357,3.74380007161,2.62492233415,1.70114481049,0.765716761819,0.403933574854,0.256765858735,-3.28719560129,-0.0506713615615,-23.099449181
off_to_on,-4.11765662086,-3.48215309313,-1.69191492713,-0.949098189727,-2.85473981088,6.04719313232,-8.29233142721,-4.43933287815,-0.734048600602,-5.96005363049,-1.57024270213,-4.00315564536,-4.56499931433,-200.789951915
off_to_on,3.82723152875,1.15091833284,1.16650464675,1.1041118935,1.66452696058,-2.29626740738,0.00317060604373,0.691181678208,0.700669577492,2.06762791069,1.29814943157,5.62811019399,2.5212877709,112.075338361
off_to_on,1.76392661429,1.52676929438,0.181865275251,-0.402935391235,1.22334307229,-9.82671097537,6.45706537494,3.46884826843,-0.666007188301,3.79424380172,-0.07961227374,1.26133480453,2.58728676355,112.595946947
off_to_on,-2.89266466319,0.254611556198,0.468442348327,0.333823952724,-0.271497565694,5.01884981602,0.697115348942,-0.24401428526,0.629672393073,-0.797968590278,0.293070189729,-3.57917444767,-1.3615829508,-54.7542970389
off_to_on,-2.0819236799,-2.47353570676,-1.67746581787,-1.04189610257,-2.46913213691,9.53258498367,-7.09209677909,-4.58415643141,-0.591515195796,-4.41385296499,-1.18252765308,-2.14918978615,-3.40051801401,-139.252212386
off_to_on,3.7385678066,0.64035980487,0.552252489292,0.914575843564,1.36905607463,-5.13873852064,0.973029578202,2.13351392766,0.552130943659,1.63332055691,0.684593286585,3.79650920868,2.40030503044,87.4436593051
off_to_on,0.681541411069,1.52943576357,1.16824162021,0.0691389154747,1.5033359561,-10.1320590718,5.24618364064,3.12557576348,-0.511753153109,3.18484864623,0.281837568854,1.81085372875,2.29506933744,80.565092152
off_to_on,-2.92532046975,-0.216796519192,-0.519039490542,0.0415033758702,-0.684080168677,5.92225818517,-0.769739997484,-2.31156022895,0.469976305246,-0.995762304772,0.0744179731786,-3.29019411298,-2.01993802913,-25.0468867383
off_to_on,-0.467026646584,-1.40395636641,-1.16132151051,-1.26044830832,-1.90445442242,9.07848076224,-4.29931609925,-2.08045467048,-0.426868331209,-3.00160168001,-0.857081292398,-2.22135730052,-1.97472209955,-126.47074074
off_to_on,3.08255944459,0.888051461722,1.5207146492,1.2025364616,1.3686123444,-4.61060510373,1.38194973289,2.87763670281,0.383026278626,1.62311651704,0.72262955373,4.23612647071,2.46190445386,72.5339595533
off_to_on,-1.33416001745,-0.92782608869,-1.18800619292,0.353901136799,0.525150170747,-9.65626425138,1.36637934278,-0.994560154789,-0.338499372089,0.623328617383,-0.437468255394,0.136029914582,-0.14949263166,53.5682179641
off_to_on,-0.73895433224,1.62657256042,0.73670184875,-0.699973712455,0.0933045427975,4.84991346118,1.26066866086,0.252792324986,0.292937827481,0.671799583458,0.541205636747,-2.24810952258,-0.0590795142808,12.2265174913
off_to_on,0.422039844001,0.25960435463,0.620865870071,-0.749222294174,-1.26285611501,8.02220978563,-1.69427761273,0.465201005226,-0.246596126826,-0.892124935347,-0.115080133791,-0.380508899976,-0.577060234488,-118.397504989
off_to_on,0.342954353868,-2.45530253835,-1.39597864526,1.23415199024,0.160650410542,-2.62619121754,-1.94884342369,-1.53054256298,0.200001008605,-1.3934339339,-0.517639226182,1.59860006133,-0.597095079078,28.5934664869
off_to_on,-0.314788635388,0.084700658435,-0.425642519867,0.148787630133,0.836642302712,-8.05135132626,1.50666876313,-0.0473659218482,-0.15305209633,0.632589070024,-0.0694254263365,-0.139950600637,0.806551779802,87.0885689867
off_to_on,0.00911139632835,3.10617102338,1.97433887725,-0.808615211266,0.234886884062,0.861148009315,2.53704069825,2.40674302272,0.10550870043,2.10464765364,0.987645242394,-0.350851863457,1.25013165809,-21.8474191625
off_to_on,0.674745282964,-0.369268351804,0.310488432639,-0.346288538491,-0.632220293452,8.40252100277,-1.1980713838,-0.294689244745,-0.057759309031,-0.114490051723,-0.224825596674,0.344840889114,-1.19480266638,-31.5593727155
off_to_on,-1.01737718585,-3.92087774413,-2.81971200328,0.992912709486,-0.797531869535,0.5970774576,-3.39594215197,-3.27159654757,0.0102097194234,-3.32058160323,-1.08779237177,-1.16389430812,-1.65946205867,-90.0238200845
off_to_on,-0.440324488929,1.2575158634,0.401298532185,0.110966996014,0.888999947812,-9.12375160297,1.42264237523,0.997872730472,0.037339677641,0.0936445661283,0.47494583968,0.186130893248,1.65573122479,135.310377372
off_to_on,1.93955999244,4.12380889095,3.2192635599,-1.05935411212,0.927971596202,-1.19012334107,4.00310456905,3.70450124846,-0.0849910399708,4.67286404051,0.922289400925,2.1290933763,1.71705515593,42.3268612313
off_to_on,-0.477299893352,-2.33030840708,-1.4428545966,0.462709665244,-1.13425527462,9.49884223588,-2.26538852077,-1.93708128879,0.132285332297,-1.10328944493,-0.422046866333,-0.99346834938,-1.98343979129,-122.885798162
off_to_on,-1.83543795137,-3.32593094806,-2.66231849697,0.488524793244,-0.651328209388,1.12782587938,-3.48507633712,-3.20395017234,-0.178963656907,-4.75804281723,-0.895484886478,-2.12567875936,-1.39600513148,-60.3246082321
off_to_on,0.916912485208,2.59586216137,1.87073593129,-0.447935485589,1.08656328581,-9.09299757449,2.62314705003,2.2327196896,0.225268881618,1.60005114396,0.474566173584,1.1136459993,1.75968171786,142.042937519
off_to_on,1.13026464926,2.13350367275,1.5591146695,-0.36605805915,-0.0372004493216,-1.04832507103,2.06452217729,2.07685560525,-0.271160003253,4.25026594446,0.439797152017,1.56954222852,1.10107396504,76.7871924419
off_to_on,0.114676991862,-1.21026289474,-0.680363693775,1.04065819559,0.212182711861,8.49809821648,-1.01745379498,-0.669961943347,0.316171616818,-0.71917358857,0.460400911893,0.665471406678,-0.557474826998,-210.298454561
off_to_on,-2.29501223987,-3.16678794096,-2.5182810917,-0.831913233317,-1.04496944279,-0.279226384649,-2.82243158002,-3.23945119971,-0.360193699456,-5.63875287664,-1.4284557069,-3.58424398897,-2.74838777877,22.1145030726
off_to_on,0.882161462355,2.04401994905,1.61923633601,-0.152026915532,0.356625477051,-4.61440984139,1.36659003501,1.24278411313,0.403460055954,2.24836106083,0.178885944621,-0.00801172782624,1.78975232368,117.387586072
off_to_on,1.39687862462,2.14791527083,1.30992068054,0.480440607001,0.39370929287,-2.39776220279,1.69869807324,2.45082184004,-0.445803916866,4.35331922334,0.964194055834,3.74811345371,2.10935586541,43.7675537787
off_to_on,0.0243437767896,-1.02932560096,-0.466390068839,0.709495131562,0.737579619045,3.29154690852,0.248829361114,0.0193098372935,0.486809678361,-1.44884895301,0.545275426118,0.69224257677,-1.33639037246,-170.292829284
off_to_on,-2.13904841923,-2.65430694208,-1.81632299489,-1.70709597759,-1.53439241541,4.91797788362,-2.32047239926,-3.20521224997,-0.526498118843,-4.66369553006,-1.99169418863,-5.17713948624,-2.61781917793,25.1164451068
off_to_on,0.459469616151,1.14343867634,0.464344777499,0.791773287546,0.0694994377086,-2.9083102558,-0.815570868951,-0.253832620624,0.565052558219,1.66951457414,0.444005782579,0.00904196524315,1.96637969156,87.969417822
off_to_on,1.76884464662,2.24306933964,1.55222857782,0.403254559603,0.961987761009,-7.81738520558,2.50168473761,3.29968255227,-0.602214378069,4.07705019103,1.19271591407,5.40544706899,1.72809733088,38.0724565733
off_to_on,0.101070490472,-0.0164253264176,0.549119963005,0.343237696518,0.579151583194,5.29215358012,2.16353166998,1.52503154406,0.637659669466,-0.565441482019,0.529081170401,0.257791417163,-0.810943648712,-125.707276656
off_to_on,-3.15226440125,-4.03878895049,-3.32704792517,-1.58150322744,-2.13084900136,6.83166741075,-4.86617401466,-5.74960133833,-0.671507984798,-5.76775546808,-2.81945882832,-7.24039633792,-3.06183628534,4.849451387
off_to_on,2.51201661638,2.24548389435,1.78326180204,0.9455595115,1.48030918062,-4.50614295016,0.137146471052,1.05436034334,0.70386614869,2.78373641228,1.59596874821,2.63705237531,2.47576274995,69.6244140806
off_to_on,0.284919422606,1.86806307027,1.04864366159,0.187435701263,-0.382924403085,-8.18116609349,3.11258109737,3.83083701679,-0.734427103187,3.61646588261,0.987696502764,4.71953413977,0.980435397884,32.7958015491
off_to_on,-0.959441228207,-0.666328784082,-0.270906325961,0.539014469977,0.386988857244,6.57863622449,1.22426279051,0.112924149603,0.762982918888,-1.28360388994,-0.409972001856,-1.29539569866,-0.439069794833,-77.9084690265
off_to_on,-0.735235501418,-3.00076450064,-1.99608664825,-1.73194635122,-0.540062063663,5.53697455289,-4.48923877169,-4.90086617027,-0.7897129816,-4.79685766117,-2.20221005002,-5.54043183177,-2.45525686559,-24.8784546226
off_to_on,2.01673014205,1.98873318837,1.51997142133,1.09271891897,0.569041875798,-4.58452428573,0.309681369958,1.5380643966,0.814638576483,2.71114466477,2.25549459622,2.61598523867,1.45522841849,60.4911614904
off_to_on,-1.14704706076,1.49713898385,0.425392118584,-0.0274831762675,-1.14592448686,-5.80077565424,3.2186520819,3.16063102999,-0.837449767845,3.50643840179,0.273825592048,4.01569318244,1.53530329635,23.8464308418
off_to_on,-0.851592120926,-0.922289393164,-0.404809724988,0.699038598214,1.26150272261,4.46140599793,0.442358013323,-0.805988052531,0.858060883597,-2.06910478687,-1.00139046628,-1.82747387682,-0.512927047061,-31.6442150442
off_to_on,0.815070680933,-2.31553985992,-1.25359219909,-1.67724350402,-0.161949878044,4.17993055585,-4.20184373957,-3.37114864975,-0.876672119462,-4.35343872703,-1.32513622823,-4.67141925824,-2.74980703405,-55.2028922951
off_to_on,2.32139796206,2.65157027561,2.14849594866,1.00443203386,-0.0482757303133,-1.69629509045,1.66654317131,2.49258071575,0.893225974708,4.38659432865,2.88500830966,3.98800834072,2.50598374269,57.6554778203
off_to_on,-4.09517988527,-0.652744800483,-1.61990565297,-0.172320873488,-1.70100129911,-6.09230173592,1.39896562533,-0.228428818651,-0.907450775618,1.05480377512,-1.27955415395,1.29616642916,0.112970488496,13.7020904363
off_to_on,0.774640009072,0.257500195831,0.552000785347,0.910133805189,2.46803541924,3.25420978471,0.662599863947,0.838084631341,0.919373499851,-1.92267023509,-0.651393731731,-1.62679819188,-0.232406104677,1.84022170228
off_to_on,2.66533712181,-1.10515411964,-0.109144531615,-1.63575840229,-0.661671041077,3.13979768743,-3.17741187741,-1.22477302879,-0.929181725973,-2.21025738001,-0.224086660778,-2.1160938456,-1.57271375199,-71.0141191232
off_to_on,0.236496684354,1.05132919634,1.01377421203,0.841472717195,-0.417744437532,0.11412042924,1.40962281607,0.00265972669216,0.936758412032,3.32510593699,2.21214382101,3.07500955481,1.81872594999,52.9245524338
off_to_on,-4.88075384686,-0.888977206542,-2.07725830948,-0.218946140338,-1.18348402387,-4.62639982575,0.922740344219,-0.739169657412,-0.941901855721,-0.501696007886,-1.92713300259,-1.05683017408,-0.917068099315,2.2148502438
off_to_on,2.48036199994,1.17196413881,1.1109585699,1.10040765422,2.09636451677,0.14057599108,-0.082537317076,2.42599230521,0.944730129983,-0.553267156697,-0.0320178065922,-0.224672222992,0.655476241766,25.0508721173
off_to_on,3.40146413905,-0.366518915906,0.950690425177,-1.70858685555,-0.330838959099,3.18411232311,-1.3601153563,-0.545042595356,-0.945394267206,-0.637232715543,0.42262577833,0.407443606893,-0.274456220578,-72.6565636873
off_to_on,-2.17687501854,-0.566675339491,-0.447820455195,0.82448411894,-0.577042992269,2.43251318284,1.30032137423,-1.94949817181,0.943744773666,0.650248662111,1.14939793897,-0.0220003693928,-0.158459314992,43.7884539072
off_to_on,-4.35480523565,-1.12997325012,-2.49701827481,-0.197381607391,-1.41220690447,-5.06606350952,-1.49733605963,-0.840758855862,-0.939669213151,-0.563174604893,-2.03801962019,-1.6469470822,-1.24401341101,-7.98595340003
off_to_on,4.91151976839,3.43586486129,3.18496437677,0.896335416076,2.64317766848,-1.16334777312,1.88655255315,4.765912826,0.933348163177,2.36901697746,1.19702488454,3.01301991121,3.02441627038,39.1264389187
off_to_on,0.69651989794,-2.05688130341,-0.5456312949,-1.31121669478,-0.949516843639,2.9495620757,-0.64950367311,-2.38548988021,-0.924883529372,-2.93020277269,-0.353696563441,-1.75849449124,-1.71610257731,-64.2435154083
off_to_on,-2.02670327048,-0.910142962802,-0.624676342023,0.698160577489,-0.206845162097,4.04499050521,-0.285138061763,-2.15785835965,0.914123180533,0.274532184173,0.619725652442,-0.148933742522,-0.789029036338,32.062235493
off_to_on,-2.1192093801,0.279053935301,-1.38032597,-0.601838568789,-1.16442451705,-5.46965187253,-1.374784341,0.72197299018,-0.901049969104,1.26980871629,-1.08489704177,-0.124848268366,-0.0436011456395,-15.5469040487
off_to_on,2.81850830927,2.20920698736,2.00877202099,1.32746098556,1.81613584095,-2.06554021442,2.37946130446,3.17264189645,0.885876387575,0.775108427462,1.00496607873,0.885504430546,2.27966756355,44.6226818995
off_to_on,0.867792298224,-1.39621523013,0.348064186982,-1.1918353281,-0.222387594798,4.02614942122,-0.00452234782298,-1.87735302233,-0.868653844905,-2.09757902722,-0.794018741464,-0.250814529063,-1.06075056741,-49.5050479798
off_to_on,-1.16969442419,-0.989794005742,-0.991176994347,0.247279502772,-0.328433102682,2.37215617426,-1.54041546676,-1.47352272187,0.849255318483,0.293911753666,0.678872160982,0.42120321493,-1.33690193826,19.9413922681
off_to_on,-2.15356648852,0.0415457443469,-1.62558106413,-0.456157515614,-1.31889719768,-3.89475918281,-0.921727790662,0.333392650578,-0.827752760058,0.581238347802,-0.513455040641,-2.10674939678,-0.174513451647,-20.0599461039
off_to_on,2.20679530878,2.44028150391,2.62827431466,1.58974182191,1.8049710308,-0.733386221623,2.84120215616,2.34105489477,0.804362425915,1.45943644525,0.696484288024,1.90303924606,2.99020429633,42.8566252118
off_to_on,0.470361031931,-1.8363008938,-0.325495743031,-1.36274619182,-0.22032552354,0.274543560709,-0.92163056391,-1.50709363896,-0.779093280815,-2.40233711239,-1.32128590506,0.506192277681,-1.76784858146,-31.7183070721
off_to_on,0.162203893285,-0.258962182124,-0.662850768312,-0.0476120024538,-0.104924640154,3.58188295307,-0.421634504779,0.149776818267,0.751865254539,0.39180214042,1.28852207218,-0.82494844655,-0.982065373715,6.64869433421
off_to_on,-2.66025821807,-0.173576889724,-1.35946231953,0.111512278607,-1.57893945494,-0.803293270634,-1.66024909319,-1.4977955171,-0.722823530786,0.686035640363,-0.302364012042,-1.62523877433,0.00957762887733,-12.1362769316
off_to_on,1.70516060251,1.86157620767,2.36163579377,1.25451898631,2.07288492776,-3.41518961856,2.75146809699,2.00309723383,0.692165729907,1.23887597739,0.0793852422836,2.79132368322,2.56990172067,17.7019811263
off_to_on,0.580426138295,-1.53752147435,-0.772242612172,-1.49522176923,-0.534510361239,-1.10122717461,-0.259314652715,0.220313995897,-0.65987292966,-2.6089535833,-1.2155574709,-1.40083626468,-1.98265753115,-0.519386676669
off_to_on,0.126754849677,-0.154548824461,-0.460986588594,0.221089213299,-0.446143204139,6.20966963855,-1.73784809056,-1.08472608946,0.625908192697,0.678314439218,1.41560446884,-0.458722616988,-0.412821738873,13.3337264976
off_to_on,-1.06903105297,0.975467158851,0.318547097381,0.184620154767,5.24617084219e-05,-0.426347670577,0.5422282092,-0.647279647616,-0.590222299266,1.85887056861,0.272895327205,1.85733978569,0.974815346809,-62.9791802039
off_to_on,-0.557642533864,-0.486881573303,-0.223425026548,0.894466445388,0.482395310366,-6.47126751032,1.27248352931,1.21571594555,0.551692868657,-1.27578021779,-0.911145369616,-1.53654136364,-0.140402923509,63.9689347441
off_to_on,0.668383818717,-0.990741245356,-0.396754250076,-1.31666868984,-0.791024794308,0.979155888467,-1.62942053295,-0.21771805953,-0.507576925022,-1.63477524917,-1.08768023612,-2.07241895024,-0.61279263388,-0.58723716918
off_to_on,2.36193591178,2.3240192403,2.03189886196,0.286754610721,1.19752494422,7.39194405997,1.04343042358,0.605570564397,0.458608759047,2.89966998259,2.34462731498,4.78952882017,1.59002193459,-27.4802369615
off_to_on,-2.70347430372,-1.35389910926,-1.97510742602,0.340311531378,-0.669071690869,-3.45316420342,0.157847474562,-1.44210436053,-0.418417138677,-1.01799033368,-0.410596217105,-0.905421261398,-1.7811791217,-11.5781462167
off_to_on,-1.07989541319,-1.10651351741,-0.572407460221,0.373000204795,-0.565490791221,-5.13998134174,-0.933335856608,0.31632321858,0.404116618683,-1.07237983143,-1.38460228431,-4.31515105764,-0.124167688703,26.5809182066
off_to_on,2.00218518646,0.897461462287,1.44805119232,-0.928150894718,0.207252682468,2.71873362571,-0.604688163793,0.547000575181,-0.396130554308,0.523553482863,-0.142527901095,1.21026400288,1.43407222307,22.5310773678
off_to_on,1.6942448924,2.00483115665,1.041981012,0.372338073669,1.58325096528,5.34523495689,2.59150189692,0.946035831612,0.334324047211,1.18076511245,2.1251896614,5.3302553924,0.506947249362,-65.3905449409
off_to_on,-2.7471052765,-2.16672705165,-2.27176719526,0.121002245829,-1.50447005741,-3.80227664766,-0.931484430774,-1.53274923849,-0.215605830498,-1.09351022383,-0.962470618625,-2.92492182331,-2.30888325165,57.1714011923
off_to_on,-0.917184899678,-1.41672954207,-0.283562295611,0.279668256134,-0.843688690512,-4.22033767044,-2.49850878989,-0.751593913657,0.156515528132,-0.319298798274,-1.24787308937,-4.51499497821,0.300165891535,-27.7597692341
off_to_on,2.51362567421,2.71717003211,2.28961836727,-0.563640444883,1.69741533365,4.44562341396,1.85655765573,1.957002766,-0.231387844383,0.856297803164,0.961028213493,3.36861312214,2.09359785435,7.25500087665
off_to_on,0.115613655499,0.397082231312,-0.611198117604,0.0394014876851,0.200159583851,2.28322020935,1.76894359601,0.0463790645594,0.289965286539,-0.614189781704,0.645989140642,3.44417549392,-0.682902104639,-5.96580121385
off_to_on,-1.44711402888,-2.37572173351,-1.50941546313,0.272479260052,-1.47310176145,-3.67190675823,-1.97390127901,-1.48232399851,-0.146706130305,0.319717948788,-0.777249677227,-2.72189491219,-1.60770819099,17.2080948096
off_to_on,0.0991310294085,0.466141306975,1.06494182299,0.258266450839,0.355525510521,-0.892867770333,-0.890332342318,0.446292173497,-0.0792225175566,0.903499489348,0.0425638999032,-2.68550677675,0.86568719664,1.30199722538
off_to_on,-0.238230631168,1.07377918279,0.11124362525,-0.476188091948,0.669028849848,1.77724912562,0.859508134211,0.0375521292314,0.107362930572,-2.22931402041,-0.0335616890165,1.01195609989,0.574877376239,-52.785646325
off_to_on,1.45267510731,0.0634558194934,-0.118133030886,-0.332637106948,-0.00726930075622,1.38223472771,1.69112781321,0.759290380991,0.0302710709504,0.693324929608,-0.0312799947829,3.55344334363,0.122244191062,46.7717411302
off_to_on,0.0881598847823,-0.747944379735,-0.0227546526751,0.83470660939,-0.55154490483,-0.866938768704,-1.15728827946,-0.0241883038115,-0.0235936727257,2.36002047708,0.725835030717,-0.44918594162,-0.666269164172,35.8463272589
off_to_on,-2.26482285415,-0.337725650822,-0.274017550413,-0.042669317501,-0.167972415243,-2.27765760674,-1.95101079702,-1.61892166227,-0.186718637322,-1.60436580704,-0.554709032905,-4.17197811279,-0.61489464806,-51.322525714
off_to_on,0.677564965102,0.759873457028,0.214037761388,-0.647203366945,0.788875624262,0.67634327749,2.12556615742,0.857038295513,0.324066921039,-2.11760410781,-0.638708748195,0.423064457995,1.05748960266,-42.9174708707
off_to_on,1.73565164551,-0.202816332345,-0.228036991721,-0.11418138586,-0.478607441806,3.15609365404,0.620371624613,0.974646458831,-0.271800864683,1.58450487296,0.56466514396,3.71057188978,0.18077030024,57.8859876806
off_to_on,0.0300722495222,0.583447291592,1.0173770245,1.05015370536,0.265881342292,-0.628731538025,-1.32037631674,-0.0627918676338,0.233698394854,3.27232275014,1.1510351262,1.12268368119,-0.095573451709,66.0079217905
off_to_on,-2.80387715962,-1.13211388243,-1.19511428866,-0.52069218205,-0.611957427587,-5.16185547171,-0.857057754847,-1.97822937618,-0.325092117134,-3.60912991273,-1.72472694041,-5.1752024476,-1.44611502725,-96.3524562177
off_to_on,1.08493429334,0.0125260457571,-0.244409891481,-0.398453520815,0.616939188091,3.29702463239,2.06101530582,0.94247866386,0.405672908954,-2.13752071932,0.0662047917033,-0.687244153012,0.970768490326,-37.5291831817
off_to_on,2.18942976503,1.19431406647,1.31166391748,-0.141010684858,-0.0159339168544,4.34762766857,-0.505979141693,1.61172723358,-0.398183973454,4.06963033435,1.18551694675,5.280990732,1.28709824801,62.1877181369
off_to_on,-1.16064638074,-0.251504785872,-0.212918627215,1.27667886093,-0.234251008391,-4.71779325905,-1.56445183438,-1.11514122483,0.411729916453,1.53388635063,-0.0989723294842,0.748305793629,-1.26907047603,96.7728339596
off_to_on,-2.08058387836,-1.37694734333,-1.51221591892,-0.96709574532,-0.379604331627,-3.30233148024,1.3051713364,-1.54036505742,-0.487011575848,-5.04368881745,-1.59233905517,-5.71981813932,-1.23559628567,-126.396475792
off_to_on,1.9399426222,1.36340018825,1.62964526027,-0.213809277566,1.06222312894,6.18760844281,1.3921710708,1.92374242127,0.531709476593,0.705958069716,1.526961449,0.253611273919,2.19562853262,-44.4528944437
off_to_on,0.480027998122,-0.390221162822,-0.373028985504,0.0987291083886,-0.835052325089,0.495427248908,-3.09689056185,0.00914376944731,-0.533427147589,3.50022664391,-0.116949146213,4.27888774879,-0.510907391621,64.5444348503
off_to_on,-0.429172578114,0.162144301709,-0.491291897971,1.11129557067,0.0505696163373,-4.44550687591,1.00243846145,-0.529148179176,0.570103975483,-0.669705915084,-0.478537907139,0.996057727155,-0.73899045874,128.541903376
off_to_on,-1.76307432613,-0.832155332683,-0.327299233008,-1.28672089834,-0.195320167856,-1.14597175986,1.62805776936,-1.27794014781,-0.629508702605,-3.83765796397,-0.586208233561,-5.46956730516,-0.258675757291,-147.547337501
off_to_on,2.32989805372,1.68362186761,2.3115634595,0.279969558463,1.54605525769,5.7257270883,0.282985994076,2.61672122803,0.645959099138,3.22758372852,1.7981899399,1.16105493521,1.9874179793,-56.9897841308
off_to_on,-0.664729439938,-1.56781076086,-2.58246062787,-0.0350470280528,-1.96771605071,-0.823038127018,-3.67304787026,-1.40070075547,-0.652677799644,0.372105651521,-1.29012785377,2.73716716381,-2.18735354363,65.7646081845
off_to_on,-0.914361494438,-0.304665521796,-0.540948326862,0.949104670239,0.0828361916773,-4.75393536765,1.2553126001,-1.27719008192,0.704895396714,-2.07125680847,-0.382712290651,6.96315416073e-05,0.225787541208,153.185032801
off_to_on,0.816177320785,1.78069345692,2.99629297173,-1.35168557324,1.52032848231,0.909931715398,4.01524184565,2.17362889236,-0.751907247838,1.07265321576,0.676426750306,-1.89675863782,1.748046193,-152.319101932
off_to_on,0.953055565396,0.223171019434,0.0316901862177,0.710810855635,0.149702971802,5.69212180375,-1.94631350667,0.650969032969,0.745777782529,1.4641478311,1.05737155198,-0.227783780333,-0.53642816271,-79.4439879727
off_to_on,-2.62058521858,-3.34008067372,-4.57247706001,-0.369945672034,-2.82584936708,-3.42307073018,-5.64524414253,-4.13993062852,-0.748377189406,-3.44890684272,-2.1964661597,-0.243073512669,-2.87047271052,70.4753619939
off_to_on,1.67769988107,2.13596906608,2.79095074882,0.855313026179,2.0631347492,-3.78788040317,5.59185886658,2.94306166565,0.801437980093,1.79176170332,1.0089390677,3.03979315244,3.17465564698,167.303448531
off_to_on,0.859919381747,1.5990048298,2.54679707618,-1.12481616886,0.82611228338,3.13591736295,2.98458123402,1.8062416149,-0.838715307003,1.867837303,0.358034381252,-1.28855494766,0.477017643883,-142.980151622
off_to_on,-0.480688736709,-0.660707199356,-1.5173710054,0.747281945175,-0.597294286803,4.69636991184,-5.07394544481,-2.2767867214,0.825809461032,-0.945707016262,0.44835984311,-1.93448090912,-1.69419150829,-107.027134825
off_to_on,-2.96732882175,-3.91494567685,-4.54374869252,-0.520269082792,-2.44255878919,-6.3580811047,-3.80444802707,-3.20674580303,-0.827916950694,-4.16032351194,-1.96257849838,-0.896076187083,-2.07617832555,77.1231871571
off_to_on,3.46107515337,3.50858178905,4.31044925573,0.7727928117,2.76209799146,-1.02945343115,8.35480858832,5.51146315791,0.869671727078,4.22023112845,1.63763261203,4.62696027582,4.03247749274,171.691899943
off_to_on,0.656660475138,1.83746260657,2.34918420498,-0.965568223944,0.171669827217,4.68172820397,-0.210300697317,0.151893088814,-0.889500262405,2.01171941024,-0.196725667603,-1.00791222243,-0.245544403501,-124.320006599
off_to_on,-2.56775688646,-2.58792517972,-3.32521849773,0.925113431762,-0.958663006792,1.25155796786,-6.87682471271,-4.59585703864,0.873480398462,-3.64406760466,-0.0348863544488,-3.53090989595,-2.60183291904,-133.895513999
off_to_on,-0.996141745204,-2.43283668341,-2.94053721482,-0.948061647146,-1.41939832637,-5.38289817578,1.23926745771,0.109300402662,-0.877668069474,-2.33628224211,-0.883578241434,0.17474737016,-0.418659434666,82.9877592531
off_to_on,3.48546624536,3.72813377158,4.40815607347,0.971208225815,1.99439549986,0.280241995663,6.69745301213,5.41279958299,0.904921515035,4.79870392463,1.28343862549,4.41954656306,3.39159506623,168.656488302
off_to_on,-0.809645515546,0.556443362526,1.21290942484,-0.811953095282,0.0901464152152,3.70758715439,-3.8461635311,-2.47448929777,-0.905582902083,0.129573866587,-0.963162573597,-1.77946738796,-1.2737338489,-100.848884315
off_to_on,-1.13796848797,-1.45116534403,-2.24994612257,0.73188512537,-0.0675207586622,1.70067652568,-3.13679043661,-2.8409851313,0.886997921641,-1.93037028164,0.838572620191,-1.73197897257,-0.929424516342,-156.555411427
off_to_on,-1.59938977032,-2.82165639522,-3.57954005332,-0.917624286716,-2.39171374253,-6.63308381341,1.74010810842,0.562707926912,-0.891560182729,-2.68835729931,-0.945694638302,-0.878444951592,-1.0186699601,86.9727881464
off_to_on,3.36151826512,3.62679197126,4.64998109873,1.04925922264,2.26209722888,1.79731554306,4.21051267151,4.66125778906,0.902928743191,3.55315907669,0.866920952757,3.31655168612,2.58020673181,160.703950402
off_to_on,-0.545379469345,0.570064124241,1.28530002905,-0.9209465032,0.426292175626,3.9646936773,-3.67055174399,-3.00949106013,-0.886494353953,1.23460536545,-0.853813543557,-0.684176581,-0.690533319452,-77.0304186869
off_to_on,-1.2003235778,-1.43427758372,-2.66104257052,0.782746369321,-0.333640740111,-0.838611164268,-1.33073944454,-1.99456605809,0.866061084176,-1.24467107742,1.05514531535,-0.482033923182,-0.188711382115,-172.668705443
off_to_on,-1.34130857651,-2.27653983843,-2.82554836507,-0.813498496163,-2.26408923877,-4.19772241749,1.46098709204,1.14792687071,-0.868305044099,-3.84865527786,-0.944371925536,-2.22211663862,-1.71252825688,88.7583085017
off_to_on,2.4885481692,2.56923298404,3.94470697777,0.909758838567,1.81994416451,2.27751813799,2.14068327335,2.78524927512,0.863862426646,2.72697526279,0.491353731169,1.40169091233,1.59121977289,150.101140112
off_to_on,0.498134751927,1.4199882504,1.5926500869,-0.963472149073,1.08660717726,1.46921318029,-1.75167688649,-1.62482303089,-0.83404616373,3.80161174571,-0.478472749718,2.94102677118,1.20925061338,-56.2194794792
off_to_on,-1.65699256221,-1.78144762661,-2.97958536601,0.858537793277,-0.622763066825,-0.573302021241,-1.35715784992,-1.8159757938,0.811911831493,-2.98425891466,1.00527724971,-1.50930673829,-1.04502204097,-181.562096192
off_to_on,-1.70553702537,-2.51762697839,-2.42456315524,-0.558816527214,-2.55581231472,-1.05011332435,0.0803380754339,-0.132410393209,-0.808502602303,-4.75340775562,-1.19733981467,-4.89801198094,-2.62371203801,88.839535493
off_to_on,3.64789412661,3.9444728999,4.85392901118,0.455622554317,2.50482580344,0.508551634483,3.93741603999,4.39819231715,0.789239920814,6.01094912122,0.825543785421,5.23518685118,3.69268748127,138.650655021
off_to_on,-1.11577975884,-0.660480397977,-1.04822023094,-0.868952350435,0.308987485397,-1.76959555035,-2.94385680578,-2.89812838799,-0.750617386289,0.593842492159,-0.64188899073,1.12538863242,-0.678838636434,-40.493409622
off_to_on,-0.961435262734,-1.31431251569,-1.58236111385,1.18892863873,-0.373870584838,3.72464042037,-1.96350439382,-2.0241631864,0.727135202913,-3.30959426192,0.846249859024,-3.64525134068,-1.3732655336,-183.90715203
off_to_on,-0.287390475609,-0.268990928907,0.0172186934453,-0.700147445905,-1.85581571112,-0.710648107046,2.13877783149,1.98312795117,-0.715466241887,-0.650998095599,-0.811394144431,-0.352029369728,0.19913506011,88.4556344811
off_to_on,1.46063855624,1.63986012505,1.37874946039,0.0825560660608,1.6306446092,-3.21514829369,2.75139536562,2.31332989552,0.683025377543,3.03292421071,0.46513090327,3.57908862823,1.56579379373,125.409000484
off_to_on,-0.706977159021,-1.03697665089,-1.11772769172,-0.477959988261,0.357720911241,0.196068481319,-3.68085684101,-3.10839688477,-0.639615696249,-1.29106452734,-0.384981321511,-2.60366186029,-1.97393937507,-22.0113324025
off_to_on,0.0566541628802,0.063299512077,0.816113233754,1.32443433738,-0.274756611378,4.1356870765,-1.35140968758,-0.556021788105,0.614909568519,-0.195997335856,0.544119678551,-0.173537544452,0.838407094281,-200.729071889
off_to_on,0.00644091275775,0.486570244025,0.294251931613,-1.1017518798,-0.838312632016,-0.686654449793,3.39158305149,2.26426913144,-0.59374843227,0.588986631899,-0.493016665957,2.67282343612,1.31631163014,111.655150434
off_to_on,-0.139678733303,-0.163534465791,-1.48135892099,0.0325470616278,0.397587823426,-3.36584119237,1.37155066216,0.354938776118,0.550696090358,-0.842031131842,0.504650256332,-2.12521565003,-1.64689188648,112.104951445
off_to_on,-0.952984715293,-1.63596782021,-0.831259095677,0.181334866233,-0.238471042755,-1.58484735991,-4.70509372674,-2.82426844877,-0.505631915721,-0.987946404114,-0.921994417429,-2.99548147218,-1.78228974953,-54.5289860702
off_to_on,2.65291732763,2.64452508633,4.15882081121,0.689171306922,1.65136239514,5.90121849678,1.08791692294,1.91339092441,0.479368813671,3.5026742814,0.982074052952,6.04225550535,4.29916058416,-137.905886984
off_to_on,-1.34991350741,-0.39471970628,-1.71608828002,-1.02174910685,-1.45065956258,1.03719048324,2.78320127243,0.209429786959,-0.44872491765,-1.53244825797,-0.165614081255,-0.505956298115,-0.897622668527,86.9202206485
off_to_on,-1.72581493333,-1.72851483393,-3.32154361453,0.222286596993,-0.876239222408,-6.58548232876,-0.352704674528,-0.446231538921,0.39832683212,-2.63711288931,-0.260434959163,-5.52687876727,-3.33653535453,77.3621712342
off_to_on,0.80841239744,-0.430243431198,1.40842664709,0.26856864979,0.771730304247,-2.09796616132,-3.4748938023,-0.761053852622,-0.353901089135,1.25561393152,-0.652308171766,1.10872294696,0.80120698296,-20.6603202144
off_to_on,2.6781113825,2.76733326571,4.22969099798,0.415694850377,1.95618163741,9.57913623013,1.59907600254,0.791679799588,0.325557321444,3.31449971729,1.23880434805,6.0600457441,3.95186754055,-126.941200085
off_to_on,-1.26625498066,0.192327613067,-2.05523934928,-0.991960225814,-1.63568472171,0.657554421628,2.9664941718,0.82538614752,-0.286548810472,-1.65442879951,0.0586844770768,-2.13677437833,-1.65403462465,70.0513482778
off_to_on,-3.35764062999,-3.5613820075,-4.67557366535,0.29315314512,-1.87812330907,-11.5935531243,-2.73664197108,-1.40842923989,0.232392719976,-3.87222206474,-1.31281878826,-6.16811189519,-3.91193510656,52.6794650786
off_to_on,2.00679405482,0.371464097765,2.72468693003,0.579326419949,2.03173672827,1.92331055944,-1.81841213488,-0.52418197076,-0.190149451535,2.43634430643,0.128237905632,3.20484396064,2.36690734357,17.7434067593
off_to_on,3.74695202538,4.146938619,4.95158396542,-0.107756445398,1.6926615419,12.0455625374,3.75940072633,2.14558895988,0.159312279341,4.08655917565,1.69629119259,5.87533960804,3.62002346831,-121.88594622
off_to_on,-3.22556223595,-1.59643059712,-3.88471606645,-0.877156312434,-2.44209853632,-4.66829089529,-0.791081049779,-0.697636101763,-0.1139447593,-3.85496377349,-0.984908208186,-4.70590457638,-3.26323835701,25.9237169044
off_to_on,-2.68573059521,-3.15060066776,-3.71807130988,0.51035222265,-0.82243349892,-10.408351631,-2.18698768787,-1.36988846227,0.0595510526219,-2.50969863126,-0.985750676407,-3.76015736256,-2.12023243764,90.9308473098
off_to_on,2.63994923927,1.03505112542,3.16517850912,0.750850036826,1.67218304421,4.9937908903,1.21556582525,0.405369808926,-0.0204485417512,3.30133933237,0.698014074829,4.05946533692,2.36330709757,-21.1372037993
off_to_on,3.06697993038,3.37553225736,3.79152803213,-0.751122568265,1.0237780495,10.1646980738,1.37239830541,1.64480963146,-0.0128943748831,2.01141868587,0.997699810602,2.8392757299,2.00601915478,-34.377779015
off_to_on,-2.85464834831,-0.807463676841,-2.79434685909,-0.540040415693,-1.38729317347,-5.59186794637,-1.26269500307,-0.541667787789,0.0619855950466,-2.7055859069,-0.490182605937,-3.57607877013,-1.81292830598,-90.3461574654
off_to_on,-3.40093147559,-4.11260156912,-4.36969833247,0.844136721043,-1.47439198362,-10.339115966,-1.28980023053,-2.22049041704,-0.113506257841,-2.23532039123,-1.43241197537,-2.17483793853,-2.45736040644,137.659900895
off_to_on,3.89960448232,1.69114215325,3.58067649555,0.387141647406,1.90452986684,7.10590910661,2.14420171496,1.78425781337,0.148941437289,3.06467703865,0.844299814889,3.56414657416,2.16044013272,42.3795103522
off_to_on,2.24661974007,3.53629871816,3.43395392626,-0.993512577055,0.97819295742,9.29058257065,0.0763670798527,1.17750020784,-0.184232905104,1.41080985011,1.42322586519,0.60243029646,2.15165705227,-124.781600532
off_to_on,-3.43752736131,-1.38983882487,-2.91136642834,0.0694241462013,-1.6306106992,-7.55372201361,-1.61494419645,-1.5412983833,0.234050657484,-2.22652380082,-0.781847260128,-2.19735459545,-1.86515828018,-60.3035621899
off_to_on,-2.16809594763,-3.99654482088,-3.67154407881,0.454102721168,-1.20989148362,-8.92819529002,-0.249781589456,-1.08177201169,-0.280205558171,-1.91465512936,-2.12081074731,-0.447539760169,-2.72127825639,143.527698862
off_to_on,3.74495212722,2.09267363182,3.22274084247,0.485606742011,2.29545095956,8.71557138634,2.23022642167,1.85226668046,0.311720665746,2.59343499816,1.85305037283,1.88696627688,2.77617685492,76.9331351606
off_to_on,1.38936211892,3.66497483747,3.12045582092,-1.14026372548,0.311894737805,7.48397794618,-0.289702672424,0.609417796752,-0.347821417407,1.74496632093,1.55782220183,-0.20614226862,2.19425425179,-211.721328711
off_to_on,-3.5255082531,-2.5699879769,-3.19131541471,0.343274865472,-1.98818475392,-8.87381456038,-2.90484539937,-2.03550946684,0.395303357795,-3.0070542292,-1.98089521877,-1.62729144334,-3.25417709911,22.1658918761
off_to_on,-0.955042546567,-3.271328344,-2.60251369986,0.340833934182,-0.0826855439194,-6.52563020336,1.52323415618,-0.187651155984,-0.434304115098,-1.31256686683,-1.68214521621,1.14414075906,-1.6036862389,118.289489334
off_to_on,4.11508041261,3.87420650362,3.86296065067,0.364372361662,2.49868663742,9.76647234331,3.57372933527,3.07361890558,0.461759671587,4.10548537723,3.27074146057,1.74257199388,4.31122378447,44.1119907613
off_to_on,-1.57710015794,0.196360783453,-0.276551727295,-1.18005357,-1.84641203674,3.34943833487,-5.06152241911,-2.76371316821,-0.497050914528,-1.65615172257,-0.455122733234,-4.24724198398,-1.34025304235,-171.345000762
off_to_on,-1.32137110037,-1.11087697639,-0.733223921548,0.763863010227,-0.145797946366,-7.129347028,0.336072884971,-0.168527485396,0.539358467513,-1.19585797102,-1.51343967504,2.23527624019,-1.42349175269,25.128897327
off_to_on,0.408866501562,-1.0282336164,-0.74062322914,0.0313048248378,0.291078541737,-3.52554047799,3.88530245921,1.7156087426,-0.570111535115,0.676487220945,-0.274252772215,2.95849178121,0.240688001797,88.2103080413
off_to_on,1.46583041048,0.954237734691,0.376837311732,0.0947886790797,0.924645362972,6.87762679517,-1.62564864102,0.0667128835034,0.593345385275,0.820072827026,1.897209805,-3.68781885584,1.29696247793,39.0011387389
off_to_on,-1.05481858244,0.441679943924,0.253439926539,-0.865737434139,-0.92687502165,1.67530482101,-3.14574583667,-2.13231967642,-0.625907854335,-0.812049867205,-0.734272881298,-2.00257173034,-0.544590360019,-126.76341948
off_to_on,-0.437576478143,0.354488211114,0.99370924894,1.23900957567,-0.198722755969,-4.39559182716,3.12220622186,1.01082034477,0.660668313139,0.42567795429,-0.358657286789,5.33595525514,-0.122239778644,4.80900087859
off_to_on,0.373972735822,-1.50339541794,-1.14738753108,-0.855244737668,0.0140321755954,-1.87345107667,0.648188232248,1.16333378986,-0.682694229692,-0.724811425975,-0.529283619736,-1.00704281007,-0.779912624926,69.5585929941
off_to_on,1.34106900555,0.543580706002,-0.352221819656,0.210727728097,1.52504699455,3.41215247129,-1.43563996267,-0.0727249161162,0.701430302403,0.744198997164,1.21032489361,-3.559914543,1.25412894168,34.0205977432
off_to_on,-2.24032399022,0.109928370009,-0.435509117043,-0.154149903378,-1.58088384565,0.440582417911,-1.37854112667,-2.60235297987,-0.729260562482,-0.205666983448,-0.569451884038,1.21310841001,-0.431076243661,-78.9886977168
off_to_on,0.90739047257,1.29516896848,2.6844010046,0.918632830023,-0.173104324879,0.521341371522,2.38303089163,1.94367871715,0.754735217665,0.508227683378,0.469391068653,3.49677392709,0.205249107465,-24.8627331185
off_to_on,0.274932629848,-2.16701528832,-1.69491876397,-1.44883939133,0.26572536837,-3.57010340952,-0.752089761167,0.521118185948,-0.768045624928,-1.96855951383,-1.33224492253,-3.79703942876,-1.36953462413,60.2372456818
off_to_on,1.1486342939,1.11199833673,-0.737525790892,0.810615349289,2.08087949939,0.620309690521,0.719869497201,0.376786688883,0.781860921102,2.48716367992,1.31601882694,1.05264184138,2.10190465677,25.0893265723
off_to_on,-2.53971611037,-0.13268824086,-0.357767308175,-0.0136895019776,-2.62148637583,2.56328136184,-2.0483983648,-2.68411424811,-0.803090891082,-0.591074089955,-0.334254406039,0.746786557351,-1.10459728507,-32.6003401751
off_to_on,0.487861949251,0.0800709513124,2.44055122286,0.525507278289,-0.192962760419,1.03332310764,0.67609488266,0.974433474512,0.818255920937,-1.49398699962,0.218798317912,-1.09554123255,-0.316066254883,-55.1290565485
off_to_on,1.83403103495,-0.111407671065,-0.756597231404,-1.56650849672,1.53726151433,-3.72592387039,1.74804193989,1.93157457057,-0.823213906004,0.511122952535,-1.02553925091,-0.0516037365203,0.261958829216,57.272489633
off_to_on,0.0811733492994,0.532371074578,-1.44864563945,1.39823022812,1.10977117477,-0.503860604346,-0.200009182576,-0.0385753387707,0.831564889193,2.27535218605,1.12789873199,2.41996986642,0.952127987409,14.8109453038
off_to_on,-2.78354863763,-1.26794757185,-0.207571193086,-0.444989888428,-2.85943016131,2.7094811869,-3.06203155494,-3.16348775379,-0.844658524402,-2.31601807495,-0.487693599612,-2.56154171002,-1.36374960568,1.10717668631
off_to_on,1.16265645048,0.892020299478,2.27108092845,0.31120140553,0.555440911175,2.21233611591,2.04079618147,1.39656553514,0.849203015238,-0.434221115626,0.545056853058,-0.595215425579,0.600002636922,-70.9196037786
off_to_on,0.909762107495,-0.298619223814,-1.37604595706,-0.846522677859,1.02826968847,-4.57185573993,0.953230862168,1.13598467851,-0.846389712475,0.738702163346,-1.38726756463,1.43600709286,-0.546617677183,52.4966255868
off_to_on,1.68772814034,1.67807643265,0.914857193922,0.988429262931,1.49731732596,-0.0273666666322,0.473611749072,1.64807516924,0.848687290297,2.51580166288,1.62207243615,2.49205015874,1.77863942578,3.07408873263
off_to_on,-3.87046130427,-2.82256808109,-2.15307369183,-0.951108214685,-3.28899531719,1.80755635821,-3.65502230219,-4.19102504336,-0.852593949474,-3.48388409374,-0.787009754265,-4.24564515657,-2.02549339812,24.6080855092
off_to_on,0.217397408577,0.449915674614,0.959013638628,1.09285499265,0.702083419717,2.78039741686,1.69615289186,0.258430506262,0.846850988084,-0.119435751245,0.0792477255703,0.100667519612,0.302936656778,-72.5917613839
off_to_on,2.72904164344,1.89311369708,1.67657358153,-0.757578699212,1.46341853532,-3.8634610307,2.36023999919,3.17802115353,-0.836957028905,2.1567710929,-0.54937031881,2.5523972609,0.675467798723,43.3950319899
off_to_on,1.18336738656,0.570130805604,-0.010435373503,0.191229323476,0.650962559307,-1.67441029307,-0.826911280448,0.741716330881,0.832672349214,0.875554768761,1.50654749228,0.822531647762,0.794922104302,-7.43023382018
off_to_on,-4.30092016639,-3.49233560294,-3.52903528266,-0.732766512924,-2.5640352543,3.69860981068,-3.37588919308,-4.29569412359,-0.826923298158,-3.1284056099,-1.36284465385,-3.15538635109,-1.98736223866,38.9848503265
off_to_on,-0.186654006113,0.785317726993,1.62671048182,1.79007674381,0.546442760816,1.82075674548,2.03261294062,0.26801720049,0.811755574078,0.377394156795,0.0770753453928,0.0744225280158,0.683956645732,-64.255905383
off_to_on,3.62802096776,2.67023938287,2.51039430143,-1.29884628695,1.17536845222,-5.43471311051,2.1940963461,3.15634803406,-0.795508640225,1.85919115534,0.374279756014,1.571878487,0.558258488677,31.7864048126
off_to_on,1.54598502086,0.407416431518,-0.380728620714,-0.137074872687,0.928831252655,1.34960723816,-0.689332200847,1.37261950717,0.784288786839,1.08652671938,0.997371250106,1.94666274176,0.726881453507,-15.3150599657
off_to_on,-5.99136211217,-4.94429259557,-4.4756245062,-0.0397398656162,-2.89503486227,3.15220924218,-4.23446194993,-5.33664678818,-0.769031181917,-3.95265387409,-2.19406137123,-3.65926039272,-2.20574926124,44.7526750521
do_nothing,1.21223580894,2.54645003794,2.83645821639,1.42518526776,1.275221449,-0.744779251416,3.45085055948,1.12166512831,0.745693638501,1.60327602362,1.26233904117,0.285394929884,1.4001889096,-49.6246359919
do_nothing,3.61439273881,2.33068532374,1.93897363474,-1.38895278832,0.595305359446,-4.37627468968,1.70587562381,3.06219199766,-0.723825215897,1.36190926248,0.316949815107,1.32624450417,-0.265138487252,19.8539243882
do_nothing,0.298351446034,-1.11687073567,-0.942358994465,0.226064721476,0.37390867992,3.91294210019,-2.21126317252,0.287491009801,0.705598453016,0.0327472347869,-0.0981222152734,1.49955073872,0.628693472983,-20.1540497004
do_nothing,-4.34810246358,-2.58517952213,-2.45632996483,-0.333974471768,-1.58491688367,1.5725678643,-1.79875718664,-3.68672228509,-0.681568989059,-1.78488667803,-1.15467258994,-2.14289349813,-0.493052309763,43.217767484
do_nothing,0.376125289183,1.29525644074,0.632904366396,1.26239594735,0.657527306537,-3.68309108212,2.41541417041,0.38191626762,0.651568743554,-0.0831632400774,1.13725077232,-1.14968200014,-0.808770525649,-31.9677838107
do_nothing,3.23493351863,1.43062353672,2.00471445987,-0.869050521316,0.261764273983,-0.749465140291,0.670387467459,2.70157111876,-0.624815600427,1.19888193881,-0.177330526752,1.57419197942,0.195851717334,6.81522056978
do_nothing,0.735730125138,0.366494899163,0.974090525073,-0.0986617524958,0.498095354825,4.40767392981,-0.969254105699,0.282420397053,0.599869322196,1.50697884746,0.120020529116,2.02452459405,2.29749123227,-12.6039361558
do_nothing,-3.89597532959,-2.36999291786,-3.46807940443,-0.348980589091,-1.00208516369,-1.17401225928,-1.50855872107,-3.00694449338,-0.568316615083,-2.56154912017,-0.727234783593,-2.63421566871,-1.94251135415,18.3872441335
do_nothing,0.15015748132,0.0676846722428,-0.301552920322,1.22486137612,0.212759452803,-3.34081461743,1.6360951221,0.832827803838,0.533286038429,-0.724506118374,0.722581750458,-0.624828974344,-1.33429733929,-1.07767765113
do_nothing,1.91201888258,0.909064109609,2.46569973302,-0.647950008395,-0.19370841384,0.947563235866,-0.315077538044,0.460957403783,-0.502416320474,1.53329579471,-0.558170353131,0.793431400305,1.21735434279,13.9153793357
do_nothing,2.4251829661,2.70133346301,2.48139676902,-0.309754945798,1.60801401456,4.73722852077,1.29712796775,1.93785337516,0.471436264471,2.83792038332,0.900340742249,2.60646239659,3.05146310872,-63.9734911137
do_nothing,-3.74405947329,-3.28478083846,-4.83063780953,-0.0783928145059,-1.8186564856,-3.98499827199,-1.85877601639,-1.87518823509,-0.434005903261,-3.9436124876,-0.684515384756,-2.4360635483,-3.74031615788,65.3464950846
do_nothing,-1.78596792276,-2.05774593003,-1.38579215595,0.860846819851,-0.275482466746,-2.45878811847,-1.07000161544,-1.91799067169,0.395599367767,-1.67916167778,-0.392065254555,-1.64313059768,-1.29407953256,-2.07749514531
do_nothing,3.73810477782,3.75835554012,5.13920476861,-0.668328690592,1.67376311233,4.65122962949,2.47742799753,2.13275044837,-0.361450266864,4.22523013911,0.422945603756,2.23088796078,3.61240727348,-25.9315964745
do_nothing,1.66450346983,1.74795545039,0.643882646948,0.244666339267,-0.152246217348,0.17065502823,1.12327390303,2.0837727899,0.325515928333,1.17356872951,0.969851109744,1.34341457571,0.651252468033,-13.0874069804
do_nothing,-3.7097080087,-3.97261399117,-4.90957305043,-0.347162851885,-1.7871551482,-4.13339460205,-3.00542856459,-2.62765217307,-0.284114495429,-4.32626403127,-1.19125457987,-1.93229387095,-3.49590904546,27.3014352754
do_nothing,-1.37612634842,-1.34086079045,-0.0840982203488,0.299566214138,1.01662498277,1.95606087915,-1.06867419587,-1.56050948653,0.243933629625,-0.695938750928,-0.458515528278,-1.24309323317,0.00142452023288,23.5569401135
do_nothing,3.12052763628,3.54466282841,4.0146734449,0.027046809381,0.972158113136,2.03941815831,3.18081285773,2.23537344988,-0.207447308395,3.82880465185,0.956869452929,1.4279009903,2.70648837106,-67.5215604785
do_nothing,2.0175072342,1.98316093284,0.810137677528,0.0787114278333,-0.746300161726,-1.95574889013,1.72099343817,2.02458069648,0.167984838596,1.35057836225,0.803216140556,1.98731091985,0.587703233152,57.9113520755
do_nothing,-3.9060122123,-4.69580046455,-4.81035620714,-0.286914223156,-1.16461219737,-1.26498853848,-4.80926818636,-3.30509013162,-0.124639091414,-4.90606216929,-1.61715409108,-2.45595385198,-3.42948618116,-26.3606800443
do_nothing,-0.949104807315,-0.55485638506,0.348093705327,-0.0304645018202,1.39701304397,2.43431824258,-0.236665013633,-0.44020352093,0.0841861732741,-0.0545747746859,-0.0959895574894,-0.697718883225,0.399306447064,7.02898662635
do_nothing,3.24380796476,4.06113160155,4.12458034552,0.160814222863,0.368366349654,-0.104217033079,4.62260689824,2.48179769309,-0.0464325721429,4.23015673033,1.32732557418,1.57512467449,2.88665346294,-9.24350857771
do_nothing,0.418422592087,-0.256264378138,-1.01197118277,0.281169486579,-1.19320296592,-1.83677636855,-0.817700234656,-0.381133651798,0.00513186917153,-0.571374441387,-0.179173511903,0.359089659574,-0.920002982026,19.9913966416
do_nothing,-2.13935341347,-2.92254003234,-3.04290766116,-0.170403841814,0.164079140826,0.872437676622,-3.52553678446,-1.09649162684,0.0381428989552,-2.92110341817,-0.842591779747,-0.371817031775,-1.9249166428,3.88915060802
do_nothing,-0.904223814295,0.197413048707,0.900276263391,-0.563046511398,0.481839812383,0.378306250757,0.538980519017,-0.0736107685928,-0.077487917138,-0.0430332170319,-0.11169193088,-1.09727205893,0.550165265404,-57.8502138429
do_nothing,2.26545016262,2.58770342723,2.91237109217,0.338179894487,0.296186651462,0.161553137658,3.55786084668,1.07305294959,0.115309280201,2.69830057134,1.00185257266,0.217151012367,1.92895277658,47.9937006591
do_nothing,0.180224695446,-0.941702968189,-1.96074947161,0.620210238706,-0.81369104201,-0.250238680899,-1.19418909648,-0.668717670679,-0.156602704728,-0.0458720730681,-0.163359433914,1.14368507305,-1.11389712548,37.3664048256
do_nothing,-1.55809310156,-1.53651276999,-1.69047117135,-0.26098098759,0.0388572814381,-0.826010212438,-2.88227153005,-0.215128490266,0.197914697423,-2.11821264206,-0.774066464258,0.41831030807,-1.13619611435,-49.5027314163
do_nothing,0.473666147392,1.46834992247,2.67787977237,-1.02548749406,0.778319046558,0.116130635428,1.75153021757,1.30657856174,-0.23490068864,0.119968862696,0.269829498208,-1.57484525161,1.29007188009,-47.8332529977
do_nothing,0.159332051088,0.0219390254515,-0.242790739875,0.824466587939,-0.484614406345,1.41925954886,1.56476316683,-1.36559637159,0.271483550738,1.29223646225,0.645044676608,-0.925868601218,0.199719636535,60.2924916044
do_nothing,-0.306652407276,-1.34589300389,-2.29349433878,0.464803862995,-0.447690705707,0.471422515498,-1.59230883046,-1.11210961849,-0.310889336481,0.0203729792385,-0.693993835222,2.16702922386,-1.15156482002,66.4210676811
do_nothing,1.28775063118,1.61760893735,2.0124908241,-0.332056261835,1.0832740536,-2.5341077277,-0.00143842566991,3.23812860154,0.348556512543,-0.163817425103,0.220783739062,1.58568212018,0.944310123133,-94.8010023271
do_nothing,-1.40544238924,-0.344305121867,0.301342897307,-0.842051933834,-0.956032183498,-1.69219728918,-0.223535155726,-1.10927495591,-0.38205935093,-1.47880757227,-0.0340235235498,-4.10735549948,-0.21229388287,-41.4445092402
do_nothing,-0.0628469552628,-0.508202848717,-0.913455782937,0.764409632404,0.160054740683,6.18919978851,0.980811495643,-2.05882603144,0.416037465199,1.44197727049,0.366153108311,0.372098536627,0.0577267006879,64.4488134856
do_nothing,0.349340866144,-0.971967757758,-1.17798729239,0.0330781391509,0.280006245893,-0.789017670584,-0.533075464272,0.510061021507,-0.451761056564,0.0179476979847,-0.899529571184,3.19244960788,-0.973576033077,96.5639124594
do_nothing,1.09512456354,2.01670964889,2.0401769228,0.373625343277,0.659046387923,-6.55461277427,0.31915298841,3.01253252345,0.484369659427,-0.00517060327333,0.875909777276,-0.200193964989,1.48593312972,-125.089932584
do_nothing,-1.26090542053,0.096087135791,0.194745558814,-1.07806034209,-1.81764797083,1.3056785737,-0.868213208551,-1.80429804403,-0.513389670241,-0.774945509327,-0.0860776764056,-3.81132597295,-0.25109267445,-47.0983222094
do_nothing,-0.171299712345,-1.7533131767,-1.42013860254,0.469826109486,0.957198216938,8.11372948491,0.318085846852,-2.06537577251,0.543403009162,0.244286777669,-0.277108203013,1.57719777712,-0.922181354417,66.2157282655
do_nothing,0.480021233081,-0.413980237084,-0.633706061616,0.0587007141796,1.06394994059,-3.52877221157,1.05694079246,1.61341186357,-0.573844894507,0.484988440243,-0.566458182136,2.89370157714,-0.0791923825605,127.926022862
do_nothing,0.422810602638,2.3429042991,1.89146479052,0.936473286555,-0.819371809171,-7.14261376499,-0.506603292108,1.92892162027,0.60028188744,0.145887982623,1.22832303549,-1.89086784528,1.47156495546,-146.569245048
do_nothing,-0.714036103372,-0.488440384183,-0.217916833579,-1.58241075952,-1.69732012935,3.59195343711,-1.86220139736,-2.15858567906,-0.623946390938,-1.16545250437,-0.534946520491,-2.76516130342,-0.838725817364,-58.1460148493
do_nothing,0.865262243202,-0.901641354263,-0.421633499868,0.392563041468,2.38534440074,7.01771672704,2.5915875188,-0.166217408704,0.648719523749,1.51088801261,-0.0168547161242,3.78285472955,-0.110193627091,66.4560261021
do_nothing,-1.62357532345,-1.41029425294,-1.58701175013,0.46914446915,-0.265810892734,-4.29868338782,-0.729097012414,-0.275680740679,-0.672564347192,-1.36198534077,-0.970092584774,-0.624105736948,-0.984744922719,152.559484959
do_nothing,1.66350305964,3.03480277524,2.40678093044,0.668818182708,-0.460933833492,-4.28248179991,-0.487045676843,2.46388023496,0.692027964727,0.753955475646,1.8240820196,-1.02483599303,2.30235572891,-151.79166971
do_nothing,-0.789251369777,-0.99693952506,-0.879886779429,-1.71710827363,-1.65060299387,-0.0164290676445,-0.772555581941,-1.66055440965,-0.709602199129,-0.162758844261,-0.797940204773,-0.666728716064,-1.28160559274,-79.3783917309
do_nothing,0.382081631301,-0.890704560657,-0.00164758518465,0.948742373139,2.17663182025,6.83938475021,1.80219434878,-1.02676095491,0.728026052095,0.60025498569,-0.496667044672,1.73501575189,-0.674239856465,70.4833808289
do_nothing,0.0795462010059,0.290280445496,0.0288199428192,-0.106312971915,0.57959924365,1.28097798986,-0.255700838143,1.09267325803,-0.744306105428,-1.14278964585,-0.0840058102433,-0.229907195022,0.855730504669,166.71260382
do_nothing,-0.95443713958,0.485876979715,-0.627468169104,0.649971560527,-1.58755729209,-8.89006188394,-1.32231212734,1.13297577874,0.756300124887,0.18363321331,1.47337177641,-0.689613839839,0.690109881276,-143.013800554
do_nothing,-0.355583528196,-0.983946442847,-0.227282819401,-1.17860483179,-1.50898478735,-2.62251659675,-0.284594090892,-2.04735022342,-0.767207058627,0.584058231588,-1.50408209495,-0.805185231587,-2.07163443822,-106.006142247
do_nothing,3.42995056262,2.10206246611,2.87256300406,0.759401024201,3.28914052934,13.0099460824,2.76029264583,1.00578961214,0.778415060639,1.01728368106,0.458827460697,1.69762456553,1.77035903679,76.8698423236
do_nothing,-2.60637559122,-1.46427689568,-2.38650493508,-0.642143267652,-0.49177198482,-0.465023916283,-1.72678954208,0.0206241237353,-0.786546001497,-2.43798533711,-0.0216790429394,-0.345658023015,0.16973636896,171.009192969
do_nothing,-2.04450233985,-1.13307766768,-1.48089226203,1.12196067486,-1.64853003216,-12.308507216,-1.06616088556,0.218652066169,0.790863582942,0.888269666974,0.62958522052,0.137923950746,-1.13634246979,-124.914876626
do_nothing,1.98374809961,0.319265693305,1.26936237393,-0.819811176027,-0.791803411676,0.245356454442,0.169609043213,-1.63816532478,-0.794710589129,0.444016380412,-1.53595529442,-2.41333519936,-1.25008498079,-132.167293339
do_nothing,3.93181823827,4.0043598621,3.73707179978,0.00912186916133,3.21011445721,13.9496050128,3.36564030204,2.6949194123,0.798141187324,1.54272767281,1.88771208952,2.66122976019,3.97663311103,82.7868397948
do_nothing,-5.08143954112,-3.54248518894,-4.11775503728,-0.493794100757,-1.50874526068,-3.43467347408,-3.04726750538,-1.36561111721,-0.797930845991,-2.9097068063,-1.10928112828,0.611009134013,-1.99031261062,167.806712168
do_nothing,-1.41145517476,-2.50887139712,-1.77327265088,1.73489342244,-0.634926349106,-10.7674408462,-1.20464563971,-1.20905570964,0.79463308101,0.140211247399,-0.246437343316,-1.61479623549,-2.3310849841,-101.961242114
do_nothing,4.15865033959,3.60530625517,3.489061444,-1.39497999567,-0.260478649354,2.34035350251,2.42926938793,1.24519357332,-0.791241520609,2.25726133429,0.409982940165,-1.68522496073,1.80607705639,-154.363668149
do_nothing,1.33314554691,2.54954836759,1.83865691613,-0.111407206983,1.23939661029,9.88316907649,0.894581938124,1.27542371495,0.786680949111,-0.00659921096079,1.13199356054,2.65589711003,2.63416692087,87.0330013254
do_nothing,-4.47783273823,-4.77538680922,-4.22897679339,0.0722663494557,-0.161924547102,-2.41761352762,-2.72731771572,-2.13928874775,-0.778314457886,-2.85101013287,-2.22022774502,0.918095607865,-3.02965562219,159.676062213
do_nothing,0.390912405908,-0.417803649127,0.247098917403,1.47068133863,0.0826275393035,-7.32080854537,1.08213756524,0.573720246184,0.76770740959,1.87022007454,1.12562192624,-1.57941270295,-0.838420836645,-78.593371304
do_nothing,1.74644078435,2.54765367891,1.57429224573,-1.70732699655,-1.9053914002,-0.230045302687,-0.399098810218,-0.280747161915,-0.757140082894,0.0908668861211,0.471358022067,-2.78448367339,1.15710610774,-170.22519514
do_nothing,2.0518495544,2.15215085401,1.72873077345,0.233396644505,1.96762347685,8.2220316642,1.65940544189,1.77735264533,0.744741723061,0.45072941899,-0.0526797793655,3.83270514995,2.70052046677,89.164835319
do_nothing,-3.58121796204,-4.34624171741,-3.13626590486,0.318446729769,-0.0226299384853,-1.03959987851,-1.32668845706,-1.74494308489,-0.728747747908,-1.52520015877,-1.65573120393,0.47650393626,-3.2232879045,148.957156636
do_nothing,-0.0495227734506,0.378413884729,0.527441805866,0.852922678719,0.000748161726865,-5.02108562768,-0.290622829265,0.125800898304,0.711360102294,1.01646400416,1.91498745365,-1.46868593231,-0.442157613322,-58.1560930118
do_nothing,1.5686343589,2.11047938517,0.734773174198,-1.54380709612,-1.48797294379,-1.54846875825,-0.0452364316661,0.172262956415,-0.693941353503,-0.314101536398,-0.343462689398,-2.22556014469,1.46469837654,-179.048478818
do_nothing,0.877425436935,0.0633221823952,0.377520408495,0.746925532377,0.647067804159,4.96372063385,1.31646618683,0.601119363808,0.674220652465,0.232946326122,-0.667005430037,1.87929017587,1.06254591595,89.5919103244
do_nothing,-1.3468905303,-1.6053084975,-0.350572313681,-0.116822197551,0.934624937691,2.15507248621,-0.814963355479,-0.466031094323,-0.651424188432,0.0114928698405,-0.239124150178,2.28641351644,-1.60111888884,137.490257189
do_nothing,-0.513182533362,0.666706282916,-0.179060268228,0.608907527278,0.746419864004,-4.11998583839,-0.157365042098,0.264841454872,0.627986002671,0.0896183403604,1.49899252092,-0.943050073432,-0.121371357693,-42.7226280663
do_nothing,-0.118894480722,-0.346854443705,-1.05136304707,-1.02019057579,-2.7279816117,-3.37772889106,-0.0758949448158,-0.880122122962,-0.604309929309,-0.888092754678,-1.24684308527,-4.01723884997,-0.111844270295,-181.468035556
do_nothing,1.9897113804,0.706779588527,1.83995220052,0.568440509359,0.38884282576,5.1819673348,0.266187118044,0.728167893625,0.578116293978,0.937304332035,0.10398484466,2.29489838396,1.45225732493,89.5077339178
do_nothing,-0.996348174244,-0.359974354436,-0.485856812131,-0.175993914949,2.14265022106,1.21811579916,-0.622946071229,-0.0790731464281,-0.549583389611,-0.427555627358,0.0434321678617,2.98863404069,-0.714960845996,124.312605289
do_nothing,-0.421516003325,0.89604048267,-0.0632988590611,0.50701729389,0.705079774751,-2.60410113918,2.44166653653,1.21047428983,0.521005088178,1.20880817273,0.892447722375,-0.748528903747,-0.0681499806265,-24.3988898365
do_nothing,-1.06216180173,-2.13236593476,-1.27632661958,-0.845075460038,-4.08660603691,-2.14187189075,-2.58716009451,-2.40642440288,-0.491928633639,-1.85898368831,-1.22931769614,-4.94975260381,-1.40105129142,-198.578305169
do_nothing,1.96710642737,0.782912583223,1.26864140688,0.546756515212,1.25731126671,2.8644936587,-1.41595601296,0.291043795979,0.460397714949,-0.1032084342,0.384522525982,2.37809639526,1.79745861318,113.093952271
do_nothing,0.363354772001,1.80706184153,0.462000323739,-0.107404883213,3.0388510225,0.321806504799,3.51302666499,2.24415702624,-0.427376794792,1.82831676858,0.325123682795,4.00348569794,0.71709742687,111.118694375
do_nothing,-1.60967526023,-0.787183607941,-0.634370477653,0.224817409307,-1.1990395617,-1.10557681771,1.10693874429,-0.497294603972,0.394726711892,0.180899997586,-0.0405218576481,-2.25387828924,-1.75219548752,-57.4243483667
do_nothing,-0.477701797952,-1.97025857119,-0.530843072093,-0.705255181132,-2.86353264156,0.568332480655,-4.5626691742,-2.24445325479,-0.361346154233,-2.15480597608,-0.474451088485,-3.44607190298,-0.598654240212,-135.155701881
do_nothing,1.3594237168,0.817062454142,0.197835373916,0.783340960459,1.54702691044,-0.307860379987,-0.366229942317,0.61269214358,0.325837308226,-0.0669498728123,0.504805760536,2.04628414726,1.7550548898,87.7582316806
do_nothing,0.496817169323,1.80313262275,0.50246552559,-0.218413685923,2.07549504502,-1.92404963223,4.79203803853,1.80946061823,-0.289700695625,1.92588728693,-0.364308718444,2.38805370958,0.0532501600794,76.7307271593
do_nothing,-0.481133015022,0.119513618101,0.790948643173,-0.308509032118,-0.947195871538,2.6544364554,0.676102785604,0.493417696841,0.25417917184,1.03048088517,0.318143408678,-0.467355661871,-0.646059527757,-23.5318313333
do_nothing,-1.99221550937,-3.34189904223,-1.83926211776,0.103238419218,-2.49752174866,1.8733085248,-6.65658339681,-3.3608284671,-0.217790389196,-3.31377580903,-0.224679078304,-3.23759844493,-1.12052208149,-124.27534132
do_nothing,1.93435799348,1.33268830721,0.362014295914,0.500705597967,1.8652435926,-3.38576865263,1.57475227195,0.940617006074,0.179814784139,0.127223997225,0.269772152666,0.977372072399,1.48425185656,71.2727976204
do_nothing,0.891578220877,2.37458513866,0.849042706347,-0.617248771678,1.19334096446,-3.45412083276,5.722752849,2.47268989655,-0.142002827938,2.44568938656,-0.494554483279,2.01961103437,0.0780888420475,50.3838808777
do_nothing,-1.53833809285,-1.11442164494,0.140615222782,0.142896110352,-1.29810921483,5.93689093575,-2.12073267391,-0.875789329874,0.104911121039,0.429787316758,0.21643395709,0.301776231836,-0.506454883311,17.4340699944
do_nothing,-0.299869549919,-1.72726204651,-0.327514484729,0.230895875824,-0.68619439233,3.26718677498,-4.93755405146,-1.8953986726,-0.0669557552288,-2.32131963568,0.544415222497,-1.88128298267,-0.00728190645182,-120.543281459
do_nothing,0.62719318116,0.231644754365,-1.2412133117,-0.166117066563,0.809475964011,-8.0614905012,2.06946383796,0.405682231606,0.0281006230233,-1.13004391394,-0.507323861547,-1.60183414761,-0.55066092416,26.6274479623
do_nothing,0.508242444585,2.01882933726,0.920081142791,-0.0803542399652,0.51067399187,-1.40911979867,4.69056816448,1.98621090484,0.00993028696982,2.96311439724,-0.404011278538,2.78575146583,0.816312642036,88.8137122719
do_nothing,-0.3743167255,-0.188243706846,1.31384536064,0.266846920994,-0.799771700566,7.99835925649,-2.61106749446,-0.82930898131,-0.0472273238135,0.699024254761,0.3996973516,1.55021914695,0.454580322058,-20.1743424932
do_nothing,-0.199210277238,-1.62273509557,-0.926723353516,-0.180914578023,0.233956674253,-0.0663987056979,-3.54610313011,-1.06464772266,0.085226277593,-2.60000676746,0.678164773271,-2.92808609934,-0.756610535817,-33.5195438112
do_nothing,-0.278529303174,-0.265739700086,-1.50167373068,-0.341871094225,0.21606102129,-6.55473734743,2.55837815183,0.728558861636,-0.123372258046,-0.49124296135,-0.560964445785,-1.27921745355,-0.631756681593,-91.7988560802
do_nothing,-0.057259535613,1.1070043876,0.680836219836,0.743396496391,-0.713843469227,0.453966838249,1.81870429484,-0.447910658543,0.16019738243,1.4813190672,-0.883555647326,2.21003532887,0.452049410298,138.547059873
do_nothing,1.44073565202,1.37860641634,2.22665848025,-0.250174620148,0.630023892334,4.93079368699,-0.994492563496,0.828764223134,-0.196314924213,1.40318305538,0.711825322357,1.80770072209,1.24172008479,42.1121877347
do_nothing,-0.386355748828,-1.24455500069,-0.958053682427,-0.442944861895,0.814291398275,-0.263679173633,-1.07889950542,0.892316887392,0.23282364025,-0.848412336589,1.34652200721,-1.62485978748,-0.360285750608,-124.216280348
do_nothing,-2.71676274516,-2.71901318397,-3.1553018898,-0.0729996083741,-1.84386532004,-3.71332868698,-1.28933279831,-2.92685456138,-0.268739727907,-3.11353137088,-1.61903823281,-3.19088513869,-2.27411751242,-61.7490775895
do_nothing,2.50602293497,2.96537711424,2.78593113318,1.08099566039,0.592129570236,1.07958991699,2.52533133159,0.818923379495,0.303009523825,2.18032875471,-0.580688671349,2.85760107182,1.55329227987,145.020952993
do_nothing,1.16971763732,1.57193747151,1.44180204369,-0.540328181377,0.971588634803,0.137270382519,1.09161703298,2.40970580683,-0.336591688463,2.45739070149,1.08288835742,2.18776500951,1.37224431648,76.3538311321
do_nothing,-1.89611747686,-2.27081859487,-1.92400209525,-0.826839259964,-0.151888037011,1.33411963049,-1.93173576856,-0.492141892685,0.370137283408,-1.52539162855,1.2753730923,-1.69102633468,-0.66420203724,-211.432767184
do_nothing,-1.45033254075,-2.20470423116,-1.63677055508,0.200470606764,-1.53850475446,0.64036219929,-2.68975539008,-3.3582345791,-0.402431812959,-3.23488967049,-2.03207375137,-3.24460040241,-2.37553220596,21.1737016456
do_nothing,2.39540684858,2.86502638104,2.23507285358,1.89985123561,1.13128135519,-2.30624529482,3.17364459921,1.56859618565,0.43291168739,2.07348211168,-0.442985821869,2.17069058927,1.47957184353,119.447071996
do_nothing,0.837606278444,1.76781217298,0.882549796583,-1.79773608885,0.53639304162,-1.78118008812,2.85278948623,2.96776216429,-0.462683726884,2.87862353143,1.5470463759,3.08119582601,1.89425097379,43.6623211266
do_nothing,-2.09199003537,-2.61615486724,-1.58234770272,-0.623763940594,-0.700120998196,3.6845389101,-3.96559428068,-1.80682695587,0.491922535541,-1.75061986975,0.86785911445,-1.83734873618,-1.14455464541,-171.033154446
do_nothing,-0.893057365329,-2.01915317219,-1.00363345867,1.1532297729,-0.506126963922,1.90416136695,-2.92662813461,-2.96091118907,-0.519383904157,-3.07859986288,-2.33502105863,-3.55824855156,-2.30193733776,24.2307061828
do_nothing,2.61840530026,3.43155306864,1.82069472501,1.21931628761,1.03425718061,-3.97263837746,5.46638491617,2.76440759734,0.544990425156,2.11508272407,0.296903326759,2.42309354564,1.87094620215,89.0737193206
do_nothing,-0.616967320069,0.175600685515,-0.397504339399,-2.31377295073,-0.743468198606,-2.9288108156,0.729320338208,1.08151418875,-0.569811397947,1.74676279714,1.10726897384,2.34656484311,0.895426148671,38.7121978328
do_nothing,-0.475269375881,-0.975449706097,0.754279429353,0.369249280359,0.882069834674,6.0928806838,-3.68114307832,-0.526350058041,0.593589560014,0.407398004436,0.914595184714,-0.169200494687,0.307891253386,-126.380248079
do_nothing,-1.52611094889,-2.27592512313,-2.21424935441,0.918729054735,-1.27759611761,0.155918781651,-1.90679222613,-3.22171981661,-0.615226157846,-4.53092126441,-2.55233458089,-5.09905350294,-3.27494149376,4.02725806405
do_nothing,2.40789861205,2.36318264424,0.858531073115,0.553334620395,0.836358093563,-3.47672239491,5.12098357113,2.30851286488,0.635059654159,1.44677609447,0.743734256653,2.21895870335,1.39640211813,69.9851496785
do_nothing,-0.0137950919294,1.25071673183,1.62804915741,-1.73522712151,0.0821041428092,-0.884085906843,-0.132859607968,2.11226600323,-0.653972328614,4.00220973294,1.18856887205,4.43238827224,2.58509149337,34.0369406344
do_nothing,-1.76797078164,-1.5664008805,-0.562700729111,0.633575273552,-0.0460923255549,2.48259129913,-3.70318904386,-1.9664628229,0.671375370239,-1.62399333199,0.0742510891235,-2.34214876104,-1.16406788573,-78.6132247095
do_nothing,0.177598602814,-1.72721685537,-2.36385545034,0.184723409903,-0.983891180187,0.515759440381,0.28382461337,-2.32748171666,-0.686444343533,-4.29218925342,-1.99437026277,-4.80793291355,-3.2730953618,-25.5328409784
do_nothing,2.0779112596,2.16193955121,1.8806694885,0.933493660109,1.39879116013,0.315642728431,3.43512341464,3.01653074314,0.699817395672,3.11878869226,1.31761024833,3.77496523303,2.6569208861,60.3192953901
do_nothing,-1.92388612384,0.425117633796,0.921156935458,-1.62602633473,-0.527081471282,-2.44054374705,-2.04132175111,0.341988627964,-0.71209205231,2.17284459594,0.248384389983,3.03400708605,1.55327683659,25.332003347
do_nothing,0.286039950718,-0.386928313887,-0.670189399815,0.484737298523,-0.091272490492,-1.02579685154,-0.220199833626,-1.04758699765,0.722481204251,-1.61420540823,0.146399460421,-2.46072756683,-1.47971598604,-32.2584776822
do_nothing,0.243151592724,-2.17547447368,-2.34137514499,0.279489996037,-0.829151895208,2.266705355,-0.126030110865,-1.71086678599,-0.730506485961,-3.03754845234,-1.4563605568,-4.29007779972,-2.38873711165,-55.6723657651
do_nothing,1.01744691378,2.42879834455,3.0467431316,0.646643306401,1.94430293589,4.92058859237,0.94649244381,2.57492008689,0.736967393125,3.2630746522,1.42305573301,4.63216447094,3.1102149192,57.1394084358
do_nothing,-2.29775750693,-0.435687987332,-0.69052465328,-1.42207489153,-1.34749004378,-6.9568259415,-1.28028727032,-0.791576698855,-0.742136476153,0.0321416527131,-0.594649580895,1.3742988324,-0.472234418539,15.1294561577
do_nothing,1.4502266562,-0.304890052734,-0.844951989324,0.947644729289,-0.0974916580393,-3.38627640369,1.81872202105,0.053036264708,0.745170573213,-0.501802070835,0.431369567072,-2.41889212041,-0.353338617062,1.41878580964
do_nothing,0.866316524917,-0.0571058029842,0.221931177497,-0.526679425715,0.143350567598,7.88003370613,-0.760977452562,-0.300460263775,-0.745950917874,-0.907552962836,-0.561210601322,-2.00500508238,-0.536518983624,-71.2886619088
do_nothing,-1.23719529457,-0.0670061761753,0.54718834396,0.702984318198,0.9768195628,3.08055720647,-1.84815259499,-0.515345412533,0.745300915824,0.168836513633,0.394781680067,2.31575727211,-0.109387447548,52.2061200955
do_nothing,-1.17848711398,-0.434917198344,-0.769447593087,-0.574039515513,-1.17416649056,-9.35486588317,1.35063824732,0.48114716191,-0.743182079279,0.607042568806,-0.594246593787,1.43551074598,0.558947766599,3.38512620143
do_nothing,2.44846935809,1.72256774812,1.1230637056,0.396852268813,0.337540548717,-0.441371652721,2.65364482578,1.90138163993,0.738824915283,1.24076411859,1.19632324598,-0.775089445792,1.66123831247,24.8749962396
do_nothing,-0.578669719382,-1.40145801212,-1.10845681371,-1.01394537931,-0.247617226225,6.77329760747,-3.6261950784,-2.86950308225,-0.732432773825,-2.37653094234,-1.06905937217,-3.27061102976,-2.98773875562,-72.7527303671
do_nothing,-0.44613690912,-0.094007802756,0.504353337695,1.38832839825,1.15443108698,1.42627845865,0.181366933264,0.436222559667,0.724735651339,0.689724441218,0.336502512588,2.49488546122,0.496763359995,42.9861154033
do_nothing,-1.73332293083,-0.402612849488,-0.658303066031,-0.420679959371,-1.59037630196,-6.44812926466,0.877205064202,0.793971317316,-0.715441564989,-0.00126817580321,-0.465317251473,1.49255388566,1.34103341166,-7.16113129407
do_nothing,2.72249205279,2.09378096635,1.54894414106,-0.313436826382,1.11198543778,-0.0265690041118,1.83758359044,1.51849289671,0.703955446731,1.64106722457,1.30591529775,-0.566661965125,1.02921290245,39.1779718441
do_nothing,0.0654911994115,-1.43169436294,-1.17703331278,-0.699205287178,-0.53609774383,2.09171708241,-1.75273245289,-2.4392830343,-0.690727477616,-1.42524786429,-1.13158936722,-3.31303017766,-2.97468533934,-64.19435873
do_nothing,-1.62511109388,-0.525772383839,-0.289298012753,1.71369235614,0.216727560347,3.63680308123,-1.36333507061,-0.318710565199,0.676310329942,-0.936476801285,0.0308954605334,2.03116101282,0.609200189234,31.2871861659
do_nothing,-1.02253060562,0.182645122733,0.288723686812,-0.928099274904,-0.181655874171,-1.6697511343,0.548414215574,1.45867698143,-0.660244550871,0.556049818647,0.0495517648165,2.28095364701,1.61320452271,-15.0809678905
do_nothing,2.52045469894,1.19451293959,1.04515988241,0.000439548092079,0.659289045956,-5.58687833631,3.03112168149,1.2239584895,0.642171452478,2.09463173676,0.973295368334,-1.43956398561,0.207617675908,44.8321869742
do_nothing,0.334764055214,-0.400088264335,-0.874430757947,-0.696687505282,-1.03441413129,1.08816296763,-1.38497629136,-2.16474366188,-0.622691362028,-1.42184537092,-1.06919895066,-2.63514796999,-1.99597528978,-49.3458999287
do_nothing,-1.90145635058,-0.664381310735,-0.530426609548,1.36430565411,0.380706275652,8.20310074486,-3.22921404686,-0.641932364754,0.602135527906,-1.53104077293,0.0483086803561,2.07592011668,0.299027106129,19.2891639738
do_nothing,-1.30367185183,-1.04451177926,-0.0770761592773,-0.416033292414,0.243960867642,-3.03505301138,1.24171810645,1.21689669487,-0.579974699311,0.462823833319,-0.046744575544,1.30742583763,0.925030074291,-19.9246146331
do_nothing,3.65375136444,2.89998497851,2.39410967235,-0.311316615355,0.830181432791,-7.0102308868,4.99208785894,2.42150995032,0.556106850871,3.2768501323,1.3373485471,-0.137947099488,1.30511988189,43.1446111107
do_nothing,-1.25631882238,-1.38618869066,-2.47843934023,-0.73073295585,-2.12911020022,1.47012279812,-4.37628377642,-3.69109413769,-0.53118115718,-2.6774614174,-1.52939504397,-3.52348653705,-2.87681221483,-31.4930655583
do_nothing,-1.20457097806,-1.07293299597,-0.17722747393,1.55214821181,0.983238388483,8.52049196395,-2.15003570973,-0.162338199376,0.505302877685,-1.25781463504,0.0163238334143,2.21396453964,0.697707060349,6.1956356315
do_nothing,0.238489875128,0.803209602242,1.64222196187,-0.496863241428,1.10503214605,-2.5362066094,3.52566738371,2.70857143809,-0.477966392461,1.54010511619,0.692958301763,2.30175871311,1.55358584011,-12.2910427404
do_nothing,0.784534645488,0.736690689284,-0.261473551502,-0.531500424764,-0.51521205936,-7.30189303323,1.13843050197,-0.201629377731,0.449308359841,1.28888947452,0.514434801345,-2.34349207013,-0.592754749946,18.0314146205
do_nothing,0.0253516086235,-0.779754869402,-1.25690562091,-0.169246209639,-1.66811347817,1.77846657829,-2.86064104657,-2.19376012539,-0.419935635172,-1.18361178586,-1.37059181034,-1.62300932858,-1.17700894632,-0.359492302181
do_nothing,0.120039781209,0.144099430864,0.962800620666,1.02459250729,1.32260791824,6.43992398393,0.178534424961,0.652121230311,0.389756589034,-1.0155673306,0.425917435723,2.68802125389,1.05281019101,13.3704210273
do_nothing,-1.19006005897,-0.229539128968,-0.0391167740138,-0.566206737193,0.958440589789,-0.848128280097,0.811865589014,1.01667842231,-0.358365579289,0.211024943161,0.487432189709,0.0436807792554,-0.132094517241,-63.9453967903
do_nothing,0.222439050984,0.332766159682,-0.173530524508,0.00433357381329,-0.910707086556,-4.89797115967,0.430607828824,0.333544165475,0.326089944133,1.98677919747,0.151836798777,-1.37542643738,-0.0784646883777,65.2259032685
do_nothing,1.08866467493,-0.325357746523,-0.255902928537,-0.258603409118,-1.37149218643,-2.01917253485,-0.408306283744,-1.72482087796,-0.293424141918,-1.02589825404,-0.990055836089,-0.298607363661,-0.211559962834,-1.45558111668
do_nothing,0.833993623058,1.04096684606,0.977728927781,0.265178244383,1.84974553168,5.78110415849,0.43572826374,0.770330799897,0.260132680492,-0.834047598556,0.682693847112,1.78853010583,0.839661839937,-26.5265407403
do_nothing,-2.98287225848,-1.44957321444,-1.39225374846,0.215909353909,-0.133762264943,3.07555677165,-2.00908567134,0.174536136273,-0.225960719279,-0.455744728448,-0.116147723025,-1.34889008805,-1.40446738691,-12.8402487501
do_nothing,0.635223460318,0.192797891991,0.607878839664,0.0798368714239,-0.562032181078,-5.69468171127,1.24212106643,0.343184176305,0.1913593994,1.91409491713,0.133941381215,-0.00113954341984,0.525976947477,26.8306252697
do_nothing,2.84134082438,1.13819182306,0.87433320521,-0.919706861118,-0.109960172798,-5.24705095274,2.4972447597,-0.227271871126,-0.156668021285,0.274613200118,-0.058069470717,1.18602567314,1.32012532942,24.6094748212
do_nothing,-1.64821144741,-0.666734350399,-1.2637679337,0.675369161961,-0.0369190531622,7.48205460262,-2.67522779984,-1.01071218748,0.121572571144,-2.48701166399,-0.327805705984,-1.33742564159,-1.31246288685,-68.6333207836
do_nothing,-1.63061843362,-0.249842977521,0.287942468396,0.338541901782,0.596931202391,6.12297319108,-1.89835757246,0.948515290924,-0.0859907815054,0.632248355717,0.177325864909,-0.0635064573421,-0.662002322644,58.6969897972
do_nothing,1.24249882435,0.0339401437804,0.502417149015,-0.35832512948,0.0859874099912,-10.3377408192,3.10851671159,0.604482971597,0.0504238940724,1.79264158661,0.379170576474,1.45180124003,1.10851066774,-27.2522561492
do_nothing,1.07188171573,0.095771679156,-0.52220083295,-0.348489650251,-0.757436240538,-4.31143852711,1.32912321867,-1.05478866183,-0.0150419844118,-0.671649020551,-0.302665896946,-0.68921068912,0.615771843193,8.35518300558
do_nothing,-0.495501551628,0.693728343005,0.491792390018,0.165870066855,-0.146628978601,11.8333578145,-2.93135000998,0.0556594952561,-0.020481361446,-1.06855132416,-0.191221831412,-1.08592866369,-0.886285101785,-10.4408131134
do_nothing,-1.43625607878,-0.872138082542,-0.398949556063,0.535002164396,0.776204968919,1.04125401841,-1.43313404367,0.22066872412,0.0560619951678,-0.15448736184,0.100066909411,0.704159661613,-1.08447213497,20.4215891347
do_nothing,0.781515348073,-0.0305331356101,-0.1193053678,-0.308063217058,0.447473096563,-10.7852998515,3.57004407749,0.456983834257,-0.0912179869671,1.69102440142,0.250999770949,1.65773663866,1.53455947038,3.82561404835
do_nothing,1.00736589991,0.512731312072,0.427837899772,-0.287130576814,-1.15460733455,1.13289372925,0.38132330359,-0.355770438581,0.125936750225,-0.284812580187,0.0443060461854,-2.10320021828,0.580017703369,-57.252921928
do_nothing,-0.758973662869,-0.412426366599,-0.20594354297,-0.11230232653,-0.495343186724,8.9952616564,-3.32959522995,-0.580433290265,-0.160500023778,-1.83150364958,-0.560038220207,-0.937760151188,-1.65618991217,47.0064251513
do_nothing,-0.321695927088,0.618158039416,0.272059236809,0.800049746768,1.80179757459,-2.21767306473,1.11778993283,0.944310587591,0.194686429512,1.4111708463,0.459556166137,3.48009905134,0.276441308939,37.6393437913
do_nothing,-0.0410454714074,-0.45508991026,-0.664369245939,-0.413263171287,-0.367727152888,-7.70490145707,1.12134535614,-0.59032731938,-0.228089698564,0.465320835202,-0.107642420687,-1.41857355274,0.73376634374,-48.993290405
do_nothing,0.953167955235,-0.267154924357,0.570794223475,-0.35642084103,-1.18983067781,3.98787244227,-0.0998767191132,0.371815788519,0.260823260316,-0.910312211181,0.168299058366,-2.51055738047,0.130865306776,-47.6918199367
do_nothing,-1.07440022178,-0.367664796859,-0.470062838246,0.160173444076,-0.139408491101,4.44523437901,-0.933406510498,-0.456240279206,-0.293083134202,-0.614188594109,-0.443716755417,1.82860558376,-1.22770921263,59.0582428042
do_nothing,0.65871285004,1.84789680107,0.879544988112,0.573862440238,2.1120495544,-2.97521768094,0.39978993327,0.390025764805,0.324555522291,2.07770180023,0.530752894043,2.97104331511,1.20775260978,67.0901574843
do_nothing,0.386937007124,-0.511968521004,-0.240514801814,-0.784679578722,-0.983474894707,-3.00195089602,-0.200130328761,0.23891519685,-0.354947527556,-1.00851059472,-0.336884361278,-3.63184066691,-0.0412743141985,-94.1299260389
do_nothing,-1.63075961135,-2.67349412148,-1.63659010931,0.58538199242,-1.75177240358,1.98011779107,0.00344146812672,-1.09213771137,0.384455256494,-2.04998937934,-0.100824100912,-2.10466764874,-1.50055698843,-41.5596635981
