label,COUNTER,INTERPOLATED,AF3,F7,F3,FC5,T7,P7,O1,O2,P8,T8,FC6,F4,F8,AF4,RAW_CQ,GYROX,GYROY,MARKER,SYNC,TIME_STAMP_s,TIME_STAMP_ms,CQ_AF3,CQ_F7,CQ_F3,CQ_FC5,CQ_T7,CQ_P7,CQ_O1,CQ_O2,CQ_P8,CQ_T8,CQ_FC6,CQ_F4,CQ_F8,CQ_AF4,CQ_CMS,CQ_DRL
off_to_on,1.89305488825,1.83838947294,0.0916985670116,-0.624304560205,1.13953923635,4.0307893317,1.68569813784,2.48179198761,-0.399099265247,1.03164666108,1.7278106451,2.72761945427,0.968776229858,-72.2397996447
off_to_on,0.715011580265,-1.8888515068,-0.232712973888,0.784781119431,-0.303534431254,1.06993869019,5.92525661505,4.27731158008,0.11227752958,1.72733815948,-0.186092350433,-2.23529252107,0.384628845784,-202.457411014
off_to_on,-1.85686504114,-1.64292691494,-0.411593965801,-0.0647286011996,-1.26029380696,-4.67563654423,-2.55354817244,-3.64525392662,0.0509238844695,-1.57196388274,-2.13429321595,-2.14475446028,-1.06540839206,161.625738513
off_to_on,-0.109225043849,2.45637817766,0.787435486759,-0.415776595927,0.993111377456,-0.386395392777,-4.97553454132,-2.50248493981,0.372715398628,-1.57344698292,0.931808746884,2.91419213823,-0.167614662813,109.107886907
off_to_on,0.948278543769,0.555071009964,-0.313102209211,-0.106021795915,0.368017140461,4.58592143228,2.49127282114,3.11858997799,-0.640645187798,1.36576833575,1.40502420381,0.631641217784,0.514519685048,-105.016910553
off_to_on,1.23735343868,-1.54552811082,0.172723247084,0.860236468892,-0.140085928244,1.001473379,5.42699360408,2.40901576597,0.273314030147,2.76715831837,-0.405602450768,-1.59195251929,1.39631683177,-121.036505551
off_to_on,-2.1149558214,-1.14151946888,-0.737108447958,-0.75229695876,-1.13323694931,-6.03337792791,-4.16038680243,-3.9878144754,-0.0599603553766,-3.13693704975,-1.88626994371,-1.36595318142,-1.95516721756,117.174895625
off_to_on,-0.363621718144,2.52171998823,0.694603761911,0.0912577885572,0.877546883944,0.120095749117,-3.64278840831,-0.575317473167,0.517485094421,-1.58834649187,1.2424115208,2.33252932076,-0.365670626275,73.3371082876
off_to_on,1.73737147284,-0.285819386344,0.187045442614,-0.0471843093388,0.282526623202,5.54773391037,3.51069286852,2.55881870308,-0.843916943171,2.89598666977,0.667386072212,0.359349065931,1.33964400939,-60.9633452014
off_to_on,0.52993239218,-1.76642763461,-0.288640779603,0.692195212849,0.165140202169,0.626726411159,3.53253872941,0.93867039955,0.474252483353,1.53826624367,-0.23930262605,-1.72625156987,0.816281945817,-92.416905156
off_to_on,-2.4302112299,0.421268538801,-0.926785486409,-0.953474950499,-1.43109356792,-6.72796199843,-3.95438530284,-2.66268153602,-0.176911444119,-3.37943922168,-1.10526994345,-0.450101504852,-1.84924294987,54.7562371826
off_to_on,0.857148323286,2.2198477028,1.61135981074,0.536336770394,0.937620186938,0.240109021289,-2.24543528394,-0.21599522692,0.546935006035,-0.316384645138,0.657407982429,2.29997725082,0.027962127594,67.2668367339
off_to_on,1.40909012254,-2.04144930756,-0.437998056827,-0.33022800296,0.475222076762,6.42947081237,2.99651307983,1.60160300293,-0.887072081977,2.13895457648,0.121693765723,-0.884959455392,0.761902988431,17.0234142458
off_to_on,-0.874607019693,-0.885936004601,-0.850618263216,0.640652030349,-0.0713831527733,0.0218613263971,2.3395855332,1.0398322754,0.61721555973,0.943559215475,0.656419835418,-1.2222061502,0.854344583399,-136.438545598
off_to_on,-1.78985360523,1.58356402534,-0.177900479434,-0.705252883282,-1.56455355041,-7.45467594311,-3.8313732957,-2.69124850623,-0.359744335385,-2.96561129306,-1.38787303271,0.164411877365,-1.70387467038,12.6162408865
off_to_on,3.36014487945,2.14016685523,2.3552731952,0.373961617883,1.66977838698,2.34160912273,0.634019894767,1.12618431769,0.641075417669,1.33805806517,0.764435933687,3.01826604877,1.07724311926,125.837947151
off_to_on,-1.72117620103,-4.46625406629,-2.08825851213,-0.471534111452,-0.286831617091,4.36191040607,0.389007110897,0.100100810653,-0.896069884541,-0.0977539601817,-0.269748169981,-3.27548243371,-1.01675151567,-4.13179661377
off_to_on,-1.50979057242,0.522097961217,-0.548464318223,1.006983201,-0.179266133932,-0.294711326835,0.64365860687,0.374832623061,0.671050537304,0.500650780743,0.593013361962,-0.587392051778,0.871088268331,-98.9858335462
off_to_on,1.90099171295,3.63534136099,1.18373004056,-0.952560330667,-0.721417871138,-4.62991486895,0.00753863122639,-0.413420690514,-0.493902306578,-0.228659624491,-0.601220492325,2.81428337095,0.445098405469,-78.500088578
off_to_on,1.48201327954,-0.563445337825,1.34606603424,0.331708075896,1.22067882268,0.21537576304,-0.185362722988,0.127632969897,0.741404018889,-0.0770097056729,0.453256261317,0.327281179613,-0.487707204183,187.810503807
off_to_on,-3.23781677921,-4.25200905067,-2.38535448417,-0.41989402951,-0.664728910857,3.69153814472,-1.68480386504,-0.959809611837,-0.908759440532,-0.922676402522,-0.967847307836,-3.39099482387,-1.46769245916,41.0208528379
off_to_on,0.229322697603,1.86840555556,-0.0958559202684,1.26383399325,0.252980955113,1.36287781576,1.48538898368,1.51166334609,0.692915988838,1.10417855475,1.06824615214,0.97856938357,1.58993765137,-189.946063801
off_to_on,1.95830618775,2.6505367859,1.13932168952,-1.31595658017,-0.692934932019,-5.32016859381,0.907959132226,-0.544816358397,-0.584401857153,-0.00797549764064,-0.192000398883,1.86998431335,0.421038431991,-43.7442835752
off_to_on,1.28113184374,0.262537645695,1.93683744719,0.306616179237,1.17266908042,0.532565166394,0.0512070456271,0.156849980955,0.821361796511,0.838354566451,0.323637225723,1.06139365397,0.364107349937,199.01578018
off_to_on,-4.26262314821,-5.1316930825,-3.5532090757,0.0062139510459,-0.921513187479,3.4128310505,-3.36888697676,-1.361916205,-0.925315655284,-2.85744452522,-1.8351726647,-4.45476218199,-3.32555406095,63.3233926547
off_to_on,1.19102790027,1.64799135622,0.0149791086737,1.03658473783,0.488242622583,0.81574043671,2.372411914,1.72140853245,0.710580205771,1.53847321319,1.86562073031,1.13001800352,1.97363948524,-265.595314532
off_to_on,2.39273764718,3.99560758354,2.60051957084,-1.68317860943,-0.716587551207,-4.98089814711,1.55431875784,-0.450511985016,-0.637358417791,1.52103242199,0.00334817379063,3.20643270464,2.31914056984,34.8574996481
off_to_on,0.141911839419,-0.400655745825,0.827090230896,0.86766552655,1.15216999913,1.8355224475,-1.34880482022,-0.0744098211838,0.849848321269,-0.518327446592,-0.401696129556,-0.145956460338,-1.19160692426,171.107363921
off_to_on,-3.62040119538,-5.8153775043,-4.33993717781,-0.0882875467961,-0.77753405695,2.75987149819,-1.95448240541,-0.60443923182,-0.917789227626,-2.75564413829,-1.2061224648,-4.65894485089,-3.85237582738,26.2355842288
off_to_on,1.10366624072,2.15277508518,1.41952838036,0.645982059676,0.0972256428464,-1.77397096195,2.22131702527,0.645513883863,0.730518844978,1.94130629059,1.54039182992,1.7650930587,2.9041413124,-208.419374132
off_to_on,2.46536676633,4.77702622746,2.77332033736,-1.39909970835,-0.549663140198,-2.41065677605,-0.0739199318219,-0.353322971067,-0.672980645757,1.2047510645,-0.314025208854,3.58887299013,2.75907404783,27.4420196337
off_to_on,-0.0399622724136,-1.57408875328,-0.741566401563,1.01659339501,1.68678978096,3.88925440089,-0.379545327181,1.00269071698,0.823889671551,-0.518650589947,0.376417091453,-1.18167847982,-2.13970463556,132.289885576
off_to_on,-3.7142030556,-5.78569517781,-3.70940860449,-0.307941179526,-1.52189434091,-1.25418424068,-0.499955685659,-1.36614832749,-0.856737578357,-2.29337513307,-1.30831488846,-4.68636224623,-3.99619341845,28.3422490617
off_to_on,1.90557900324,3.70713986299,2.89217830837,0.486175217168,0.167435142174,-1.82449333894,1.55328178127,0.712058626927,0.728053377841,1.99034712315,0.743184359209,3.60709373171,4.21626592231,-151.93708437
off_to_on,1.22486541649,2.88527972772,0.946384789775,-0.993057789985,0.0340932549075,0.907303976076,-3.05891931808,-0.98765122072,-0.699143810664,-0.366930729004,-0.100303746993,1.52900440379,1.36118061017,-4.01756524619
off_to_on,0.426774632039,-1.33945633334,-0.926328839462,0.822810545281,1.270745701,3.00905642457,2.10252342268,1.90676897138,0.773943736211,0.988012899131,1.305712054,-1.234379673,-1.77225157262,104.628947892
off_to_on,-2.61793593879,-4.06045882621,-1.81882524063,-0.423162914822,-1.70067126742,-3.60057772687,2.42847833993,-0.570237581919,-0.756794253648,-1.32965603775,-1.77133959093,-2.63831430369,-3.03259415239,34.127950518
off_to_on,0.216862668477,2.13553955197,1.79122899959,0.656338650195,0.481170691191,-0.680619241878,-3.10800764948,-1.44081794474,0.685958964069,-0.473756815661,-0.14797687256,2.05743720355,2.84028004232,-98.0578483483
off_to_on,2.02800995234,2.96480055662,0.302283402413,-1.13200807867,0.283434811008,2.9708355052,-3.23105837477,-0.176283937969,-0.693789583446,0.766301645358,0.770570233965,1.63464206447,2.23783455999,-39.7059089225
off_to_on,0.526551679177,-1.31122915837,-0.274912052643,0.978938196129,0.439474950135,0.164884368259,5.39100260301,2.87340961647,0.696254642237,1.25289076185,1.40783388183,-1.57650420237,-2.44818762422,85.372929456
off_to_on,-2.92086711996,-3.42202823884,-1.31071340735,-0.375674433453,-1.13819577974,-2.88011115873,2.22620678506,-1.06462542881,-0.620577608779,-1.46311145309,-1.97005134792,-1.83534202559,-2.61210151517,34.6259727433
off_to_on,0.861790651529,2.69790555952,1.39656939436,0.191299617147,0.914774078748,1.58020312144,-5.50903317933,-1.93300047167,0.606271361477,0.119534555993,-0.271747420129,3.14889201777,4.09518545748,-47.8982306639
off_to_on,1.01230789392,0.847250030754,-0.401091973612,-0.618430571628,-0.638229646304,-0.349415848109,-3.53400069765,-0.400153523246,-0.676507504068,-0.974310354683,0.429655333535,-1.20009367353,-0.358618446707,-71.0091655917
off_to_on,0.882319301956,-0.778504385207,0.334093431234,0.966014875336,0.661382345322,0.718556163421,8.632670179,3.91862650943,0.620437257013,2.02628617786,2.02572743568,-0.955176425074,-1.90843997225,71.8258649071
off_to_on,-2.32903103467,-1.28680762982,-0.895247334401,-0.690186038342,-0.465703057158,0.311662167365,0.736892905988,-1.30471488857,-0.441670846074,0.0424971720192,-1.68970887957,0.829723244116,0.0822582750862,30.6632911252
off_to_on,0.591135065031,1.50577078468,0.9086923658,0.16913611398,0.330472973457,-0.796569868766,-7.57552413341,-2.67326283714,0.43763893012,-1.18532246461,-1.22250160954,1.53760837894,2.1830141014,-10.8112052995
off_to_on,0.655859212312,-0.768264106351,-0.44150162641,-0.185731852431,-0.716124330144,-2.45448416563,-0.61287432334,0.275925640491,-0.621066406371,-1.58801413412,0.763603373479,-2.89431356958,-2.01997787218,-84.4073361389
off_to_on,0.348793234496,0.150034161282,0.025837522504,0.728977360903,0.822162557445,3.5531743426,7.58797932972,3.25388309061,0.617480050152,2.30002563147,2.20986428671,0.119036306191,-0.183149187898,57.0042623699
off_to_on,-0.53962611052,0.929113633523,-0.00482830591236,-0.908766937119,-0.0328955596208,2.29275786963,-0.317592906019,-0.32742101439,-0.354341620564,1.61568641483,-1.37450196272,3.30901821906,2.05199868889,21.4566301318
off_to_on,-0.594511188838,-0.871218989054,0.436870680902,0.362923421871,-0.500254880408,-5.59065465385,-6.28109106661,-3.0393611837,0.242040245577,-2.33838287242,-1.78080977195,-1.1829039919,-0.906949958942,16.60660704
off_to_on,0.103502040401,-1.28562634629,-0.622007629803,0.0772039335555,-0.261537441574,-1.61881298973,-0.12507249296,-0.542210180859,-0.427082168752,-2.38015171665,0.64666927509,-3.62006892399,-2.1832482752,-81.9787638451
off_to_on,1.68930147559,2.16656278984,0.194736378504,0.22219157254,1.25068619996,7.97727999807,6.11136803874,4.21782718554,0.512006974115,3.33383764606,2.74422987812,2.7357427148,2.48654618782,39.4323818624
off_to_on,-1.65775000758,-0.264015363955,-0.243367838046,-0.60002157807,-0.967782352997,-1.75539736717,-1.0550675995,-0.600423915281,-0.296852922985,1.34046644977,-1.55809514342,1.85461470925,0.371485910896,10.2741902854
off_to_on,-0.0281763371163,-0.561258150749,1.01017086667,0.330779475533,-0.156639747439,-6.42448975401,-3.17508082711,-3.06463807484,0.134484044402,-1.76003159342,-1.89131784632,-1.07263239817,-0.970740304621,35.1594427543
off_to_on,0.75036033038,-0.829583601678,-0.624229382744,0.0724416634409,0.573903679602,2.36435891018,-1.07865035324,-0.394238284542,-0.235811729337,-2.89245975385,0.806734111558,-3.04139254851,-1.45212580696,-69.1478332285
off_to_on,-0.168925665717,0.515182860193,-0.98174556894,0.0842036539493,0.109871376326,5.71162430849,2.72953623759,3.63010931262,0.292737982159,2.10641053872,2.37410523677,1.16243034889,1.1402170032,21.831229668
off_to_on,-0.454329734257,1.31451409268,0.838266438629,-0.378940367952,-0.787827656506,-3.27002055423,2.28654996619,0.0888181856208,-0.125750814818,3.54426502011,-1.14280491016,3.6417089746,2.02856143115,-0.579037898417
off_to_on,0.618917640638,-0.30525680584,1.21059580939,0.243381299999,0.448029884468,-4.1371678707,-2.50157759439,-3.50569428826,0.0298636324993,-2.622253303,-2.04408992386,-1.40043158422,-1.45529292261,44.5486818172
off_to_on,0.0462749892392,-1.8125968519,-1.19557527714,-0.0771009333335,0.480139111147,3.4034800562,-3.02054395191,0.327330423607,-0.139715474954,-3.40760083405,1.11964707147,-3.78974317842,-2.25303465573,-50.2434532302
off_to_on,-1.16393481709,0.0222048531301,-1.23274260961,0.201371064023,-0.656287499682,2.21344764649,2.02194660291,2.84115441345,0.138810738567,2.59607893258,1.68099243864,1.31458275953,1.50214437723,6.71991080351
off_to_on,0.626778698932,2.44403241117,1.33371140532,-0.0425148595709,-0.215638839795,-2.42128288494,3.82577395966,-0.537653142022,0.0780244725983,3.10094003389,-1.04311985441,3.89778854931,2.51750340771,-9.75253312691
off_to_on,1.60426814195,0.196023482875,1.34713628615,-0.48407945055,0.746279659507,-0.880256121766,-1.44316292087,-1.67528855812,-0.160114461372,-2.05664676292,-1.13358689825,-0.946820851027,-1.40941697889,45.4828621753
off_to_on,-1.72569800238,-3.31341089753,-1.43381861119,0.408320129412,-0.010765148116,0.948558784227,-5.18502688024,-0.138009730294,0.00880751973432,-3.14505845233,0.655622886685,-4.37132104405,-3.02776786273,-28.8842163704
off_to_on,-1.1279591446,0.196958024898,-1.52918349118,0.333852973927,-0.763959605777,0.459771214278,1.87035082564,1.1522797965,0.00121114416567,1.71019988744,0.728613132442,1.0471778582,1.69580294849,-6.84361174048
off_to_on,1.98886003691,3.54802089981,1.61104601306,-0.352559682709,0.252150755109,0.0927802590908,5.87344050685,0.877722955039,0.234443739182,3.00554815458,-0.0267013440259,4.40305136408,3.12901352754,-6.56206161303
off_to_on,0.723286932178,-0.480144850202,1.51549627882,-0.61493587876,0.475616702701,-0.408777141819,-2.81298762508,-1.43691718165,-0.333488267223,-1.40800526685,-0.964461684411,-1.17356661746,-1.94074623192,18.8206224993
off_to_on,-1.28073208479,-3.06991484004,-1.26336363424,0.910618430773,0.188460433635,-0.0893610679957,-5.00985351749,-0.432944476596,0.180426457107,-2.186784999,0.278406529356,-3.57129400678,-2.49031514174,13.1112228015
off_to_on,-2.08301829194,-0.715809078305,-2.60903403694,0.00931078299051,-1.24674808242,-1.20118758587,1.96998692798,0.488378373958,-0.144776875966,-0.422966619742,0.221987615703,-0.411894529468,0.555003924142,-9.90832529037
off_to_on,2.54919333261,4.55640090168,2.61272643461,-0.401504022222,0.728666492366,1.92270738289,5.90566624101,1.37183914213,0.348466036876,3.60050135407,0.585850199164,5.02169483176,4.13503792825,-57.9161316227
off_to_on,1.87079755287,-0.0244140119163,1.93298224707,-0.521544023684,0.563684291185,1.16780496428,-3.06791025094,-1.26252850234,-0.450507168002,-0.0455417674206,-0.802286992323,-0.26561075113,-1.51092309723,78.0279915087
off_to_on,-2.94029137967,-4.74325192299,-2.79316374377,1.06646185867,-0.329874342135,-2.71845483114,-5.09409331704,-0.585974345107,0.331906767245,-3.56375494862,-0.0650168948839,-5.05926505108,-4.21262605668,-6.0786108388
off_to_on,-2.09863404331,0.256664611908,-1.80534546229,-0.314808157504,-0.988809920787,-1.66421922724,3.57744686454,0.971986445669,-0.296213757384,0.276256434709,0.174832315082,0.772683945614,2.09154344569,-40.4427643417
off_to_on,3.87408181155,5.22508130279,3.6520798932,-0.128676731243,0.99416057961,4.0600465146,3.79197480069,0.0696814887971,0.45217130612,3.25865898021,0.557050292377,4.68617919922,4.09887903134,-5.3001440099
off_to_on,1.3868854721,-1.30321468619,0.230094988438,-0.662331018839,0.154690338157,1.20710939868,-3.81194229168,-0.874924816835,-0.54042494044,-0.870803977449,-0.606102569248,-1.49993993909,-3.11076802296,53.1059543055
off_to_on,-3.52849941727,-4.20063351313,-2.47432174949,1.08128891395,-0.0856025325526,-4.05740723845,-1.3041639581,1.54451119664,0.46636886419,-1.37621708968,0.33584182545,-2.81137442149,-2.34263615685,-22.3357486382
off_to_on,-2.30005105851,0.412149842379,-0.671240195826,-0.187973275883,-1.14255610406,-2.42111905464,1.31851488962,-1.63381386625,-0.436066644217,-1.11917775783,-0.827547494197,-0.266132772691,1.72248867227,-50.8760134411
off_to_on,5.43754042575,5.44428957351,3.10510529123,-0.315453808375,1.12313130092,6.33470735953,2.21660538211,0.0650925748395,0.530921520874,2.47857697918,1.059942067,3.73276474723,3.08385406192,88.4900502059
off_to_on,0.162089908795,-2.24133868346,-0.890993101694,-0.687064269036,0.0818293144721,0.462792056895,-1.99413584384,1.06768880246,-0.621735701735,0.275198168567,-0.172622207522,-0.638640317778,-2.75907770277,-48.6655886337
off_to_on,-3.89651785888,-3.62040868949,-1.1647999104,1.49884706593,0.0816534576066,-4.97468998565,-0.467323572932,0.745182470082,0.647159097384,-1.01907815494,-0.169666889981,-2.04951367661,-1.25701706191,-27.5695212334
off_to_on,-1.09392660477,1.12877219973,-0.473138745761,-0.741142409912,-1.48914963925,-1.58353113538,0.247493313693,-2.59578490884,-0.614578055013,-2.00067659039,-0.950757456452,-1.21457093327,1.07409598359,28.1894231825
off_to_on,4.49958035068,4.16658698175,1.87275367021,-0.112309735857,1.25299447822,5.53029516474,1.04939587215,0.693599057926,0.518304548008,2.19585647708,1.45143936808,3.04496694547,1.88390749943,57.8177658481
off_to_on,0.75905832098,-1.78180854648,-0.162631104858,-0.45684020064,0.507296096386,1.60483738838,-0.444596890706,1.84222651446,-0.505685823254,1.52996088438,-0.218090011401,1.19086865025,-1.11971215313,-64.7248217627
off_to_on,-4.1444151858,-3.18005309936,-0.884608903392,1.30223900162,-0.384314724398,-5.03172571822,-0.241399243431,-0.187078763179,0.740370129823,-1.96146389791,-0.484362960996,-3.19706230422,-1.37188851839,-61.0571184105
off_to_on,-1.90544542802,0.628997791961,-1.34980845608,-0.953336078723,-1.77340849125,-3.23924569306,-0.738742026331,-2.93539715152,-0.948819742341,-2.33511055834,-0.771943427733,-2.03149825206,-0.206183217317,97.3180970327
off_to_on,6.44694793918,4.64105118184,2.90443936824,0.246536885513,2.09495744628,7.05461550057,1.62233789604,2.15890999426,0.725026022038,4.02248450753,1.87462158744,5.73366347295,3.30085429201,52.5633808477
off_to_on,-0.692741438289,-2.63789399236,-0.694243796396,-0.438946467905,0.0564127838421,1.48291758148,-1.34887549897,0.63388560553,-0.374516164645,-0.550097346659,-1.09527055703,-1.2872194862,-2.05795889819,-114.630773552
off_to_on,-4.80619989124,-2.4813559356,-1.45138786517,0.914450901983,-0.606853572533,-5.40839834604,1.00096218986,-0.278685858686,0.567188434115,-1.7684212869,-0.0083590181791,-3.63605890107,-1.1735073438,-46.7251762712
off_to_on,-0.00117260074648,1.02847738227,-0.33196254754,-0.769388545417,-1.49078171451,-2.99257202505,-0.724120141752,-2.08313964532,-1.081493512,-0.459539362475,-0.272542471576,0.876335119764,0.579480837342,114.461912611
off_to_on,5.85178897791,3.53672469824,2.8239319184,0.587657794181,2.08388992625,6.53904790679,0.0329514802604,1.82875754027,1.04487250914,2.55081814673,1.0456618264,4.19848044453,2.13260165089,72.2349950146
off_to_on,-2.02780781064,-2.10095512381,-1.49464480944,-0.913114833531,0.111427882992,1.86036137824,0.19400091853,0.549434832461,-0.515978920287,-0.929307170393,-0.953204310962,-2.76405534478,-1.60187937773,-154.133216535
off_to_on,-3.9708638338,-2.34345029811,-1.31320180042,1.01646747635,-0.762739207594,-5.08930619779,0.557781537457,-1.04032054245,0.450422452177,-1.17851754076,0.405969368504,-2.39375641239,-0.996750511245,-44.0788561556
off_to_on,1.49334107913,1.15035338125,0.625378186615,-0.567764752562,-1.65354647675,-2.99098480123,-1.14525418884,-0.795908475635,-0.948520273512,0.201682880839,-0.369013518768,2.42643664417,0.782738826471,122.426293904
off_to_on,3.95511756112,3.29335071079,2.27963329153,0.450019626981,2.52571058716,5.59862963309,1.11300190628,2.11055500822,1.07801227815,2.00063238722,0.821998929743,2.53250083311,1.70696974525,98.1642986467
off_to_on,-2.77029237857,-2.89573075408,-2.3751754901,-0.90108116065,0.0700455208371,2.03998032548,-1.19382661574,-1.68784980918,-0.641307103355,-2.05510795715,-1.19089363244,-4.30345630315,-2.2571310888,-177.707584488
off_to_on,-1.15568106599,-0.842722970449,-0.113907687478,0.977991769294,-1.27813643662,-3.47677161566,1.03650062127,0.61152257521,0.492457205725,0.501852094601,1.11324192107,0.581149192138,0.665695150391,-57.2767242631
off_to_on,0.037151131761,0.867448639031,0.596510163002,-0.497372271756,-1.44232841418,-4.48956818256,-0.15658809115,0.0173067070986,-0.857234310019,-0.0700886410043,-0.64065394541,1.91253915118,-0.00522761921579,127.36269285
off_to_on,2.82358563102,2.14497715515,1.41362271845,0.376403278929,3.20050682278,5.49342413458,0.188656497656,0.2373888187,0.97353800939,1.07271107898,0.340861807694,0.718174268927,0.845360518205,128.383181427
off_to_on,-1.22539861465,-2.53231737607,-2.00093073512,-0.787064262224,-0.643695579079,2.58977658705,-1.8889777019,-1.12122328015,-0.638258828975,-1.53184413435,-0.722057521569,-3.35349451457,-1.36942995603,-192.941112007
off_to_on,-1.58221650196,0.168908464167,0.305534837797,0.982774257828,-1.76914468067,-3.88727976829,2.19619870046,1.4971886058,0.527444323017,0.623870851822,1.23678678762,1.19564389054,0.910044262864,-76.9192814543
off_to_on,0.370860786098,1.1361940241,0.551267288099,-0.816080677919,-0.0220242837553,-3.0320899583,0.677048740204,-0.579477590764,-0.793797654236,0.47274449372,-0.876112478223,2.11817918709,-0.00342439365933,130.100865817
off_to_on,1.94422387048,-0.507408038343,0.424694502958,0.674438679516,2.51451351315,3.7614761633,-2.61985129655,-0.676381329285,0.839882163087,-0.54280303427,-0.0387485092161,-1.20530262642,-0.66775576648,154.532926411
off_to_on,-1.15934843971,-0.955695016007,-1.13096241102,-0.515545910959,-1.51608030284,1.89511628898,-0.0538324976953,0.58313475481,-0.578215203801,-0.538469188473,0.0740820258978,-2.07397010579,-0.0208805011295,-195.812456817
off_to_on,-0.165668162527,2.49622253329,0.899860523296,0.364470430364,-0.516186599043,-1.29502018535,3.70421460912,1.10205654115,0.534643210118,1.92281360465,0.997698048492,2.60342156199,2.02010556264,-102.497723464
off_to_on,-0.958928473873,-2.2000144013,-0.832721406459,-0.646225504767,-0.0925826100167,-3.8867694324,-3.1545460801,-2.62668088938,-0.724797188997,-2.1169955184,-1.66723594911,-0.583875131903,-2.6225953269,134.068518152
off_to_on,1.882389045,-0.576077637636,0.779736098541,1.03859958569,1.51453418271,2.31661307415,0.00759164188751,1.98630912442,0.686890085644,0.577755686628,0.995908475006,-0.185390720659,0.415894741376,170.875042307
off_to_on,-0.456471806431,1.7049457289,-0.231528632795,-0.658947056373,-0.847482416481,2.52627804757,1.11750744994,0.387263849036,-0.476778915869,0.735674874375,0.0133664885094,-0.757292239502,1.26455822143,-186.576098846
off_to_on,-0.419292833533,1.42785931703,0.228219213059,-0.0380711291824,-0.214011961547,-0.275978090257,-0.00161469062235,-1.37437711127,0.500699833112,0.205385975139,-0.0586696245334,1.05705691479,0.395627678401,-129.414223577
off_to_on,-1.00537788207,-3.54073944592,-1.01618746985,-0.256542676584,-0.549159809191,-4.10079823517,-1.04163463936,-0.586495784925,-0.63989534362,-1.73905994457,-0.62820949306,-0.328680659686,-2.22148690143,137.595813914
off_to_on,1.54813916196,0.0940545149844,0.804446376071,1.12024625432,1.21479167341,0.886178536742,1.35770653737,2.29817132923,0.538024769093,0.85192316486,0.915419260693,-0.205431828555,0.589559070015,177.523615594
off_to_on,0.59862749335,3.35888001956,0.493509188479,-0.940452176403,0.0472223755523,4.02628531526,-0.490411137232,-0.489808917404,-0.363617770693,1.19800350358,-0.482522249521,0.338019064959,1.65389944576,-168.749139108
off_to_on,-1.83437734436,-0.555547320942,-0.335327585727,-0.0198013354879,-0.892409429576,-1.09256842336,-1.42719769143,-1.93948533287,0.425732654637,-0.611183224686,0.070583544988,0.0166260718961,-0.384996808733,-153.232176449
off_to_on,-0.646234234644,-3.71322169041,-1.42696514207,0.0542302014914,-0.640572721255,-4.31613735827,0.930943430075,0.200238921533,-0.521358753522,-1.92814847964,-0.267307444454,-1.25243006954,-2.09027655935,138.960737559
off_to_on,3.33760443734,2.20052390296,1.56410958337,0.727488993923,2.01607758116,3.21274129297,3.06135430505,3.2610428485,0.389488641711,2.02618060638,0.699633426621,1.89673159676,1.5065816756,176.449087254
off_to_on,-1.68860352256,1.8123520182,0.449042727537,-0.684797168352,-0.730526108102,1.25191101258,-3.71338328077,-2.04269502864,-0.253812968513,0.509239586237,-0.667018273479,-0.225919040343,0.533841012828,-146.440806358
off_to_on,-2.02371959856,-1.25418759488,-0.971262490209,-0.129935968006,-1.09640468717,-2.33403493866,-2.25060698746,-2.33059711676,0.325982970811,-1.16859700905,0.23372027816,-1.42016009903,-0.144948577121,-171.557945961
off_to_on,1.73371213251,-2.07176265563,-1.07535620709,0.137595377894,0.480388128996,0.299589816551,4.74273788353,2.04879923813,-0.373876168166,-1.1397222424,-0.0999006706263,-0.316623377053,-1.50941982513,138.119898745
off_to_on,2.18705376342,2.0323185171,1.92133198739,0.683205175296,1.37545938751,2.35466844041,2.56178207087,2.6959262769,0.236392453471,2.15219917109,0.377894517629,2.77233845975,0.990583084287,169.906273758
off_to_on,-2.73741447016,0.819323122142,0.218079298269,-0.805148563732,-1.34138999721,-3.46838548416,-6.92629494549,-3.13876813092,-0.144345722045,0.158553714688,-0.356548070483,-0.823780235722,0.894987864292,-123.884192002
off_to_on,-1.72578156338,-1.73926119773,-1.82072525764,0.0128935304322,-0.527420556522,-0.313867928585,-1.53469664747,-2.03217269833,0.209004810337,-2.19946330897,-0.163448345743,-3.15290605126,-1.08280236964,-183.041326242
off_to_on,3.60818022865,0.180163670499,0.302658684064,0.351921140825,1.31237243629,5.66224417119,8.39240324945,3.58859272248,-0.209427026181,0.975724155886,0.35324496712,2.24250897921,-0.270426316237,135.680402203
off_to_on,0.912941970485,1.0975798892,1.66404134929,0.144162545556,0.140569248878,-2.46711104324,-0.0316810461328,1.36262812875,0.0824732238235,1.4096419949,0.17134682854,2.50658672397,0.916063982641,160.100975999
off_to_on,-4.20610269156,-1.07424905172,-1.03889177515,-0.519177289203,-1.48222851153,-6.66656503975,-8.93401483586,-3.83578086767,-0.0328491212103,-1.73894849309,-0.546543148377,-3.260249916,-0.524919614018,-104.493047238
off_to_on,0.337590825611,0.322576509775,-0.772389829319,0.248842615815,0.494968950454,5.30489796252,1.99596319451,-0.276611489773,0.0794120714645,0.295713264207,0.206313391945,-0.79258718453,0.162269070527,-187.560427668
off_to_on,3.68551802338,0.567290488273,0.936107004939,0.12314876436,1.25425466291,6.20477450371,7.3572964782,2.7653043823,-0.0391840159016,0.674705920967,0.098883825869,2.30579097684,-0.0421247372265,132.666994958
off_to_on,-0.332050348681,-0.540682148879,0.320729831052,-0.188423071862,-0.70903650797,-6.53793841137,-1.60688914371,0.885457124021,-0.0670299753027,-0.461867311281,0.131305424157,0.749769286512,-0.000104515266946,148.876174553
off_to_on,-4.20663589289,-0.635946326576,-0.859824374988,0.120450251965,-1.36738972309,-6.57639185818,-6.81490444505,-2.96139164587,0.0814669691497,-0.0101627663233,-0.107704700543,-2.15264960034,-0.150075765954,-90.3958326631
off_to_on,1.01695020404,0.91994464046,0.02945302549,-0.00410969209826,1.14703687423,7.98741855474,0.760748659166,-1.23292604067,-0.0581483812799,0.0049981825477,-0.509373032817,-0.563651566353,0.0600034387681,-186.067225188
off_to_on,4.83271655893,0.864266472632,1.00341518086,-0.21073488248,1.54710832967,7.35738628465,7.66293440315,4.08298284545,0.126638699992,0.440149189801,0.627066351166,2.36948980952,0.744889025753,130.37577911
off_to_on,-3.07707862636,-2.20968401729,-1.0158768435,0.2074994536,-2.21938285082,-11.1903426229,-1.92224870715,-0.183739097103,-0.206266920078,-0.89719984189,0.140759752243,-0.76346403644,-1.35174341112,135.800411251
off_to_on,-3.30510151821,0.726437942633,-0.0590225809646,0.318482491629,-0.576380984688,-5.2349448106,-6.29927132021,-3.476539854,0.196943734898,0.763471530136,-0.403122057713,-0.716621663686,0.550359255133,-74.4211661849
off_to_on,3.60594324468,1.61121962471,0.939729847752,-0.866197414328,2.19567769484,12.3746992929,1.56439114093,0.728825511663,-0.198392194311,0.184723874889,-0.424478764098,0.338592918161,0.934870211458,-200.213561799
off_to_on,1.90513008912,-1.44158797057,-0.300576442042,0.626749317903,0.126305225815,2.65134478502,5.20244754246,2.90452381983,0.280247362697,-0.987025186665,0.806523689639,-0.214207104332,-1.15549708671,157.820654948
off_to_on,-3.64889809086,-0.88676276896,-1.13458891573,0.151285924093,-2.34492142138,-11.9768987858,-0.749346264241,-1.29452826507,-0.330619305733,0.320326373326,0.00874307090454,0.28131269487,-0.30068097953,112.798615492
off_to_on,-0.288152399008,2.12706741959,1.19356586529,-0.264576490519,0.928076481213,0.0337129993073,-4.2713899787,-1.66479448355,0.30970500412,1.19256640231,-0.405527433301,1.04147372472,1.59399584161,-104.9084495
off_to_on,2.51472083113,-0.735904032058,0.270992351072,-0.603536363782,1.07343290595,9.3072467852,-0.703440841732,0.739770959254,-0.334408350901,-1.19675535401,-0.517297471381,-1.59494900565,-0.940683768653,-123.948429035
off_to_on,0.0104561741854,-1.25198353863,-0.784760562261,1.1720300639,-0.193811055873,-0.603220246167,4.64087689524,1.43426610116,0.41563512232,-0.484429917409,1.13905479993,-0.572124345523,-0.790070351197,117.790206928
off_to_on,-2.41219733138,0.79777120577,-0.695806063171,-0.491444252863,-1.33253473297,-6.93068527953,0.544511264074,-1.1346304188,-0.437627044676,0.657549823458,-0.44812397534,1.40601136746,0.733596919519,75.0919023998
off_to_on,1.59889611336,1.97491456981,1.89865126119,-0.407986490482,0.753503266302,0.988138611492,-3.1696269482,0.461273531494,0.417152128612,1.88913394284,-0.0265436554843,2.00912746724,1.73439970233,-58.8225998607
off_to_on,-0.131333157283,-3.14892970085,-0.992307124197,0.0684461238775,-0.0276192341263,2.74274643426,-2.8364222465,-1.33430404357,-0.465795338947,-3.08589296726,-0.685591551786,-3.9774041172,-3.00569152442,-99.8557216986
off_to_on,0.0663328440945,0.420869811846,-0.533835770073,1.0038073565,0.926585550037,2.78992981622,4.96535618518,1.0368741069,0.543615674467,1.24895584737e-05,1.05823733712,-0.137586384572,0.367811391356,59.5320039272
off_to_on,-0.126714492729,2.46920872066,0.514031311803,-1.16679214698,-1.09215308823,-2.82075234072,1.95799703998,1.20174277937,-0.542136282123,3.00200733098,-0.164131232474,3.87379572013,2.6541799276,70.4059822113
off_to_on,-0.352585049989,-0.896453018226,0.698973800599,0.351652297577,-0.501307607541,-4.51646909111,-5.1483817088,-1.32050979504,0.505811924202,-0.746063064928,-0.364015903252,-0.517834733029,-1.06304848231,12.0777718019
off_to_on,0.0599410169281,-2.69195094345,-1.27905254981,-0.0296969518669,0.650743292256,2.96026886654,-1.04834051579,-1.63999917387,-0.525690769719,-3.41271987635,-0.570062718396,-4.11274333522,-2.87380497936,-136.633896454
off_to_on,1.03709552516,2.29061916388,0.593756679272,0.637674349315,1.50680406021,6.27199996285,5.34847691793,2.73529791966,0.571143488583,2.63095747289,1.38311814184,1.98654966204,2.59897301159,13.9835841177
off_to_on,-1.22127144355,1.25096720144,0.227965172581,-1.02129962442,-2.02151105646,-4.88412515757,-1.40319870544,-0.043668195529,-0.602881876838,1.63046215951,-0.717285325632,2.47786567245,1.42497429203,130.643156689
off_to_on,0.390893725746,-1.39172575633,0.183302363512,0.613167002627,-0.214017255113,-4.96713292787,-2.70077380371,-1.52338571922,0.639552486208,-1.9718138126,-0.131848615248,-0.980753981111,-1.95911856428,-12.7032616164
off_to_on,-0.400340081594,-2.44671525945,-1.49361137897,-0.276667111707,0.864819287328,3.72477325991,0.70446529763,-0.894777883428,-0.630044148046,-2.18403084347,-0.389338161004,-3.48512489335,-2.36538224581,-94.5356501692
off_to_on,1.45540247448,3.56474162434,1.71722440761,0.575673046799,1.49504257882,6.64683705013,3.15298025104,3.04126075023,0.546331523197,3.89038442404,1.43409260407,2.99990684238,4.22951657538,-78.4231695505
off_to_on,-1.46963058275,0.110758634313,-0.234122649613,-0.891441434218,-2.37421417445,-5.90152938246,-3.32268035017,-1.35091190516,-0.570520591959,-0.769811353027,-1.33486326688,0.866834052987,-0.339795436985,189.152688411
off_to_on,-0.0714965382289,-2.299111145,-0.652804323534,0.771591511104,-0.0390682627406,-5.18850766609,-0.0549539916588,-1.11272549891,0.794713215188,-1.71506656976,0.29646040582,-1.30615354309,-2.79894398768,36.93470414
off_to_on,0.79540930617,-0.420735191559,-0.603212693851,-0.670628332319,1.3104554247,6.08753256944,2.72779962828,0.618348293528,-0.889132940109,0.378427623748,0.156550003734,-1.07166111723,0.365872127584,-187.014678078
off_to_on,0.562745233594,2.84654584692,1.76749398694,0.829530150573,0.873363454934,5.01226283145,-0.859294243185,1.24889360614,0.615888043348,1.2119363633,0.430837772387,1.04762919433,2.78981601542,-44.5704238522
off_to_on,-1.82199142137,-0.905793880036,-0.767292454835,-0.778890101059,-2.50133750673,-8.24461613243,-3.24811768764,-1.39434724001,-0.41125424653,-0.592058940632,-1.04016581266,0.610531544164,-1.48183500883,200.293649555
off_to_on,0.99431765784,-1.3103573511,-0.2818626897,0.461397689802,0.817609105693,-2.00649219326,2.7392732405,0.311149715152,0.71721073532,0.460441016141,0.971282770369,0.478848094003,-0.910545290584,61.3977352838
off_to_on,0.38135639904,-0.367189176539,-0.817942012131,-0.526255968586,0.937306493903,7.99794263934,1.7846922915,-0.182667472364,-1.06793428361,-1.95463955344,-0.765288478135,-2.92875712751,-0.330070743784,-264.760935857
off_to_on,0.0805123161801,2.61991899199,1.84510732593,0.987047850845,0.232700505743,0.563594813321,-1.22924437115,1.213587481,0.799969633373,1.71302771104,0.893981351958,1.8912123721,2.50403492721,34.4192079303
off_to_on,-1.76249736706,-1.35433269355,-0.641429227042,-0.953791673764,-2.1070813504,-10.0816439726,-4.61408303394,-1.9427351712,-0.316955495464,0.805856748174,-0.78728920846,1.3255515107,-1.3921029136,172.631887231
off_to_on,2.28233793645,-0.617048351781,-0.236042665712,0.30282716444,1.70543429507,5.44485217559,4.11140109834,1.25774350718,0.470622839828,-0.868485521558,0.223523406407,-0.812625887033,-0.481549916974,24.9075000413
off_to_on,-0.977419239833,-0.558043475429,-1.27500842,-0.152324575622,0.00370130136101,6.60936553596,3.79572652216,0.415242988537,-1.00113585971,-2.44532998818,-0.267231066635,-3.02780815927,-0.703672919657,-208.685161749
off_to_on,-0.714290302944,2.04985164401,1.99070148748,0.906709936337,-0.503290808052,-7.92537912603,-4.75979054066,-1.04518694895,0.956759669784,2.96842077941,1.19434597121,3.07082310556,2.08973549806,27.726006239
off_to_on,1.1118359257,-0.033812177287,0.255899956093,-1.36619744543,-0.517577380541,-3.565473809,-4.09945503934,-0.623385747307,-0.427000580724,1.39344742325,-1.28677009516,1.92785892442,0.081286620168,133.230915397
off_to_on,0.332892840847,-2.07188555342,-1.48029266418,0.759341261947,1.5708283934,10.2681397459,6.86511541944,2.44302322201,0.36404400888,-3.21910846039,-0.0846237086649,-3.65065066446,-2.06635410244,27.9520070693
off_to_on,-2.25843023602,-0.481463177614,-1.11639492338,-0.0991429147261,-1.42626445422,-1.8740450007,1.60871622704,-1.51628788762,-0.818015517344,-1.61920524175,0.554930143407,-1.76537248736,-0.81603057876,-153.158842583
off_to_on,2.28976083616,4.02078799672,3.15425078375,0.36422982652,0.188012329724,-8.05550474045,-5.69267500486,-0.79205024479,0.905326874052,5.22628125261,1.13392664549,5.64706759647,4.1769247048,-3.14759538883
off_to_on,-0.252773031642,-2.1107511972,-0.92818328532,-0.880710529994,0.568786937296,3.84819747581,-1.40078026074,0.73465068016,-0.490927512308,-1.0584302973,-2.14620856937,-1.16276358228,-1.56162601663,105.116670286
off_to_on,-0.93434169755,-2.42677502845,-1.56793543834,0.765104915267,0.46708424369,6.79263500842,6.03299177681,1.46119185883,0.359015236673,-3.59790227442,0.430600691878,-3.84283364418,-2.90560820177,34.2156072495
off_to_on,-0.431764277802,1.68155765236,0.0893208919531,-0.457704407459,-1.96857343816,-6.7782171926,-1.30852900333,-2.23655108995,-0.683435003194,0.233059045158,0.990777838826,0.27910278292,0.92509805485,-99.5751337021
off_to_on,2.01526532833,3.26544252702,2.27622298051,0.574201898042,1.4782997926,-1.77375168928,-2.11733735685,0.927401316679,0.792260583134,5.02631042819,0.683150259499,5.24376270074,4.40357670964,-38.6291463064
off_to_on,-1.37600091623,-3.80504121279,-1.42219666686,-0.712084115924,0.428211159281,4.21150192364,-0.513495482245,0.111996114126,-0.504604062948,-2.23135178983,-2.38971559108,-2.10486306539,-3.20075795037,85.4693011411
off_to_on,-0.248465100906,-1.17909623953,-0.562021745999,0.50816322166,-0.752230572847,0.442227003808,0.897230377811,-0.359261670628,0.369498276487,-3.97326588242,0.564893247383,-4.32225591315,-3.13431835336,35.0299214363
off_to_on,0.725852794014,3.44026106171,0.361245307991,-0.422284696501,-0.815678274523,-2.04215248774,1.99020726109,0.688400776368,-0.551074078556,2.66735905897,1.83789450643,2.34389239259,3.73872029924,-49.3166470822
off_to_on,-0.2596002933,0.321495611065,0.710058370131,0.622083981886,1.43750675533,-0.0554297870021,-0.254043285444,-0.135030403543,0.635095221385,3.49541661032,-0.356672674049,4.10539947656,2.32268815051,-70.0618245535
off_to_on,-0.47242967976,-3.53006847484,-0.660870015271,-0.576448823012,-0.323390985975,-0.431844931554,-3.87145228529,-1.7576144169,-0.492246846348,-3.68497654484,-2.63124029492,-3.13503086685,-4.54607806321,71.6457443589
off_to_on,1.66465277088,1.67653349288,0.607278150968,0.267637254732,-0.118557008658,1.94026558895,1.80915322188,2.36068471333,0.380072652145,-1.3288030836,1.9726160192,-2.45268856515,-0.00866726926104,31.3509646529
off_to_on,-2.2098124864,1.01379165557,-1.10007764717,-0.260470100081,-0.85702992263,-0.381217526197,2.40064828773,-0.369602026931,-0.357817311605,1.92688464408,1.00970353902,1.37660902349,2.42414729109,-12.0666730965
off_to_on,0.504152779461,-0.336154290408,0.547855611212,0.431500339717,1.00895078138,-0.742513212924,-0.0996880312472,-1.19128447964,0.329023921799,2.06104433973,-1.1727069002,3.76293913274,0.921300940567,-83.6742264643
off_to_on,1.60815081839,-1.28694292662,0.605718255114,-0.247672216534,0.243586823958,-1.05467354586,-3.28399692762,0.229073187686,-0.348268198302,-2.47488663077,-1.15022456392,-2.23481787761,-2.75410321153,56.6578588839
off_to_on,-0.744606309314,0.768322718378,-0.0493212253415,0.0643837797139,-0.515794933908,1.01304608298,-0.299671490432,1.04580966988,0.388514824028,-1.03451751974,1.51107387807,-3.07027469659,-0.198815594187,22.3159815979
off_to_on,-1.74273066844,0.393801959743,-1.28870919841,-0.450926793102,-0.820757086617,1.44808687292,3.59111060478,-0.824804225451,-0.273938006805,1.61436118204,0.175453743159,1.75076335874,1.77574894191,15.5395466087
off_to_on,1.349158208,-0.297133835931,0.47827930362,0.789687595248,1.18175548307,-0.375241863223,1.134099605,0.270379545501,0.112820109865,0.874132522245,-0.412847685793,2.95789791875,0.555857869758,-81.4232660474
off_to_on,1.45191194782,-0.0193294774889,1.30585062153,-0.287868480625,0.311281303054,-2.82457265542,-4.76837866754,0.0490196368762,-0.184786386694,-0.870814951233,-0.630037023996,-1.18656116935,-1.36831632307,38.9537999369
off_to_on,-1.57034965384,-0.0358600622385,-0.492649965747,-0.389415083807,-0.95217720458,0.862744222268,-0.717097821492,-0.617421982334,0.338444212293,-0.964008488176,0.251148177733,-3.06180542367,-0.80521667392,11.2225316618
off_to_on,-1.47004960763,-0.661597549669,-1.81513718529,0.184301433192,-0.503418866546,3.22944149665,5.01155806949,0.312659127907,-0.226130416053,-0.0291904195879,0.602255379439,0.368039119991,0.74602619874,34.2627452369
off_to_on,2.31483454046,1.38996522012,1.41086948492,0.514678837469,1.34901110213,-0.848205269515,0.646195319407,1.2707202753,0.0141527589378,2.01121351372,0.471664618165,4.11470974839,1.91399358564,-68.6828311315
off_to_on,0.492406886695,-0.244233598268,1.14031217507,-0.588025820786,0.0396385731835,-4.10204142912,-5.91432098954,-1.56739044328,-0.0662511408824,-0.557102287596,-1.6336484393,-1.02602181474,-1.64850042016,21.2269164466
off_to_on,-1.62739493791,-1.23561143572,-1.31360499166,-0.0668038495073,-1.0460148614,2.17149624667,1.43928727127,-0.111540336757,0.200017733055,-1.54112164528,0.210962078223,-3.47468431369,-1.2420766223,0.391606747164
off_to_on,-1.0991050022,0.13803014425,-1.08592206647,0.598422919938,-0.248877835482,2.82987768589,3.9924774622,0.719410181804,-0.0710586178898,-0.0586383783141,1.52846041522,0.171219362578,1.04612942179,43.7909042027
off_to_on,2.17146808129,1.59556615003,1.56563655056,-0.367236418227,1.23708404433,-1.96217944946,-1.95580695047,-0.00844216564488,-0.11231800271,1.66553091829,-0.562911634372,3.66869198,1.32145217339,-49.7805762961
off_to_on,1.44875523663,-0.0598241907803,0.845306829252,-0.412797381175,0.331925429193,-1.31335250521,-0.974947802742,0.940566245906,0.0399140086064,0.988252602724,-0.971872005634,0.905785735306,-0.164068023165,5.9953127027
off_to_on,-3.68861123878,-2.57084915595,-1.92280180489,0.741077424315,-1.75348379486,0.151069814793,-0.389348200502,-1.81186934256,0.0550625918368,-2.98398363021,0.199829646639,-5.04053787495,-2.56621477598,-8.81509521058
off_to_on,-0.1456335935,1.21899286438,-0.0818661071256,0.0730154881786,0.213537025551,1.51350642654,0.327488093386,-1.10750261199,0.090623036085,-0.4596958888,0.924757491901,-0.535489173546,0.699066364083,44.8395455241
off_to_on,3.931309824,2.16423005991,1.51786537312,-1.04890083408,1.66691158967,0.590166288893,2.21849122256,3.50419916683,-0.221159886497,3.41076514339,-0.0964312084507,5.57429729994,2.89864565483,-28.3744953863
off_to_on,-0.93896039123,-1.48235573,-0.0666562224745,0.622043765815,-0.441164960879,-1.50796964019,-0.532312787357,0.500229901926,0.129695401114,-0.0523623348298,-0.64148746353,0.0435960657331,-1.09062934397,-7.63228079634
off_to_on,-3.60784155776,-1.93957968841,-1.38750505381,0.598765103861,-1.68097100551,-0.686521155711,-3.24068770712,-4.72502475816,-0.0940834566737,-3.44375034358,-0.382305440785,-5.52631132897,-3.02859147179,-5.81698883614
off_to_on,1.53909579017,1.50476117775,0.344851539312,-0.477698320363,0.904018765577,0.527507970991,0.856775799435,0.590328839883,0.262098934861,0.397620677116,0.856351725517,0.132785805921,1.46115490289,18.511207925
off_to_on,3.10987466846,1.94253512968,0.934914704677,-0.850620917792,1.08089813164,1.16546013053,3.53490441173,5.06893631241,-0.333657400605,3.30251605245,0.347047208462,5.39406896278,3.00103000354,13.460063567
off_to_on,-1.41284054072,-1.39532009908,0.0395098511954,0.999036560454,-0.498317680984,1.08991414582,-0.697790699169,-1.34716002977,0.212776152163,-0.444706963863,-0.557571148644,-0.0564568026946,-1.72671761061,-10.8701493222
off_to_on,-3.60192732013,-2.78604777234,-1.43067602518,0.289057171043,-1.37031404522,-2.8855912205,-4.01609676359,-5.35959151412,-0.215039941666,-3.77391525947,-1.05472079379,-5.94980596524,-3.36641222033,-56.6604672548
off_to_on,2.63120497075,3.06580919862,0.747268295538,-0.572685360513,1.04999884419,-1.41135210537,1.49956887936,2.96821975637,0.395301826121,2.01996048338,1.57063257339,1.75170010476,3.45768178753,77.1478407146
off_to_on,2.16644720011,1.21036873499,0.542579646899,-0.706836110709,0.389179516289,3.27368204984,1.90299850018,3.11340815916,-0.43812955232,1.67613010545,-0.147671295873,3.70571853041,1.07300707951,-5.60588086778
off_to_on,-1.55000558968,-2.45412572721,0.00867281587814,1.21574568173,0.0277679217076,3.55485516304,1.28674915125,-1.34742727127,0.324986253479,-0.799002144012,-0.525311537497,-0.673275036258,-2.35852642754,-41.1576295579
off_to_on,-2.79740105484,-1.24589510733,-1.21350560971,-0.18651610826,-1.12919043335,-6.25786366867,-2.6923480375,-3.13291125847,-0.35467780976,-1.5369891242,-0.330656408623,-3.19130166462,-0.568111816554,-3.76231844445
off_to_on,1.87337649958,2.95656060896,0.666180008109,-0.309822385694,0.409335330731,-3.02836922746,-3.02856559879,0.408223645169,0.512639332985,0.350319654025,0.692588301458,0.213370475936,1.80755076899,51.1574224551
off_to_on,2.63163440615,0.169873760986,0.60143663365,-0.567137876237,0.600462257829,7.95262161418,3.96175284244,3.21049940617,-0.536037057517,1.2458016799,-0.30941074165,2.47698844897,-0.135116224381,-21.3152030045
off_to_on,-1.6149879201,-2.15188237079,-0.0409250827361,1.11226557969,0.421833367706,2.07567947075,4.40394554424,1.00358231057,0.467235550397,0.560437369469,0.585025637946,0.78784909327,-0.391606680047,-50.5143076772
off_to_on,-3.33924909143,-0.458769831815,-1.58314926482,-0.550455421576,-1.67128418317,-9.41881060359,-6.56828741267,-4.95245754408,-0.496928902614,-2.30084474939,-0.896430003802,-3.00906914174,-0.932484346207,88.2761615279
off_to_on,2.95713314521,2.7585483602,1.5087882659,0.13676363002,0.823621336653,0.962564986453,-2.82076369466,0.179738127935,0.541964988959,0.627339010635,0.121674268905,0.0544657336601,1.14613344368,-49.8457037477
off_to_on,1.54867241761,-1.11281914778,-0.0130229031884,-0.384662344009,0.348802223809,6.92812301702,6.23635545578,3.93918264758,-0.521062217397,0.98511739288,0.184563773747,1.29683292153,-0.179708645419,-26.3563079508
off_to_on,-1.08555701694,-0.594134068353,-0.140386011968,0.483706288266,0.363928658229,-0.44124242,3.18358243549,1.1028737243,0.589710329822,0.673650320141,1.18376365312,1.89742499296,0.593060823644,28.6206966138
off_to_on,-3.20445921011,-0.818439092031,-1.18281093382,-0.437285149671,-1.39606670988,-6.58709790731,-7.84496784752,-5.36839166311,-0.696710660969,-2.49364231768,-1.874790443,-3.09180421775,-1.96423644074,56.9778971894
off_to_on,2.23079426299,1.70841746992,1.29286090479,0.850457766958,0.83059712061,1.67538636391,-0.46259123778,0.391688263203,0.574527935458,1.10573749608,0.223486618216,-0.217594744619,1.34364910478,-65.4685336058
off_to_on,2.80507119305,0.620002271228,0.192202308632,-1.11035291965,0.0372069473282,3.87640153763,6.05975547196,4.00027006068,-0.406011114278,1.36673174393,1.04927814668,2.29702886211,1.08994077926,-59.7099276654
off_to_on,-2.20899785238,-1.81211887753,-0.499510099509,0.449569194224,0.279732429869,-0.216685933919,-0.410216879387,0.22635247056,0.603298213161,-1.39450460544,0.296018218077,-0.457272679856,-1.6785897852,97.2053965606
off_to_on,-3.45711452143,-1.29612738383,-1.08755927316,0.127080491788,-0.809790293486,-3.36455123529,-4.32170342164,-3.88635730084,-0.879189527797,-0.753871190497,-1.73895526658,-1.70519228319,-0.776613723881,52.5848059518
off_to_on,3.93380164674,3.68314532531,1.72632261902,0.514823067284,0.675729783113,0.200073995397,1.39410953383,0.203208831723,0.670932582294,2.36157007794,0.86028279726,2.00542118983,2.81437433417,-116.259652645
off_to_on,1.57067303296,-0.879839604202,-0.3174134294,-1.34982408635,-0.619940336676,1.55105225258,0.420954637999,1.99768319191,-0.33103559195,-1.93240129219,0.170225079142,-1.38107997855,-1.72597456353,-45.0665610193
off_to_on,-2.81320294472,-2.2885952042,-0.33378260372,0.953910315105,0.860170116316,2.12379625017,2.02113970754,2.38469358162,0.546725307378,0.314979359713,0.769097128598,0.278431458828,-0.34169289591,114.554079703
off_to_on,-2.57250792413,0.0794298777499,-1.13564760274,-0.0817595692586,-0.718643704384,-3.63600417349,-1.47460978884,-4.04484697012,-0.93081510997,0.51505646134,-1.51406178185,0.492463867222,0.273090482135,72.3360983931
off_to_on,4.85504657123,3.62332732343,1.90249792637,0.172638532142,0.446047632693,0.148222025813,-1.82480233986,-1.15229320255,0.717448349774,0.295510605373,0.27872772495,0.62792726175,1.11523725315,-156.264087232
off_to_on,0.0403398048765,-2.29832085448,-0.339504730662,-0.836781426358,-0.647415905001,1.97433199187,0.513496408878,3.25899571598,-0.316449890972,-1.40374235422,0.467429695473,-2.21151926507,-1.30816756869,-42.267683167
off_to_on,-3.53512530673,-1.59395906699,-0.709105074228,0.973742387907,0.809811690449,-0.00142882451252,3.46562663063,1.93751955469,0.529279422179,1.25489192587,0.995635598155,1.25532474923,0.509622146757,122.860623691
off_to_on,0.0212603512792,1.55542952119,-0.705303405488,-0.791065184961,-0.500491013243,-2.10499660656,-2.25130564852,-4.57078729016,-0.931244101593,-0.283833624268,-1.88649811037,0.893244252897,-0.310606554422,98.2026165326
off_to_on,3.73596858574,1.43339527565,1.85047970398,0.824129037395,0.343092323612,1.59264626502,-2.32637397205,-0.159265270336,0.727097259308,-0.232453408975,0.301798598615,-0.629341674675,0.395879680736,-180.192956168
off_to_on,-1.33384199952,-1.83999238689,-0.519479991316,-0.651635743279,-0.539686327487,0.507519972598,2.45166188565,3.37537414421,-0.351251911987,0.104290236558,0.87402972459,-1.08809304289,0.0359039247644,-55.4448041644
off_to_on,-2.23505915373,-0.109347999467,-0.727133243742,0.173660420856,0.598612822813,-1.31654255697,1.73461468976,0.379660880326,0.550073012317,0.438731763266,0.552301247418,1.13155340388,0.0409471293907,128.211467823
off_to_on,0.236851376847,0.0384829340579,-0.590901833506,-0.294231295934,-0.740846499377,-1.22320955278,-3.93474529984,-4.10235762556,-0.873637102633,-1.46456670424,-1.9556758488,-0.597923421933,-1.34362664201,128.300014746
off_to_on,3.80113745042,1.87894547253,2.21926649344,1.0361331192,1.15290445406,3.86099832734,2.04328191325,2.05846965693,0.653834086932,2.17735686079,1.06163411604,1.62705207853,2.24914581935,-195.668401121
off_to_on,-2.74084400391,-1.88290620949,-1.33030696594,-1.0765818784,-0.866414336518,-1.28352090776,0.924190511429,1.24148773994,-0.362219807354,-1.33795381644,0.0220431253956,-2.00206318285,-1.3755253269,-75.1664409158
off_to_on,-1.62058371356,-0.111050273913,-0.554573241584,0.221311274662,-0.133540538046,-3.01154237973,-1.61899836571,-0.645642491582,0.571436296879,-0.345780030236,0.531414894917,-0.158935512202,-0.190599871218,131.394135699
off_to_on,2.11881379421,0.890234933586,0.56816807317,0.00708861961211,0.0180849337729,0.847427644387,-0.696775994803,-1.54731778005,-0.786496951738,0.827497269997,-0.861195447662,1.52752883276,0.870242753195,154.244923802
off_to_on,1.37380993951,0.259720162983,0.802402934477,0.821341971888,1.30200402455,4.08075928812,2.63046547178,1.20803837805,0.538937606754,0.0747927915517,-0.123843085508,0.306562128,-0.409176560818,-198.575327171
off_to_on,-2.53365034701,-1.21293985394,-1.2922592248,-1.18218736816,-1.32895651205,-1.65164778764,-0.495453151077,0.803170506386,-0.344702771932,-0.848159342077,0.197548778892,-1.89934353563,-0.819830740103,-100.97275508
off_to_on,-0.0846731838496,0.924788027965,0.607442718852,0.437887052421,-0.185703675453,-3.68798584405,-2.41296155914,-0.865584497453,0.566841684422,1.04802130926,1.37277167655,0.618620950199,1.86198868185,135.774637032
off_to_on,1.33687019396,-0.231461629161,-0.0397617988612,0.0486048494507,0.372008404123,0.562766056072,0.0966696581209,-1.49962626513,-0.67729585968,-1.00101578616,-1.7581847667,0.557699528197,-1.17412595606,170.419834222
off_to_on,0.824927717717,0.0315299467618,0.183314453262,0.454543962112,1.08567246097,5.07452518216,4.00319452926,2.68362727161,0.418426379826,0.33039394244,-0.053153766946,0.560448968489,-0.796768142711,-189.276042775
off_to_on,-2.26596918245,-0.539793184442,-0.685701716547,-0.808753433303,-1.22377157503,-0.972764007712,-1.85881730124,-0.448677205644,-0.320698440114,0.393579339278,0.983075751857,-1.45108441857,0.935517490848,-128.204181301
off_to_on,0.667161675108,1.21221950696,0.994016914779,0.314233120508,-0.102032296481,-4.63243658626,-2.88975751147,-1.75837776462,0.53546388405,0.584946708721,0.599732294486,0.704116412791,1.61092318912,139.668717214
off_to_on,0.716369784795,-1.05097939482,-0.709048651088,0.0534892310339,-0.00135818636503,-1.34023654376,0.687955452352,-0.0994817311429,-0.529432394244,-2.20544504047,-1.9583205514,-0.330704816409,-2.88575072927,176.943779906
off_to_on,0.411268795604,0.0713160030044,0.0983710970781,0.371699898087,1.17438178798,7.52347106282,4.26070557007,2.89525375038,0.246324512573,1.02989584907,0.881195424309,0.511591210168,0.302448339211,-171.328749557
off_to_on,-1.31631840223,0.440541335518,0.0672744789438,-0.761133674925,-0.493939869666,0.879965418094,-1.14149852359,-0.943713233434,-0.227136136071,1.89636570004,0.826595723693,0.455594952759,2.3888032078,-152.368551341
off_to_on,-0.331317631579,-0.113430672021,0.198233312984,0.452025981408,-1.01652930439,-9.47122904775,-4.8571598075,-2.94857305172,0.463307139114,-1.4393726849,-0.797481101343,-1.16178566371,-1.059832769,141.343984073
off_to_on,1.87611676746,-0.0393890099475,-0.175048381131,-0.0638647035059,0.145968428231,0.440400892368,1.43536136818,1.40704963803,-0.413881144882,-1.96177991283,-0.452275282463,-0.431744759986,-1.77916371712,175.763824388
off_to_on,-0.143633026115,0.0507272545224,0.0993230346405,0.191735154495,1.65403914205,10.6257090739,5.56004095733,3.43101751303,0.11906476287,2.0590358057,1.14621727734,1.78515435796,1.54167093116,-148.847165266
off_to_on,-2.73773080644,-0.880454107615,-0.680057879193,-0.417371242312,-0.891713739361,-2.97289847385,-2.59158080459,-2.75553003504,-0.103812440248,1.33646220319,-0.757237524023,-0.397627620831,0.525682448317,-171.045019802
off_to_on,2.17706146999,1.50445145973,1.02299399293,0.270259988079,-0.893018519716,-8.87621161806,-4.33831925503,-2.39832848926,0.329762158736,-1.39020518261,-0.0542021992207,-0.736954347224,-0.31869067344,140.759524706
off_to_on,1.34325745548,-0.214991815702,0.0141064315331,-0.0392061069329,0.282153757126,2.973035005,1.37585329352,2.44496638526,-0.316997349476,-2.37257578318,0.365689131615,-0.81209131172,-1.42308711713,169.114277952
off_to_on,-2.27765088021,-1.23938875206,-0.898261973239,0.113895002625,1.14906864225,8.22608408824,5.10581116946,2.77888749253,0.0825307533344,2.59679061219,0.219628285912,1.70940392301,1.10732456883,-126.074616339
off_to_on,-1.11227573377,0.0598740584819,-0.258375134623,-0.332914904988,-0.372257232496,-3.54946228227,-1.48789299995,-3.50135093582,-0.0272806966899,1.58587335482,-0.8289649577,0.190132439191,0.676071128021,-182.859057503
off_to_on,3.07628806078,1.6741386963,1.48511750216,0.33029135165,-0.88132755611,-6.52294585418,-5.16901133671,-1.75252006695,0.150451956207,-2.73905585134,0.27685070012,-1.48437376807,-0.788761368067,138.529167836
off_to_on,0.310776599853,-0.119548965019,-0.0247150527212,-0.0633885991445,0.0960364781592,3.00350497301,1.65097808112,3.77899168372,-0.145211536239,-0.477302735286,0.824216624431,0.484140686062,-0.234474385453,159.182228827
off_to_on,-3.62230278241,-2.39914575661,-1.90396481829,-0.144194120314,0.758192270328,5.05394549885,4.35553653649,0.222840925019,0.00618407511712,1.54648580389,-0.728489025273,0.023243276877,-0.0251737928739,-106.432935757
off_to_on,0.940476530181,0.857439305485,0.57388484541,-0.0047713736558,0.281719159308,-1.67428591088,-0.532417208134,-2.74670361068,0.0539525450533,0.484235262603,-0.424634222983,0.315265856195,0.584773063384,-187.674214868
off_to_on,3.20768933945,2.42797281594,1.87504395308,0.265725564062,-0.931293496714,-4.67830887955,-4.47571291251,0.462002680899,-0.0289938735614,-0.395632989798,0.706739640766,0.61784989452,0.363648583155,135.685258873
off_to_on,-1.57277005565,-1.2451048031,-0.863703010068,-0.0586720826278,-0.331784114315,0.964274345412,-0.601344865139,1.41492445853,0.0398880213921,-1.25652144175,0.229708077716,-1.03148848296,-0.966529688646,147.805268252
off_to_on,-2.42985190147,-2.38749071503,-1.83933958277,-0.495301862203,0.971942938101,4.56177935938,5.64249180312,-0.226487214386,-0.0844801678394,-0.0115904380779,-0.661764383403,-1.03527325437,-0.392375550605,-92.0671533595
off_to_on,1.17501995737,1.29377360448,1.15252793685,0.516971500553,0.285513129181,-1.17982879509,0.28169123746,-0.638026384626,0.123105289441,1.72828768251,0.0152430109365,1.52462095073,1.00991112489,-186.434193043
off_to_on,2.42440329289,2.79754653353,1.52780108472,0.0984343394666,-0.995117517798,-3.70478702287,-5.94571796415,-0.250628061407,-0.175064753482,0.53590161206,0.305576419001,1.65312906356,0.718745289939,133.567275431
off_to_on,-0.650203990451,-1.6821369499,-0.848368305541,-0.283774970964,0.171579853341,1.67102351536,0.184782639522,0.543630891721,0.217183344188,-2.49191152624,0.255410451517,-2.16021142314,-1.21591554316,134.310101999
off_to_on,-3.48113030917,-3.44139582046,-2.09260576987,-0.31388471965,0.18216354335,1.57558133299,5.60947550668,0.106291145763,-0.209485213197,-0.883360723905,-0.545989741194,-2.57969673506,-1.38758094347,-74.8762078738
off_to_on,1.82868477549,3.32300954478,1.7493578043,0.608145644552,0.357464159677,-0.573792744367,0.081028875301,0.205932420549,0.212763256054,4.06914224826,0.165355600247,4.1585698829,2.73076245807,-203.018435851
off_to_on,2.60592927465,1.98105510206,1.15878874087,-0.115225617555,-0.354080170112,-0.945824190342,-6.69851602129,-1.22806393794,-0.275952737334,-0.971870703442,-0.139271653202,1.05978467224,-0.197118209928,164.228387477
off_to_on,-1.28775095422,-2.86538955178,-1.12603074278,-0.120222845439,0.180866803536,1.00169112459,2.32379464781,1.03343252217,0.318747080856,-2.93059810159,0.624473111606,-3.62376701058,-1.81313677245,109.471453224
off_to_on,-2.98866921776,-1.80214093135,-1.47411914267,-0.424292873296,-0.688884139379,-1.25653270094,4.88395974741,0.470383677183,-0.307984212556,1.01933550823,-0.463825076028,-0.97477696632,0.123277961233,-107.498126284
off_to_on,1.57951100941,2.80367790577,1.4322053349,0.763435136102,0.510850311134,-0.193218412162,-3.48374297574,-1.45840801769,0.346750275276,2.18731161316,-0.390143315088,3.27366618144,1.47978574972,-121.114164352
off_to_on,2.85589898286,1.55287989794,0.974889696762,-0.353686344502,0.687456186511,2.95187937845,-2.193832008,0.484407690377,-0.432789097408,-0.785022139484,0.427052730546,1.13482340292,-0.0853573379141,119.099211766
off_to_on,-1.57814274362,-2.40237031269,-0.79244373483,0.044018541135,-0.350882275447,-0.738637539094,3.40951330981,1.75338933712,0.418749846531,-1.3933636566,0.725774159952,-2.84378324694,-0.873395299138,73.8065145332
off_to_on,-3.08949360772,-2.18217516175,-1.70803995751,-0.364228402009,-1.64256619282,-4.64705698739,-1.06066056852,-2.42381482044,-0.339300873118,-0.334273561612,-1.40466893883,-1.97124788296,-0.932076381966,-63.048913591
off_to_on,2.52507473861,3.39023846868,1.70810389111,0.69393911433,1.63241545116,2.80823345201,-0.610683121957,0.16509282487,0.40422646545,2.35202316874,0.623538606885,3.81639608804,1.99088652357,-92.5888751463
off_to_on,1.45049492381,1.04780585745,0.615753201376,-0.573661738819,0.614728841567,3.69767504699,0.966411542823,1.6401707558,-0.568923803903,-0.951689197527,0.292376545236,0.633626673743,-0.319055538044,56.2706139179
off_to_on,-0.794793054186,-2.32126819321,-0.594948501941,0.312620749236,-0.750196427738,-1.47022636216,0.190988445182,0.425108823586,0.562871250411,-0.667519021015,0.0664907405743,-2.14401548901,-0.55594142626,67.9799504814
off_to_on,-2.79764128953,-2.24958390856,-1.71535007685,-0.234514219505,-1.56775911909,-5.8346884126,-2.24884910809,-3.03834061765,-0.414109016617,-0.207693567394,-0.961725748421,-1.91437673761,-1.01654857245,15.2094833519
off_to_on,1.77184190059,3.77744793556,1.76782872396,0.423998149356,1.67674447282,2.492385415,1.81536284468,1.12576591306,0.427723020251,1.08016484448,0.908745129158,2.792519544,1.56227773527,-137.049490511
off_to_on,2.12278681531,1.05852345831,0.602537287533,-0.814819065875,0.669334193569,6.13060774291,1.03418842645,2.30696595742,-0.600784691549,-0.491953577367,-0.122251154442,1.22863512731,0.180196411935,14.6716409571
off_to_on,-1.45501780095,-3.4464063476,-1.03389391013,0.923909019328,-0.669932677824,-1.98381997151,-1.22390023412,-0.93967714085,0.626019246988,0.129771058911,-0.0646018798805,-1.97194445453,-0.8511885659,125.653289118
off_to_on,-2.36886618812,-0.875764812779,-0.999793627938,-0.409181574076,-1.65503616094,-7.80385340419,-1.28605703451,-2.73264617719,-0.493466021728,-0.0134712008589,-0.500682052293,-1.4355942396,-0.466946939786,-5.25159216115
off_to_on,2.28415918883,3.89875052432,1.70164991241,-0.0133857453983,1.47572138645,2.93995759234,1.0570681505,1.81489575904,0.493650709425,-0.453533885758,0.80113035889,1.90326221591,0.98597911771,-99.1934793266
off_to_on,0.7321712339,-0.836960103644,-0.465153142055,-0.420332143724,0.748475977267,7.82576626561,0.71806060376,1.46890192515,-0.633062500891,-0.728866299844,-0.591162455925,0.197555282556,-0.638810991206,-77.221082199
off_to_on,-0.379284607073,-1.59947885937,0.277008240763,0.995660649504,-0.149226889994,-2.04062457608,1.52873563583,-0.147764257313,0.644016653153,3.17996934294,0.590632156384,0.830981159138,1.46932824433,186.952022913
off_to_on,-2.39696173854,-0.996046589837,-1.20096155069,-0.732106575312,-2.28469692645,-10.3068194645,-4.14259823902,-3.34248858096,-0.533494924577,-2.19310115089,-0.911638842355,-2.6272718191,-1.88333896895,41.9151331749
off_to_on,1.94190938163,2.86716713705,0.727598841798,0.273287602596,1.5244750247,4.64192124612,0.485600534543,1.94355275681,0.54436435075,-1.78921026221,0.926921231639,0.310409228972,-0.0652051629289,-191.195048705
off_to_on,0.769421349417,-0.272086019971,0.394489457438,-0.590009834472,1.08516237891,8.86885293551,3.75350776614,1.76428547743,-0.651614561643,1.65174178564,-0.538443251536,1.87643347066,1.13034844885,-43.3483491461
off_to_on,-0.71006003658,-1.66720317079,0.345494577301,1.01797660121,-0.422859461057,-4.41295311943,-0.603487145851,-0.937413539598,0.638538040839,2.70617189395,0.196024578225,0.592541586794,0.996272990628,199.11068933
off_to_on,-1.19279281699,-0.326472033052,-1.59118363732,-0.67646535996,-2.01724641847,-8.61584965567,-3.64751204091,-1.91209864588,-0.549581700011,-2.65816359851,-0.099291095434,-2.38767897893,-1.98165569456,64.7076073159
off_to_on,0.854434252313,2.01965205173,0.681205563176,0.334492025441,1.28693496684,4.93532476894,1.18131316602,1.03915254283,0.573893895695,-2.17357147419,0.391575086799,-0.308604718507,-0.575352690091,-267.729231073
off_to_on,0.477059430816,-0.707761354638,0.69225987975,-0.788662132211,0.960163653322,6.72474768148,1.56963745798,0.585152186232,-0.647446588746,2.0648319997,-1.11436182017,1.47361496812,1.43036512086,35.0309370948
off_to_on,0.445626979689,-0.491793776955,0.215937716918,1.10040240186,-0.077875285376,-3.14852961372,1.205845151,1.24525031616,0.6090452676,3.41973842336,1.35782303429,1.68581955831,1.72111991274,172.271787153
off_to_on,-1.86052663689,-0.344184983126,-1.64956213828,-0.436240228717,-2.11970670646,-6.89397245892,-2.2160379188,-2.32096578482,-0.541199312255,-3.71513141574,-0.321675641226,-2.72779944083,-2.8669457774,26.7163334839
off_to_on,1.03319633838,1.33866906427,1.05838195649,-0.153505447136,1.31088634751,3.29233942949,-1.36882289843,-0.373789442504,0.578212816503,-1.69782689738,-0.553009932116,-0.0141702144222,-0.163417138727,-210.085617793
off_to_on,0.0588790907644,-1.4974190405,-0.103850627303,-0.364080787495,0.670942946665,4.26369843704,0.435559519079,1.18062593118,-0.622183256817,1.96537140757,-0.600199537885,0.246283325663,1.04698739502,27.4320481394
off_to_on,0.668530484563,1.20794930788,0.657721638221,1.11035212687,0.0341279147415,0.464521212583,4.81237151064,2.19611800835,0.56417574159,3.26483434047,2.21170922575,2.08083611277,1.84521435768,133.473345762
off_to_on,-1.08365163296,-0.0348855820502,-0.894904556774,-0.932145497642,-1.6415803121,-5.49412251645,-2.60705241869,-2.81976863378,-0.512868431068,-3.19221378653,-1.26696071557,-0.93982941037,-2.05438782313,28.6644130035
off_to_on,-0.106503771284,-1.13402221297,-0.182426716635,0.293924941572,0.891152793563,-1.74938422902,-4.88311619047,-1.34489710024,0.55314135896,-2.21975862332,-1.04963764562,-1.84544090137,-1.20230743934,-153.199217263
off_to_on,0.472604320119,0.024046003697,0.205087597503,-0.176786106966,0.459109783749,5.77638397988,3.36539507605,2.54590086524,-0.570832584089,2.47722086192,0.833577976633,0.337199105029,1.36453690453,-4.20277339272
off_to_on,0.707006032033,2.01418502348,1.22597485291,0.511197784968,0.224155185394,3.69214543592,4.67757563786,1.43013169696,0.504281089651,2.3289124474,1.56850573843,2.24290442912,1.59711847828,105.570114776
off_to_on,-0.968777177426,-1.35551068357,-1.25241978249,-0.734753963582,-1.2439700067,-7.7540767295,-4.29285917384,-3.01574860279,-0.468307870676,-2.8004570894,-2.04893276649,-0.581369321208,-1.59280452775,34.5073569885
off_to_on,0.216500835587,-0.593748743963,-0.148334786672,0.718333162437,0.647580027406,-2.86456346273,-2.08579027175,0.104670018044,0.502461786949,-0.524936918827,0.147402968555,-0.865715887966,-0.316845401733,-98.9568946548
off_to_on,-0.675153104855,-0.22652979734,0.00342412212207,-0.50212510145,-0.0716264527013,6.91286246607,1.05640214198,0.719001532544,-0.495709544307,0.0708186351898,0.539989387899,-1.82825751506,-0.926941576536,-39.9981856549
off_to_on,1.43776673523,1.95552733242,1.1837120882,0.151039068338,0.719104976249,4.40414331353,3.59660806352,1.61428589884,0.429435685884,2.20616991956,0.69501360225,2.44060444937,2.26869501617,85.9253205615
off_to_on,-0.302503281427,-0.533901008489,-0.583586421089,-0.0978702015342,-0.868065792582,-8.54739051855,-0.576454906094,-1.31449023705,-0.40746338012,-0.303557659274,-1.01897552537,1.56567057393,0.615409728138,35.1626291093
off_to_on,-0.826792738532,-1.21811799232,-0.466159560197,0.599821418377,-0.0700609295756,-3.12632496393,-3.64690295384,-1.1983861068,0.429484992244,-1.86454877631,0.0803438611428,-1.93189172597,-2.22887727809,-48.4797820437
off_to_on,-0.355502119016,-0.678803950703,-0.64888133307,-0.974305764975,0.217984582581,7.99729164094,-0.93112917813,0.417536149962,-0.402006706161,-0.822337070927,-0.112911066445,-2.82259174943,-1.64909017921,-71.3718417007
off_to_on,1.16451774207,2.06367076572,1.42782237679,0.52782753793,0.674835227137,2.52737234229,4.98772377979,1.92178940871,0.342204579826,2.66310213076,0.785812697724,2.56045536517,3.31645319832,71.9818870652
off_to_on,0.54791194188,1.03181474455,0.632152182231,0.102348810426,-0.741252457755,-7.25420329824,1.09125666539,-0.455554056902,-0.331210721385,0.998448220803,-0.192235301192,3.33778572208,1.6851105185,31.387790361
off_to_on,-1.10487459295,-2.67191014349,-1.55650650435,0.104335229285,-0.0669039502849,-1.64881031897,-5.63837233987,-1.86201485325,0.33780204331,-2.91009979544,-0.549285380736,-2.91273391041,-3.80667826334,-11.2033559168
off_to_on,-1.54327358701,-1.69658776568,-1.4594393349,-0.702391874195,0.073422962265,5.36569142058,-1.37025448646,-0.377816723533,-0.294980363394,-1.61291846638,-0.46732724447,-4.15123908218,-2.0041306966,-84.7459181252
off_to_on,2.55785855011,4.45832466676,3.01092511199,0.506023998888,0.6187145984,2.18684677779,7.00046781463,3.15162074773,0.245380678527,4.23753903816,1.50026068531,4.46910256086,5.02845156237,56.8575440136
off_to_on,0.39299230409,0.23850203863,0.46815007667,0.202920616763,-0.659058457316,-4.83070093154,-0.448990379647,-0.688524410421,-0.241237506561,0.222405361617,-0.420204225538,2.66796076045,0.544064847086,22.2355008554
off_to_on,-1.66979562969,-3.91700737902,-2.65295673383,-0.0981592795045,0.242913578097,-1.0673131585,-5.49234655078,-2.41352087188,0.231803378357,-3.19711085432,-0.79771272217,-3.45201778022,-3.80755408114,16.3739062387
off_to_on,-1.26598652416,-0.579834583047,-0.789939971974,-0.693655219903,-0.183681099837,2.10738814671,-0.177807302749,0.0499780667129,-0.180130631442,-0.875939790006,-0.0836036227026,-3.22083540574,-1.26180560757,-82.2298655749
off_to_on,2.13667836201,4.49810861479,3.04926304269,0.662644148313,0.072190196369,2.03152841044,5.38636154524,2.93388838123,0.142227948586,3.54372351043,1.05788499434,3.69617747322,3.89849066172,39.0847557131
off_to_on,1.61471974806,0.410258067969,0.717539562761,0.296518674355,0.275739366856,-0.355616354428,0.511888370473,-0.138853954644,-0.140272679775,1.08137539565,0.0543939163427,3.45363953527,1.69768209774,10.965207626
off_to_on,-2.83553248485,-5.26083640101,-3.3028168927,-0.493900378101,0.00357886301238,-3.35853016903,-5.9710463789,-3.51396401105,0.116286752635,-4.56606622257,-1.1867794651,-4.69898562759,-4.62595053993,35.0894409307
off_to_on,-1.4025334045,0.441448313706,-0.622486587141,-0.502406296271,-0.645146279746,-0.596490447459,0.296982146615,1.00075111917,-0.0624152393557,-0.0461638790536,0.0908222006283,-2.50391760749,-1.19799809175,-69.2948438478
off_to_on,3.25440913072,5.59892370889,3.6256467199,0.877791379956,0.246147764493,4.43466265416,5.92046086951,3.4288482496,0.0360544279706,4.99398887547,1.29483890878,5.37084483481,5.11443579358,21.3880051883
off_to_on,0.84989926647,-1.74801709896,0.152089178132,0.224280381052,0.724965353893,1.22083880739,-1.60445472952,-2.22431437587,-0.0321188010613,-1.72109847993,-0.56655347934,0.541205538161,-0.196763039449,-0.0770848314323
off_to_on,-2.8207066248,-4.88740891935,-3.40444233019,-1.01939775782,-0.357201553924,-5.10934193571,-4.54560594552,-1.99296772244,-0.00342971924511,-3.95254012552,-0.828519157034,-4.54375057078,-4.19518271977,44.6306213682
off_to_on,-1.38863620271,2.19285025225,-0.100489168105,0.20675787469,-0.925785359905,-2.39973046032,1.57974183305,2.08947926611,0.0537497849666,2.39723339631,0.56366021782,0.474880728208,0.5485750557,-50.2925463691
off_to_on,3.50260761359,4.5938705646,3.43339285948,0.714992235227,0.777647900997,6.9911303794,3.95993848775,1.07429736329,-0.0700186148727,3.20058513218,0.516814994014,4.06238475933,3.79341369511,6.27547487537
off_to_on,1.07771947597,-2.99276654356,-0.160911196403,-0.216610448765,0.772443084247,2.10436363033,-1.65923925852,-1.62731247156,0.0788408040141,-2.99535142529,-0.404758748051,-1.80589003204,-1.26748473708,-9.49132743955
off_to_on,-4.05236616786,-3.90564722399,-3.39752908168,-0.613063320017,-1.25690414242,-8.56293357245,-3.98229767001,-0.834305186361,-0.121859625371,-2.51922368634,-0.550081839906,-3.26829356994,-3.1227970445,45.6894109033
off_to_on,0.119019873699,4.0230571054,0.845777303079,0.350385760083,0.0943638148848,-0.123713701642,3.05252468817,1.91741904167,0.164364206652,4.02579842645,0.736879239353,3.63189110179,2.33583625027,-28.856341749
off_to_on,2.93151079617,1.71500212616,2.30798936742,0.203410581435,0.659597437188,7.43701028504,2.16499868886,-0.386426740544,-0.172876396655,0.406221465039,-0.137713217282,0.531457163079,1.02509517288,-7.23137887361
off_to_on,0.419144234942,-2.73303861546,-0.177665311576,0.0706287791187,-0.0677404740017,0.0418912616258,-2.54456366942,-0.843045402,0.187916877828,-2.80143288576,-0.086993141709,-2.73378838414,-1.2554191294,-6.47101759851
off_to_on,-2.88178523819,-1.25598826995,-2.29424869456,-0.466305602969,-0.496757520819,-6.70228159433,-1.66431251406,0.208524858541,-0.23375248958,-0.158316659097,-0.208178316029,0.427230799304,-0.641230894438,18.9286678374
off_to_on,-0.752157326392,1.67096312346,-0.00436845374058,0.220603455784,0.252228416057,-0.156530794594,2.45264531526,0.553611297245,0.265880511597,2.01216295757,0.240656866185,1.6223944757,0.527868101868,13.4634191828
off_to_on,3.00947451994,1.45885077986,2.10757497339,-0.0890702941712,-0.132671777835,5.48085896389,1.19734532114,-0.0312961841463,-0.269351290289,0.547123022516,-0.00759149989408,-0.0639291904652,0.926606615322,-10.4199104121
off_to_on,1.24165036696,-0.756375093367,0.663668485976,0.493652708845,0.48560365203,1.65590329944,-2.13692801494,-0.512748226759,0.29036696636,-1.61774163232,0.154395072736,-1.14300935766,-0.232756431379,-58.0018321043
off_to_on,-3.88591729088,-2.63791702143,-3.01772592003,-0.526318697502,-0.350032769749,-5.69375527671,-1.31783714526,-0.281032801048,-0.334384661717,-1.56923570261,-0.474051396501,-1.07284610511,-1.82558140517,78.4358770673
off_to_on,-0.680318490134,1.35696218013,0.12147672625,0.0295698230426,-0.257773462927,-2.38358030066,2.57117283649,1.3130687264,0.35521217143,2.6600270307,0.375387527435,2.14952641991,1.38585269671,-6.16704040923
off_to_on,3.58054021549,2.43708187254,2.54518165007,-0.098533505578,-0.0539210829244,5.40180824226,0.10330920477,-1.1409314638,-0.356237669836,0.782715756104,-0.377784391854,0.703217170694,0.926931504444,-40.3700532974
off_to_on,1.82387549333,-0.526090052946,0.439012887308,0.741661631675,1.24900087385,4.50361431819,-0.394302121723,0.508796097075,0.381660769439,-1.59591215673,0.956918650549,-1.45697645446,-0.47724643625,-5.83890266892
off_to_on,-5.88316449303,-4.34926992164,-3.73939063501,-0.743217704507,-1.34468684325,-7.94167171705,-2.39404063708,-0.376383531798,-0.419785284641,-2.38309752177,-0.882570953919,-2.64130319412,-2.40334685356,53.7609739497
off_to_on,0.017611742441,2.47458368199,1.05417026563,0.164421354583,-0.10213744698,-3.28915826437,1.07598558482,0.0316290848714,0.429756561683,2.91061473979,-0.452819598444,3.48489838301,1.9822067745,-22.7635539623
off_to_on,6.07493284705,3.73763158489,2.96873300789,-0.22059759012,0.807287780656,8.25820641397,3.62342505774,0.475761751479,-0.430389211536,2.03003647646,0.798376023216,2.25942597218,1.9195773126,-50.4058764607
off_to_on,-1.27208129033,-3.01923026766,-1.15334028977,0.794994373335,0.402493284443,2.69844192059,-2.054785578,0.376054811973,0.457725231443,-2.93840177291,1.11478561279,-4.31890693609,-2.2576377718,87.9388248737
off_to_on,-6.14849163856,-3.6327722218,-3.1640875109,-0.769232188441,-1.48400525868,-8.782375596,-4.74459252525,-1.76523351563,-0.486862691768,-2.44603710296,-2.15785509884,-2.07201195063,-2.12659778856,-48.2855787516
off_to_on,3.18312231099,4.27694354055,2.4170211872,0.293704127882,0.78907186633,-0.980648390602,4.28271400169,0.930833028066,0.487416280481,3.74801085199,0.0531532239795,5.39304121716,3.24454925142,-28.0365397548
off_to_on,4.20393200545,1.82333275916,1.61784634482,-0.267316504043,0.157831491038,7.24880199794,3.46669043767,0.994523826014,-0.488892643728,1.49458465728,1.57026982956,0.548650105237,1.06552157382,28.8560120299
off_to_on,-2.39242682224,-3.04357339394,-1.5592757995,0.499562969077,0.325047007275,1.5000170583,-4.05930354233,-0.0772708850908,0.515182583847,-2.35221981636,0.620874983263,-3.91648758802,-2.23362654944,57.7066121454
off_to_on,-4.83836690755,-2.66106378502,-2.24006985746,-0.467676722348,-1.11535664721,-8.00706588419,-4.20876116119,-2.48509755087,-0.53345839313,-3.49963965862,-2.87427878725,-2.14036711216,-2.60624360595,-65.1728096023
off_to_on,4.0801072209,4.36605090192,2.90336769204,0.53703927236,0.72101607294,0.762833823058,6.18999463425,1.78450662912,0.526609910818,4.31462262183,0.956047061195,5.50139467495,4.22902502628,-61.5165125651
off_to_on,2.71025237593,0.942564730499,0.526317795847,-0.830984785026,-0.0636521309824,5.63485405169,1.53788640733,1.09724834811,-0.529261970734,2.40993433979,1.60564525788,1.05822107458,1.11004572114,98.7854302059
off_to_on,-2.93678641048,-3.25281465069,-1.99687236595,0.67341566257,0.412610748923,-0.452130797879,-4.63411801722,-0.734712898064,0.551547856462,-4.14292260259,-0.0864155784015,-5.05613434019,-3.82812508911,52.3328806074
off_to_on,-2.76177140589,-1.17055794012,-0.597534901948,-0.224804418496,-0.908611091926,-4.61479053707,-1.2043660446,-1.76471692033,-0.558351611107,-2.47169944792,-2.3124025827,-1.33597234053,-0.921601349847,-116.100342834
off_to_on,3.07427020559,3.5205074802,2.47983607694,0.482498889161,0.471464893419,0.598428136638,3.64234831154,0.957974192273,0.546289237857,4.93270897594,0.865296713798,5.75341909348,4.10232041679,-46.4230506198
off_to_on,1.83791150418,0.137274232325,-0.921844956542,-1.10650664546,-0.00762756620426,2.97247289406,0.746683900427,1.3962015894,-0.549624031999,1.03847542029,1.29757809331,0.14615038456,-0.336367032544,116.267130185
off_to_on,-1.78414945997,-2.12385190701,-0.766815310757,0.803414424833,0.543596833181,0.939290912688,-1.41710391109,0.266208862585,0.565359450112,-3.75755731894,0.364632172792,-4.59252854541,-2.41510833673,71.5899018827
off_to_on,-3.0734642388,-1.32469182137,-0.0794912030565,0.0246571247063,-1.16491100417,-4.02946371402,-2.97423441031,-3.22445879566,-0.561222627309,-1.66874411819,-2.53736012138,-1.01984098682,-0.908846967056,-155.980376111
off_to_on,3.29312399239,3.41062300977,1.42748647609,0.147917099803,0.809679992416,0.422954845315,2.65717495789,1.48581685784,0.545965733312,4.87683434952,0.813509590222,5.90579621474,3.39619940582,-43.3323686286
off_to_on,1.03969500831,-0.576342072109,-1.20089186138,-0.995547768658,-0.239666328078,2.5147971749,1.7387763229,1.60749804472,-0.548874077826,-0.650414043688,1.2824927851,-1.42333842273,-0.813851710243,124.460463744
off_to_on,-1.39456623689,-1.37112258866,0.506028973098,0.919724332132,0.423066053144,0.722827289786,-0.913829531882,-0.0351094897233,0.556234328072,-2.55290502758,0.485681972495,-3.30211852247,-1.01514291201,97.1836700899
off_to_on,-1.95860350797,-0.542614680302,-0.39599983302,-0.128295059713,-0.752321994077,-3.76251081174,-2.80846346357,-2.25733425815,-0.542586881439,-0.104508271443,-2.35494003473,0.481058684291,-0.669904141326,-179.716416663
off_to_on,1.48578082168,1.40656664099,0.0845831145397,0.158918383156,0.486419896652,0.823652331672,0.781904109168,-0.134827407158,0.525743638182,2.2297300525,0.293193997656,2.55001501244,0.867615617037,-56.3390620531
off_to_on,1.79895450846,0.614852708924,0.334192260774,-0.905159186891,-0.206022139739,3.00564139884,2.87380909499,2.00717445635,-0.526784954602,-0.199263255602,1.63085178134,-0.019560514683,1.10945400432,129.644711006
off_to_on,-0.765612005213,-0.760814519771,0.404688064169,0.930534475024,0.443621272036,-1.32617297405,0.0293645224071,1.50745338037,0.52484891609,-1.05175598507,0.539026776125,-1.50976820617,-0.181535032703,127.131533421
off_to_on,-2.95196029984,-1.87333725554,-1.63107494131,-0.181959884956,-0.645488526763,-2.68040497051,-3.93093053554,-3.56153079129,-0.50370991725,-0.831009546638,-2.58882120532,-1.67464778222,-2.61324797551,-195.022477651
off_to_on,2.19223909792,2.19180708304,1.29669540505,-0.0793221495972,0.549471963171,2.66257984613,1.12718403565,-0.616592163718,0.486352305365,1.95319813657,0.621591367445,2.90270050168,1.60886678648,-75.9213751307
off_to_on,1.387870981,0.45951706365,0.19522214891,-0.436390734861,-0.673418183169,0.0303574038952,2.03836581756,2.72428523667,-0.484060916972,-0.885417006573,1.26620666685,0.307713564636,1.28642131942,132.586986525
off_to_on,-0.799462721622,-0.915585584199,-0.459451221555,0.812721061215,0.824568128927,-0.273036220595,0.94749447408,2.14279913329,0.472856803001,0.298344960778,0.55647201767,-1.29569751746,-0.155547526805,153.134924888
off_to_on,-2.53735023762,-1.51362752035,-0.755364999603,-0.584019184686,-0.329203709033,-0.973697865171,-2.96826885365,-4.55746718115,-0.446512166105,-0.535314413906,-2.18996993595,-1.63066618156,-2.62614949672,-197.95664585
off_to_on,2.00309526925,1.9533830113,1.37108672545,0.211214718298,-0.150428067289,-0.0516553463402,-0.842410110895,-0.719386913383,0.429166881355,0.0405671256723,0.398315810131,2.11290669531,1.26963214587,-101.528862289
off_to_on,1.41414967316,0.392259008077,-0.576673227774,-0.191372983877,-0.403898614126,1.15842653475,2.32594783281,3.77856369613,-0.422331490476,0.261089733526,1.18000900735,0.922576336963,1.62286041135,136.739114737
off_to_on,-1.65652621443,-1.26474267126,-0.314055336314,0.501103260172,1.03186263471,1.1353879046,1.80472824523,0.819939948178,0.402758742846,0.544836309675,0.244538774758,-1.60142866775,-0.735841880602,169.435775528
off_to_on,-0.985953573543,-0.237261777122,0.273773757257,-0.714138182043,-0.387974902949,-2.86107637177,-2.36926683885,-3.4342908344,-0.373470826112,-0.593308478384,-1.46413493423,-0.778101668191,-1.35480553701,-188.833002206
off_to_on,1.53534368189,0.941897429678,0.340563911284,0.474507164457,-0.400508390387,-0.43516736468,-2.38332004204,-0.760035234343,0.356206985402,-0.486944541103,0.313037194711,1.28122893149,0.411998759096,-128.464759083
off_to_on,0.12579491258,-0.350495728139,-0.795602653004,-0.0595650606496,-0.23162266729,3.44259646559,2.0692660666,2.29247003903,-0.344085995492,0.0618315481172,0.453013609387,0.156944261872,0.695163959129,140.393453355
off_to_on,-0.204062074896,0.582844377398,0.774051461183,0.109029776546,1.08280763306,0.160775935172,4.00762076804,2.50608605172,0.3177409388,1.76583260461,0.59533153927,0.396325106008,1.08058556579,176.114787811
off_to_on,-1.37625058929,-1.15738015346,-0.423280806742,-0.521673735218,-0.538425677175,-4.89269076991,-4.11566132978,-3.57783204345,-0.28752246164,-1.53412510627,-1.03388894646,-1.91683881759,-2.13624208903,-171.148016298
off_to_on,1.42710836621,0.297682606133,0.130822904637,0.470824588047,-0.181467622788,2.39268971909,-2.60270594797,-2.11428238473,0.270105184133,-0.635683681631,0.037383800601,0.79154162505,-0.00635739732209,-152.263959524
off_to_on,0.34480870189,0.649592619831,-0.0754465811655,0.0704898996698,-0.324830998258,3.23663409422,3.82839564005,3.6302052494,-0.252554681889,0.773804493407,0.291051945413,1.18437034804,1.33758251006,141.804059645
off_to_on,-1.10187613155,0.226704511293,0.105550442825,-0.0681553236669,0.691107754027,-2.69736229917,2.39221465403,2.41376788858,0.221496488035,1.18957516312,0.456679686347,-0.36732744134,0.352286864278,175.125943913
off_to_on,-0.068561667631,-1.01985735824,-0.12320496791,-0.666231064852,0.144155492478,-1.92307751036,-4.25488590854,-4.57049531755,-0.191966617508,-1.03016167015,-0.547918951614,-1.15395344545,-1.14487467019,-148.986330366
off_to_on,0.90208326156,-0.451373995975,0.149817532978,0.834476884393,-0.492285252391,1.96675613847,-1.77583711813,-1.74609322747,0.174040350299,-1.53611534018,-0.178128077701,-0.171514354155,-0.711669811725,-170.540785489
off_to_on,-0.0065262927749,1.66277080952,-0.133427533395,0.105232634606,-0.466258301684,1.53450976825,5.17243323016,5.29054026419,-0.151546763602,1.80174173295,0.351959820112,1.82551535741,1.28564150967,140.938818285
off_to_on,-0.81347051169,0.333766116309,0.141574095318,-0.709905606873,0.772785274042,-0.879707121496,0.0892548682354,0.485157838672,0.118042556026,1.38075460348,0.230932541018,0.0920180254346,0.967262149122,168.699711317
off_to_on,-0.218985487962,-2.59161923469,-0.303733326963,-0.0656595279272,0.185709130154,-2.76429505702,-6.05938196212,-5.74591357599,-0.0903684371093,-3.00272960288,-0.68079319967,-2.7453084991,-2.03377632402,-126.561943712
off_to_on,1.4482846441,0.815327869715,0.324753665266,0.904427121146,-0.341320792684,1.60355365553,3.46493582717,1.80738098717,0.0716350454413,0.232046943349,0.495742988862,1.16756399165,-0.0494434828046,-181.956818892
off_to_on,-0.454260337681,2.31198085521,0.0579604737392,-0.32617194853,-0.584711289224,2.96899080613,4.44416320105,4.29971361989,-0.0452586820625,2.56729726877,0.162647582627,2.29070405327,1.65808254003,138.424461624
off_to_on,-1.28171973509,-1.11180889974,-0.224897766973,-0.676974896012,0.458877458122,-1.925702695,-5.77634989019,-2.60751346271,0.0115430515253,-0.867509664187,-0.513239390212,-1.52267160441,-0.132597633082,159.019812682
off_to_on,0.590448066181,-2.5368109746,-0.295512912497,0.384635887438,0.587576387889,-3.85252525425,-2.44908192573,-3.17909316053,0.0135426416348,-2.349202839,-0.0438186667859,-2.23986096219,-1.78412271542,-107.277016291
off_to_on,1.23568127529,1.74505076739,0.43543106488,0.593790427402,-0.420553987682,3.32380687022,7.24638764671,2.83498693499,-0.0331798147238,1.28702159686,0.483468722554,1.94481883805,0.675824639954,-186.402654928
off_to_on,-0.208266159205,2.80254310559,0.654209550017,-0.508826169611,-0.349217105558,4.45866006578,0.849309853245,2.88702175861,0.0619327266796,2.66217577458,0.382596706153,2.61182514363,2.00841377301,135.309695088
off_to_on,-2.40607663503,-3.17093656281,-1.30666962419,-0.364040615679,-0.250946940957,-6.27389531646,-9.07742582484,-3.894689461,-0.0938563227219,-2.6687710931,-1.08380732589,-3.46257390125,-2.10534203053,147.911129769
off_to_on,1.29941062187,-1.74421518438,-0.149171317981,0.450015777555,0.850644973349,-2.43929775571,1.87156506217,-1.68167397663,0.115980541045,-1.69628777642,-0.160770098285,-1.57297125977,-0.805020606584,-93.2579341276
do_nothing,2.64447823676,3.63809301526,1.64986554099,0.12493286544,0.405155135089,7.49117032181,9.42774244314,4.14600871188,-0.136326025517,2.99141457895,1.28824829471,4.087316492,2.4061990195,-184.839213937
do_nothing,-2.50895146194,0.621321626679,-0.34934378284,-0.0427733059602,-1.11457510026,0.248691191461,-4.16995313841,0.695162226731,0.165677797851,1.01286716096,0.203866550639,0.315153878014,-0.355208150128,132.947695805
do_nothing,-1.998400816,-3.36128643226,-1.81895220374,-0.491934520877,-0.761808252563,-7.58838110497,-8.69398557891,-3.95249033624,-0.194176508919,-2.80643062826,-1.7349221363,-3.647186948,-1.703444479,134.681702865
do_nothing,2.99205644313,0.035815223566,0.987063955033,0.332898869698,1.84485452593,1.49541241129,5.2839470067,-0.168546494708,0.213217480348,-0.988445417692,0.0898139220128,0.0227476916488,0.441093993645,-76.382229049
do_nothing,1.10997746846,2.71194735707,1.32876571136,0.123731433633,0.317161405784,7.01426727316,7.78725272961,3.55348417675,-0.233755038359,2.62820864696,1.69444116075,3.12075087169,1.05604536402,-201.170751658
do_nothing,-2.26518087128,0.304096673146,-0.598664652109,0.210858138164,-1.65144742494,-2.2661625927,-5.13873227726,0.561718325261,0.261849628403,1.97708737558,0.304175991283,0.759633634129,0.674758044464,163.445499792
do_nothing,-1.77602885837,-3.27360205576,-2.01024988028,-0.728386820683,-0.716395992816,-7.21110921071,-8.2711066097,-4.51315066742,-0.285735169402,-4.27985485524,-2.68364390819,-4.20264380915,-2.25572596659,110.021486405
do_nothing,3.10220551771,0.774533569474,1.51858064245,0.318360809053,2.35836355954,4.20370414622,6.70645257188,0.789312153146,0.301705093211,-0.770705808642,0.751630079649,0.215990999995,0.0957064110923,-109.239513075
do_nothing,0.626666183214,2.02758530321,1.15538427558,0.19891256093,-0.153778012047,5.37041288724,6.15283624963,3.39006775481,-0.321629268629,3.7776208854,2.0542479781,3.35408639422,1.66097748531,-119.057283906
do_nothing,-1.82891814203,0.125313250365,-0.801554733355,0.399556190748,-1.4367029675,-4.03889983302,-5.70184246394,-0.181526743445,0.346717568574,1.39742924467,-0.448690262806,0.780175757893,0.81500313271,118.245733702
do_nothing,-1.27866644144,-2.3675216636,-1.7421480197,-1.13930891355,-0.571597658266,-4.65065700695,-4.95605410584,-3.58283420115,-0.365258159549,-4.68404570131,-2.42224260895,-4.07423940049,-2.41551386846,74.2428256491
do_nothing,1.4863756724,-0.0999496980806,1.24531757526,0.61129398605,1.7954251275,4.31967461247,4.04617102425,0.303373483741,0.37819849638,-0.976905575564,1.10817774871,-0.91144997397,-0.86302774405,-64.65925001
do_nothing,1.73424337112,2.1667405691,1.2680194144,0.19426283213,0.230992061142,3.11083679498,4.22897152886,3.14246613114,-0.396495888401,4.81178436487,1.60846357017,4.46794327069,2.65122494883,-90.3019318702
do_nothing,-1.09031260216,0.680324049575,-0.583068551315,0.259715161534,-1.05607992262,-3.33683561352,-1.56222102078,0.466837898768,0.417091532195,1.22408821581,-0.500082634593,1.33787123486,1.3822667692,54.7040784548
do_nothing,-2.74533464273,-2.98584121706,-2.01679942063,-1.01767211182,-1.21648839728,-2.57354830992,-5.17396283883,-4.00141874135,-0.429973021296,-5.9635212047,-1.97853221207,-5.75467246548,-3.64395356186,69.1017946367
do_nothing,2.30946446358,0.477955237567,1.47489177918,0.485451809262,2.05513363506,3.28818965866,0.831085984782,0.591984945137,0.439878227653,0.507767698391,1.19203457871,0.215987739838,-0.474477256651,13.4928875026
do_nothing,1.00259521044,1.21600678506,0.669075610833,0.36417001374,-0.00571585354544,-0.00586831978988,4.25531130467,2.53263679423,-0.45545937209,4.1466465416,0.566384697932,4.01734088766,2.29663689864,-134.929672146
do_nothing,-0.372770134713,1.43291284736,0.0886690075539,0.193508917164,-0.651274465828,0.315900908848,2.46179894201,0.915322918097,0.47067864904,1.00534024137,0.414363743966,1.63745656689,2.63205019692,12.7435402435
do_nothing,-1.82402399432,-2.21831720623,-1.62193037994,-1.25170831342,-0.947524133348,-1.23368981387,-6.77878189276,-3.60733686856,-0.479058748952,-5.10450560748,-1.55939668323,-5.26298539051,-4.10959591365,127.650092903
do_nothing,0.0497036977312,-1.4698205578,0.13158267832,0.934494832265,1.04686807842,-1.54815118063,-2.4304541646,-0.137888364102,0.488320689718,-0.480995927447,0.0097058194124,-1.44763480369,-2.33888149165,-7.34189507062
do_nothing,1.65154825344,2.22821631556,1.2585391282,0.100694832343,0.267785199461,2.00559936516,7.6801871127,3.01478545657,-0.501124461066,4.78399112124,1.001319269,5.54014587503,4.6813629196,-97.7913347177
do_nothing,1.12711180447,2.17689550768,0.847323276226,-0.00959597483358,0.31220981053,2.57616536038,2.09276249636,0.251825586478,0.503275563651,0.591751259097,1.01463721544,1.52160723086,2.42279418677,-78.1044391954
do_nothing,-2.53817038823,-3.23354498253,-2.3866845783,-0.863528577524,-1.58382638967,-3.59877834833,-8.16790557874,-3.05922488223,-0.491939296451,-4.99179380578,-2.253124542,-6.26009402584,-5.85271049903,188.694151234
do_nothing,-0.882041985156,-1.29294015647,0.129735772175,0.975290181388,0.446679083587,-1.32460681003,-0.476141082647,0.911564766509,0.491269534976,0.478574005055,0.175984315056,-0.223400180003,-0.896702069372,39.3167388089
do_nothing,1.66877447122,2.19817427573,1.30382675573,-0.469094973248,0.896888926203,2.56652762766,5.86320535661,0.753454016939,-0.513945623134,3.05585725177,1.22657537126,4.73230330886,4.64718728098,-189.563207105
do_nothing,2.7654801053,2.75056116641,1.06857943111,0.352376905686,0.634188774869,2.00010332312,1.95223554976,1.03939949743,0.532462349025,1.28520710795,0.796008567166,1.5407122927,1.90056181351,-43.6223074781
do_nothing,-3.53501547245,-3.88060042522,-2.38844517228,-0.399851356299,-2.16987248565,-3.11849034233,-6.51875203175,-1.68048521413,-0.522427937927,-4.23953206971,-2.45449520833,-6.00313163305,-6.08859440356,200.044453342
do_nothing,-1.36895176483,-1.1552318599,0.0918972781338,0.210692757731,0.623964536556,-0.411335458914,-0.487316363815,-0.189080113717,0.505545171272,0.0131594278583,0.728288611735,0.167604755326,0.0847430168813,62.2452964667
do_nothing,2.31808405637,2.62216453802,1.021853407,-0.462437267899,0.910782771305,0.55722047212,4.62578161678,0.456590000424,-0.506856100228,2.77531390368,1.21934633293,4.35130999973,4.56647755365,-265.660068023
do_nothing,2.05583111083,1.88357446651,0.895843438762,1.16804370771,0.382465206538,1.8569774851,0.761945878986,1.00553884228,0.510657009044,0.694948922081,-0.217215502974,0.35387159576,0.136021385767,34.6232232378
do_nothing,-2.14758026728,-2.97672828523,-1.27277993208,-0.985554271446,-1.43156718042,0.0934574075277,-4.03152222789,-0.69190932482,-0.51161293181,-2.72693253844,-1.56736365422,-4.02713192815,-4.32849654895,172.569215087
do_nothing,-2.12245313921,-1.46383167974,-0.626048725058,-0.114590973653,0.0834967049614,-2.68980695397,0.444291585631,-0.509495335684,0.538828023519,-0.383025580551,1.1751501444,-0.112311957501,0.539779248031,25.1765555349
do_nothing,1.12620944992,2.32816309227,0.235885993873,0.252791094594,0.4456088174,-1.07240963415,1.70533088258,-0.255755345144,-0.562298922258,1.76731688324,0.232384926098,2.91279488428,3.00398967938,-208.514304921
do_nothing,3.75890370136,2.34784687454,2.0405434981,0.895423110918,1.30123178978,5.04895738423,0.154196960534,1.41051979181,0.499146271306,1.37074271218,-0.138434083171,1.31780132938,0.359476281808,27.0749938013
do_nothing,-2.58850218661,-3.82900338299,-1.42540109493,-1.22839890599,-1.76251259141,-1.16562805676,-1.38712309479,-0.850323901345,-0.403731245922,-2.95744127125,-1.124407416,-4.30717311003,-3.91673919739,133.613823872
do_nothing,-2.3707024808,-0.119467221483,-0.88950043763,0.115587638393,-0.205328719204,-3.61378767516,1.73944414252,0.367022014369,0.449271725408,0.531002939799,1.42722819086,0.805311189653,1.62960126463,27.6323306725
do_nothing,1.17822034093,1.95279916624,0.0977781746757,0.339761628161,0.898431347441,0.527588880231,-1.94326938688,-0.854935340154,-0.587110701049,1.18798928533,-0.275507474876,2.41700849726,1.7260796346,-152.104531987
do_nothing,3.40082583274,0.539330872594,1.98574149915,0.724626927438,0.839728328469,3.83193623812,-0.558917337146,0.349907783579,0.527066840607,0.00297286219229,-0.591771918135,-0.471277528013,-0.975466877955,-4.43156140051
do_nothing,-1.85643097146,-1.63171629399,-0.728160361544,-1.31515965939,-1.63074574494,-1.11678108153,3.07524295319,0.603555718165,-0.262677876805,-1.15779375652,-0.161556475941,-2.01068766586,-1.32095940931,105.655880229
do_nothing,-2.77438492831,-0.0165007024981,-1.46628602701,0.378758415187,0.262916215137,-2.71501034018,0.0637320853336,0.259663102785,0.208018689188,0.549848033777,1.29427992992,0.978271487947,1.35456411026,33.8106292615
do_nothing,1.62692887558,0.283011275893,0.0995572884562,0.313601713162,0.626372179786,0.619297233566,-3.97576809193,-1.16814220969,-0.497280968307,0.531754133276,-0.78435193416,0.988626182672,0.213790127707,-98.2912071498
do_nothing,2.54706703503,0.861193596078,2.14264472849,0.404829427903,0.122730310066,1.98993725253,0.590424286249,-0.170706521129,0.639707207277,-0.59684660791,-0.612842142368,-0.750431190878,-0.915936445575,-40.0571142787
do_nothing,-2.14793939161,-0.408229089886,-0.988688582892,-1.06099286156,-0.927703688707,-0.228983998112,3.76285281638,0.711278800046,-0.322474758767,-0.809929243058,0.329485307574,-1.02935614026,-0.310562980578,85.9690997658
do_nothing,-0.641748416407,-0.320895032842,-0.995920235157,0.470120979252,0.894758303586,-0.348601054184,0.531832012473,1.72372494021,0.0254683153328,2.20114356745,1.34082651737,2.0169001996,2.15702231832,34.7251850468
do_nothing,0.250129495576,-1.07038693286,0.0705158545433,0.22942368299,-0.406485443975,-2.59358128313,-5.93446755284,-2.60255690672,-0.240173100816,-1.08450620419,-1.43119867081,-0.988781411154,-1.78724976118,-48.2150346172
do_nothing,1.37446714384,2.10137779496,1.54863051018,0.0674607579242,-0.159382969904,2.1860955767,1.51279463294,-0.578127813831,0.593468437348,-1.31743318166,-0.259433217348,-0.674414251437,-0.778918708364,-71.1955283867
do_nothing,-0.755497244522,-0.30306228813,-0.898583168047,-0.59030041397,0.0820263773953,2.21728337937,4.85903488393,2.26046830603,-0.477250766258,0.765985892806,0.696891515377,0.420901288309,1.30488110065,71.9166208078
do_nothing,-0.315055803507,-1.55246543636,-0.379996795552,0.484038159776,0.842134354025,-2.14783091981,-1.65835819308,0.609246537164,0.0985588779916,1.80506699997,0.631383499025,1.01173734707,1.29414000803,31.1817308482
do_nothing,0.268488939821,0.747861538752,0.386120347097,-0.234713582603,-0.896841728103,-2.42840492669,-3.84198636412,-2.30611008607,-0.0792657258984,-0.953425194438,-0.895830345961,-0.33323553547,-1.79021386328,-11.259964967
do_nothing,-0.38527396549,0.812386694613,-0.00649171462626,0.299480827019,-0.676485576593,2.14535287375,1.14907198986,-0.328582526235,0.365402100762,-2.21102633131,-0.360636697732,-1.52018580065,-1.46465740084,-84.3448718728
do_nothing,0.139440709336,-0.912535286683,-0.327124338864,-0.249501967564,1.17739280312,2.63511006977,2.81851223081,1.83614895977,-0.405577764621,1.15102672443,0.486264183816,0.415633936928,2.19260259231,56.612282174
do_nothing,1.19733630282,0.201239050773,0.905642457067,-0.0206120108767,0.869683129975,-2.0414150851,0.19883084282,0.534535109725,0.162489915985,2.61738258712,0.725546777307,2.12089195842,1.64258220502,22.3057637026
do_nothing,-0.996518010015,0.327921073172,-0.547039399677,-0.0362118311668,-2.03229678283,-3.27409184523,-2.74610441106,-1.72581806943,-0.0781495832138,-1.59480086671,-0.734683194222,-1.01894296674,-2.81746593605,16.0214700767
do_nothing,-0.990590513316,-0.222801753132,-0.695744772356,0.346718483699,-0.00855608945883,2.97504286925,-0.826661085034,-0.154705883178,0.202731199403,-2.1492406291,-0.323523287595,-1.48608012197,-0.934560888995,-81.621187663
do_nothing,0.364483907515,-0.944927366591,0.220200230664,-0.219297346337,1.63667104279,2.55790797678,1.7690600909,0.391752186781,-0.187270200016,0.447707196471,0.00931631663137,-0.378109957635,1.756623909,38.6206020638
do_nothing,2.36051952052,1.57191409458,1.56665681178,-0.23170206661,0.0454326107291,-2.88284618127,2.90026199401,1.52519889075,0.0183325590143,3.53345437414,1.00650235224,3.09739686931,2.20309220125,11.3477813872
do_nothing,-1.03215784644,0.470498882202,-0.755435045304,0.17994448922,-1.65469172386,-2.46945442944,-2.28495645667,-0.545710704513,0.00847238887553,-0.637159856826,-0.144909909019,0.177216236513,-2.11111747418,34.4490461061
do_nothing,-3.04392037875,-2.50824445556,-1.87676137941,0.358046219312,0.198058210663,3.52737374095,-4.48779752713,-2.58124065916,0.0759642220508,-4.70652589883,-1.3728901886,-4.45089426468,-3.1943818329,-68.4868988489
do_nothing,1.95501642474,0.416826031481,1.15281637813,-0.463552354977,1.28771999251,1.56228054018,3.82791889091,1.69327955043,-0.00894734985801,1.67871213279,0.467314032725,1.03767713289,3.22501193617,20.6877755301
do_nothing,2.67529828602,2.55162914372,1.96796549172,-0.117788585891,-0.124344391735,-4.11143484534,4.28252083153,2.25747304894,-0.131004586041,4.76454588415,1.46561592285,4.40435743215,3.12699704802,0.623189329874
do_nothing,-1.88059349284,-0.55776525781,-1.32291408147,0.537873601624,-0.938941654519,0.443350273135,-4.24300587949,-2.22686624774,0.0939362054798,-2.1728701457,-0.80053701913,-1.45506761089,-3.82182895534,43.722477425
do_nothing,-2.48989953884,-2.8342531108,-2.05272381937,-0.195032842983,-0.181880814499,3.36103522946,-3.80641303804,-1.50706140949,0.00481717152962,-4.74874740767,-1.32442270727,-4.33388370692,-2.82044053584,-49.2986111877
do_nothing,1.31362235372,0.593904721393,1.41000930344,-0.339255681242,0.847590465329,-2.21412973859,3.60206295957,2.01123736899,0.0811300918852,2.47366166316,1.03470776992,1.53237933371,3.95426446432,5.34368149893
do_nothing,2.87511574059,3.3135871209,2.08279661315,0.195916050727,0.369340921332,-1.49962723802,4.14192587419,1.11166420883,-0.216923462107,4.94134323004,0.975775868309,4.57577665523,2.74554171329,-8.49799718264
do_nothing,-1.1509071228,-0.976662556531,-1.39067435189,0.432392078038,-0.76817700877,2.62466925699,-3.31461414005,-1.85425491809,0.166690909181,-3.38049855413,-0.943235236961,-2.07700691781,-4.34354163592,44.5486838562
do_nothing,-3.05358109132,-3.31958577377,-2.18601673133,-0.551079319902,-0.614992861352,-0.0479702251058,-4.19472238743,-0.458624052743,-0.0784818420975,-4.27484773348,-0.875895404686,-4.17265555021,-2.05214435811,-27.6964592653
do_nothing,1.25768521265,1.31024241761,1.68093147751,0.00177902773323,1.09581253999,-2.08017032985,2.88464740873,1.32118081595,0.172908997937,4.1774188482,1.16146078424,2.43194745104,4.29285896246,-8.36365702484
do_nothing,2.23693068748,2.36866778356,1.45319702266,0.219988969255,0.00864964289868,0.28213691636,3.6727977444,-0.441290083935,-0.293461663065,2.28366544495,0.0857856585519,2.84755600077,0.632194715108,-5.26929036978
do_nothing,0.174107304862,0.177678702559,-0.752055021542,0.262295483502,-0.303233109376,2.46155630934,-0.894767975487,0.574744439694,0.238041078804,-2.79739957517,-0.192348897309,-0.883123703368,-2.23398955919,17.6799257863
do_nothing,-3.14911076295,-3.40440526712,-1.94934756536,-0.514083492855,-0.567213886998,-1.46111351023,-5.39208066853,-0.742723880967,-0.165988262105,-2.19120545733,-0.77649638481,-3.65739222625,-1.51237207768,14.6777613924
do_nothing,0.0629086614659,-0.0963097093111,0.876638582614,0.155636540566,0.62537210588,-1.22620324497,1.17694888066,-0.598414023305,0.25653110416,2.586489991,0.660015061909,1.00490751934,1.77478327921,-11.6946190889
do_nothing,2.80798027108,3.54805433512,1.59630054622,-0.139087495957,0.111538669691,0.957353974501,5.73616720906,0.948160471021,-0.351550810195,1.38455932452,0.335937412994,3.6273809654,1.66906872535,-56.6000432289
do_nothing,0.138599927087,0.239510963116,-0.377541545838,0.675005462492,-0.0746847759751,0.410357803396,-1.62812067295,0.756540106923,0.298236038857,-1.86380138029,-0.362751425277,-1.11595256325,-1.04087980155,77.1539804285
do_nothing,-2.21403080308,-3.6424049096,-1.77052096403,-0.599026678914,-0.488351582286,0.393411997439,-5.0640080331,-1.13205590325,-0.250427371811,-0.922749245377,-0.495309526349,-3.29248939873,-2.17676005161,-5.27333480829
do_nothing,-0.526530633541,-0.101931234459,0.640465105767,-0.143587065441,0.533886492554,-0.0403830441827,1.99894797208,-0.34697720515,0.332111222165,1.52219447325,0.8760459175,1.43387275907,1.08609650054,-41.122567768
do_nothing,0.983841663541,2.84573210437,0.704780829635,0.0662601135341,-0.423688313666,-3.05433273133,2.57123478055,-0.0765402352647,-0.396005591297,-0.396317206002,-0.646478190874,1.75840488156,1.41135097321,-4.37260665973
do_nothing,2.60959218169,1.35121723929,0.77657822914,0.840804405788,0.48849828156,2.33786693568,0.505982873258,1.89214063411,0.348368973023,0.438235388254,0.352738644269,0.258033195729,0.534820769371,50.8167715183
do_nothing,-2.21954417503,-3.85083917463,-1.56020381637,-0.824258342069,-0.234130178856,3.06307436186,-2.58002789701,-0.860891907336,-0.329774600931,-0.518611052308,-0.0616957129278,-2.57769260902,-2.68981842309,-19.0661854447
do_nothing,-2.0895011927,-0.396863236177,-0.25180759694,-0.120245639154,0.132320515343,-2.78733015241,-1.37646060775,-1.39430092267,0.406949522636,0.0117147658746,0.071706515859,0.415180691638,0.261499418116,-52.4384018853
do_nothing,1.32799326411,2.50992035516,0.604794281042,0.0605382159172,-0.841976437622,-4.48654462523,1.26061854726,0.0376761296816,-0.448518774411,-0.789380537838,-0.703161319538,1.16612629842,1.45693208894,87.3384450886
do_nothing,3.11898403493,1.53925930201,1.44071551413,0.996881732807,1.04400343759,5.04645120167,4.03396634667,2.44085648352,0.407326191837,1.45755304396,1.06316436019,0.911120385909,1.0823738644,-48.3395902373
do_nothing,-1.70990887827,-2.80539979513,-1.37015595316,-1.00927707081,0.169921300896,3.68029743008,-2.1245866651,-0.713464669387,-0.393195088181,0.602920907021,-0.265488548126,-1.28065746575,-1.66874809402,-23.9363064575
do_nothing,-3.13276979982,-1.61504776787,-1.03436353277,-0.0158082354764,-0.674088578945,-5.76179131703,-5.38811515627,-2.1875519138,0.432063203732,-2.18053582407,-0.608607647915,-1.57546029929,-1.78596588023,23.8407201944
do_nothing,1.59010112033,2.59481079417,0.899673123365,0.0199152681921,-0.840712176234,-2.96722317327,3.65299240904,0.6162234811,-0.446313134334,-0.387255191438,0.0895168293431,1.57971266275,1.84649515926,57.5802047469
do_nothing,3.4747015695,2.21390139471,1.73384308811,0.95409744499,1.71492714223,6.15385237329,5.31347984542,2.47027424255,0.439120627722,2.99414687391,1.14797451633,2.19236074001,2.72667313393,-61.4501419212
do_nothing,-2.64198536681,-3.94743885969,-2.08861921907,-0.876511419892,-0.282431809939,1.10267949414,-5.93003439009,-1.83151259717,-0.45309077869,-1.32542641575,-1.46664918596,-3.32098790778,-3.57396702157,-61.0728094588
do_nothing,-1.29054782816,0.159317748347,0.10868220897,-0.152292695218,-0.559191389955,-3.36944557457,-1.03104036148,0.0271499411393,0.449839666581,-0.622186275536,0.719259961515,0.443367915532,-0.537237457439,93.3536641219
do_nothing,0.450597947403,1.77839075236,0.314888016973,0.112301436414,-0.931051983311,-3.22281127417,2.69327267108,-0.711672229599,-0.420576155184,-0.713264716575,0.0919497833583,1.11628873848,1.63593872411,55.0593275097
do_nothing,2.10109549142,0.39065245876,0.734682288355,0.937321709151,1.62407085283,3.87370450086,0.366675861651,0.9422403736,0.445075503979,1.19686631433,-0.243904877272,0.116822031967,1.27480982388,-113.7866963
do_nothing,-0.595084686205,-1.64115500195,-0.680921000257,-1.07986832344,0.15575508887,3.32868357342,-0.290141267198,1.02102791587,-0.509515188436,1.04742338665,-0.412950671674,-0.777496771566,-1.59714630327,-46.8580459932
do_nothing,-1.14353947657,0.693748284659,0.197867129978,0.257411162114,-0.954226395423,-3.17173015677,0.175354889327,-0.811680442595,0.497467183838,-0.77724786487,1.21043917955,0.303224890136,-0.571049714828,111.941561257
do_nothing,-0.721112949051,-0.199524799402,-0.694507179978,-0.081473499779,-0.954463854489,-4.78303101622,-3.24085690713,-2.21638829852,-0.433873103735,-2.47244779213,-0.94635023266,-0.523332345394,0.0323848697354,74.493888806
do_nothing,1.59034496146,-0.0422776704892,0.776458444851,0.632480705232,1.90255713804,4.38022825497,1.95665538788,2.14012416146,0.456436221929,1.9162884242,-0.21369269123,0.725742846146,1.53970619797,-154.485497173
do_nothing,0.64553431462,0.644088177383,0.116474263375,-0.719230279808,-0.0133984968045,4.41125036638,4.27342318094,1.49353506597,-0.529862080352,2.21997520939,0.447945236244,0.160144053652,-0.0167324355436,-43.7612151654
do_nothing,-0.652309560932,0.378866043289,0.00426716513275,0.395254294758,-1.05622100411,-4.48144052643,-3.24177797688,-1.70822355551,0.505953770645,-1.74413706456,0.71893116969,-0.374669818464,-1.21477521043,121.078702324
do_nothing,-2.42826909616,-2.3889157116,-1.23170160006,-0.428417443859,-0.756420057799,-5.21103910724,-5.49925597896,-2.35079890619,-0.42979339885,-3.2557257867,-1.40670583983,-1.1806624232,-1.49099730475,99.5397508552
do_nothing,2.67614329433,1.79467834318,1.33079001807,0.504296545364,2.08255540335,7.2551597888,6.53005662309,3.37463747112,0.450241899928,3.82301473953,0.704002967134,2.38764357757,3.3304584876,-178.675854956
do_nothing,0.494127842977,0.636231510624,-0.274388127742,-0.233944922449,-0.684966533972,1.97832267665,2.40503134717,0.306850225686,-0.512219395996,0.890030676746,-0.0400646199408,-1.42730504091,-0.384178871673,-56.5646783591
do_nothing,-1.54897172841,-0.89103508925,-0.146433019669,0.314903337807,-0.752467586522,-6.6175622246,-5.62640688252,-2.09410788924,0.474637834499,-2.55665675058,0.164526355039,-0.645073496055,-2.2588696594,127.188003312
do_nothing,-0.352744295924,-0.539024483773,-0.0672838201399,-0.888090669216,0.073934281267,-0.132443191441,-1.05458610953,-0.319371608825,-0.403769572623,-0.516464422294,-0.15647641257,1.64257464859,0.404105955614,128.651908205
do_nothing,1.36469519102,0.71448448816,0.258135689347,0.820101312124,1.00326074726,6.20541702361,4.54112979417,1.900626315,0.427685454673,1.95414924686,0.0241975341104,-0.386053101206,1.80303770146,-194.326475353
do_nothing,-0.741668675393,-0.498111154572,-0.851052564825,-0.0184388079997,-0.844796733156,-2.49254947708,-0.319580285125,-0.422348940628,-0.469396469616,-0.247551733347,-0.618303002549,-1.93762440069,-0.836761363929,-75.7359752771
do_nothing,0.000176171812447,1.01394081325,1.12972727056,-0.0503358975928,0.247853485479,-4.20873022861,-2.27256530517,-0.735722088912,0.418182646814,-0.444923111777,1.06913679416,2.10892862911,-0.39256025089,130.835299536
do_nothing,0.653719855961,-0.168863272512,0.149309548122,-0.788887085059,-0.0339054599567,3.82438013809,0.0152739973747,-0.159234209672,-0.361101542912,-0.385780310972,-0.189063684223,0.633422922008,-0.155342454869,153.776709656
do_nothing,-0.171713578379,-1.26237975455,-0.988475041226,0.918610976493,0.14374098282,2.86853147763,1.55995049703,1.22778850796,0.389040440739,0.546817708157,-0.522131814354,-1.86622624186,0.571352322071,-197.287113303
do_nothing,-2.20747160824,-0.741604598561,-0.919204962554,-0.0527866064638,-0.666663679898,-6.37159511005,-1.54085759547,-1.33290033258,-0.40640586155,-0.905808998619,-0.609896376323,-1.33512858229,-0.71082712684,-101.234733272
do_nothing,2.82695690408,3.79137600734,2.54574344903,-0.221252020187,1.08579783256,1.2778619746,1.87739454492,0.801291211919,0.343399856147,1.84010381716,1.69870080739,3.96450127247,1.6875993239,135.645434043
do_nothing,0.811146955033,-1.26263535676,-0.317794995058,-0.464865517558,-0.367825634722,5.33916370311,-0.175554775245,0.270750146177,-0.302193704033,-0.487213590996,-0.488242416525,-0.650985356556,-1.19519362303,169.457447718
do_nothing,-3.24301638878,-3.83965482244,-2.28120296922,0.761485804496,-0.637367186044,-2.96330801491,-2.96948722757,-1.0652730355,0.331868667237,-2.39858912726,-1.12019251036,-3.97524559446,-1.82903116706,-188.186585486
do_nothing,-0.120999087929,2.28234120242,0.531665052466,-0.37968172303,0.102012221852,-4.88078445314,1.48625641021,0.249073079415,-0.326930562508,1.52575877137,0.371203784909,2.06538622753,2.4253706358,-128.336891133
do_nothing,3.42558780562,3.61727345674,2.35246144212,0.290434591397,1.03017472391,4.40838694824,3.20978076212,1.2684265118,0.258540665842,2.56615767826,1.25979489381,3.51067431742,1.65197450279,140.027521215
do_nothing,-0.740215929472,-3.10011464093,-1.17135950429,-0.38245094648,-0.540351732392,4.09519676349,-2.51706330501,-1.19409813578,-0.232502197217,-2.72407005547,-0.946298972048,-3.33824460127,-3.63122850008,175.731138344
do_nothing,-2.52603946851,-2.68775636752,-1.43863937526,-0.0653284621428,-0.50145606758,-4.79610370185,-2.27587361139,-0.236755308718,0.258990197884,-1.69523993036,-0.388663536447,-2.24117515798,-0.546238676888,-170.597962742
do_nothing,0.198994547753,2.65773922797,0.540839326262,0.295534831671,-0.155406801402,-4.46508235726,1.79848288418,0.689960595509,-0.235541234266,2.71527911763,0.294019390696,3.38290224048,3.46190832887,-152.451133661
do_nothing,2.85643689728,2.99334562119,1.69076434042,0.526206320142,1.08516756159,6.28304284077,2.63902969036,0.448774148865,0.169232248297,1.86429741963,0.689146918466,2.23675025618,0.680843547074,142.174246285
do_nothing,-0.952896013948,-3.49904747115,-0.99992714253,-1.04081824497,-0.114104302242,3.49698939617,-2.20994968596,-1.57719181597,-0.156246125928,-4.20810941575,-0.694028913897,-5.16576997401,-4.67990727319,174.502702426
do_nothing,-1.55538731991,-1.77373344998,-0.784822484759,-0.0419347966252,-0.839558870601,-6.37253733725,-1.31379844074,1.22974074806,0.174411732651,0.336816107776,0.0655956656149,0.259137985025,1.17999465139,-148.557249007
do_nothing,0.106235417926,2.99546193162,0.378958399135,1.04760570263,-0.310060842246,-3.45147861593,0.692521743706,0.578795644939,-0.136757851849,3.34969879386,0.0383530075714,4.58393290231,3.80206935907,-171.139762602
do_nothing,1.13707031843,1.09558819119,0.586827693741,-0.0617949514041,1.13565985667,6.90732137999,1.10125840588,-1.99299817799,0.0785225773659,-1.61114605287,-0.0363849229911,-1.87928236771,-2.02330868783,141.993238132
do_nothing,0.916555481326,-2.21135276635,0.0167687770329,-1.33462177154,0.350799084862,3.11295380203,1.03232573096,0.812619735923,-0.0754549605658,-1.69483973742,0.391100867477,-3.1493434103,-2.42750294701,167.964699068
do_nothing,-1.73494725755,-1.02365296052,-0.509342967407,0.674816344652,-1.26014823471,-7.57735942405,-2.03283427297,1.70516347878,0.0818677450349,1.49188750788,-0.243115834625,2.15424171501,1.68247672383,-126.236415927
do_nothing,-0.691003469593,2.01303377745,-0.20584581145,0.959812303989,-0.309158811408,-1.70290606583,-1.45253625582,-1.4315085344,-0.0350541794335,0.772104863162,-0.53909922848,2.29096311996,1.84280174845,-183.00385315
do_nothing,1.56972409856,0.436999556575,0.366493517916,-0.901177268,1.19436361148,6.78120568675,2.32681827805,-1.50972842338,-0.0110154513091,-1.22357639498,0.586150509741,-2.23657356054,-1.4243097834,140.04537268
do_nothing,0.290549653866,-1.51408208988,0.255505696743,-0.44877554655,0.2776556293,0.740241871169,1.28731164437,1.66415092554,0.0067590758202,-0.295328316801,0.303466725191,-1.68044534566,-1.59338698207,158.266387514
do_nothing,-0.40927771757,0.385362709877,0.0334019346127,0.683665575339,-0.832710032428,-4.81079492848,-0.995528228292,1.89388787204,-0.0109830405281,1.29538768999,-0.514935515236,2.49000966952,1.72240293637,-106.992583714
do_nothing,-1.10473825297,0.166100634252,-0.587221434025,0.325172892015,-0.66150908554,-1.59710304723,-2.88309091463,-2.5678745413,0.0618700440643,-0.553837784212,-0.307704310975,0.500698024294,0.545244485955,-187.89650007
do_nothing,0.0106238450255,-0.247330301037,-0.201841103734,-0.713211448615,0.684771321291,3.79194453758,0.542367803664,-1.74402589347,-0.10457964223,-0.838186236615,0.505071876897,-1.78591184132,-1.15410242511,137.33719508
do_nothing,2.00926303543,0.952947924915,0.927982969385,0.0929987425406,1.24754365248,3.06580777659,5.01799671595,3.60863112455,0.114237931374,1.13732360286,0.40022723413,0.23284293249,0.148421398344,147.211556097
do_nothing,-0.534622650493,-0.878693333987,-0.132498518778,0.274068443696,-1.14207000818,-4.40935717144,-1.69952495151,0.501013771802,-0.126195933631,-0.239572255029,-0.798271824223,0.167904546474,-0.12832747964,-92.9377754781
do_nothing,-1.58305832593,-0.278130360866,-0.252392553238,0.030057682642,-1.06729991693,-3.08289601125,-5.63975244634,-3.10582707065,0.133128364353,-0.217514261049,0.0751309979196,1.05388992067,0.790222782081,-186.748605114
do_nothing,-0.160512884146,0.403445058168,-0.747553409928,-0.299562894934,0.949762001269,4.48440897882,2.34417782926,-0.477562941967,-0.123290659977,-0.295045973948,0.356320200987,-0.495046064199,-0.25375702287,135.213657925
do_nothing,2.08596820909,0.397063946079,0.624284044994,0.286538333214,1.40567923245,3.2580420089,6.33332420705,3.41895738976,0.166185233357,0.299502846381,0.188300704119,-1.39085172957,-0.779917107809,134.091859697
do_nothing,0.103069502422,-0.140505741851,0.893750543758,-0.317447936687,-1.37137461567,-5.35873302626,-3.87409211656,-0.425789841617,-0.273093699472,0.461750495804,-0.562554723603,0.755424206612,0.326374718039,-75.9900066861
do_nothing,-2.08994202318,-0.406922162388,-0.522758917514,0.36602380242,-0.965484837332,-2.04403150128,-5.52382394986,-2.81439216694,0.295574656902,-0.340030032739,0.0491718621352,1.57668467866,0.913880677446,-203.37147196
do_nothing,-0.045308297351,-0.236689294749,-1.43802460003,-0.208115428582,1.07512370317,5.53769641719,5.0230579111,0.991426769288,-0.179625751244,-0.446377735613,0.453171472133,-0.96896832415,-0.519045855502,165.726666019
do_nothing,1.81216388458,0.486788949617,1.02112790282,0.0403715104526,1.06211293774,0.10035641171,3.31810630126,1.89493004849,0.139307695428,0.119307312981,-0.0102043615539,-1.7832240269,-1.00094521997,109.588563698
do_nothing,-0.19174368401,0.386118966019,1.0381736514,-0.170648007656,-1.3932354173,-4.73053431143,-4.92152781749,-1.55713449114,-0.317074437261,0.215787463965,-0.94453650543,1.03134108014,0.421521403512,-108.711502981
do_nothing,-0.433270313806,0.150270011753,-0.406320316426,0.448206411491,-0.149576454858,2.58396006299,0.200908708199,0.311245348166,0.484209763924,1.34134598854,1.13967970839,2.86674756256,2.16593651284,-121.420388087
do_nothing,-1.39001127939,-1.94639129141,-1.72520687621,-0.478276663547,0.305041408271,0.931631964416,0.910675856006,-0.340130348257,-0.386297704788,-2.17008551181,-0.129635375138,-3.12056696585,-2.35162096568,120.2040214
do_nothing,1.22604926475,1.34391342095,1.00620372976,0.211217692594,0.829361113541,-1.63872629547,0.411056885267,0.134677169551,0.183913788831,-0.286333802224,-0.70555177424,-1.01886688116,-0.757165009112,74.2459876814
do_nothing,0.716936997893,0.987964265252,0.847249763662,-0.0373507724549,-0.812526343512,0.681126401347,0.994451404847,0.308614828299,-0.211532077876,1.92045452986,-0.133246512517,2.28191900184,1.8270145776,-63.9543616883
do_nothing,-0.151332281197,-0.718929225742,0.0783507374353,0.266297123506,-0.0594396241434,0.940623836707,-0.977568516932,0.423249501984,0.445795380611,0.733800271604,1.45318014686,1.08361911593,1.12012636206,-93.4103432956
do_nothing,-1.02427097573,-1.1054244975,-1.26934410749,-0.65039972615,0.133401972831,-1.92327877028,-2.71937421493,-0.864491689017,-0.55022324321,-2.43205864334,-0.797609313515,-1.99964860647,-2.21253366949,57.3881781104
do_nothing,-0.739717045732,0.333178742254,-0.378241017627,0.675523573968,0.275371882669,0.259094826367,2.62293339177,-0.16303788407,0.395312305713,-0.85972002918,-0.97206014621,-1.32513148436,-1.16647347155,68.8257456304
do_nothing,1.27262209827,1.01259916242,1.03023493011,-0.303307599578,-0.486969215499,1.67921902709,2.61736552964,0.269595301417,-0.241277651268,2.64614041168,0.614148700759,1.63672396763,2.4295755318,13.9062375471
do_nothing,2.24627728869,0.862011574712,1.7281869628,0.0417830019193,0.792619433587,-0.000237235920656,-3.22706092255,1.02435577692,0.337385410706,1.63310260488,1.44431948896,2.46801461127,1.65308803445,-137.593677355
do_nothing,-3.0741529226,-2.5411269209,-2.49712529628,-0.227185037616,-0.696198662341,-2.2546000228,-2.63129228698,-0.758145381273,-0.546340196562,-4.27030168377,-1.54260504162,-3.02405736659,-3.83191202136,15.6792231617
do_nothing,-1.31176976239,0.286795117176,-0.862855498208,0.609110453212,-0.208679113237,0.548327935837,4.71901539908,-0.254092885863,0.557547516597,0.00474578193591,-0.219891679885,-1.22347738878,0.119560413359,126.449721403
do_nothing,2.1370571051,1.46144924488,1.72465955265,-0.708316605206,0.23538565391,0.929531242124,-0.249146745848,-1.28820852345,-0.381437534778,2.92696104015,0.23749689483,1.77416637185,2.26078683248,-6.65793668525
do_nothing,2.76218608621,0.843880841726,1.91855838845,0.39038211706,1.26959357653,2.17875505193,-2.29672974482,2.4218262311,0.330498123615,0.957915160463,1.20740059755,2.41172649599,0.863414128461,-99.4354284097
do_nothing,-3.22392335012,-2.21989175553,-2.72871433634,-0.102440080389,-1.53537240629,-3.27944119872,0.239083380782,0.883677564544,-0.481775823948,-3.39626053743,-0.693639238973,-2.60889930187,-2.68642916602,-76.2199210563
do_nothing,-2.23099867974,-0.251240297257,-1.0607771961,0.38451640549,-0.453990108542,-2.34659361274,0.852243714628,-3.12511242992,0.547930678386,-0.523499653368,-0.786998292647,-1.71398230657,-0.329118413394,187.477783675
do_nothing,2.57043166231,1.33032904442,1.84563850137,-0.936470300152,1.08816666185,4.96923460298,-0.0695206049282,-1.12689180122,-0.413355401635,2.54127099778,-0.232308697925,1.82001880359,1.66740757518,40.2790914297
do_nothing,2.76667276067,0.90837536672,1.77596338803,0.80957918254,1.05246179849,2.11578703898,0.639238275693,4.351989197,0.345227310058,1.19512434899,1.91186375348,2.09537944229,1.13940193044,-190.719614122
do_nothing,-2.57570845592,-1.2957576398,-2.4047696148,-0.0343346511092,-1.9153897968,-7.06883863865,-1.14788726197,0.255051471886,-0.46889594526,-2.50244532972,-0.585798916813,-1.6906658324,-1.77695392906,-42.4859731811
do_nothing,-2.23520287329,-0.608762913819,-0.769372226195,-0.119603206082,-0.103840969513,0.295131902496,-0.175855523452,-3.75541332387,0.529090642487,-0.914142406184,-1.14984978076,-1.5404690478,-0.805370925718,199.10823676
do_nothing,0.594713957506,-0.291328497294,0.884581559185,-0.647188035546,0.77768923204,6.15974873642,-0.0203435762556,-1.52818035838,-0.407889136466,0.787139881252,-0.517937629481,-0.363132862283,0.236926294272,62.9171279021
do_nothing,4.60511128944,2.68293095236,2.06465923509,0.924937095444,1.3444445058,-0.264212567371,2.3778123867,5.46122758486,0.354787362805,3.32041179265,2.34070276216,4.10619112751,3.03288857498,-266.00981622
do_nothing,-2.01056107732,-1.17206793799,-1.84049964289,-0.216479669248,-1.82592236029,-7.12549139193,-1.76464446419,0.249008890685,-0.470108079187,-2.47067565359,-0.490628956191,-1.36137782865,-2.05102875898,35.0180361985
do_nothing,-4.02916962384,-1.77118122093,-0.893257633768,0.00255706762701,-0.560072915441,2.42976104749,-1.882599738,-4.68622660976,0.507181775188,-2.60729448476,-1.26742362681,-3.4666306132,-2.04460926438,171.776384685
