label,COUNTER,INTERPOLATED,AF3,F7,F3,FC5,T7,P7,O1,O2,P8,T8,FC6,F4,F8,AF4,RAW_CQ,GYROX,GYROY,MARKER,SYNC,TIME_STAMP_s,TIME_STAMP_ms,CQ_AF3,CQ_F7,CQ_F3,CQ_FC5,CQ_T7,CQ_P7,CQ_O1,CQ_O2,CQ_P8,CQ_T8,CQ_FC6,CQ_F4,CQ_F8,CQ_AF4,CQ_CMS,CQ_DRL
off_to_on,0.514518966325,0.721496272507,1.55189135395,0.391355406571,1.35865925105,-1.97041058393,-1.42041082093,3.90330451445,0.73062193776,4.07667487499,0.403601603534,2.16122191624,1.64166772156,30.0948139781
off_to_on,-1.40048947383,-1.8589152403,-1.55684873412,-0.445937380956,-2.50318059709,-1.02060257655,-2.88649656414,-3.27790760354,-0.704104617458,-3.38470072147,-0.95194023135,-1.86091269452,-0.530914765208,-127.910955637
off_to_on,0.200528469645,0.0811220630824,-0.472848413687,0.970416675358,-0.0508358699955,2.54369222093,1.3507672532,-2.78821305242,0.675916165817,-2.69290843557,0.68650199411,-1.27030597991,-0.575015101792,0.0814548788669
off_to_on,0.61383104638,0.922440372356,0.364087435699,-0.809956430546,1.33296287912,-0.3856277796,2.19515494399,2.70409090089,-0.646128307415,2.59208431662,0.0664037239812,0.932096549743,0.00225718170361,81.6567479042
off_to_on,1.34952491154,1.51036912334,1.89588042122,0.359599857588,1.37141646869,-0.543409080159,0.70364088609,3.91671559952,0.614816537644,3.58680710944,0.527068357263,2.64815533624,1.57533997363,28.8200417257
off_to_on,-2.62593010488,-2.71052509207,-1.9517877498,-0.608617926999,-2.69906196477,-1.17577280243,-4.26192255434,-4.6242033841,-0.582059917395,-4.24431091174,-1.76771512243,-2.73829421551,-1.95760184185,-81.4314836508
off_to_on,0.133116605739,-0.29418894545,-0.479562804649,0.915191478531,-0.257009031501,1.40712835738,0.275793762695,-2.21280648633,0.547940926574,-1.60470797185,1.05618474947,-1.03884511776,0.307225347057,-26.7191541312
off_to_on,2.02029455873,2.21393808791,1.09366043191,-0.444677295243,1.86853751767,0.400751910712,3.9963167807,4.04828061598,-0.512545259609,3.19096015879,0.940678032726,2.10362247295,1.40882186754,66.0338429131
off_to_on,0.349111838619,0.683424333747,0.93135593553,0.113696318636,1.07339698443,-0.448359137774,0.0886001462587,2.22109095139,0.475961558393,1.60429906191,-0.734838256359,1.02626528155,-0.529678219274,25.080675179
off_to_on,-3.13000944145,-3.23716747734,-1.78057362484,-0.619386312489,-2.95496386446,-1.28334719038,-4.88703503664,-4.9812225563,-0.438281196609,-3.72279759927,-1.62881305291,-2.87172941414,-2.13652668477,-36.9554146676
off_to_on,1.08592635998,0.942160275248,0.164737981601,0.751865191103,0.227459842102,1.30450876467,1.40210707634,-0.163975621631,0.399598099498,0.212471307708,2.11498771635,0.841810371208,2.38686648227,-54.0974394268
off_to_on,2.25931653275,1.98499445588,0.901469245048,0.0618420719724,1.92894815626,0.20514457121,3.39705755172,3.60185940086,-0.360008494117,2.24380579583,0.260181696407,1.60626097018,0.852027736642,57.3068449812
off_to_on,-1.00591312389,-0.732893954412,0.137580540379,-0.243428466427,0.150442435437,-0.374481363182,-0.853011311819,-0.2734272753,0.319610626311,-0.323629904161,-1.5674855745,-1.2044414398,-2.55662826867,19.4014518718
off_to_on,-2.32346804896,-1.97059621824,-1.25475338924,-0.780108568469,-2.01256462468,-0.455505192911,-3.34365305998,-3.03248364348,-0.278504539426,-2.0890443874,-0.21108010702,-1.27449936253,-0.560921808807,-5.04266178498
off_to_on,1.80558489345,1.73588651396,0.880261784984,1.04148791997,0.28370310508,0.361886648585,1.63872318815,1.5139964939,0.236791863434,1.79486470478,1.90821331045,2.60757586579,3.5892337659,-67.361234453
off_to_on,1.17477522017,0.372420448409,0.0805150505669,0.252055822546,1.25521005009,-0.0963502112573,1.90746609476,1.26347348967,-0.194575534389,0.409534507993,-0.831572125651,-0.575750739526,-1.09924960028,48.2289659632
off_to_on,-1.4322388797,-1.21518809258,-0.468659576823,-0.896179587259,0.205974612255,0.53830606492,-1.5809869451,-1.70840665439,0.151959509793,-2.07416199533,-1.03821350706,-2.57058739912,-3.12396540411,10.5081365961
off_to_on,-0.592848558983,0.469165937186,0.199175007586,-0.284222268078,-1.26423018806,-0.201436094273,-0.439917539403,0.160845204467,-0.109048545605,0.865708727035,0.887036179791,1.8071545187,2.06836264144,17.6468440196
off_to_on,1.17897401204,0.703771875233,0.412949255312,1.1347951238,-0.354171450659,-0.913413356764,1.184431849,1.85655072645,0.0659479610025,2.30862116622,0.595277864863,2.54653674619,2.46300589488,-67.4241684962
off_to_on,-0.336250743764,-1.35671460048,-0.747441523146,-0.107773219354,1.31830764173,0.360825097183,-1.1315594487,-1.8473670104,-0.0227633432421,-2.46816118969,-1.03803229257,-3.44654211567,-2.91525507723,36.6393146895
off_to_on,-0.210552212733,0.395456039697,0.0826864650358,-0.973755900139,0.401610645988,1.30476137092,-0.237358143958,-1.36535193749,-0.0203997263232,-1.66321823051,0.0654648139772,-1.38716150413,-1.22688904746,0.951377179828
off_to_on,0.820764960371,1.57996681107,1.0060329643,0.360582531922,-1.42387348817,-0.648157865943,2.32878342688,3.1928861837,0.0634358932332,3.45560861699,0.763355607998,4.17555272437,3.06908094959,32.216526383
off_to_on,-1.0739440254,-1.51308663994,-0.831696443154,0.614657721445,-0.405085861125,-1.55961910998,-0.916135037443,0.470419315709,-0.106240280258,0.67364609001,-0.41736865652,0.00316384248316,-0.0955672338278,-58.3597857687
off_to_on,-0.589013414586,-1.14573139291,-0.651283337353,-0.25588827114,1.75476504004,1.04150768618,-3.0322841291,-3.86059730498,0.148708780702,-3.61190158819,-0.407302462687,-4.02953479587,-2.40085369982,24.1344813444
off_to_on,1.94022477934,2.09308181282,1.13903025077,-0.563765394055,-0.12040307842,1.43326208021,1.85996622255,0.175790107382,-0.190738311865,-0.0282751731229,0.357402639728,1.01276963509,0.708347805612,-7.50971893432
off_to_on,0.408734469965,0.792973430251,0.425561297907,0.424127372531,-1.39019415591,-0.95069813094,3.6132086034,4.50665253672,0.23222702988,3.51848195051,0.597491454522,3.59954419316,1.85872145439,38.9190089495
off_to_on,-3.16372757162,-2.90897970361,-1.65356737339,0.0207413568567,-0.148832727126,-1.84464902373,-2.93375974917,-1.33414328362,-0.273074583675,-0.548610261729,-0.950988279947,-2.0746085815,-1.32467208857,-43.6890317088
off_to_on,0.976893464121,0.701956271507,0.455801031237,0.372466268917,1.96287737822,1.61848726801,-3.3872898568,-3.85179458599,0.313182390996,-2.76941085937,0.136771687464,-2.10894123014,-0.71009437404,12.4668036922
off_to_on,2.62964917931,1.75831786236,1.08010652137,-0.907619910059,-0.662566864268,1.19090158323,2.80357113537,0.986424339173,-0.352453863875,-0.110666708177,0.204268176983,1.43362418961,0.630699989506,-13.860232641
off_to_on,-0.796458461982,-0.201587334368,-0.0141025278147,0.473229264488,-1.39323589954,-1.08787354261,4.28289700881,4.40097717338,0.390794612337,3.4859677606,0.854102645449,2.24262696024,1.02421513785,38.7100721532
off_to_on,-3.25292791513,-2.07921953166,-1.98271215965,0.167814988472,0.250133914409,-1.73568823497,-3.73246470046,-1.6986194759,-0.428112689236,-0.691778237697,-1.38859579911,-2.13874614926,-1.08943189617,-26.5485769886
off_to_on,1.90395853372,0.910664032323,1.20930339797,0.276376800613,2.34831995882,1.96644509065,-3.81133324005,-3.62106443209,0.464318835608,-2.87954208842,0.0932434187035,-0.995164559236,-0.33175700315,0.579014543954
off_to_on,1.96860093877,0.794668287945,1.16652778035,-1.11198775056,-1.82098653102,0.360022360128,2.83859477808,0.672049698947,-0.499326672748,0.17354539954,0.733006174258,1.10357391028,0.17048764466,-7.94897395292
off_to_on,-0.698890288206,0.643156938441,-0.731791601555,0.830898621984,-1.0829765566,-0.491410445594,5.4651769581,4.86658785395,0.53305288891,4.09691745475,0.756825345051,1.91621541616,1.63447237385,12.5525195608
off_to_on,-2.85350274197,-2.05234772019,-2.04517260242,0.0463625902631,1.36291956106,-1.35484307723,-4.16001855422,-1.78883882316,-0.565417462062,-2.31704348424,-2.01360346235,-2.53079327564,-1.64322085663,12.0588866572
off_to_on,1.33642410096,0.0548650961043,2.25092944045,0.144538560881,1.58619606571,1.15146546417,-5.0891164979,-4.01062869631,0.59634386395,-2.28027690455,0.573765784915,-0.355502434902,-0.565754164628,-4.46065264852
off_to_on,1.97437084894,1.54153515741,0.534622339037,-1.0886425624,-2.85968127,0.267659603934,3.85496989327,0.936267392369,-0.62575921505,1.96975054745,0.997163124683,1.78645227398,1.05791851916,-54.1447862529
off_to_on,0.033269466867,0.912970226638,-1.32827801444,1.06807389059,0.38919286432,0.565924519827,6.29407998146,5.14148892172,0.653594447651,2.16912547387,0.332291499025,0.589369436775,1.31518436146,76.4485726784
off_to_on,-3.55661563727,-3.25155747032,-1.19466323899,-0.257396233524,1.68365096999,-1.95031817946,-5.94200411193,-2.38569862573,-0.679784494491,-3.3769791558,-2.24781529073,-2.9002002773,-2.54844635072,-27.4765462856
off_to_on,1.51599745598,1.19799277847,2.55008988353,0.369503967878,-0.070744166468,0.639194369406,-4.09389176085,-3.63604906208,0.704268443986,0.649461868671,1.31862013394,1.65676781572,0.72837645759,-10.582685148
off_to_on,2.10063370644,1.50536204561,-0.782009832141,-1.25267931096,-2.44495130786,0.853012570678,4.65378863989,1.21196257581,-0.726989655616,1.31661733434,0.664349792617,0.95964283681,0.785573152034,-4.8853011829
off_to_on,-0.350753496929,-0.33976546441,-0.660342881973,1.13584800029,1.9215529202,0.74095131245,4.21130387687,4.55528405008,0.747895892437,-0.292229575462,-0.210239414174,-0.962637883566,0.10323288048,15.6820180605
off_to_on,-3.06131274997,-1.98695395407,-0.218940911427,-0.146539626039,0.487642635005,-2.34523838741,-5.07009168152,-2.54746672004,-0.766939465439,-1.5912804672,-1.56412390592,-1.38637723803,-1.15643928053,9.26978170584
off_to_on,1.84522457661,1.71456318396,1.2574802607,0.156442252573,-0.79717761542,0.6819115352,-1.87686991426,-2.60385329452,0.784077335529,2.09116075097,1.57869259335,2.49728509524,1.15461845465,-35.3312545943
off_to_on,0.773327786493,-0.680501478386,-1.16316576028,-1.18875695254,-1.44698935222,0.787121031748,1.76580711859,0.830205890105,-0.799271187821,-1.12676876203,-0.408167665347,-1.09642790603,-1.47208544639,48.2231355235
off_to_on,0.194918014015,0.969213399613,1.03737127464,1.4244997337,2.68346980033,1.0931253224,3.71620565463,3.59352086772,0.812487526882,0.031595956577,0.353440321739,-0.321068198804,1.52939338603,-53.794990357
off_to_on,-1.77921742969,-0.697443454787,-0.965798302685,-0.665532900396,-0.978760018017,-2.45175681808,-2.03685696864,-2.02203116008,-0.823697769266,-0.125291862941,-1.01643021097,-0.150883367513,0.166761401344,38.2429033662
off_to_on,0.676345073896,-0.42521879496,0.355177093995,0.427344592637,-0.936861648427,0.256853474498,-2.85289236706,-1.46977739856,0.832878290775,1.15532771076,0.931573492852,1.2007270617,-1.14142238534,-13.4968302894
off_to_on,-0.0333807467575,-0.500432862182,-0.315356641497,-0.884175368075,-0.0805954434403,1.15306372452,-0.0188622089295,-0.0345078843022,-0.840010458788,-1.52167337413,-0.666907750028,-1.24141838668,-1.275668823,10.0864027494
off_to_on,1.51771576661,2.68432435246,1.38834565564,0.938341796345,2.43551360068,1.33224095459,4.61897893537,2.48853924021,0.845080684483,0.865578912002,1.06175615447,0.942512483371,3.5394951755,2.36592883202
off_to_on,-1.49668042175,-1.84721075483,-1.60692898355,-0.727238771391,-2.18273934823,-3.05975977291,-1.14602031516,-0.979862982896,-0.848080459096,-0.582313826961,-1.19673282281,-1.04456158634,-1.39104974071,-47.6548509001
off_to_on,-0.391638250583,-1.14149864849,0.278936627092,1.02315796398,-0.334451849805,0.666089108513,-2.83380556833,-0.220443100968,0.849006347475,0.980123757575,0.481598126045,0.716243819175,-1.77489619919,44.3372035074
off_to_on,-0.0408240855141,0.975199634861,0.171540490193,-1.1671607624,0.844969587761,1.25874206364,-1.12833766377,-1.63567865807,-0.847859978245,-0.844577337974,-0.0875163630264,-0.0323744133406,0.603072158458,36.9476292076
off_to_on,2.25579943826,2.1534708939,1.13481216474,0.489146981985,1.44890120214,0.765985209548,4.16379183198,1.70116254629,0.844648048789,0.383394517668,0.706967805589,0.624706549314,2.54761407946,-52.5342195138
off_to_on,-1.62116238851,-2.71528769926,-1.71061701799,-0.229603001725,-2.39627976971,-2.50231642265,0.58535306683,0.744602425764,-0.83938230402,-0.918592450581,-1.30959591078,-1.99796195173,-2.28327911324,-47.4847983308
off_to_on,-0.791618642544,0.0283892208174,0.604542549086,1.21102399109,0.424882903651,0.737375046993,-2.82174725709,-0.0368892666518,0.832079479338,1.60645489148,1.06990018686,1.47719701177,-0.186653992027,65.6257412904
off_to_on,0.0739172840511,0.912229366965,-0.105433403951,-1.71867291063,0.663448352083,0.614580473214,-2.90495751219,-2.94509421644,-0.822761249083,-0.783119176456,-0.528886062167,0.45085796263,0.350215104261,65.8801078663
off_to_on,2.52954235496,1.22423984653,1.09578354418,0.618111617868,1.0512388741,1.05894734133,4.91810823215,1.82619660962,0.811454182159,-0.160121721949,0.444152176,-0.172399986496,1.3016832228,-99.0903296027
off_to_on,-2.01753940594,-2.36654925634,-1.5935358118,0.0917052314974,-2.14391871846,-1.91938462935,1.243672592,1.37649988299,-0.798189665262,-0.830373022672,-0.866927081608,-2.07111245601,-1.53367669823,-46.9876756399
off_to_on,-0.63021778429,0.778383638066,0.775843305016,1.02606370304,0.66293633865,0.0719799779537,-3.0867063459,-0.0527628655316,0.783003799918,1.90037123405,1.26252906271,1.97359036141,0.587602486834,77.25538971
off_to_on,0.661696658532,0.558146992133,-0.140133388979,-1.76944825646,0.353881343918,0.428799901837,-2.88169923253,-2.82964671258,-0.765937310531,-0.668788501793,-0.99573591706,0.486454368855,-0.437928690265,95.4821387292
off_to_on,1.57746973074,0.3397599164,0.443893666323,0.417223058638,0.830241382932,1.74135543269,3.9936743658,1.00471598485,0.747035450992,-0.522834772953,0.289091718364,-0.520464335282,0.857010558744,-130.591148474
off_to_on,-2.06387318521,-1.64111430029,-0.882091848265,0.597858062183,-1.64640742716,-2.17845634431,1.76681802865,1.41256941768,-0.726347877096,-1.02467709104,-0.284563196534,-2.05831095922,-0.97961146425,-58.9003598456
off_to_on,0.372528303704,1.23219338394,0.906652862914,0.88368801669,0.855506497305,-0.194034289793,-1.69250090285,1.21634444684,0.703928503511,2.40421846068,1.08631606106,2.0755361377,1.01279649466,88.118064353
off_to_on,0.613489303736,0.136403878479,-0.641276978267,-2.30556695351,-0.419481804851,0.799395811657,-4.2301756648,-3.29905101123,-0.679835373789,-0.423802200737,-1.17577018479,0.771548336568,-0.760107595945,125.174407491
off_to_on,0.277908446497,-0.214539817702,0.389264544414,0.869931615971,0.636693798787,1.42669113274,2.79856662189,-0.387815553903,0.654130520864,-1.53644378627,0.220651122724,-1.00311131434,0.0348493379486,-155.149525651
off_to_on,-1.6049269896,-1.22502751838,-0.593318002611,1.07759264118,-0.150642551701,-2.08997292448,4.07876905676,2.76027040329,-0.626879795738,-0.462691237434,-0.0165778099225,-1.8525918655,-0.0782906217519,-71.5137237403
off_to_on,1.60851645786,1.71418497344,1.04561157426,-0.0800706727349,0.127972974337,0.0804326264644,-2.18828646145,1.47774651715,0.598152691015,2.98322839657,0.968516355325,2.24859795245,1.20188380124,93.1494293292
off_to_on,-0.121225780552,-0.120754344245,-0.734092818871,-2.13762047179,-1.63444350564,0.759867274361,-5.4559344375,-4.30779684982,-0.5680221765,-1.2964758915,-1.05847698836,0.440818227857,-1.35863131054,149.36893122
off_to_on,-0.836096258309,-0.825724866023,-0.113189678162,1.67533645628,1.72843191301,0.6506514596,3.74369854069,0.0825172155385,0.536564519005,-1.70566167957,-0.0174230951719,-0.977118840918,0.0259961100216,-162.993656216
off_to_on,-0.430567857009,-0.805472172115,-0.137011479533,0.679950696237,0.884940452962,-1.35386043997,4.1556663145,3.14193527538,-0.503859076092,0.853376113721,0.0110937272125,-1.18038348933,0.381849507319,-92.899412718
off_to_on,2.03718907557,2.0434932466,1.24006312855,-0.98132943028,-1.59176274917,0.529046474392,-2.98981312849,0.487450383417,0.469988093362,2.02777826027,1.16770664589,1.45228537672,0.743763997462,98.3409715333
off_to_on,-1.16313093294,-0.366480111667,-0.962706081379,-1.02406503752,-1.59037312168,-0.102844059572,-4.46398000568,-3.74980588446,-0.435036510644,-2.0527397586,-1.02633081341,0.114338867088,-1.09556470824,165.717492746
off_to_on,-0.766287092931,-1.07150963691,-0.510182807547,1.80103316068,2.88413787,0.340689976613,3.71110595607,1.03793375801,0.399091748749,-0.181455382244,-0.308462511848,0.277187876444,0.311713050052,-157.181531561
off_to_on,0.52765140642,-0.451792239148,0.477599456414,-0.2424529323,0.487418091439,-0.220274951658,3.01866921131,1.97020144832,-0.362243478153,0.965776628824,0.206983790715,-1.30829524836,-0.223777661928,-119.271672486
off_to_on,0.932407129677,1.5457447911,1.06268520339,-0.831705758723,-2.22799203146,0.200541398631,-2.67230618863,-0.5686791398,0.324583397609,0.000877098439292,0.99156850947,-0.344601321638,0.494007046794,104.081057466
off_to_on,-0.864147143259,0.195303861156,-1.28142620778,-0.210117935415,-0.926530824646,-0.730946111914,-3.12629670192,-1.54355548602,-0.286205017326,-0.905051840909,-0.765001446697,1.52906396048,0.0708501877585,173.689154575
off_to_on,0.16904944824,-0.838277589414,-0.0344895107975,1.33889612886,2.60619606102,0.702893237753,3.20888670854,1.2729325164,0.247203422057,1.21639493312,-0.238964466084,1.29864652197,-0.0577921751356,-142.245395444
off_to_on,-0.436553717257,-1.28114571784,0.459997339676,-0.655121209528,0.453189447206,0.158613860487,1.62812126912,-0.197128566283,-0.207675025132,-0.465837719065,-0.0809983604106,-2.98792940333,-1.03282527549,-144.778135928
off_to_on,0.0496726113486,1.18450046661,0.129159221742,-0.637099343785,-1.94999554186,-0.457846124964,-2.59038299164,-0.840171892779,0.167717336198,-1.38537710652,0.490371509697,-1.01604059269,0.476654443401,108.162876259
off_to_on,1.16383724369,1.87892407064,-0.158233466122,0.615946689629,-0.994622136825,-0.184562072331,-0.624450832377,1.40878964925,-0.127428729078,1.52276188225,0.460712499369,3.80755578745,1.43539116171,174.773613253
off_to_on,-0.0655764537699,-1.32234156734,0.165005037419,0.375127076359,2.12016070278,0.656193749302,2.32590201629,0.432247387788,0.086908191755,1.52594814982,-0.486966147915,0.877887478149,-0.405000185899,-122.175599599
off_to_on,-2.32717053008,-2.88486305887,-0.761951944635,-0.749072649739,0.896705796044,-0.479798997324,-1.19684307163,-2.70862353107,-0.0462550761719,-2.97479472942,-1.31495827081,-5.00342837631,-2.47676521655,-166.277261385
off_to_on,0.831837881042,2.18246548355,0.19076054824,0.127186063529,-1.83929152196,-0.0676297688893,-0.900181319364,0.487259267462,0.00556886303126,-0.808323284293,1.25465918055,0.177759894842,1.04684589701,110.160773328
off_to_on,2.87516362611,3.22743768288,1.380154339,0.567827605286,-1.00876309209,0.712301024735,2.26986413555,3.41515786704,0.0350510769222,3.91553762786,1.43510062124,5.35970008447,3.05982289723,170.710686276
off_to_on,-1.53317441748,-2.90103817331,-0.610899226706,-0.555606773538,1.55729193788,-0.62236544132,-0.714159943203,-1.37968042831,-0.0755057349181,-0.324469288318,-1.70835490428,-1.22036567734,-1.74082347518,-101.1449984
off_to_on,-3.00264929206,-3.17194907432,-1.88710974143,-0.0703211233638,1.26174590619,-0.521185430759,-2.60790792962,-3.54210166324,0.115696708614,-3.96757983527,-1.42972912472,-5.0385564335,-3.24920116526,-181.414280998
off_to_on,1.76161199405,3.16535916577,1.08234185529,0.520376310824,-1.57874993008,0.882650204646,1.96656951955,1.76989866805,-0.155526432262,0.991273869232,1.92681114847,1.73567111943,2.17436519786,110.020020278
off_to_on,3.40947193121,3.27162069636,2.37682709025,-0.0917809799135,-1.00778536884,0.621840782391,2.66454944433,3.66416660541,0.194898412586,3.88972146744,1.59127237683,4.67345098699,3.41043660057,163.281815058
off_to_on,-2.36283480565,-3.61965147838,-1.99775305869,-0.775559945495,0.946476786811,-1.46371311077,-3.14677686848,-2.11895096184,-0.233717471791,-1.67849162439,-2.53686078957,-2.1950458562,-2.7606864483,-82.2823407492
off_to_on,-2.90467087364,-2.51848061983,-1.79110887265,0.806979590703,1.51816362182,-0.00740454692304,-1.68851975017,-3.15669583348,0.271889977046,-2.92707480145,-0.769611989556,-3.56351978747,-2.72837686492,-189.50352001
off_to_on,1.52863624801,2.54691844514,1.5327366112,0.088842887242,-1.28384935892,0.778264830151,2.52000319295,1.16895757828,-0.309324057753,0.764172831114,1.69300065671,1.0851406259,1.95069309266,108.313098803
off_to_on,3.92681488845,3.29015483941,2.45312666461,-0.338996267119,-0.79026728255,0.911918645088,2.16223176117,4.04029826201,0.345929828946,3.5398303224,1.39727886648,4.09714173383,3.4559572773,154.164104743
off_to_on,-2.03501012172,-2.54944563302,-2.15395414015,-0.650693456057,0.221972732496,-1.44035914115,-2.60885140998,-1.38421985553,-0.381619614958,-0.949037891309,-2.06118368339,-1.14568218148,-2.37497361062,-67.6591225648
off_to_on,-3.73613569841,-3.12590514729,-1.9259691199,1.14273036159,1.51037257109,-0.679508183174,-1.88669380042,-3.75729644386,0.416308155723,-3.3009135633,-0.876193086632,-3.72130131829,-2.85200717983,-191.238328026
off_to_on,1.31700765196,1.20662281301,1.41701562981,-0.11768152982,-0.707390273243,0.812521878685,1.17205576144,0.0730581759625,-0.449912803557,-0.00836888131456,1.13022467596,0.0274819681626,1.12319846358,106.376526977
off_to_on,4.94496704309,4.86247643334,2.79284830326,-0.499121435775,-0.502864726747,2.20710005345,3.7807644454,5.47779424624,0.482353724743,4.84367777798,1.80372698699,5.04729313057,4.28614820238,142.488802012
off_to_on,-2.3577774837,-2.02505171004,-2.1432759308,-0.784434751183,-0.669897482958,-2.30411278195,-1.90063237833,-1.01970744078,-0.513554094682,-1.35538785928,-1.68320807634,-0.998291307142,-2.16968419825,-49.3279636114
off_to_on,-4.13480874612,-4.60562425638,-1.9708433867,1.84851138921,1.42781377148,-1.71362746835,-4.00620893636,-5.15039744936,0.543440273979,-4.04953056365,-1.25027081979,-4.26206904193,-3.39685150185,-210.085199698
off_to_on,1.48049299777,1.14967026843,0.965109902257,-0.570047874036,0.0023905894314,2.15848967984,1.38050608748,0.350630467803,-0.57194197767,0.814475250661,0.615623400511,0.112357116739,1.11116772575,136.070977892
off_to_on,5.1347066042,6.20134203561,3.19847934573,-0.909465578649,-0.143783694483,2.77708324453,5.79673052014,6.48072728767,0.598992446447,4.97877659159,2.7155676765,5.24091773289,4.52148324035,118.313663326
off_to_on,-2.75944851461,-2.83787489824,-2.0650157559,-0.238188929097,-1.66379825712,-4.06884012077,-3.44547673331,-2.0342070883,-0.624528605671,-2.516048642,-2.03743298403,-1.31536561802,-2.36257831875,-77.7446402159
off_to_on,-3.48627538347,-4.8065060247,-1.88621466011,2.14654434924,1.25405022496,-1.20346767124,-4.35425570853,-4.94054077883,0.648491205516,-3.00818702779,-1.54675406042,-3.76378090942,-3.05402255567,-129.271294906
off_to_on,1.31920081556,2.03179987426,0.568393648441,-1.40802442316,0.854243388463,3.32180886798,2.80514704369,1.15131594945,-0.670824956338,1.32624025837,1.07537256009,0.0700649852975,1.20899134495,75.03587963
off_to_on,4.40736335416,5.20520428755,3.0555340812,-0.65161271845,0.198191547762,1.91003528584,4.73210944158,5.47369824916,0.691478662273,3.43398362183,2.60047206979,4.60544015804,3.65860275778,110.628879807
off_to_on,-2.6363066197,-3.23275756904,-1.52070966923,0.338872482232,-2.69357637813,-4.8582070641,-4.13978109045,-2.59531256429,-0.710405338312,-2.39686487561,-2.68139321614,-1.32552675143,-2.26400727581,-40.5825800595
off_to_on,-2.1649638201,-2.66081598044,-1.69105363723,1.69211007064,1.10577834113,0.275154596705,-2.0677886437,-2.9252049427,0.727562310128,-1.15943925696,-0.518012213157,-2.62545294167,-1.53269010031,-140.739918557
off_to_on,0.700845828041,1.00578462529,-0.133438663915,-1.84706263644,1.66687551334,2.99417100773,1.94690510484,0.670514559979,-0.74291131038,0.355992412612,1.00121193763,-0.282407970452,0.291248238316,71.8722498382
off_to_on,2.92646318195,3.15155441851,3.02432239713,0.212221324741,0.495580258603,0.756248600804,2.20669220917,3.37536885577,0.756418569057,1.94142840789,1.32361180235,3.34813415088,2.27490256248,90.7885469683
off_to_on,-1.61332408813,-1.26547040141,-1.09488560393,0.00065784556608,-3.52934597511,-3.84403486091,-1.75155676305,-1.41435289251,-0.768054884774,-1.09704480799,-1.80012351333,-0.796447050893,-0.913068776793,-7.88178545571
off_to_on,-0.710760156986,-1.1354526374,-1.30821608926,1.39394911973,0.790953553589,0.836013174706,-0.0429588493738,-1.01268922407,0.777795681363,0.0166139053381,0.426531976546,-1.22949537804,-0.40182724783,-152.375419771
off_to_on,-0.686861352507,-1.50562094413,-0.765920017245,-1.52989919659,2.50677487789,1.68574587388,-1.7729592964,-0.967704147031,-0.785621061211,-1.18708366029,-0.396414633181,-1.09344379307,-1.46634973098,68.6479097121
off_to_on,1.77844826012,2.57469714272,2.66175560539,0.135689647013,0.821104090544,0.90487950349,1.65039421797,1.82041918886,0.791515848706,1.35730700973,1.10317044657,2.11061593836,1.95366504144,89.7900944282
off_to_on,-0.0384061196553,0.981476896422,-0.414593898696,0.0168255507111,-4.56067804344,-2.80893700266,2.10349934439,0.395885887295,-0.795469613886,0.142348364832,-0.551719706933,0.0105759208881,0.397686381931,-38.9991806842
off_to_on,-0.244402408946,-1.27628028124,-1.04699817627,1.54188342647,0.927060789164,0.381297776421,-0.752967193192,0.229835694797,0.797476684359,0.344484955537,0.229253044149,-0.0255494577904,-0.443342673315,-40.6877328517
off_to_on,-1.72306853328,-2.99617327353,-1.34580702479,-1.96004593222,3.2535432975,1.0779566736,-5.15336121938,-2.94979165464,-0.79753615337,-2.05622853883,-1.35860851579,-2.02070302466,-2.10688222793,-72.6990965828
off_to_on,1.58742502248,3.01972279836,2.53503118698,0.269002248085,0.317085151045,1.22486223873,3.52905519638,1.17042776413,0.795651874784,1.07818554265,1.61710730668,1.24185471158,1.87896724274,137.455848655
off_to_on,0.144385995376,1.41515320271,-0.231899580865,0.658690830291,-4.75142340763,-2.48788503278,3.99761031329,2.17541423186,-0.79183243921,0.687418770574,-0.220595315467,0.661669338119,0.516737045909,38.0392157458
off_to_on,0.504068356129,-1.26575969073,-0.630448889494,0.924493851606,1.5979985728,0.612112248027,-2.68021955528,0.328284477824,0.786091141285,0.721501639195,0.09098995076,0.842631679635,0.110621109322,-134.316771748
off_to_on,-1.86493838837,-2.88189938505,-1.46703400699,-2.40925825207,2.70038660539,0.389966174505,-5.49463768264,-4.27426421732,-0.778445941935,-2.42436012221,-1.66978452875,-2.63768641837,-2.22489353581,-53.7228226815
off_to_on,0.637214825548,2.46167910442,1.93164858546,1.20445046456,-0.143067833888,0.770995850297,4.29940782422,1.54753419721,0.768919415497,0.542352476339,1.58679553733,0.484772551725,0.98640498705,153.276041271
off_to_on,0.388904361064,1.16828174619,-0.0578010275569,0.710700294783,-3.51599876946,-1.15505193861,3.87708152435,2.76153379243,-0.757538680244,1.18787295978,0.303757708261,1.40867972789,1.07396896392,70.3704266654
off_to_on,1.34879919565,-0.405220614045,-0.0361494530238,-0.162657637641,1.37030998912,0.667509079306,-2.30592941489,-0.292500985634,0.744335322594,1.02409932909,-0.255479649629,1.00697410307,0.654972114561,-218.743772778
off_to_on,-2.06653779172,-2.53970626648,-1.48786419109,-1.68284483391,1.40758488902,-1.20202310992,-5.71252126848,-3.83655404777,-0.729345314879,-2.80412631495,-1.70523266258,-2.94552400667,-2.82603381462,22.0158981197
off_to_on,-0.16166950459,1.22254095426,1.02394554204,1.53543127413,0.616214594583,1.2763697085,3.3280040965,1.71943429947,0.712608917284,0.432430691013,1.61104433858,0.57009970785,0.894363006547,133.768445463
off_to_on,0.870228717291,1.28694671057,0.355592925964,0.0567952636637,-2.54580268486,0.372774070273,4.9174382171,1.84418438984,-0.694170566351,1.43662251153,0.400270214004,1.35743816112,1.4331453652,34.3433328884
off_to_on,1.3924193022,0.385448897066,0.575592889011,0.00269182760639,0.33851851604,-0.658860404643,-2.02943537121,-0.11600196048,0.67407875916,0.737041022976,-0.2825483826,0.566619818443,0.260675208567,-173.832049092
off_to_on,-2.0104920206,-2.61092645215,-1.98200796434,-1.39483535359,1.21364077519,-1.65290923354,-6.46699288026,-2.47390455676,-0.652385929784,-2.40802368991,-1.74367197967,-2.17964833457,-2.41221680207,20.0370668695
off_to_on,-0.0451690530322,0.94646165057,0.851478965079,1.22664665419,0.995733434082,2.41091981358,3.5449019466,0.871629919308,0.629148310597,0.487078191493,1.62529881443,0.92546730106,1.01060635453,104.803563783
off_to_on,0.616945865818,1.05608378347,0.601517688649,0.129424115624,-2.48870355057,-0.0364229627947,5.00329928685,0.761119965368,-0.604425783797,0.856309995059,0.447082655114,0.0443077543275,0.8745117359,30.4417931357
off_to_on,0.840347077887,-0.00702336161,0.395985542669,0.14687217777,0.554768591544,-1.21309564028,-2.70721806797,0.739675995748,0.578281730023,0.716170220213,-0.521157380439,0.448947096729,0.0739577361014,-129.078455291
off_to_on,-1.2326104019,-1.30915701916,-1.63931723943,-1.50922531414,1.25604509913,-0.420497208396,-5.14644582096,-1.44464976182,-0.550782868421,-1.5474431175,-1.40338973572,-0.375310189827,-1.52826501599,0.189374620515
off_to_on,0.681534967343,1.02705819671,0.744634365012,1.04337230314,-0.312651249165,1.55786938491,3.76070678233,0.0734571212748,0.521999083494,0.30024195592,1.67596011749,0.383991282281,1.09285537242,82.4892923401
off_to_on,-0.677945645496,-0.808186817106,0.389451786465,0.589065177871,-1.58791845955,-0.99412056927,2.43457253158,-0.18826272689,-0.492003245915,-0.0804724260732,0.00988495914266,-1.56562127217,-0.125472293658,28.8158104856
off_to_on,0.0475621983125,0.407018853106,0.0640783585896,-0.287737869102,2.02621928496,0.668024847218,-1.67179153487,1.146920778,0.460871031335,1.0041393843,-0.586578731965,1.20437781616,-0.175735100122,-81.9031495335
off_to_on,0.837340554705,0.874453120494,-0.778561747704,-1.37559374533,-0.411023343828,-0.212302234943,-2.05768537916,0.125756267727,-0.42868073054,-0.399854,-0.537371935297,1.26444261074,0.0932068619815,-27.3802955239
off_to_on,0.753259016462,-0.319117133255,0.765934810363,1.24001479995,-1.55391848826,-1.02742467434,0.960503675665,-0.89405624531,0.395513049328,-0.485557192012,1.17617125493,-1.10365270981,0.730434381981,67.2693215032
off_to_on,-2.77620289668,-2.38626775697,-0.680759102712,0.350686160341,0.791191831902,0.357808773286,0.443235992533,-1.61705544966,-0.36145090582,-0.868259980952,-0.687431765128,-2.28932904231,-1.70967340946,24.7322741225
off_to_on,0.562150808187,2.16570022555,0.319228019949,-0.436405681554,2.22396722415,2.33875576896,1.61182143191,2.51317973006,0.326579226375,1.85757440194,0.20896127086,2.56650817161,0.671762003891,-36.8306807084
off_to_on,2.81908018595,1.63621613723,0.51405896165,-0.804906217343,-2.38979051266,-2.03610156062,-1.18298653894,1.2152775472,-0.290984733584,0.301967426324,-0.0189361383057,1.42961479332,1.48211372213,-55.2304675257
off_to_on,-0.79825640465,-2.26901687188,-0.251414117121,0.790587921498,-1.21051667905,-1.62817277071,-2.30777856487,-2.88918422485,0.254755727567,-1.91728465577,-0.118853973544,-2.48779878159,-0.88757230981,58.6617048561
off_to_on,-3.33367291993,-1.71593192718,-1.24338765998,0.310150395849,2.21341524723,2.0250445453,1.3141910373,-1.31456325791,-0.217981867719,-0.427495519242,-0.242416564517,-1.33655225861,-1.86328903652,18.8742080231
off_to_on,1.67405402142,2.89103710356,1.17411812229,-0.298200323767,1.32752650073,1.72727699473,2.81330332832,3.86046376598,0.18075395355,2.48819694022,0.86578457926,2.86005813707,1.80858083214,-4.53599703174
off_to_on,2.78760169612,0.932746174698,0.887649798762,-0.588514630664,-2.42412009741,-2.39205266644,-1.78918432724,0.0384863766905,-0.14316369918,-0.150443801621,-0.495311744842,0.455248533259,1.05854333109,-68.645633244
off_to_on,-1.59342641056,-2.50850970231,-1.26485062893,0.477041883347,-1.16759868582,-1.06730533778,-1.92776259407,-3.18283287482,0.105303504995,-2.3507747704,-0.626794495757,-2.16646011734,-1.45876697882,49.4438536716
off_to_on,-2.69684399852,-0.72554878451,-0.962190289844,0.354788460267,2.02836403776,1.51963812661,0.788292738781,0.392134595142,-0.0672662322072,0.422001977905,0.607487330865,-0.349859251399,-1.00597900755,9.95919649041
off_to_on,1.73810384375,2.23455918452,1.68247946117,-0.336560994931,1.70931383117,1.50991580166,1.47780428349,2.31192100552,0.0291449770621,2.12527382919,0.63865626712,1.70135786811,1.27070299248,18.339600073
off_to_on,2.21949104433,0.485355013792,0.508082662335,-0.299039485428,-2.01218735842,-1.12289458805,0.817905565542,-0.392229317218,0.00896715898872,-0.610895070819,-0.88380173607,0.275096047712,0.990496507383,-68.6173027931
off_to_on,-1.39860760624,-1.85021149257,-1.46992765823,0.348216793224,-2.32285472421,-2.05355147605,-1.81963888366,-1.36116392131,-0.0469772981435,-1.77359985243,-0.415947126268,-1.14456775434,-1.02186631647,37.5442565823
off_to_on,-2.00430789612,-0.23797612713,-0.478453968333,0.0528008221614,2.41512324144,1.06199269552,-2.24535918795,-0.143629792847,0.0847930103535,0.685453338867,0.993872827052,-0.466662368542,-1.10627344471,0.503061003495
off_to_on,0.958402320638,1.20769771696,1.33185581912,-0.227274018047,2.40861855804,2.35034123184,2.7890646549,0.851111558008,-0.122322536992,1.29586511874,0.0856828036535,0.769553029667,0.792753904535,32.9241082304
off_to_on,2.1709044711,0.392423466868,0.722898767215,0.361227907953,-2.47703574126,-0.928995442237,2.92390662623,0.781984556838,0.159475015716,-0.480364568354,-0.657101997168,0.813750065838,1.48772419576,-59.3049303153
off_to_on,-1.07706932103,-0.988886946528,-1.85926320388,-0.55478521083,-2.64079847278,-2.83641095629,-4.07532247245,-1.05789807596,-0.196160700909,-1.10044868238,-0.476533163956,-0.879767962494,-1.19038647132,24.6717716976
off_to_on,-1.61642069694,-0.0217326449052,0.105271341904,0.275999037959,2.90474167579,1.49699645469,-1.87144816999,-0.409590490117,0.232291178041,0.667451103341,1.18894857214,-0.533458470506,-1.01532651112,-7.80622084526
off_to_on,0.270957467873,-0.0351427702879,1.1085560485,0.273036403607,1.99836587376,2.15039113459,3.46493742291,0.444037140612,-0.267779576498,0.182640126835,-0.00468635941266,0.301107095836,0.792870197373,39.5206427448
off_to_on,2.18461328624,0.743690513147,0.241378483916,-0.107962278672,-2.22681675631,-0.880700664146,1.41950852269,0.508020485137,0.302540780503,0.214961506764,-0.923356403028,1.12659013511,1.16551057642,-44.3039498948
off_to_on,-0.681543835821,-0.124283945458,-1.35801606989,-0.687552831353,-2.30538316745,-2.42693974581,-2.42553936248,-0.381576083761,-0.336491632729,-0.51706068276,-0.314593469497,-0.909366120539,-1.09997304319,12.6546635897
off_to_on,-1.53319773323,-0.288107963766,0.493179660553,0.916219727816,2.44591030815,1.28057876635,-0.734268167474,0.646647944364,0.369551130921,0.24827609881,1.65934647613,-0.267347192968,-0.170710248563,-14.0035467355
off_to_on,-0.192494466436,-1.09152447287,0.180808084786,-0.329064320893,1.42592479904,1.31348336327,-0.533134555481,-1.78699858818,-0.401640621587,-0.66563838113,-0.710321073422,-0.0539063555296,-0.235786082006,39.1342605982
off_to_on,2.36410821377,1.63062528388,0.504942321209,-0.0292868062885,-1.18030316958,0.0248572097157,2.99879685964,0.647938250652,0.432683988676,1.07487720773,-0.775276121454,1.04780689998,1.03809840948,-26.8106827101
off_to_on,-0.579806312429,0.261453058253,-0.763780488578,-0.32907696583,-2.08192738747,-1.9213126514,0.980422416918,1.92578585736,-0.462607832766,-0.114127742608,0.0580271922079,-0.720174738654,-0.183712656291,0.470665669473
off_to_on,-1.60002065015,-1.13745815199,0.0921321466368,0.72573562002,1.44019792381,0.193547046846,-4.19639200803,-0.69156925229,0.491341642645,-0.571555916511,1.5032337877,-0.079093507528,-0.387653536216,-7.93035220173
off_to_on,-0.108647313459,-0.957833875732,-0.196252843422,-0.690891092609,1.03722788404,1.13209254385,-1.3856471797,-3.0069677111,-0.518817962307,-0.610504839823,-1.09918071483,-0.114838806074,-0.836129700069,12.6698889921
off_to_on,2.4219203052,2.35884098468,1.10323930531,0.594478640161,0.355183605732,1.23593168172,5.97383493638,2.29489418766,0.544972550131,1.55184843323,-0.204433961741,0.683619739877,1.47062497036,12.3210221995
off_to_on,-1.22193096588,-0.646251615537,-1.02033885361,-0.673298380429,-2.38924292537,-2.5594849435,-0.906849796216,1.61351390505,-0.569744527097,-0.598764898056,-0.222205025121,-0.922959887809,-0.387302432492,-4.99152055436
off_to_on,-0.897372342263,-1.06971675978,0.049481571988,0.559168624829,0.302551654099,-0.135477130614,-3.74036487144,-1.3022197423,0.59307651698,-0.219334097043,1.29866959244,0.964565005056,-0.0921336299041,-54.0397604924
off_to_on,0.322518009368,0.18826940618,0.00276319978519,-0.19720587316,1.60342543931,1.7382886172,0.314432929904,-2.07896381288,-0.614914780188,-0.340621613831,-0.646491333639,-0.365476219194,-0.562569295886,76.7337719608
off_to_on,1.28744228156,1.45794426419,0.933238748535,0.258450650214,0.911459426826,0.965145938455,2.32351856474,1.67502193113,0.635209337468,0.724801014797,-0.27063984393,-0.398473405576,0.559346662514,-27.3896443409
off_to_on,-1.3516553437,-1.76901286487,-1.26649568083,-0.931580551997,-2.99300799052,-3.18996628895,-0.258573939952,0.721654567679,-0.653914081904,-0.766053761412,-0.832717767474,-0.68446804295,-0.497521982506,-11.221338687
off_to_on,0.729997548853,0.966267104046,0.625102692876,1.22347733311,0.681956431989,1.20244466758,1.49351000468,0.632303911428,0.670986882546,1.45222582793,1.88576914201,2.57890797738,1.5201329403,-4.33197569052
off_to_on,-0.585284332244,0.171286209125,-0.180280870689,-0.546252001629,1.41442949419,1.39703802434,-4.03482695389,-2.4697176698,-0.686389679999,-1.21219072917,-0.436566230875,-1.33835429716,-1.37097881207,15.6024722722
off_to_on,0.417108934843,-0.497280915582,0.625723120825,0.0196515768839,0.220580108118,-0.533070710253,-1.10460402171,0.059148187506,0.700088570205,-0.695227080785,-0.834390208617,-1.71042385972,-0.710542700159,9.25983557346
off_to_on,-0.41876349386,-0.99758442849,-1.30100867725,-0.643199413234,-1.95603352739,-2.03833918952,5.70620246723,1.48354401163,-0.712053876383,0.669219392917,-0.89028178448,0.572999755187,0.643698988213,-35.7661703334
off_to_on,1.0616708403,2.32758217998,1.1304304676,1.31834429867,1.27280121973,2.45116118427,2.06997125894,1.83883712949,0.722260212348,2.2552056317,2.47545625017,3.46718652508,2.29878199442,49.0235374784
off_to_on,-1.17057395494,-0.758965859954,-0.13528722171,-0.778643339776,-0.568820015243,-0.450709340529,-9.25052995835,-3.17700417054,-0.730686536299,-2.64866076307,-0.666662520118,-2.55666720186,-2.4414408611,-54.3579593293
off_to_on,0.339898047326,-1.26379572307,-0.213344301055,0.108587380657,0.770915416735,-0.91402050585,0.515857254324,-0.790538652712,0.737316191898,-0.921403222945,-1.17103492795,-2.25346383719,-1.01236071924,38.3675413838
off_to_on,-0.426759086326,-0.3744453033,-0.924375321177,-0.705643233552,-0.365499021033,-0.26587558878,8.54324321204,1.74564028033,-0.742136937872,1.63947935208,-0.610656065149,1.57248410468,1.11832868317,-13.8073606243
off_to_on,1.50746526688,2.89368068541,1.93121316675,1.40362395437,0.131946179716,2.08751507792,0.0564441073071,2.80423310685,0.745140968795,2.29995884007,2.67123448861,3.80379073232,2.84605464494,10.9788079746
off_to_on,-1.05777013394,-1.16928126766,-1.05242665434,-0.74108667838,-1.26104478801,-1.61726774182,-9.79402572486,-3.24042069233,-0.746324925272,-3.08180402745,-1.13082219215,-3.27656347982,-2.82387262332,1.59986104706
off_to_on,-0.496265509437,-1.6258790023,-0.33863478093,0.0612185450052,1.7482571865,-0.315663266284,1.62041421776,-1.9367874108,0.745689891235,-1.13654471724,-0.916492817326,-2.49905481495,-1.69519147571,-47.6206354311
off_to_on,-0.205714755431,-0.369217458963,-0.175730465412,-0.861905509369,-0.412036264172,0.322378141516,7.80401536777,1.8363549624,-0.743241380537,1.63910826963,-0.371116690508,1.92986338637,1.55151505995,44.2086019158
off_to_on,2.34336385453,3.4472465111,1.69709732587,1.5486556948,-0.305855115779,1.5210964178,0.134326760531,4.09816687867,0.738989314639,3.16607886992,2.21843069764,4.33149891171,3.58012038804,38.0915726355
off_to_on,-1.64813443115,-1.08921506765,-1.50384932985,-0.589219290939,-0.668939634621,-1.74386352992,-8.87992715792,-3.7729670302,-0.732947989128,-3.47853523007,-1.03854851634,-3.73192058952,-3.44122529303,-53.9001227103
off_to_on,-0.957844098958,-2.42059578789,-0.00899567876377,-0.133058283258,1.22392646025,0.065335735681,1.32177400263,-2.72572116415,0.725136027911,-2.12797724268,-0.68881958127,-3.13006421922,-2.32223015697,-47.0788842943
off_to_on,0.508177262804,-0.145258133246,0.13332157966,-0.935324941461,-0.878021502141,0.122127358545,6.30102816089,2.46570726173,-0.71557632772,2.66004068672,-0.293477572339,2.75765787455,2.49646333122,65.5471902116
off_to_on,2.16370683808,4.09582254085,1.11512526217,1.5852482471,0.991091588448,1.47752636928,0.719100686986,4.1028663572,0.704295993835,3.56044773263,1.82331508608,4.6111175922,3.60049205698,66.8988944399
off_to_on,-1.79887060852,-1.48325130969,-1.2625087507,-0.266432062647,-0.826245071555,-1.5338516191,-6.61740024687,-3.80435802739,-0.691326264636,-4.6263494662,-1.00413009631,-4.77163667889,-4.15109607375,-100.533255297
off_to_on,-0.728773997975,-2.9270141477,0.222989476958,-0.377219735112,-0.280897112966,-0.103335727646,-0.0801971912366,-2.61883559926,0.676702425016,-1.81359864261,-0.358561375068,-2.80381855432,-2.05521159064,-46.4227680163
off_to_on,0.152453701234,0.599606566693,-0.256485895511,-1.30272707183,-0.0239955829563,0.134040243268,4.00418836059,2.33233312929,-0.660463711318,3.60800687573,-0.271941528618,3.7751534834,3.03719865848,77.1773875527
off_to_on,2.26985728475,3.99489539095,1.29307786632,2.1653026759,2.05922648965,1.39812752865,2.51635643369,3.55622028819,0.642653207828,2.37961008903,1.49315353825,3.36815649791,2.99797888477,96.3260154218
off_to_on,-1.22419905226,-2.03714123995,-1.04057356109,-0.220800750431,-1.83288411849,-1.2264535762,-4.18841690748,-3.00242629926,-0.623317732762,-4.56690911847,-1.09442639336,-4.91805399554,-4.30649800823,-131.879046222
off_to_on,-1.39190298358,-2.53650814626,-0.217713694512,-1.05909241958,-0.998282713733,-0.374051923535,-2.77080877183,-2.38755491659,0.602507714725,-0.630354209963,-0.016168679376,-1.45445048632,-1.44191907381,-58.3718582355
off_to_on,-0.0442047242199,0.976771884304,-0.109407622764,-0.818155646548,1.09287190878,0.102834236281,2.75658059691,1.53493662666,-0.580277062079,2.74769251807,-0.0229860813851,3.29335164728,3.04215416583,88.099221106
off_to_on,2.99435298516,3.35541246113,1.61301943059,2.362165534,2.14241188751,1.59419837889,4.69984938977,3.53722757687,0.556683024491,1.69274748902,0.847419420589,2.12212952945,2.30789849615,125.813732254
off_to_on,-1.25389916519,-2.00095534211,-1.19137189793,-0.604094285115,-2.45188243669,-1.29091837831,-3.69715428966,-2.78989553209,-0.531786045213,-3.4316370574,-1.00122117825,-3.84738374554,-4.17074355526,-156.215754519
off_to_on,-2.24228175479,-2.20622787981,-0.809441264195,-1.24575425176,-1.03207114466,-0.596795739568,-3.80265816072,-1.75745869672,0.50564960583,-0.551404157904,0.348841547965,-0.823085105207,-0.670375708593,-71.081821012
off_to_on,0.606012159427,1.1100530602,0.664517273875,-0.0973141698822,1.52232143948,0.517340894063,2.20894810845,1.49865606431,-0.478340065334,2.07569530996,0.0557552811816,2.42801196254,2.78645869755,93.2226862749
off_to_on,3.1834814651,3.0433289455,1.63118960035,1.94553128519,2.04532783063,1.40287597395,4.64220631163,1.86150988474,0.449926492378,1.370144134,0.381328039547,1.4820184411,1.28866409817,149.772201376
off_to_on,-1.72686014239,-2.37172607202,-1.88023133434,-0.991648579276,-2.5605820253,-1.61650047958,-2.17714037274,-1.77147750313,-0.420480490016,-2.63215955552,-1.0031639023,-2.80401988677,-3.31139878944,-163.798954268
off_to_on,-2.15145923035,-1.65452761613,-0.424730195366,-0.679951407531,-1.27294667277,-0.254070205098,-4.01321522647,-0.206400779837,0.390076015068,-0.328477099301,0.806794239035,-0.494035455776,-0.119685941266,-92.6055269992
off_to_on,0.832947030434,1.57293691105,0.95461376953,0.0655032672344,2.14731176261,0.883997168748,0.609930723685,-0.0598614451471,-0.358789193338,1.41056404259,-0.0126992500772,1.4737752164,1.91454345188,98.5404175165
off_to_on,2.93110982047,1.96414203372,1.08977875571,1.22120754405,1.73211287081,0.701998744665,5.19808981239,0.610651134115,0.326698129343,0.914796002948,-0.130857561794,1.30451882613,0.902190793336,165.884230108
off_to_on,-1.3983750572,-2.08140276977,-1.39020017983,-0.64819611133,-3.11457403935,-1.57981489703,-1.07543206032,0.519629385572,-0.293882710666,-1.53917350957,-0.534592513583,-1.66923347367,-2.06775098665,-157.761754584
off_to_on,-2.6210081832,-1.23050824006,-0.809214223162,-0.451877185695,-0.697032209333,0.127552700762,-4.91548933607,-0.505438445096,0.260424409185,-0.478255715113,0.697561872476,-1.16992018603,-0.759326070871,-119.091713142
off_to_on,1.10512448248,1.65843606214,1.02141648313,0.0165318288292,3.02761388708,1.24136940457,1.18617881904,-1.33257590616,-0.226406079716,0.745997484788,3.12194432492e-05,1.19990555494,1.58565080767,104.414264685
off_to_on,3.18942595778,1.35996179506,1.38057320545,0.796593178124,0.0681829010779,-0.133267586744,4.63762364064,1.45729504226,0.191911754847,1.194189819,-0.236805529718,2.0257733321,1.46545523207,173.631649711
off_to_on,-1.84175848895,-2.0050951682,-1.5501957606,-0.33996631594,-3.30159974054,-1.75375250288,-2.17288324749,0.446954109452,-0.157026436771,-1.34016337795,-0.41649656125,-2.16146820179,-2.2239279375,-142.658000005
off_to_on,-2.77722505951,-0.795268335873,-1.15100173903,-0.365545316554,1.47046989218,1.14912974181,-2.62780351407,-0.941871346789,0.121835888211,-0.670489831295,0.617089962574,-1.5375757848,-1.16987953405,-144.660642061
off_to_on,2.03219970636,1.76537620444,1.53629505104,0.0214084469906,2.44030933967,1.36276366864,1.83858835556,-0.172204741971,-0.0864264223786,1.23920429509,0.147475321672,2.45097423499,2.33707243476,108.610371647
off_to_on,2.34925291714,0.522412697717,1.19025468804,0.501166001012,-2.49941855151,-1.82215266516,0.590311980611,0.296423195233,0.0508846910668,0.190401064749,-0.579886773251,0.942421718062,0.888627390212,174.523287947
off_to_on,-1.99978343777,-1.47442827612,-1.72007971567,-0.193294123367,-1.24919113387,-0.704048839049,-0.557733880727,0.228734416847,-0.0152974722179,-0.819851277591,-0.0199189399562,-2.34933078581,-2.23871642584,-122.479377319
off_to_on,-1.8664468451,-0.260425727946,-0.889570960531,-0.291781404808,3.12459517688,2.21109607914,0.868699536806,0.404319684303,-0.0202485413202,0.197145282664,0.654982397052,-0.276841198128,-0.607041892315,-166.177886888
off_to_on,1.59430137965,0.766650470468,1.51513342241,0.247780416869,-0.240442014005,-0.289551599247,-1.30810636711,-0.937639967362,0.0556669523397,-0.0604848423712,-0.4108781439,1.52327032941,1.75600550918,110.697862819
off_to_on,1.62981521165,0.567951992711,0.66435054333,-0.0751432778171,-3.02107127978,-1.80302952048,-1.17752224726,-0.461032311168,-0.0908718695689,-0.0744331865822,-0.427811338053,0.20182502893,0.681962165183,170.311606163
off_to_on,-0.958722490621,-0.0814369194491,-0.867942410725,0.121211733059,1.60021678184,0.875896591259,2.83278376507,1.96288052759,0.125778116061,1.25154488092,0.981175826882,-0.240111730315,-1.02734158496,-101.397333764
off_to_on,-1.96149616876,-1.61403719003,-1.2055443007,-0.16446374437,2.0454645995,0.90175666351,0.545088937145,-0.804373731862,-0.160301434471,-1.2320281061,-0.500821583818,-1.43291549686,-1.58498074098,-181.299681866
off_to_on,0.894262062537,0.366589700782,0.968985441867,0.175182658767,-1.90087495498,-0.492615084726,-3.09256281984,-1.72655183711,0.194358689955,-1.33011019813,-0.683359412141,-0.0194415663859,1.12260632419,110.622545249
off_to_on,1.82996084145,2.05550883346,1.17517097572,-0.258736997289,-1.42727196627,-0.724377331291,-0.581918834673,1.64792123635,-0.227868070642,2.20760300466,0.853277740634,2.54649019664,2.02572580399,162.782385123
off_to_on,-0.37670383614,-0.439872187823,-0.609313019656,0.241395735116,2.16365813099,0.468765941054,3.74751928363,1.5919789396,0.260749283943,1.38904667954,0.679724845102,0.0982943144065,-0.833267675215,-82.5320558695
off_to_on,-2.25061123474,-2.82143600164,-1.67257710931,-0.172327310868,0.235230987655,0.0689914912141,-0.222999988783,-3.29638001791,-0.292923748026,-3.75051944288,-1.68504175125,-4.18148000043,-3.28719939347,-189.354283492
off_to_on,0.629865747963,1.45977693179,1.04452381295,0.395522170076,-0.982908520816,0.590760017982,-3.15444665673,0.223705155882,0.324314779267,-0.0331496555773,0.391466294757,1.26851627815,1.97910481336,108.960387431
off_to_on,1.52204032302,2.03786607138,1.00371971047,-0.684586320612,-0.666660068106,-1.03517908485,-0.28562676555,3.18697192184,-0.354847775159,3.63276089259,0.955353992598,4.14127961159,2.78408650813,153.611492
off_to_on,0.714028806154,-0.86115788061,-0.0117402780136,0.472830232969,1.09429509727,0.27018091329,4.13003465655,-0.892038336301,0.38445039106,-0.0102874474408,0.150030602241,-1.44434769475,-1.44855973097,-67.9437937717
off_to_on,-2.70248150699,-2.55616655494,-1.96108265294,-0.0443961331111,-0.0992713356049,0.165009954341,-1.22308633227,-3.91215019289,-0.41305271065,-4.61340218562,-1.62536894955,-4.93987292612,-3.79229955584,-191.046977729
off_to_on,-0.120577816823,1.45423222317,0.673412468774,0.178753626725,0.290836682234,0.383557496907,-3.23638884769,2.91684589316,0.44058741078,1.48563464897,0.62476518056,2.86303474226,2.56869573309,107.052088384
off_to_on,2.15711059357,1.63824891811,1.20889065137,-0.761624296137,-0.949899018021,-0.604340593503,1.73834153818,2.61955096126,-0.466989919831,3.71051459828,0.842078257428,3.76720979548,2.86904580084,141.921800412
off_to_on,1.08603557255,-0.409642030965,0.370427909132,0.991508067326,0.274775460973,0.46141876211,2.84196162505,-3.03173793928,0.492198568303,-1.04910099745,0.238512849408,-2.07293069676,-1.77214228,-49.6585825929
off_to_on,-3.34290582518,-2.34340065679,-2.23617582033,-0.615861156663,0.0116136652071,-0.938676230004,-3.51045684667,-2.70159152606,-0.516154731878,-4.50776796956,-1.85959291297,-4.54321512202,-3.63149721051,-209.900599442
off_to_on,0.056242098256,0.98678529938,0.503259511596,0.0616263333975,1.17463059755,1.0419521512,0.0547157863413,4.6212854595,0.538802967439,2.33360954276,0.850933791134,3.06753107058,2.66541189894,136.856685442
off_to_on,2.31459845791,1.3291866629,1.32875251939,0.0827241944983,-1.10072511532,0.216414055743,2.60451671363,0.553980880453,-0.56009114097,3.40715643352,0.888272091253,3.43986901528,2.46721210483,117.677858278
off_to_on,0.758860438119,0.23798896682,0.448312805286,0.593260357644,-0.658630311416,-0.674083604912,-1.36252566887,-3.57850988814,0.579970546431,-1.69608712499,-0.0463882254291,-2.05113443491,-1.5284933059,-78.1899395464
off_to_on,-3.09943523299,-2.23367420201,-2.31745370311,-1.56986564022,0.338632644904,-1.23687584574,-2.6383625972,-0.772635504344,-0.598396016179,-4.27861069317,-1.85943074318,-4.57599038394,-3.32491025995,-128.848272198
off_to_on,0.491177929226,0.681041031451,0.89200125842,1.41890959715,2.05338050698,2.55771438646,4.77441291612,4.7181216559,0.615326023107,3.34771553074,1.54954274406,3.65148317598,2.58077189481,75.6805427829
off_to_on,1.49164526529,0.826451042093,0.604983386547,0.00520917809756,-1.87503889717,-0.710083767396,-1.22407277136,-1.46473700061,-0.630722773406,2.67634530158,0.144314091476,3.0165546172,1.75425571422,109.870379148
off_to_on,0.729107965095,0.72614791521,0.557919205936,-0.596322426982,-0.764768263158,-1.36610230448,-4.28939520022,-3.21188172824,0.644552289491,-2.87247746895,-0.35966718176,-3.00629130605,-1.16829567533,-40.770188887
off_to_on,-2.31559048938,-1.80970428415,-1.518450244,-0.775372317276,0.827238785729,0.19740646256,3.08094635042,1.25047774027,-0.656784483795,-2.87067326159,-0.86291292885,-3.42869101162,-2.64234813805,-140.326764009
off_to_on,0.53433121781,0.468736477419,0.463525633666,1.94084204197,1.65888598054,2.12200417516,4.70416636664,4.08517678853,0.667393223364,4.67011047198,1.48637370202,4.92335461804,2.44553087061,72.048023528
off_to_on,0.578975101608,0.0627881756445,-0.0173576572511,-0.96069287301,-1.96661303038,-1.93378013227,-7.1542862481,-3.78820873637,-0.676356384228,-0.128247916308,-0.869869230261,0.400628418832,0.603068914718,90.8993490282
off_to_on,0.774686319056,0.978824563192,1.05190492481,-0.389331051139,0.193615339543,0.133470343668,-1.05021786145,-1.91971862474,0.683655895552,-3.08732609906,-0.0238756416714,-3.39806206558,-0.952081962749,-9.28535611817
off_to_on,-1.43154172315,-0.862191951555,-1.0935871483,-0.175485074683,-0.0754336441554,0.379377302509,7.4466993897,3.64500581031,-0.689277774292,0.570131568241,0.018072149124,0.0937067108357,-0.928101746004,-150.581024892
off_to_on,0.568886019155,0.20966475845,0.103814385824,1.38821160929,0.965138304154,0.398023433973,-0.868007032158,1.78918087077,0.693212150044,3.3212855322,1.16480816411,3.80394852883,1.67670736815,68.2727837631
off_to_on,-0.43806441153,-1.17252229795,-0.420956490531,-1.09098079568,-0.476599702266,-0.997183418256,-8.4286372825,-5.46117802458,-0.695453279327,-3.15193981054,-1.98591756199,-3.02523318796,-1.22011446224,88.6293360697
off_to_on,0.90539422408,1.5456230018,1.40056386941,0.233822697676,0.352845920586,1.23187695945,4.66957070006,0.972254449027,0.695999549653,-0.46366953486,0.791407441244,-0.867045339787,0.354262079141,-38.472004092
off_to_on,-0.66195198336,0.372030764376,-0.861491287821,-0.588789301889,-1.63597996773,-1.04096377968,5.79826121852,4.03051149461,-0.694853474041,2.28866699371,0.830527561655,2.58534267895,0.674871778309,-39.0019804374
off_to_on,0.721701514659,-0.725550980577,-0.0417340906463,1.20869720947,1.13753071452,0.156147983695,-4.66046973983,-0.647219451224,0.69202167552,0.411270937579,0.094794810041,0.337962814727,-0.0112715044063,-74.2145583921
off_to_on,-1.36701791798,-2.05421370493,-0.643497920617,-0.682282471381,1.0153856333,0.167258676878,-5.84116860233,-5.09767637081,-0.687514861188,-3.49302865735,-2.26353504695,-3.85616243103,-2.38527156999,134.605528884
off_to_on,0.690980871835,2.67346490395,1.36948742362,0.141076169805,-0.0505979255544,1.04343678422,6.60898681578,2.6733708182,0.681347786451,1.79999555108,1.66638235198,2.41064684025,2.25489530124,44.1882650548
off_to_on,0.553675056027,0.640245792736,-0.45613268716,-0.772362967441,-2.96891526378,-1.74392094924,3.42834128817,3.40823585239,-0.673539209947,1.87421768738,0.856531049954,1.89988721529,1.10143028978,-137.008138296
off_to_on,0.53850124269,-1.64755375441,-0.213853450263,1.24843912809,1.68788249651,0.342023591351,-5.32424715131,-1.65632125954,0.664111838691,-0.873573495933,-0.630431373161,-1.77932962822,-1.53822335246,-56.5483785165
off_to_on,-2.39810640192,-1.78577021415,-0.850138692131,-0.539095317109,2.21453562303,0.584502463651,-4.2965588124,-4.63760080243,-0.653092263333,-3.13701423138,-1.99808057585,-2.5503245578,-2.44393642933,154.378745444
off_to_on,1.10238767287,3.09360827897,1.58493699778,0.140316148359,-0.961563285617,0.969606656503,6.88088686597,3.4174217801,0.64051088433,2.58651841959,2.06514345273,3.24290880328,3.40116808692,75.5449697794
off_to_on,1.36527054581,0.142972308326,-0.591306054765,-0.922092013302,-3.56773281452,-2.01579393374,2.53895079912,3.08846845048,-0.626401829384,1.72382484232,0.48345088814,0.759453092904,0.947528367775,-223.161909219
off_to_on,-0.279568738173,-1.60871238709,-0.166502655632,1.1871666536,2.59318543024,0.327488601058,-5.83962100345,-2.64001385593,0.610802861722,-1.67881787763,-0.728123820416,-1.78902927339,-2.46707668167,18.9402331515
off_to_on,-2.36271464981,-1.11116862177,-0.568514578662,-0.184479512994,2.18485024146,0.804367715232,-3.13294082944,-3.56611898515,-0.59375527947,-2.67055242629,-1.60827001443,-1.76711243075,-1.76786341251,138.535724867
off_to_on,1.46154593589,2.30034776845,1.14445833091,-0.153708982138,-1.64117354142,0.852560236093,6.86342579563,3.73404386697,0.575303806978,3.0725696872,1.88023288921,2.69987855711,3.55499824234,35.6033528415
off_to_on,1.1976164244,0.139297676344,-0.552688438517,-0.913568815596,-2.88407248399,-1.78547188962,1.58712208546,1.68318269197,-0.555496478285,1.09892446934,0.267022050314,0.62319444406,0.375828486722,-176.781737988
off_to_on,-0.573013531808,-1.1369415892,0.0468580732832,1.27917674794,2.66878098526,0.0249521300392,-5.52481321567,-1.95665289942,0.534384512461,-1.92133006211,-0.645188190584,-1.47321336914,-2.24859792292,17.3464015944
off_to_on,-1.89794085539,-1.08588836366,-0.39809946181,-0.14760419442,1.23842258048,0.612890998826,-2.34698879706,-2.55485235292,-0.512022181363,-1.79093123508,-1.10615790154,-1.60838607676,-1.21636327382,109.371736843
off_to_on,1.62840519056,2.16946925261,0.876885814097,-0.293827560582,-1.18640417223,1.41180406969,6.28383976245,2.36990523155,0.488466670634,2.8675145638,1.47264840272,2.39983990076,2.98548753115,30.8384183869
off_to_on,0.435508104296,-0.375225451815,-0.880502627784,-0.806027145957,-1.79713392627,-1.73754440232,1.09395424243,1.65304983944,-0.463777934005,0.330560575101,-0.155139365993,0.45260506462,0.0273355015054,-131.096447283
off_to_on,-0.632720793338,-1.04258079585,0.362353035728,1.25197601845,1.59612813049,-0.882324166873,-5.19893496366,-1.04186389864,0.438018540867,-1.75215401185,-0.235385265862,-1.41125864677,-1.78837391518,-2.19299743806
off_to_on,-0.631227369871,0.205647829714,0.28283951651,-0.163929684308,0.431668616347,1.36688561417,-1.24792357641,-2.66698965232,-0.411253517847,-0.649390309284,-0.431919837211,-0.929513345349,-0.535265413026,86.0107886513
off_to_on,1.17795685642,1.39077967298,0.0494660873294,-0.309203777176,0.0434234460722,1.69484030742,5.25178876125,1.72810810594,0.383550185116,2.32852100945,0.636155374197,2.05803602588,2.23055171382,29.3427418071
off_to_on,-1.08879244765,-1.98912123023,-1.38856087301,-0.671160074853,-0.966569294826,-2.72965402918,-0.103285141283,1.82979632068,-0.354977987447,-0.912756091176,-0.571984057639,-0.470628940567,-0.778568424414,-83.2356999461
off_to_on,0.556298075028,0.761793215867,1.37757720137,0.972397428547,-0.177361828936,-0.280603085045,-3.12206921878,-0.943910845311,0.325608320201,-0.962030058655,0.571875158054,-0.739036465234,-0.809633091961,-29.4673390914
off_to_on,0.815324543649,1.49164597357,0.878186912599,0.178962740058,0.312727123153,1.96998060902,-0.842781177943,-2.07576121579,-0.295514351104,0.908825739178,0.105823532783,0.205444450926,0.610038524819,69.383142084
off_to_on,-1.18937957863,-1.73569955389,-1.89475702857,-0.585172065902,1.49026341455,0.212105623186,2.41999187452,0.958664051642,0.264770838415,0.513476789975,-0.676458080758,0.520647717915,0.244671223164,25.9231242364
off_to_on,-0.975113768823,-1.18813452419,-0.62475208043,-0.571286940041,-1.01455518462,-1.81121432318,1.55947088983,1.67851222314,-0.233453945493,-1.4136740834,-0.399042376125,-0.616047774031,-0.916882074707,-37.7803563493
off_to_on,2.52925322215,3.15528983145,2.77617296316,1.06447781375,-1.4519214157,0.406061673374,-1.73710505554,-0.196054210767,0.201641052159,0.662162132821,1.57548243681,0.492606069848,1.03489185535,-56.9891915602
off_to_on,-0.387644135738,-0.748976363787,-0.770878987016,0.0688786429253,0.7245898026,0.598279575098,-3.44104157979,-2.50363550687,-0.169410563756,0.60481998927,-0.446787607463,-0.287080440619,-0.0872822171115,59.4095003812
off_to_on,-2.18052598445,-2.43034010309,-2.04316347274,-0.714193955569,1.96522978374,0.325059548884,3.58104299704,0.877140912302,0.136841718358,-0.364743933312,-1.23705892284,-0.0515485834541,-0.872457550994,20.8635173858
off_to_on,1.01060796619,1.59118160582,1.0507547187,-0.228010684484,-0.824871418585,-0.27039304851,3.09040890576,2.45877004087,-0.104014392182,-0.623821387026,0.507030591154,0.447833412581,0.366931671477,-5.44266035359
off_to_on,1.44673317482,1.25788847905,1.50721949988,0.867603065537,-1.98847637042,-1.1145377381,-5.2208652912,-1.70302828015,0.0710089037822,0.0523345729693,1.10378750208,-0.620235237892,0.559358031552,-69.9390929041
off_to_on,-1.08354642805,-1.57643361043,-1.21310440863,-0.0275672635323,0.333128080148,0.567327275679,-1.2932046551,-1.89224254443,-0.0379058178884,0.837484038509,-0.60471743119,-0.125169281197,-0.375515159631,49.1818071554
off_to_on,-0.532000081842,-0.0264533439351,-0.636571599008,-0.700271606633,2.57627254503,1.60019489135,6.0078313197,2.72907287345,0.00478574919133,0.661798197969,-0.764253974412,1.454119269,0.103403031678,12.3124225585
off_to_on,0.370721883216,0.505793225049,0.614821891391,0.142199322336,-0.202984922972,-1.32685078889,-1.75230041788,0.186177699316,0.0282708337722,-2.14048885953,0.442172521633,-1.11320345269,-0.534324935814,17.5205696679
off_to_on,0.156450767431,-0.218758800054,0.242366920554,0.442409018932,-3.23271313366,-1.34251412408,-4.54445548967,-2.77839280551,-0.0611838039385,-0.335768703312,0.461954033301,-1.439749551,0.0315126590961,-69.4088869402
off_to_on,0.681185174657,0.67828039234,0.330318945253,0.0113277005267,0.588317412088,1.92038081024,4.06656351182,1.9764903348,0.0938735694908,3.4297256483,-0.0161170411809,2.53702462324,1.44245934741,36.6179610112
off_to_on,-0.805345885394,-0.718701170775,-0.809008761153,-0.512906271604,3.33235069495,0.38887155547,1.3020651109,1.07837712569,-0.126261265886,-1.19176754415,-0.591941011144,0.170649474804,-1.02442592275,2.76357861382
off_to_on,-0.842157857019,-0.663921560048,-0.426803262013,0.137998423562,-0.742026603149,-1.4876492677,-3.84688652711,-2.67973691578,0.158268945885,-3.33577318124,0.00911170405836,-2.72082054724,-1.3272845446,32.3342047105
off_to_on,1.28851629361,1.38707310815,1.11362146672,0.278339322663,-3.608243691,-0.0981017838809,1.06950331258,0.609051446663,-0.189819766839,2.30459572085,0.395554829671,0.832218695352,1.61283985927,-59.6566394364
off_to_on,0.760476770932,0.228040311283,0.487995316231,0.163857221011,1.59728901283,1.23495906021,2.64324399762,2.73465192054,0.220838174626,2.95900263409,0.351421272576,2.6344541422,1.08753191703,23.395509888
off_to_on,-2.02148591531,-2.0881660593,-1.80984543735,-0.777651505711,2.62981531463,-0.387612349513,-2.74332935247,-2.76281028781,-0.251250084117,-3.8638446705,-0.806277915626,-2.34754804906,-2.48359905667,-5.95813976773
off_to_on,0.542998411039,1.41712639177,0.620334637403,0.529094878715,-1.22131840726,-0.254182034574,-0.128383687016,-0.725223944652,0.280983055816,-0.758016772347,0.241677651379,-0.76390367338,0.464781862907,39.2378622617
off_to_on,0.988852268785,0.874289907792,0.918339621308,0.185488799206,-2.49605302485,-0.386017620985,1.87415440082,2.66051283922,-0.309966467961,3.27145011584,0.0381218229133,1.74330393627,1.47870222584,-44.3083309907
off_to_on,-0.331423929795,-1.49787043875,-0.322706539629,-0.147185833139,1.55956876964,0.621170068225,-0.760090137999,-0.323485694691,0.338131683625,-0.348166502414,0.394271524712,0.208586748778,-0.51874485133,11.2924064394
off_to_on,-0.919697471787,-0.412035445493,-1.05923829311,-0.725216530953,1.38304778233,0.0747590474571,-0.952744065071,-2.45220114133,-0.365412212761,-2.72812279767,-0.469559586114,-1.6575321083,-1.31195116538,-12.7337574973
off_to_on,0.96701667975,2.10935045031,1.0174394538,1.11184334267,-0.628122826556,-0.0964767533666,1.42436904432,1.74425554498,0.391743868747,1.75492607806,0.174209364059,1.10169096335,1.36485058205,39.1543371424
off_to_on,-0.493585106797,-1.2837640055,-0.166079039449,-0.305918141978,-1.59037434825,-0.779446731055,-1.37295751298,0.443974739469,-0.417064918796,0.665879700915,-0.416517598286,-0.184740001965,-0.295005010622,-26.5719226446
off_to_on,0.319009987833,-0.648242459152,0.0336046570622,-0.490375802599,0.940714841335,0.936747435977,0.82045043915,-0.626257418019,0.441316227961,-0.858863287294,0.754656573052,-0.0742476681603,-0.189064561295,-0.772063445881
off_to_on,-0.0894424035914,0.883122487105,-0.328737094911,-0.0731158816354,0.507186162367,-0.216921955149,1.03890143869,-0.352053499923,-0.464441396656,-0.535666739097,-0.272349336454,0.184349904173,-0.00103742759571,-7.26180482718
off_to_on,0.0364903891793,0.634376667798,0.303004896809,1.22585033627,0.287254782477,0.0697081150833,-1.78716991613,0.428811989705,0.486386891251,1.14008070347,-0.183667139471,0.0276983445381,0.397426403505,12.9089571141
off_to_on,-0.770953930407,-1.67667377193,-0.439606901922,-1.21369395233,-1.25112169026,-0.600153210154,-1.37253348855,-0.579717600171,-0.507102167208,-0.786728217906,-0.554602353074,-1.11681740477,-0.987387475473,12.7080196145
off_to_on,1.32975153383,1.23329705935,0.995796860682,0.184157278327,0.427557902403,0.756975537467,4.34061758865,1.47577964627,0.526539784653,0.582053198111,1.45542911264,1.8281238427,1.19285432227,-5.96523297103
off_to_on,-0.568903580734,-0.224618966514,-1.00965300847,0.102561029563,0.0663178296892,-0.693194019919,-1.17313397511,-0.994727243789,-0.5446555163,-0.565814018312,-0.907794732683,-0.518870837879,-0.297746241167,-53.9072790396
off_to_on,-0.221011033907,-0.305801032879,0.242084636771,0.760775391777,0.877539540119,0.91557924644,-3.80522714315,-0.806029767256,0.561408447291,0.394810656775,-0.255172399544,-1.23074092152,-0.55511260174,77.0782502684
off_to_on,-0.570762292534,-0.108384750675,0.00139356142963,-1.30957901461,-1.15416871434,-0.658831680207,1.49773009472,0.354763014993,-0.576761066585,-0.50863621727,0.0332037959617,0.284014154757,-0.418049641942,-26.9390979934
off_to_on,1.47828229617,1.1986812723,0.71711948303,0.755463658388,0.297970484849,-0.115302597467,4.81210343002,2.1602765596,0.590679349921,0.854362168682,1.2374186488,2.29878033341,2.01022065797,-11.8374024324
off_to_on,-0.508770633633,-1.55890277313,-1.00950365953,-0.0809423007053,-0.273906927179,-0.27114297172,-3.69949401482,-1.86456316568,-0.603132834245,-0.468735780323,-1.36733030317,-2.10502291561,-1.25196723982,-4.61266929651
off_to_on,-0.628657997999,0.382427651711,0.365227762326,0.260018595189,1.00480015778,1.6556679601,-3.17729912917,-1.19019580361,0.614094683248,-0.168368310613,0.087674995179,-0.801922362037,-1.01283503984,15.9293571157
off_to_on,-0.609614770126,0.491185810433,-0.231191283521,-0.903003735798,-0.753585358477,-1.37212187218,3.07857567602,1.00877716064,-0.623541743799,-0.713960354112,0.38086089856,1.19667847528,0.610037911605,9.69428782547
off_to_on,2.30058236475,0.664691714921,1.03449108807,1.08063936531,0.12581694208,-0.52270491132,4.0035590882,2.6252360277,0.63145459341,2.18835453934,0.881864587366,1.88642991505,2.37918040789,-35.8630244625
off_to_on,-1.00470091367,-1.78372252655,-1.0745773868,-0.609312210195,-0.67656036643,0.570880285275,-4.84783429195,-2.69520234645,-0.637817578615,-1.09349304662,-1.75701922607,-2.70494583689,-2.60969560405,48.1066119317
off_to_on,-1.47496960191,0.491021485967,-0.0407299268329,0.198901367951,1.31931647078,1.44967506895,-2.16904058551,-1.57177109302,0.642618844009,-1.68018665147,0.636299057756,-0.662322016382,-1.09305722287,-53.6554739969
off_to_on,0.541925600993,0.79603668415,0.163686429456,-0.504892644211,-0.541452480784,-1.71407363896,4.21096070269,2.38272489935,-0.645850351903,1.19824629571,0.640172469127,2.06974846581,2.44055540651,38.5799923838
off_to_on,2.74516599231,0.8899502763,1.33309010397,1.11307926083,-0.23421391354,-0.0948015462321,1.91951637768,2.10320289933,0.647507892798,2.68832585639,0.216778101336,1.51525476602,1.58395728478,-13.9277218068
off_to_on,-2.74205314763,-2.60865651565,-1.87182397284,-0.983152601173,-0.596454639428,0.121190494171,-5.07678150098,-4.13283145299,-0.647591086584,-3.70411902729,-1.90709309479,-3.88639535183,-4.45470343322,10.4083098034
off_to_on,-0.88444468323,0.589525751249,0.246072789491,0.180087981901,1.49824684136,1.59440012857,1.09495379529,0.566582474764,0.64610337431,-0.207565938213,1.61093401649,0.691678059979,1.03034501835,2.25618852476
off_to_on,2.03373997577,1.82533073537,0.861919750886,-0.0388093385559,-0.757970489136,-1.15845242914,2.0138295089,2.19931210835,-0.643052000685,2.71798823928,0.214451291457,2.62245451324,3.04786407297,-47.9405754697
off_to_on,1.28062288981,0.121312011874,0.508430752268,0.907455487108,-0.133211788271,-0.669692105395,-0.711169621964,-0.357021790854,0.638447987503,0.0850500569805,-0.632218637861,-0.648660612777,-0.988699097951,44.140560036
off_to_on,-3.34780795155,-3.15975876408,-2.11838204446,-1.31612873471,-0.588024785845,-0.266247260913,-0.795288513965,-2.12384143506,-0.632306097967,-3.23670042789,-0.869586263656,-2.92643379088,-3.45195423747,38.5720418087
off_to_on,0.887738219492,1.75531766956,1.46034937615,0.50382911666,1.44852540244,2.39099138663,1.73079916225,2.10625926628,0.6246447919,2.07327171842,1.82827013557,2.68923217419,3.0539917368,-54.0404670675
off_to_on,1.45850809321,1.42464086661,0.160793744926,0.118494645944,-0.591080583458,-1.04488225467,-3.16430410538,-0.897569225529,-0.615486172114,0.519586362627,-0.988727186777,-0.059389912316,0.647708415664,-48.0159861034
off_to_on,0.00528238663099,-0.755928585561,-0.275986566965,0.523166222191,-0.413043053435,-1.54997768811,1.36791325926,-0.451663602893,0.604855922174,-0.698769334632,-0.154543692498,-1.07847323771,-1.52020046577,66.3265134212
off_to_on,-1.87235037351,-1.88878509875,-0.860144265491,-1.23731285776,-0.612568176677,0.121416596867,3.43612397933,1.22400942443,-0.59278323559,-0.437164538461,0.111416544651,0.340881469787,-0.5735960922,67.6634065171
off_to_on,1.01480759379,1.65054792205,1.43577837452,0.807778615498,1.98411806585,2.81886186135,-2.56933190131,0.490931208143,0.579300736547,1.09082739103,0.758801202187,1.12864635742,1.71631109505,-101.162712596
off_to_on,0.0518397296614,0.167431720147,-0.84999876842,-0.0997722446795,-0.91976995454,-1.50450901118,-4.55739035666,-3.04327322731,-0.564444392579,-1.48605757197,-1.23656122253,-2.30871888692,-1.18143187642,-47.9277745608
off_to_on,0.523674614824,-0.108852058821,-0.166390984583,0.23501282194,-0.981464955928,-1.63278573519,5.34661218841,1.55161100343,0.548253419412,0.946758427833,0.684328176161,1.3002890438,0.345820734609,78.7469425563
off_to_on,-0.580774565408,-0.73775999942,0.423576877306,-0.678500944425,0.247698356078,0.595387027879,2.77783640487,2.2398697465,-0.530770178086,0.682941097657,0.196080504344,1.31824446815,0.373216794642,97.2208873643
off_to_on,-0.0820292898194,0.686454656306,0.714034274851,0.661932613051,1.8708112425,2.57808988746,-4.93598141094,-1.04137410249,0.51204006463,-0.409907502422,0.0481703390221,-1.09283959265,-0.0333990790957,-132.799248755
off_to_on,-0.828927632536,-0.859063537259,-1.78717897633,-0.544186770358,-1.44230275894,-1.93362785106,-3.32054528524,-3.50498793306,-0.49211139272,-2.14812716977,-1.28205662302,-2.2427653638,-1.61230959055,-60.3895210175
off_to_on,1.70993637842,0.892166557352,0.700191821083,0.595645645207,-0.707469196973,-1.25121248194,5.94291874855,2.23614362038,0.471035269588,1.87906819174,1.33996909155,2.31890648968,1.54476259567,90.2433570855
off_to_on,0.272415456631,0.584629766684,1.11041430355,-0.401046263902,0.555088153861,1.43928379265,2.64289350096,3.10314392798,-0.448865465371,1.82854847861,0.233197496911,1.77906104939,1.18223906998,126.86919903
off_to_on,-1.69505781071,-0.924303948958,-0.18157778357,0.138287784607,1.33699682204,1.25379942052,-5.35572285477,-1.70089929687,0.425658276282,-1.74396145104,-0.684576036398,-2.0272287731,-1.50520677263,-157.316720741
off_to_on,-1.2293701494,-1.85184804223,-2.25946713268,-0.412267463393,-1.15636418836,-2.32172517434,-4.16137775382,-4.45665110326,-0.401472382077,-3.1503973749,-1.02471073333,-2.99866725911,-2.39421914609,-73.5128575891
off_to_on,3.45543712111,2.80041476019,1.53678896611,0.720472299746,-0.503714489844,0.540786754553,7.46434669409,2.97444682987,0.376368698091,3.56258707001,1.72943457066,3.67970563403,3.4714254024,95.6785271548
off_to_on,0.218890419368,1.18594932353,1.5447484535,-0.255107023578,0.158781781643,1.35746967823,3.20463006324,4.1024296459,-0.350410222124,2.4400439738,0.146667108547,2.24859751044,1.48779534869,151.049327438
off_to_on,-3.7285511416,-3.30206484102,-1.41954041215,-0.242829999854,1.31630492334,-1.04260748355,-8.32523498305,-3.01236354188,0.323661876657,-3.99609007569,-1.24272928602,-3.98686024502,-4.01760389476,-164.977027118
off_to_on,0.178253263878,-1.1388107421,-1.72841219181,-0.234214000807,-0.717235075817,-1.13282789103,-2.29763805957,-4.60226327108,-0.296190346854,-2.33810318567,-0.473977690617,-2.149792402,-1.06448944162,-95.3559168159
off_to_on,4.37305642141,4.40325446655,2.04562077943,0.806387425999,-0.731793042588,2.3859646009,9.55658513997,4.2236010317,0.268063914669,5.20913317563,1.7234142254,5.24031059522,5.1091047125,101.038789274
off_to_on,-1.64000902405,-0.239201844493,0.794913294395,-0.310772062186,0.0511786369598,-0.566528462889,-0.554344990587,3.36791342007,-0.239352289399,0.551762438934,-0.221264073935,0.117616731218,-0.915075653984,167.501166006
off_to_on,-3.31934663688,-3.75610100799,-1.24957990657,-0.314598173004,1.24758723813,-1.89841269479,-8.14537709763,-3.91710521115,0.210126435228,-4.48452050389,-1.02770079659,-4.40523880347,-4.23414311905,-159.004584811
off_to_on,1.7253518817,0.353458186137,-1.0841534637,-0.187112269292,-0.408055709492,0.916714406158,2.16882955847,-2.77334138126,-0.180458396204,0.163331020776,-0.241140094751,0.959907930777,1.91116402842,-122.04327616
off_to_on,2.81530055563,3.66636006027,1.23188472263,0.854006321904,-0.881468385225,1.8496070551,5.99634634869,3.88986056699,0.150421118973,3.97379314715,1.30419151931,3.48093070185,3.16574636749,106.76278303
off_to_on,-2.03948885263,-0.875329950894,0.867576073541,-0.32177537451,0.123245459517,-1.26838220085,-2.84401292386,1.32513837588,-0.120088273713,-1.21913711446,-0.066728245453,-2.20831347321,-2.79190860799,175.641763927
off_to_on,-1.78453474145,-2.96245281938,-0.789972972821,-0.542048557806,0.9638047552,-1.52349888601,-3.19837035135,-2.43942078809,0.0895340737855,-2.51264712254,-0.969482342752,-1.42146214738,-1.20171485573,-143.971073139
off_to_on,1.64197633084,0.786415610496,-1.00493069645,0.295464478989,-0.254734087096,0.972517589534,1.71170226326,-1.00652717143,-0.0588330945552,1.28648226929,-0.102994711335,2.10494011668,2.33923409631,-147.688372673
off_to_on,1.14497128844,2.67119387434,0.59515822878,0.453924366657,-0.595566637591,1.8061077162,1.52687125891,1.31693732516,0.0280600917098,1.37370128891,0.982254226581,-0.185233302,-0.166752011168,110.693277728
off_to_on,-1.17467718748,-1.04164917822,1.02393199273,-0.352012998955,-0.00635679272927,-0.963480578757,-0.204341859289,0.740365462393,0.00271018044455,-1.07756592211,0.0742169175023,-1.50139330386,-1.51320618547,176.900314513
off_to_on,-0.754075553596,-2.04236814871,-0.448790176757,-0.288258533993,0.421121461828,-2.18492431825,-0.806756797318,0.0554893790386,-0.0334031501826,-0.498468899729,-0.953152524009,1.33817160485,1.05667558549,-123.849843405
off_to_on,0.919586416568,1.18976949577,-0.838862089263,0.35543602206,0.37031042972,1.4516827756,-0.9493228724,-1.05222623421,0.0639446086649,0.812763394248,0.0305621062714,0.590475543676,0.554456798687,-169.18000774
off_to_on,0.110077870772,1.13722453512,0.0458100718011,0.063902104307,-0.616570608627,1.89788797062,0.35961604541,-1.18861357486,-0.094260888988,-0.31381744836,0.752127189762,-1.92202974566,-1.54372100524,112.469721431
off_to_on,-0.243965130031,-0.864028525396,0.86377723428,-0.16565093342,-0.329058009278,-1.64194936817,1.98650246166,1.93892082453,0.124279043489,-0.218319118622,0.192049798734,0.508190672002,0.587372806882,172.976169965
off_to_on,0.0371235137252,-0.617641841527,0.20693737965,-0.121597737267,0.608208745257,-1.35434378859,-0.330568455017,1.31881798604,-0.153927018814,0.49546626517,-1.07556246792,1.38590984285,1.06823675249,-102.801695064
off_to_on,-0.065255067662,0.796721290561,-0.705984829038,0.332469540933,0.424909323817,1.61224018369,-2.44987598251,-2.13418156596,0.183133828414,0.155471738211,0.206964023019,-0.366441901955,-0.6704555509,-184.203893321
off_to_on,-0.442391755637,-0.274366957216,-0.896639661509,-0.317513176668,-1.102491369,0.311087351881,-0.113611215671,-1.75326950382,-0.211829722082,-1.0185842341,0.817581651577,-1.57010981348,-1.16243226264,112.095216337
off_to_on,0.83366876722,-0.0023649095303,1.46857043221,0.211123533516,0.497105984697,-0.465252343845,3.49371300127,2.84372030304,0.239946352068,0.364090919737,-0.0413022542072,0.652478548385,1.08532639988,165.627673593
off_to_on,0.00120210386948,0.163679340529,0.246567348693,-0.155714018618,0.429472824224,-0.314528698618,-0.525697056433,1.19549804078,-0.267416935347,0.785904141219,-1.25296843382,1.09538749547,0.562501327122,-83.9434184572
off_to_on,-0.579165535745,0.142315431684,-0.868808755052,0.279455419516,-0.503267686881,-0.0911820417014,-3.33258255296,-2.5314519752,0.294176411719,0.0208048545704,0.746614867361,0.0984085425835,-0.352665269962,-192.120080543
off_to_on,-0.511294255706,-0.77020525789,-0.673434219778,-0.48234884121,-0.461944200213,-0.105627545024,0.421233423822,-1.35567650343,-0.320161597407,-1.51747709246,0.74511129485,-1.92494841069,-1.16895946477,110.185452498
off_to_on,1.34154204321,0.464800213073,1.16184371554,0.44757361767,1.38917446332,1.46213686873,3.68963774906,3.0256588027,0.345311333691,0.791440186827,-0.534129849079,0.614279324843,0.655448255319,156.531051682
off_to_on,-0.334598700587,0.36401589586,0.103024300279,-0.221149190776,-0.865181541158,-0.930160608229,-1.49314434659,0.148637672041,-0.369566630241,0.755790841354,-1.18258527989,1.3498101873,0.758270175147,-69.343295471
off_to_on,-0.483873370631,0.128473727159,-0.231715188891,0.232370732739,-0.532044531995,-1.00332434157,-1.88262821482,-1.8450636293,0.392870802895,-0.0498256315334,1.46536737088,-0.223772796002,0.256556304662,-193.661813724
off_to_on,-0.410975726006,-1.26186212047,-0.934468511411,-0.497458043622,0.527111477059,0.243685785352,0.164156219602,-0.315079494091,-0.415169605533,-1.47347866197,0.15625243618,-1.74046966521,-1.81737373153,108.104725388
off_to_on,1.16755583675,0.847175528049,0.826501311956,0.590796700924,0.93658911093,1.97673272805,1.6902902234,1.70397748109,0.436411355686,0.911390568854,-0.664302218408,1.18314321801,0.47790267548,144.827783918
off_to_on,-0.566894652842,0.245706368704,0.169506253321,-0.485730605506,-1.3267774272,-0.931911766795,0.525684209712,-0.819977732751,-0.45654705361,0.328188144695,-0.995194056661,0.201972127768,1.22145262264,-51.0465100073
off_to_on,0.0788516166791,0.166976408012,0.194584403102,0.496945655126,0.234791566837,-1.37967246654,-0.93932906695,0.395341604726,0.475530494619,0.126190176479,1.83013058176,-0.0777740753723,0.307037321912,-212.339544647
off_to_on,-0.3058780647,-1.00769872583,-1.08163297195,-0.539004243709,0.0596771125063,-0.13917506281,-2.81476460986,-0.356460183424,-0.493318374377,-0.880976425779,-0.27717767944,-0.334781078297,-2.07273754984,137.695392222
off_to_on,0.260504950936,0.462341145575,0.644747074751,0.416248646752,0.637914873806,2.62829637172,2.89315415362,-0.428721550284,0.509870386869,0.456827914272,-0.840633694846,0.287291259498,0.508460150862,120.787037677
off_to_on,-0.323529386255,-0.0149911472842,-0.0779659498404,-0.401908521165,-0.516474084488,-0.670835275676,2.58430948934,-0.0910710285883,-0.525149314872,-0.388876799774,-0.41353167849,-1.03442627226,1.07960038319,-79.9094840826
off_to_on,1.12060298376,0.924255524474,0.665754484869,0.605968172641,0.202209420836,-2.07505942966,-3.69885098897,2.06597960341,0.539121112762,1.03943783115,1.56128433839,1.61583294844,0.626663107948,-131.085418841
off_to_on,-1.05205366561,-1.08372198285,-0.847273709555,-0.586927683179,-1.13275521784,-0.119939268345,-2.75351410753,-1.64779101177,-0.55175498143,-0.53057748499,-0.613890599605,-0.167474657107,-2.06041130186,76.8974044398
off_to_on,-0.386345154301,-0.182821149642,0.0522574172026,0.369098134865,1.41397741741,3.07543875514,6.08857360006,-0.806929941161,0.563023435121,-0.321824406603,-0.268297845279,-1.01796963621,0.382271811005,112.363236006
off_to_on,0.35322693696,0.0309453749884,-0.352835520629,-0.562863886137,0.35676149996,-0.92378229074,-0.639188684965,0.327250181974,-0.572902360088,-0.817481955576,-0.634698834895,-0.744801232049,0.628898953189,-42.4669702987
off_to_on,1.7287479125,1.64359408639,1.59679490862,0.908753800488,-0.903226707687,-1.94747138918,-4.47553258799,2.08987045063,0.581371064984,1.92316703792,1.23432866451,2.311831212,1.07480160726,-142.193715489
off_to_on,-1.88217809968,-1.2251960583,-1.02650679123,-0.533207039526,-1.53774071113,-0.114096638677,1.61121567863,-0.925102848717,-0.58841232281,-0.1190285345,-0.195217208767,-0.345725727015,-1.44784644058,73.7026247991
off_to_on,-0.668000939465,-0.796466086891,-0.670844558903,-0.0303786979481,2.58986503612,2.71890187914,3.72350128538,-1.5683066998,0.594012404352,-1.32594379925,-0.191649554195,-1.39420338224,-0.431265131504,91.8310058905
off_to_on,1.00974877054,0.00273119244645,0.0399762743014,-0.490511148048,0.066099348826,-0.859434954182,-3.87580179777,-0.693335244651,-0.598161103082,-1.16997541722,-1.12250226814,-0.842202576042,0.0224391816466,-9.40257409829
off_to_on,1.85081206101,2.49300258573,1.9087380467,1.37607890336,-1.51010610785,-1.11720927972,0.214348364159,3.7351780984,0.600851751497,3.19801671609,1.52339696474,2.69420672005,2.28249155385,-153.133165456
off_to_on,-2.28811868487,-1.35848282072,-1.15551266114,-0.897524292995,-0.933582527729,-0.764866954323,1.87325379692,-0.444283927694,-0.602081228817,-0.259410560669,-0.0762919978584,-0.0979021559326,-1.11812045293,69.7229627225
off_to_on,-0.866056027285,-1.78021762422,-1.07515102031,-0.207099601993,2.35083069524,2.10883798627,-0.866114478738,-3.61931350287,0.601849960059,-2.49854489654,-0.366885498388,-1.9776987272,-1.90033849084,90.5544832719
off_to_on,1.45938403648,0.567596569548,0.307678623409,-0.141570453262,-0.315196427308,-0.19714854715,-1.29916485799,-0.0994256718941,-0.600161906556,-0.379076960302,-1.0829886031,-0.894613424445,0.30121481548,-39.9548759523
off_to_on,1.87481107889,3.21475725065,2.16939309773,1.31882601885,-0.47598207825,-0.459181107969,2.34346144199,5.21121707504,0.597024547949,3.68494378716,1.50372937996,3.31429986907,3.50047176068,-41.0574471293
off_to_on,-2.76993536181,-2.32467819549,-1.62511560169,-1.16512275531,-1.40158425669,-1.42364706597,-1.27708498781,-1.88663583023,-0.592448855669,-1.41877797284,-0.122869332236,-0.509020942946,-1.9624079689,-72.3562877692
off_to_on,-0.325754713216,-1.72482603655,-0.6970703619,0.242964670825,1.18161931147,1.16695887548,-0.427933599097,-3.55882795488,0.586449258025,-1.78286820882,-0.166947125276,-2.00217411234,-2.2421215602,137.77605873
off_to_on,1.32316679296,1.28188246975,0.125756554702,-0.484267061562,1.07921118585,0.888809060149,0.405523689428,0.909202404682,-0.579043597041,0.282611642193,-1.19700338909,-0.623970417789,0.96454613495,38.4782471966
off_to_on,1.21352249535,2.55605228025,2.01229636504,1.06037197837,0.0486721539552,0.272237727098,0.908133439453,3.97159079332,0.570253077124,1.9450109354,1.35044202674,2.87790211716,3.12357322301,-135.370012612
off_to_on,-1.85999259042,-2.24870874831,-1.21893257825,-0.306062114665,-3.10549835788,-2.61362745087,-1.02726358677,-1.58664319258,-0.560102205693,-0.598265454035,0.116621498007,-0.176342646446,-1.86033627793,-53.8655218222
off_to_on,-0.160904817324,-1.35904186349,-0.984352904704,-0.325273951598,1.52464064398,0.550644389113,-0.01272816329,-2.30048006911,0.548618725955,-0.404199904859,-0.444389287926,-1.80357387135,-1.95262956496,154.113656454
off_to_on,0.109358750924,1.07876032444,0.214280539067,-0.859026881735,2.3836890258,2.27408364575,-0.168329003597,-0.405728392926,-0.535833542046,-1.50155497026,-0.804041387285,-1.22796649189,0.464231275796,70.9050740984
off_to_on,1.65015792076,2.35322556057,1.92162906388,1.71523058103,-0.907978303945,0.556602086506,1.53448410236,3.31449817378,0.521780636682,1.61038822345,1.32023428133,3.21558840033,3.15732069107,-219.944100455
off_to_on,-0.711334164988,-2.13223122148,-1.19672459802,-0.178624768111,-3.44095523368,-4.11709750159,-1.41851003822,0.283955732478,-0.506496981531,1.25308023007,-0.644679631267,0.177064146383,-1.35316761539,21.6156210719
off_to_on,-1.30987240394,-1.20016398184,-0.872827752495,-1.12511815551,2.24508375766,0.95018665274,-0.519378289099,-2.78887398676,0.490022440592,-1.12204625918,0.185905138512,-2.6403598382,-2.31969406075,135.061246311
off_to_on,-0.134019622433,1.32652104282,0.380653739996,-0.464202830501,2.22313093869,3.34642141738,1.20538873254,-1.70346824456,-0.472399666816,-2.53071021197,-0.104518868518,-0.635087156031,0.457919362666,34.4290280236
do_nothing,2.58392388709,1.63601376189,1.39982061045,2.21942143467,-1.45063958089,-0.334292829195,0.815443772857,4.34579201956,0.453673992216,2.6033233542,0.130555954386,3.65439245121,3.25719857596,-174.666247196
do_nothing,-1.16841190687,-2.20622059902,-1.14085813055,-0.879034337513,-2.73772294121,-4.42855065015,-2.55507721011,0.670946833248,-0.433893311733,1.43708381535,-0.859038065242,-1.01643757497,-1.56631149735,19.5656736923
do_nothing,-1.50609978234,-0.0390092703587,-0.166287928799,-1.14372793276,2.32002829295,1.86251066962,1.02142704331,-3.81432675948,0.413107961209,-1.93437522407,1.49385772418,-2.36613175468,-2.13414742095,105.92547932
do_nothing,0.595328395876,0.98349387965,0.038512732362,0.253325373288,1.41495556549,3.16002581315,1.58156842053,-1.04911833311,-0.391370589756,-1.92407523722,-0.303196694358,0.854576819132,0.926348464212,30.492400898
do_nothing,1.63657202099,0.0943448290034,0.677566081491,1.65410560715,-1.44831618909,-1.44638572706,-0.769566404363,4.60407508785,0.368736026806,2.61638979773,-1.19459473512,2.31176684706,2.43970904281,-129.638473852
do_nothing,-1.03490077463,-0.825285951995,-0.410097692834,-0.989843067842,-1.51255721189,-3.32152469291,-2.4412645176,-0.432634728694,-0.345261144212,0.880763713621,-0.00142746874783,-1.93600663251,-1.70330018394,-0.274279191118
do_nothing,-0.451072535871,0.772465658466,0.0186677345171,-0.813161300782,1.92747188902,2.47388330947,2.14188530002,-3.3178685739,0.321004713747,-1.73900290248,2.11601749161,-0.583677394881,-1.26346363853,83.2790474273
do_nothing,-0.209827527306,-0.71849908358,-0.359551491946,0.351174515139,0.0521760628024,1.79593691273,2.07231410623,0.439885735421,-0.296027260361,-1.07595985812,-1.0840086792,1.15197052469,1.15558246137,28.9447572565
do_nothing,1.05527838739,0.330665011809,0.63533273905,1.30149981245,-0.816907175768,-1.97660036204,-2.72479681297,2.81600363337,0.270390911525,1.87464926003,-1.39648895441,0.470748462064,1.19336696578,-82.2333492748
do_nothing,-0.0669071339077,0.276181366982,-0.474955165123,-0.964869795161,0.173995153092,-1.30437654325,-2.54344342777,-1.26121026086,-0.244159243065,0.136773921573,0.599682867294,-1.66197754514,-1.71284533278,-27.7916887714
do_nothing,-0.683489093569,-0.103160558663,0.283249044361,-0.611567095472,0.474748236376,2.24762889202,4.75413354916,-1.0466875043,0.21739712188,-0.770306276503,1.92425867747,0.830218445395,0.0954781151378,67.6750289717
do_nothing,-0.211576199315,-0.503339486623,0.0726003611236,0.496901593682,-0.973410541186,-0.073023489991,1.2418647793,0.776684361631,-0.190170545911,-0.219433081001,-1.13266214558,1.02587046595,1.13070843561,25.0007592429
do_nothing,0.957209401411,0.50534112428,-0.311750944797,0.878721398253,0.586722981515,-1.48612817334,-5.72938470425,0.0691049812406,0.162546481744,0.394803701792,-1.50516997003,-1.19372867899,-0.572074793762,-37.0145380643
do_nothing,-0.567125419291,-0.302511519944,-0.426193465234,-0.874629805329,0.907897401443,0.572213025091,0.174391239136,-0.653037074033,-0.134592700263,-0.414451932722,0.834128168501,-1.06484990927,-1.06026572492,-55.5470028329
do_nothing,-0.0788279781823,0.263347404577,1.10840782015,-0.383933163136,-1.01324370337,1.2156784309,6.4098726174,1.34544146208,0.106377610782,0.859617517614,1.69017070345,2.18182873899,1.55014142694,58.7195850421
do_nothing,0.730598860262,0.450161481401,0.0916062257144,0.602195993397,-1.04975606727,-1.3155206052,-2.33335615924,-0.129953771039,-0.0779700940034,0.249873884557,-0.929718494214,0.421011016388,0.324473839311,19.2769672478
do_nothing,-0.94734605815,-1.19260735721,-1.5174578404,0.351159877536,1.61133331922,-0.578127370786,-5.61443823875,-2.30320490961,0.0494393342409,-1.76357511465,-1.60004607044,-2.71244732399,-1.93069700399,-4.66325290101
do_nothing,-0.472210277469,-0.04084556218,0.174947940287,-0.588020329131,0.614915715144,1.46591544185,3.7478920347,0.968319173046,-0.0208546513158,-0.0480539920852,0.810006456521,0.249342679915,0.217100148252,-68.8244757178
do_nothing,2.04035676254,1.94663932044,2.00705993627,-0.164890079237,-1.51023661538,0.411131683016,4.24749106135,3.05343252749,-0.00771466745324,2.75284317793,1.69835088553,3.04806242439,2.2124579837,49.2524945683
do_nothing,-0.534627948551,-0.832129096662,-0.815436625685,0.434676141453,-0.350768393833,-1.64732983463,-4.30155511186,-1.92281434229,0.0361995347966,-0.586011309657,-0.837100954115,-1.10595370091,-0.798552945427,10.4019720607
do_nothing,-2.41966219364,-2.25332011614,-2.0878744841,0.042868052854,1.04968852525,-0.50532554473,-2.91959850732,-3.65722747754,-0.0645312301579,-3.52539696153,-1.79522100499,-2.88852501958,-2.27029558947,18.2485203416
do_nothing,1.67175842938,2.03260372567,1.5136891753,-0.127795675795,0.354633120372,2.06778379063,4.29945379977,3.39496492834,0.0926415650529,1.83587181053,1.07601481788,1.80921158591,1.39182459887,-68.6520460056
do_nothing,2.04523955569,1.68701379425,1.67016012709,-0.330216477207,-0.537057156585,0.411326985104,1.78896895193,3.24223290137,-0.120463046742,3.2524428102,1.59666846923,2.30884603164,1.96127382096,37.2076604033
do_nothing,-2.43660051995,-2.75031170428,-1.77655798489,0.397712304985,-0.271535855389,-2.21830115391,-3.89016159014,-4.36124559381,0.14792903984,-2.61475112746,-1.11317910043,-2.02490670334,-1.67840004959,0.892327613297
do_nothing,-1.34536734068,-0.979582339633,-1.53628759815,-0.0568195913709,-0.581252246079,-0.709920611463,-1.12860005614,-2.52069385396,-0.174973925466,-2.80758391076,-1.6078527956,-1.95756261144,-1.75508630525,32.8732900888
do_nothing,3.05122835083,3.559829189,2.70839079175,0.111570475347,1.15345803461,2.96477457359,3.75074768747,5.22286840105,0.201533257537,3.64726648229,1.68643222306,2.6161819063,2.37417518529,-59.2198459102
do_nothing,-0.128332882398,-0.682943824248,0.116448490144,-0.437765976769,0.6976170303,0.0924067342732,0.0446354869033,0.894949423621,-0.227543915845,1.09826376328,0.696505075598,0.703508132925,0.515220068381,24.2864768849
do_nothing,-2.42831832173,-3.10919308896,-2.33126856869,0.309296463959,-1.11345359853,-2.67922921595,-2.75868650379,-4.7613746111,0.252944255586,-3.18153997139,-1.31066401314,-2.09678757357,-1.89068082761,-7.53475010993
do_nothing,0.786358518561,1.6195109579,0.568900438503,-0.0176091487162,-1.68989546991,-0.210595888317,-0.106527815146,-0.0787928077015,-0.277674252945,-0.207297854789,-0.463534986548,-0.318963923895,-0.085001602969,39.5138085133
do_nothing,2.19583465335,3.02809342104,2.40147561767,0.285630472355,1.98822930271,2.88964881559,3.1073816357,4.73295522714,0.301675646405,3.08607247357,1.54903063755,2.34077557237,2.12354194178,-44.1390834809
do_nothing,-2.17836358075,-3.47575605355,-2.18723631185,-0.665226599401,1.63700560276,-0.501411087738,-1.52240205553,-1.56179567037,-0.324892073464,-1.47417915014,-0.780112979751,-1.13391358541,-1.56462194658,12.3008763824
do_nothing,-0.468012991417,-1.14989548189,-0.841604363512,0.38181402305,-1.68990572974,-1.68299151408,-1.41022725481,-3.30852336292,0.347269202433,-1.47328394502,-0.234833066303,-1.15418532114,-0.620367501099,-13.8801447691
do_nothing,1.73866420474,3.33562487093,2.06690702635,-0.0201392957052,-2.82473970552,-0.338596487097,1.14660284827,1.69584051269,-0.368754859006,1.38328920948,0.251491249413,1.10081826879,1.5218059124,39.1690011056
do_nothing,0.24623163513,0.693797549309,0.546199180033,0.441539006283,2.71668663003,1.67524729665,1.28686100377,3.21496335868,0.389299147304,1.30107767145,0.500039135382,1.21110880477,0.332187461432,-26.6124822938
do_nothing,-2.41300597996,-4.16109305823,-2.93976621063,-0.927921847423,2.60988239008,0.223486852514,-2.05923454928,-3.21882755179,-0.40885456512,-2.33579439603,-1.04421248463,-2.0626471818,-2.38243958815,0.207598765111
do_nothing,1.26936643573,1.06075861119,1.18601193895,0.462938276426,-2.38406740309,-0.464359166877,0.336775026434,-1.37348276027,0.427376113113,0.00776040011122,0.600305571389,-0.207044678001,1.1234643337,-7.954070293
do_nothing,1.23495464872,3.06199024912,1.73660672002,0.170489257586,-3.78185791061,-1.86521664791,1.17051662796,2.8288311122,-0.444821397679,1.64710356004,0.177051694546,1.58935812762,1.52310538051,12.7356463451
do_nothing,-0.738964161316,-0.89918219376,-0.855167674543,0.21498959008,3.83132281175,1.41098983609,-0.351106722069,1.1075069136,0.461150727266,0.632659523039,0.13615959733,0.978092448704,-0.680061883807,12.5093943129
do_nothing,-1.79001941652,-3.3375538343,-2.03873486964,-0.88271677393,2.71187903755,1.41714928214,-1.43308543627,-3.69971884296,-0.476327201942,-2.78991510024,-1.06047749329,-3.02042488707,-2.29609204832,-5.12712937694
do_nothing,1.7571956967,1.98337153303,1.83619059534,0.604953684211,-3.10251340084,-0.646564971142,1.54222925906,0.793103063282,0.490316796,0.424417242831,0.764361462448,0.197425317765,1.77760140121,-54.189370176
do_nothing,0.554371653805,1.87489142689,0.563633804301,-0.103973387676,-3.39173610666,-2.54674212842,-0.0599982551259,2.26072473809,-0.503088433403,2.14581952648,0.254490592591,2.55050590409,1.19625907164,76.8179065522
do_nothing,-0.749688708223,-0.983579371483,-0.596376177725,0.537738017888,4.11235742881,1.84543394167,-0.566365412435,-0.386585600213,0.514614055926,0.372664930089,0.159069694021,0.320323111981,-0.754484457162,-27.2458553407
do_nothing,-1.35169114467,-2.37804416554,-1.27486376605,-1.05304812757,1.85836617094,1.26029031462,-0.49368481313,-2.46978789937,-0.524868683841,-3.32761556896,-1.41038225567,-3.71419710158,-2.09182971971,-11.2187685872
do_nothing,1.91708131075,1.95241731406,1.432342028,0.514474167543,-2.72231018901,-0.659708648373,1.46729577331,1.34926749786,0.53383046902,0.782768747287,1.09192851866,1.22284899668,1.639038573,-4.56191836582
do_nothing,-0.379409625486,0.499324748654,-0.301066898833,0.0404539561179,-2.32353690439,-1.99517895863,-1.10228668536,0.768399960437,-0.541480740328,2.31520483514,0.161382403581,2.28539243001,0.845771264991,15.6672305773
do_nothing,-0.502185010985,-0.258444185185,0.251694998085,0.57465598252,2.97682029604,1.35765575632,0.270461031444,0.26805517419,0.547804041237,0.309755608368,0.0536657256002,-0.214533261495,-0.153604862994,9.35515018696
do_nothing,-0.038083466801,-1.03248333894,-0.464427762637,-1.18015058163,0.943203902104,0.607957983581,-0.0608028945493,-1.76925704798,-0.552788159585,-3.46243144868,-0.993063023305,-2.88661781574,-1.89516915665,-35.5771670666
do_nothing,0.872532942512,0.575786941849,-0.0407481584471,0.527903563728,-0.936062606835,0.376640458081,0.330873501361,0.482072660641,0.556424149416,0.763684088808,0.567858064764,0.918270448224,0.751488957768,48.5541637461
do_nothing,-1.51556097074,-0.413464338564,-0.459825742187,0.114049765928,-2.02344779278,-1.75938306321,-0.591113976346,0.778413123772,-0.558706344873,2.45752281021,0.0376898052173,1.65205700546,0.960210422301,-54.0490787747
do_nothing,1.19989828456,1.38758578606,1.79489197849,0.532181467373,1.1556220713,0.283386171271,0.81073340351,0.624956754263,0.559632366132,0.161340888301,0.936176214954,0.48911140511,0.727588599076,38.2993325959
do_nothing,0.45397806729,-0.644448653439,-1.05790672774,-1.14280039971,1.08079518698,0.740641951609,-0.943762205977,-1.85119631299,-0.559203117389,-3.5048395649,-1.56683639533,-2.78067728041,-2.36841316274,-13.7004386493
do_nothing,-0.969455697241,-0.976091582694,-0.934829927826,0.470488923769,0.706891700913,1.20957891436,0.646216237088,0.689596932504,0.557422776909,1.40731190621,0.124264365802,0.628648159327,0.347210254129,10.7244401034
do_nothing,-1.26528416285,-0.308285048821,0.254539285053,0.0588791648414,-2.55291851814,-2.08249593826,0.0825825639458,0.420117233935,-0.554298779177,1.80930427028,0.795773169398,1.55122364232,1.43437476815,1.9582513834
do_nothing,2.56187573865,2.35138301472,2.07285935022,0.783559672475,0.0507764572368,-0.287241839768,-0.413468424608,0.133464125938,0.549841789239,-0.694257876944,0.779094595601,0.0834600963762,0.370705238983,-47.9798896729
do_nothing,-0.136680398774,-0.647981838439,-1.5773521829,-1.39427673236,1.5853716589,1.26778949182,-0.471758105969,-0.675345398354,-0.544065669297,-1.71642680518,-1.97639420512,-1.76959988888,-2.04335293398,44.2625973209
do_nothing,-1.5947875439,-1.57538515037,-0.688716241613,0.395508248648,1.35425997391,1.35257574937,1.78500139466,0.685334141593,0.536987437651,1.57540296517,0.629709275136,0.914642954958,0.816976285435,38.3903773767
do_nothing,-0.889589133355,-0.589093399663,0.328760468086,0.524159127055,-2.77478532677,-2.62628089654,-1.4816315382,-1.13697146352,-0.528627220113,-0.658802582183,0.544006124546,-0.429430897127,0.308703395707,-53.9061061262
do_nothing,2.62761263058,2.87606424727,1.43052221355,0.317516442444,-0.500258298295,-0.0896426050199,-0.544090160508,1.03529055966,0.519008194032,0.340552807602,0.419967066884,0.915797260786,0.221692467296,-47.6885547942
do_nothing,0.129965843092,-0.21662052199,-0.795839254934,-1.43640514044,1.84030541153,1.88878340783,1.25173159443,0.35992153987,-0.508156525088,0.534564139813,-1.11032479716,0.152712041391,-0.287958760277,65.9126066522
do_nothing,-1.70860837558,-2.06985075264,-0.369647515958,0.934538279901,1.50847383522,0.590236420808,0.962253061044,-0.548960934564,0.496101297001,-0.513747791933,0.259541485575,-1.00665996064,0.226211088117,67.3421000607
do_nothing,-1.5888392248,-1.1198383903,-0.956047801109,0.149315534819,-2.70516859997,-2.89707832003,-2.65709911997,-1.43128586022,-0.482874434367,-1.82932760362,-0.214002814813,-1.37356222588,-1.55930157528,-100.74145199
do_nothing,3.06386911233,3.42824742531,1.77021314417,0.00790744342041,-0.608327788677,0.859953361717,0.608591387476,1.90490404781,0.468510618816,2.54448500361,1.29866888632,3.15909463615,1.6057291311,-47.2422794682
do_nothing,1.026354898,0.282990819373,0.435420081542,-0.820840064141,1.6281043311,1.90214554571,1.91982766897,0.549985738011,-0.453047198709,0.742247091645,-0.809592507874,-0.0765736267514,1.20305430589,77.8329043756
do_nothing,-2.8147310398,-2.76977280711,-1.32228413093,0.818548240541,1.55737695075,-0.530304958327,-0.292087528211,-1.45030492064,0.436524092598,-2.36396747179,-0.786415566858,-2.87493163882,-1.84274499256,96.8215442926
do_nothing,-1.85478335953,-1.21227276398,-1.53375177853,-0.314544608378,-2.2830853184,-2.46329524678,-2.87527736823,-1.23655360338,-0.418983686723,-1.25744997839,0.153515753658,-0.0791509889002,-2.09544370437,-132.203536847
do_nothing,4.19794339637,3.87533139727,2.64420932892,0.281146931572,-0.868552768357,1.885425416,1.93415469045,2.62521611524,0.400470726784,3.6478908909,1.8218660828,3.83250082107,3.82118545513,-59.3639801412
do_nothing,0.699335297367,0.189178158414,0.694882027573,-0.394867478786,1.32652750291,0.96184373536,1.61704680173,0.0556542404322,-0.381032204269,-0.116540907682,-1.16452476204,-1.43432739466,0.566016883411,88.9606304168
do_nothing,-3.79333275384,-3.21491862277,-2.33291576353,0.142153791275,1.90436957412,-1.12470261774,-1.82729995683,-2.05354165502,0.360717237632,-2.95154359987,-1.17593774836,-2.7358233138,-3.62212868428,126.363099963
do_nothing,-0.59925415279,-0.28135314392,-0.879935581726,-0.140839944055,-2.24785100424,-1.08763106142,-1.29671888528,-0.121796965355,-0.339576948614,0.125587282905,0.732836770066,1.20713884047,-0.206022883374,-156.621292908
do_nothing,4.04259802789,3.32347042333,2.84953201216,0.71570716798,-1.17431576721,1.55104430765,2.61918948434,2.48258036908,0.317664334027,3.11605676926,1.78431561843,2.82990127097,4.16524917696,-72.1927811825
do_nothing,-0.646365892232,-0.842231395924,-0.220666347416,-0.857807724502,1.91102600169,-0.0980509218892,-0.745486888089,-1.16697892878,-0.295034133302,-1.27727806659,-1.69118059844,-2.13023026568,-1.5679902493,94.185840834
do_nothing,-2.37720413368,-1.64622890744,-1.61011310586,0.0501329147912,1.1612623726,-0.39470769827,-1.25123147767,-1.08267196787,0.271742692149,-1.65249008362,-0.750650464137,-1.41526126132,-2.62905132987,150.398254701
do_nothing,-0.0765169972499,0.421216488852,-0.292733098942,0.532496775715,-2.23611811278,-0.0245161294144,1.37804165247,0.723000688834,-0.247847822663,1.04626952388,1.03845931169,1.49037950574,1.67670307936,-164.252262006
do_nothing,1.96710926161,0.58772044504,1.42931786945,0.0249455577586,-0.06680134277,-0.139558659412,0.132820350645,0.725853041674,0.223408660224,0.742826495637,0.991626687176,1.09339064244,1.73305448054,-93.7949875537
do_nothing,0.196300050786,-0.00663136033175,0.125388505002,-0.798994140754,1.20863096182,-0.119147903102,-1.97794648941,-0.729599090766,-0.198485517534,-0.978066197616,-1.36300996246,-1.48818006565,-2.02072295499,99.499773103
do_nothing,-0.988795741526,0.744593003754,-0.609111647524,0.638334431308,-0.0175644425024,1.20488179356,1.73541559801,0.180431801318,0.173139736157,0.832216890935,-0.304754441605,-0.0581724005744,-0.0806996412078,166.645954866
do_nothing,-1.21251834553,-1.33203713145,-0.602809924751,0.0740956215201,-0.561948353826,-0.689206364082,1.02600488243,-0.362448420039,-0.147433535935,-0.429953383617,0.713557766262,0.369664419148,1.03224184071,-158.275632022
do_nothing,1.03152257571,-1.01036100439,0.259255293306,-0.385607813543,0.288256450992,-1.29817095536,-2.20020443189,0.191544223858,0.121429862636,-1.16589609984,0.498360034113,0.225734938478,-0.416384819084,-120.310477655
do_nothing,1.52982196874,2.18857948343,0.902679968188,0.211504480567,-0.690411368608,0.914828980279,-0.631289789943,0.743973963828,-0.0951922342081,1.41982646414,-0.693114609712,0.0155834353147,-0.497055893263,105.295873614
do_nothing,-0.872438532322,1.16378068748,0.0918956835719,0.122306376466,0.477657715282,1.66642063562,2.76720849294,-0.601815882912,0.0687845860202,1.35998385252,-0.298574388208,-0.19648139906,1.00639268423,174.563747087
do_nothing,-1.84496161983,-3.06504198062,-1.31587880458,-0.527510961339,1.08375526272,-1.55293839074,-0.266820871851,-0.955327913668,-0.0422711154602,-2.64186630859,0.361449518531,-0.59139850761,-0.465713939784,-143.250885839
do_nothing,0.858778901427,-0.719587665916,-0.0919661587368,0.622253890968,-1.04331365014,-1.30163785852,-2.30425721863,1.32784514363,0.0157161262717,-0.596843080848,0.41440358526,0.786573410567,-0.736339638724,-145.85894728
do_nothing,1.96823413815,3.25263922823,1.40950247446,0.0968926323349,-1.21682927706,1.51837160698,0.296927793233,0.523542293995,0.010816127003,2.92400444678,-0.242178605585,0.374734584279,0.736683584426,109.369832173
do_nothing,-0.936734666783,0.378367341298,0.0511442914313,-0.978921657496,1.4446431742,1.10503546265,2.06821625785,-1.75298521731,-0.0372615940885,-0.0933789901499,-0.582962073918,-1.02807035049,0.562407463602,175.627146259
do_nothing,-1.78103029578,-3.0748723044,-1.18261506476,0.690790137123,1.243369407,-1.23508185843,-0.150747053469,0.249671901548,0.0635565831787,-2.58137371295,0.423997403382,0.128616427054,-0.790714354412,-123.155350529
do_nothing,0.842605442266,-0.294084926103,-0.314644099454,0.492952700235,-1.8461289244,-1.16138386999,-2.07761934543,1.55634609854,-0.0896379139141,0.291287490831,0.375102424391,0.739207049245,-0.495463647035,-167.319875436
do_nothing,1.63806818559,2.97560715182,1.24328161547,-0.736214871068,-0.827259862717,1.10119621553,0.400993000011,-0.631250996363,0.115443068762,2.28636227885,-0.248032464428,-0.296949065389,0.933178877264,111.318469706
do_nothing,-1.03964076965,-0.0560333901941,0.0985070547695,-0.37209210659,1.54027896697,0.9216792876,1.43800480136,-1.37968561093,-0.140910342436,-0.503965718686,-0.571603278291,-0.505767392342,0.0679587312202,171.56450367
do_nothing,-0.868712915892,-2.40766725783,-0.642233169861,1.01732056245,1.01669361958,-0.38462351278,0.00490983780256,0.9520611697,0.165978988997,-1.63342709044,0.600386690284,0.474566576687,-0.52693087327,-102.148675528
do_nothing,0.595286198726,0.0582935754609,-0.562582310377,-0.240883461986,-1.73258691855,-1.42086349606,-1.29671065303,0.867765289745,-0.190589366298,0.0116054030306,0.133799392661,-0.0620694771787,-0.157148353775,-182.365002876
do_nothing,0.566102192098,2.08932284066,0.757306073542,-0.487491689448,-0.54099896962,0.422424794759,0.255958145908,-0.273134760932,0.214683077421,1.97614732667,-0.277822462631,0.275543358301,0.781901379531,111.110334702
do_nothing,-0.615824051431,-0.614030391307,0.156088980021,-0.0219031976979,0.996501717037,1.15131795392,-0.0804295449875,-1.79116946688,-0.238203108772,-0.772931822962,-0.391504562891,-0.769934038402,-0.911340957844,164.146363954
do_nothing,0.427271711275,-0.79338248396,0.115182934865,0.713093363441,1.10220976822,0.365212794176,1.09506529989,0.896901613073,0.261093964508,-1.0518057888,0.73614249061,0.338806340089,0.489817156575,-83.342117357
do_nothing,-0.334856943957,0.136726852541,-0.753899995948,-0.45886374958,-1.25669590981,-1.74118688283,0.224286209112,1.94778486836,-0.283301796988,0.620373231904,-0.308075035924,0.721633195568,0.708254464859,-190.338306884
do_nothing,-0.240584716821,0.281972404362,0.0773967058365,0.0139931212438,-0.7337538675,-0.339967619292,-2.08060464119,-1.1348332448,0.304774532935,0.654524997216,-0.0555142960684,-0.473055244167,-1.13157192107,109.33772544
do_nothing,0.0179935994812,-0.41126210252,0.103727566894,-0.280897455421,0.545959114551,1.54743222335,-0.439217797203,-2.78835632935,-0.325461995017,-1.09890703355,-0.226630144027,-1.35639188988,-0.914099147244,155.044010467
do_nothing,1.32165740719,1.41503873195,1.19246737581,0.627843791161,1.58743127509,1.30291856209,4.10423978435,2.96464557489,0.345316018562,1.04147779362,0.646403544138,2.0152308213,2.81456270266,-68.7931014241
do_nothing,-0.994184450836,-1.00815466141,-1.01695471716,-0.374459059949,-1.34503858271,-2.74671359507,-1.75474419998,1.40242363971,-0.364290563152,-0.296640053584,-0.563645489668,0.0983907547041,-0.800071862567,-191.957939554
do_nothing,-1.03926183291,-1.41816225015,-1.03699353525,0.115456555522,-0.973438294005,-0.668462173031,-3.59067275085,-3.05137008,0.382341818808,-1.12643591015,0.156979803899,-2.06663677478,-2.49445655641,107.351928472
do_nothing,0.582022516091,1.21457513628,0.836179735149,-0.338337287427,0.992670550526,2.54143842888,2.74345243708,-0.636953529557,-0.399428306558,0.960857031365,-0.113599109759,0.527757067891,1.30134440133,143.382834683
do_nothing,2.16058842974,2.39585050483,1.79714271797,0.473241229056,1.47464563636,1.25839125677,3.24113426526,3.50097570357,0.415510973129,1.60848319726,0.635410181667,2.60639332505,2.87586601495,-50.5314243976
do_nothing,-1.6909103727,-2.84121339693,-1.84357442727,-0.258769521567,-2.22152089374,-3.83413505657,-4.62910411633,-1.6200682143,-0.430553279575,-2.83854744068,-0.99163825069,-2.56489372621,-3.09680851076,-210.740545014
do_nothing,-1.67474073972,-1.39332281465,-0.88259048029,0.303246768241,0.0707104570979,0.126555040357,-0.267129291788,-1.30938473512,0.444521283617,0.16711286327,0.48771665494,-0.822050724489,-0.994529167282,137.061289532
do_nothing,1.32353740026,2.58858323188,0.966574553446,-0.655458896521,1.45890001038,3.108922388,3.21061354916,1.51641961928,-0.457383715523,2.443381057,0.15816545171,2.41116814855,2.52367503691,119.256928634
do_nothing,2.57978866874,1.77164073339,1.7733239756,0.616037101317,-0.0656900980266,0.0287451492013,-0.453024667317,0.268760161188,0.469112047373,-0.502944092843,0.378711403738,0.531742160102,0.770334814502,-79.2201172039
do_nothing,-2.69981690838,-3.73837213844,-1.94132671589,-0.276350611646,-1.99173138177,-3.60289624358,-2.75599350622,-2.18442338175,-0.479680555524,-3.14221926515,-1.53471472678,-3.76463468473,-3.24255801229,-129.617444312
do_nothing,-1.2496641078,-0.140713922252,-0.540930398593,0.382263335354,1.66577688269,1.41375159462,2.27575646278,2.57663588931,0.489066376182,2.630926031,1.20445182107,2.17222592869,1.23099621937,76.0557326272
do_nothing,1.93572689638,2.61839375547,0.644574966826,-0.71646262153,0.272180091654,1.83871028532,-0.0767529321436,-0.0474019461671,-0.497249553919,1.27601119609,0.568153764931,2.10034892031,1.66504851965,111.191322297
do_nothing,1.41002934443,0.264069893107,1.42434644312,0.54693919959,-0.707753808242,-0.517854702684,-0.997070605076,-2.76418743082,0.50421308308,-2.38984736925,-0.972740196884,-2.42195420105,-1.19111846452,-41.779874332
do_nothing,-2.35575646042,-2.73681980924,-1.23260386866,-0.258225072174,-0.717271811307,-1.86702689042,0.350613516838,0.757553362891,-0.509942941963,-0.983368421963,-0.968341416634,-1.89815481091,-1.53042443119,-140.970869522
do_nothing,0.142992999079,1.14947498877,-0.490997027838,0.541231818887,1.32627419264,1.1230593208,1.50899143214,4.09918220442,0.514428119718,3.55354811502,2.30410005287,4.07652495743,2.67881929764,72.6964541344
do_nothing,0.301513982793,0.510642675441,-0.0744754209893,-0.780821318943,-0.374036437133,-0.0838050770851,-2.46252657251,-3.57404672767,-0.517660635921,-1.48992983678,-0.857304051781,-0.65148872834,-0.984430955786,91.2595645629
do_nothing,0.897450047731,0.135118551114,1.53203016244,0.321695622225,0.0881679051806,0.899658272352,0.229108744863,-2.39772900488,0.51963555279,-1.91227767743,-1.10035817186,-2.84790890304,-1.24580348778,-8.96900682242
do_nothing,-0.219452993605,-0.496310224258,-0.545176651921,-0.109934686111,-0.967443468921,-0.567347142567,2.56598307816,3.84794713369,-0.520350980029,1.67063534882,0.582061320249,1.1106424589,1.13652309887,-152.293841036
do_nothing,-0.594685426045,0.0819725718752,-0.81607243779,0.85697145362,0.868202667128,-0.987480761444,-0.698581148512,1.95381625856,0.519808072307,1.53269525305,1.43561994841,2.56475077855,1.19390206181,69.0224777109
do_nothing,-1.3655061638,-0.975799536743,-0.530604521786,-1.18264003848,0.319446825485,-0.221485118318,-3.84707523556,-5.09991659465,-0.518011019398,-3.01898914785,-1.96105472497,-2.62647770416,-2.57626464132,90.2417738698
do_nothing,2.71314322668,1.88556092994,2.03333700759,0.0776763676404,-0.241393074526,2.77825695435,3.19940825705,0.530846514992,0.514967029023,1.05611659555,0.57615007513,0.0945625375669,1.07352148945,-39.8014702205
do_nothing,-0.116995725334,-0.315015358562,-0.584298502986,0.677369860129,-1.14753903276,-1.38681275894,2.52589786666,3.47737113119,-0.510686302446,1.40871089754,0.592719834275,0.961723774578,1.17422446589,-40.4681326785
do_nothing,-2.31509351825,-1.51196080971,-1.27485407775,0.547048351209,1.48893960962,-1.91340952801,-3.8374592572,-0.647046236246,0.505182002908,-1.26749072153,-0.244562808696,-0.314853651955,-1.15073997797,-72.6845853698
do_nothing,0.296146546289,0.211251776294,0.28345707341,-1.86371847939,-0.461299233119,0.842626062184,-1.92435581338,-3.28547868203,-0.498470216984,-1.12639502828,-0.841216040396,-0.548321080147,-0.849287864496,137.572934417
do_nothing,2.88452242307,2.39345759974,1.78665879384,0.857467508443,-0.278537993614,2.61814216332,5.44287384826,2.26547312264,0.490569908988,2.83212402645,1.33552181977,1.86297705689,2.28607444315,38.2779026259
do_nothing,-2.44506259163,-2.32174897801,-1.81672278888,0.907889086565,0.245332112076,-1.97702978788,-1.29947472312,0.688097785708,-0.481502868532,-1.6071539873,-0.82674842035,-2.45444977301,-1.6900173272,-134.785129991
do_nothing,-0.49991443182,-0.305888650138,0.122314635051,-0.332162154737,0.353908157229,-1.05411212225,-3.41373680576,-1.1579237375,0.471293651392,-1.33540376555,-0.0297534023704,-0.171198835655,-0.458684047219,-53.8512420466
do_nothing,1.96388887791,1.96795381863,1.01563315117,-1.70696401723,-1.47948857153,0.597637767105,1.78953002858,-0.0845975547783,-0.459969513848,2.03588093839,0.241826615751,3.17120053981,1.93887661152,153.673669954
do_nothing,-0.36895099028,-0.378848537748,-0.217427681216,1.71530083919,1.57931350606,1.64788802565,2.61010828606,1.3427743254,0.447560340654,1.05846458562,0.441722416239,-0.557755681417,-0.176761243292,70.7523153609
do_nothing,-2.5446798248,-2.77617930146,-1.77894133619,0.320717912584,0.483047414381,-0.949095638911,-3.31496832623,-2.04575975656,-0.434098566839,-3.70127098208,-1.10629456834,-4.89583171578,-3.39606247212,-219.457874855
do_nothing,2.92350935788,2.94305393143,2.07191137103,-0.919663363582,-1.64522943937,-0.547434819712,0.253904848127,0.618295307608,0.419619093534,1.40277475928,0.803005197675,3.54451967396,3.06799240623,21.839663079
do_nothing,0.708370829756,1.16292448454,0.605027657182,-0.77215568555,-0.846203740388,-0.610575234914,2.2470689542,2.09328380404,-0.404159198055,2.74670428852,0.0321825990808,3.68612689161,2.03983702346,134.392262202
do_nothing,-3.21764590634,-3.54086526126,-2.21973168948,1.61928165988,3.01709785478,1.43998771279,-1.35513050074,-1.2831287105,0.387758438458,-2.01263277667,-0.195514629084,-4.42616834061,-3.92066220163,34.5288337247
do_nothing,-0.280926866936,-0.591963945945,-0.691149202118,-0.181542987604,-0.532798990959,0.367591507476,-1.71212695557,-2.92365185537,-0.370458552812,-2.62665816567,-0.366383488586,-3.37861461342,-1.56264657718,-174.42265037
do_nothing,4.45217024729,4.9921792694,3.48113709861,-0.844054372919,-2.35807430757,-0.808314744775,2.7617271447,3.14004564128,0.352303353457,3.44523610186,0.59145578008,6.2067797557,5.55057149934,19.878663651
do_nothing,-1.51547126159,-1.66312890519,-0.609393752213,-0.353446280823,0.202171236132,-1.5181155656,0.0611647481924,1.86143563431,-0.333338616495,0.846948228311,-0.255841335172,1.16443438203,-0.625025156568,105.282888427
do_nothing,-3.75256927328,-4.049925876,-3.15100786188,1.48581771348,2.88659217041,1.57926345734,-2.49059698418,-3.18541526332,0.313611966815,-2.81033306878,0.194965135771,-5.69519439696,-4.95216916751,30.6745756911
do_nothing,1.56413758494,1.98098611327,0.544685705745,-0.492887758285,-0.972307341928,1.37005984015,0.379141508121,-1.8039078884,-0.293172758905,-0.545342707947,-0.470640624596,-0.335166360986,1.304744975,-129.576492325
do_nothing,4.184618149,4.0112138147,3.89016878499,-0.733152848273,-2.0909239679,-1.3650940537,2.76350083174,3.8377153242,0.272071953795,2.90181128045,0.277235724206,5.58426265133,4.85529807915,0.0769923703915
do_nothing,-2.60532569718,-2.94144395204,-1.6503629831,0.0173610782755,0.433111761418,-2.01848541352,-1.67120228418,0.6299317826,-0.25036199239,-0.46799611859,0.215631273529,-1.02215482225,-2.4665754425,82.736526941
do_nothing,-3.31472922644,-2.74527666511,-3.26627051058,1.11545643538,2.34326507901,2.19179521797,-1.13069994111,-2.79515845956,0.228096665542,-1.8095216927,-0.052712652116,-4.24656213243,-3.54101977153,29.1424917321
do_nothing,2.36803162284,2.44112683858,1.72226096835,-0.544275963,-0.820931821395,1.28834892777,0.54600599258,-0.971734161946,-0.205330981161,0.164374901586,-0.500301694264,1.11201315615,2.14997866844,-82.3055374163
do_nothing,3.25720155269,2.28430935415,3.01157828652,-0.476677014001,-1.65391324842,-1.83933327213,1.24486661865,2.6116682946,0.182121028698,1.62174194996,0.369582989743,3.50725016401,3.12256473184,-27.4331722955
do_nothing,-2.6905936721,-2.01536621504,-1.94608165152,0.0266164380756,0.393468758306,-1.0708900092,0.0490671621044,0.882846088624,-0.158523841342,-0.320110324925,0.171158122312,-1.38417950678,-2.14909929371,67.2526979506
do_nothing,-2.46253390415,-1.74950620451,-2.21516895309,0.759792337838,1.59083941402,1.65458290439,-1.54766535974,-2.01314417778,0.134597256254,-1.0172457381,-0.0600254803145,-2.29768903298,-2.28918906181,25.1844546922
do_nothing,2.13369534372,1.00373885003,1.27031244812,-0.246225542277,-0.601507168329,0.327392487679,-0.683367522442,-1.38751085687,-0.11039977319,-0.18625034582,-0.382190386437,0.70795916389,1.29937400133,-37.1796883138
do_nothing,2.41090291317,2.16184970971,2.22369607532,-0.378333416151,-0.798007643764,-0.45948989843,2.58632603148,2.15429706024,0.0859904118459,1.22267419415,0.17706110493,2.11795605017,2.40401477928,-55.1965819379
do_nothing,-2.12102029385,-0.835770163701,-1.07412120767,-0.237176810231,0.211307142507,-0.477860313154,0.401178606394,1.27327576894,-0.0614285682927,0.015369537961,0.236876712335,-0.732439320169,-1.05568235981,58.3993238385
do_nothing,-1.97507954818,-2.18975763571,-2.017366557,0.670870642733,0.267827266972,-0.531648539465,-3.5471074751,-2.15092439364,0.0367738708249,-1.03782842654,0.0373121503096,-1.66229819273,-2.32419755004,19.4452986498
do_nothing,1.92750793682,0.718649350298,0.820617086729,0.293228981379,0.143317946792,1.00464438779,0.95018714803,-0.864151540837,-0.0120860355872,-0.0316892733706,-0.422441351894,0.740006572962,0.780671423651,-4.88461532779
do_nothing,1.57852368344,2.17758761966,1.84866197023,-0.948786186461,0.356324757255,1.27925764643,3.32287388525,1.99703816287,-0.0125752776759,1.08907226431,0.108217919611,1.2738219029,2.40357996996,-68.4921004281
do_nothing,-1.82272257604,-0.988813738181,-0.712996976512,-0.0270363313511,-0.773056947864,-2.00161810692,-2.39506481187,-0.0455703587054,0.0371506094017,-0.448325762132,0.195754888637,-1.12078673166,-0.880768837196,48.9918874656
do_nothing,-1.07018709232,-1.53898815745,-1.54660638957,0.843454536888,-0.759314988366,-1.13880732952,-1.64356749603,-0.941854034733,-0.0615808431759,-0.502214442641,0.15682480176,-0.340463632074,-2.12891444034,10.5867278394
do_nothing,1.91162161059,1.05821254654,0.810950331698,0.0207799809326,1.6000854088,2.642447496,2.51268975898,0.445208885349,0.0858073475416,0.636859263405,-0.220859855088,1.37291891721,1.01568955946,17.9824135353
do_nothing,-0.14141278773,0.305656242798,0.617040761874,-0.990686235556,0.571977753865,0.406319043754,-0.207274572675,-0.452214694908,-0.10977211631,-0.540600327989,-0.478153921646,-1.35188188886,1.34711421662,-68.3383212535
do_nothing,-1.06593703202,-0.117419764847,-0.23025522343,0.468488212113,-1.89455849032,-2.42345589012,-1.30293920824,-0.0183332071252,0.133417907041,0.16497296793,0.596047096578,-0.319845906865,-0.504561313387,36.9683650973
do_nothing,0.737400624704,0.239718157143,0.0117621459692,0.422798462977,-0.685830800451,-0.00775393141583,1.09466696984,1.26678874105,-0.15668837736,0.746230611453,0.341012608154,2.16423318123,-0.974028880658,1.12178041957
do_nothing,0.311605065675,-0.749616884395,-0.385223937105,-0.288606289582,2.69054035797,2.16569869448,-0.0609035455828,-0.304358014816,0.179528218794,-0.659177133412,-0.570407584198,-0.728645614325,0.203063868842,32.5670010304
do_nothing,-1.40028561499,-0.770316506001,-0.815192050683,-0.279564922074,-0.185707884092,-0.67671420897,-1.55925130012,-2.27547159454,-0.201883287801,-1.14132111344,-0.611347417185,-2.8944198449,0.145983955392,-58.9199187009
do_nothing,1.19506810141,2.30851516151,1.87271692807,0.465144375963,-2.46987749236,-1.05482922637,1.97379441812,1.53625823611,0.223700733692,1.90353878089,1.23813400068,2.71171041489,1.13563845325,24.0407984753
do_nothing,0.66273565837,-0.183532646988,0.212545992027,-0.526611002593,0.468876692249,0.219179522333,0.398583891239,1.81325404814,-0.24492912314,0.170813244812,-0.2985743236,1.78397837645,-0.714190567305,-7.24855647976
do_nothing,-1.52362583107,-2.41509996215,-2.1026869233,0.450340723971,2.80970662631,1.13548517798,-2.17052193947,-1.43526004028,0.265518560987,-1.81564206982,-0.402541726984,-3.22429073285,-1.296353034,39.1764105691
do_nothing,-0.343827102363,0.459137510017,-0.363420970106,0.0968566068887,-1.96808490675,-0.925310778328,-0.259271226181,-2.24443398282,-0.285420807057,0.0125421649609,-0.17468188733,-1.03195776145,0.560033054232,-43.84883468
do_nothing,2.15051142118,2.74322373168,3.01243023229,-0.327186405414,-1.47733921754,-0.173449903314,2.91742929283,2.15120927066,0.304589388719,2.24005494881,0.527876435222,3.77344250169,2.13940504995,12.0338495046
