label,COUNTER,INTERPOLATED,AF3,F7,F3,FC5,T7,P7,O1,O2,P8,T8,FC6,F4,F8,AF4,RAW_CQ,GYROX,GYROY,MARKER,SYNC,TIME_STAMP_s,TIME_STAMP_ms,CQ_AF3,CQ_F7,CQ_F3,CQ_FC5,CQ_T7,CQ_P7,CQ_O1,CQ_O2,CQ_P8,CQ_T8,CQ_FC6,CQ_F4,CQ_F8,CQ_AF4,CQ_CMS,CQ_DRL
off_to_on,1.09354959897,2.61699323614,-0.429950480334,-2.85902125197,-2.84514177242,-4.70384429436,-3.59407878405,-1.78303435655,-2.54453420813,2.72710285872,0.522013916156,5.23400689045,3.49655947217,-35.9506191867
off_to_on,2.2837975879,3.43508783729,0.291670080283,-2.02584710029,-1.53860640174,-3.01745227874,-2.6947540726,-1.18051345259,-1.67721607001,3.23688069389,1.07114234105,5.77774492448,3.18408723868,-42.9584838097
off_to_on,3.28448189603,3.99829396936,0.949966439755,-1.10196973203,-0.190545353766,-1.02369619353,-1.46224728837,-0.381120978586,-0.728215658681,3.4990276171,1.52110875241,5.90707519303,2.65630646932,-40.4945435679
off_to_on,4.09448837467,4.33639708889,1.5567819482,-0.101400571196,1.14654959114,1.11590277196,0.0368414092273,0.604961585189,0.27748181554,3.59645624691,1.91341683199,5.71750750571,2.05070928942,-28.9876821999
off_to_on,4.72036396109,4.48784515006,2.12233143152,0.953151875559,2.41835599891,3.21508730784,1.6943139339,1.73259759213,1.30695569511,3.61290845369,2.2860940509,5.31672358742,1.4970631549,-10.1828936314
off_to_on,5.1703387935,4.49086667078,2.65064239589,2.02885602528,3.5701143689,5.08259902338,3.3699844939,2.92402278856,2.31981621025,3.61759101707,2.66496977567,4.80665411825,1.09862419455,13.0940605753
off_to_on,5.44982718538,4.37647258956,3.13675701426,3.08296891287,4.54902360906,6.5435175221,4.90628701783,4.07646818013,3.2700676712,3.65354255856,3.05764386822,4.2686324058,0.918241776164,37.3197282468
off_to_on,5.55912438714,4.16431895711,3.5660770487,4.06481794041,5.30753767268,7.45961915551,6.14622641753,5.07418383801,4.10923253835,3.73133957978,3.4510211785,3.75359885211,0.971114468932,58.7530923796
off_to_on,5.49357154353,3.86187063025,3.91586982092,4.91940687701,5.80723107035,7.74619564946,6.95249668641,5.80330362483,4.79038337832,3.8288992278,3.81272297763,3.27849032678,1.22497575694,73.9486575615
off_to_on,5.24599372337,3.46672801011,4.15860394254,5.59224061746,6.02271645932,7.38312739877,7.2253336995,6.16753249504,5.27256447817,3.89719932757,4.09608921453,2.82897724632,1.60742639224,80.2336049033
off_to_on,4.81080008519,2.97144845412,4.26650042731,6.03476142842,5.94499536477,6.41865437903,6.91672683261,6.10245443662,5.52499833272,3.87084664608,4.24794216137,2.36774860721,2.01913571162,76.0846277338
off_to_on,4.18883557161,2.36979034261,4.21650777135,6.20967609936,5.58362521673,4.96515360862,6.03898416813,5.58638046687,5.53047888928,3.68170774317,4.21786998907,1.84672724143,2.35084070425,61.3533075366
off_to_on,3.39193478977,1.66308887566,3.99486109184,6.09544573047,4.9671970849,3.18721009397,4.66629280055,4.64607088918,5.28745322234,3.27337249281,3.96756552065,1.22103728415,2.50158303564,37.3091094165
off_to_on,2.44616990013,0.865467573679,3.60046807934,5.689309104,4.14182543889,1.28323555321,2.92876293592,3.35632227636,4.81047145119,2.61410834303,3.47875046738,0.462318552562,2.39550099724,6.49353326382
off_to_on,1.39299628641,0.00679474917423,3.04656146523,5.00840198886,3.16762440743,-0.537277877725,0.999388028664,1.83322157268,4.12891407219,1.7061962542,2.75842688238,-0.430884140374,1.99474508414,-27.5956747657
off_to_on,0.287847234145,-0.867324784314,2.36033572952,4.08878994822,2.11344307608,-2.078192209,-0.924726467166,0.22172901234,3.28415118429,0.590081088211,1.84059252119,-1.42745805812,1.30667116711,-60.9485224929
off_to_on,-0.803843924065,-1.69873617092,1.58060077464,2.98251355266,1.05040870647,-3.17990317767,-2.64473592697,-1.32095810091,2.32551144063,-0.657459084847,0.78407661215,-2.46384983215,0.384298072644,-89.5560870831
off_to_on,-1.8127762952,-2.42277775882,0.753789069454,1.75301102736,0.0450366682322,-3.73841784325,-3.98337164054,-2.64419606319,1.30560535682,-1.93102975301,-0.333278640808,-3.45015010749,-0.68002126838,-109.925066995
off_to_on,-2.67326816195,-2.97636852054,-0.0710998096854,0.469495539881,-0.847226369373,-3.71793631638,-4.80633237349,-3.62242665092,0.275631964269,-3.10924576528,-1.42332978989,-4.2813764195,-1.7668078552,-119.525528713
off_to_on,-3.33103253883,-3.30695454087,-0.84787784423,-0.799007824952,-1.58717479807,-3.15530242985,-5.03903887866,-4.17100468813,-0.718713378821,-4.0705416066,-2.39805016522,-4.85237302379,-2.74581393377,-117.11302507
off_to_on,-3.75007133414,-3.38093325898,-1.53808871127,-1.98923443635,-2.15502192662,-2.15566176035,-4.67653916534,-4.25717026936,-1.64021713314,-4.7099356829,-3.1802116171,-5.07414749087,-3.49422344598,-102.883364957
off_to_on,-3.91759228234,-3.19018592137,-2.11476255805,-3.04820912962,-2.55112374263,-0.879735055131,-3.7851480339,-3.90460281948,-2.46168104907,-4.95432731995,-3.71283796534,-4.88917632057,-3.91413575356,-78.440927492
off_to_on,-3.84609855885,-2.75556980629,-2.56447762213,-3.93624835794,-2.79411538002,0.475851403293,-2.49540064828,-3.19080331612,-3.16591136405,-4.7740589474,-3.96610133835,-4.28328042293,-3.94687315762,-46.586419938
off_to_on,-3.57218471362,-2.12662308674,-2.88745615467,-4.62818553091,-2.91668372822,1.70286856834,-0.986975039727,-2.23747772195,-3.74430768989,-4.18895578629,-3.94068477677,-3.29209114507,-3.58209051404,-10.9539530636
off_to_on,-3.15204006169,-1.37726121624,-3.09571514911,-5.11283165325,-2.95953519511,2.60751663045,0.532742196412,-1.1950183645,-4.19441332947,-3.26779712141,-3.66712547525,-2.00084438072,-2.86037834099,24.4530055235
off_to_on,-2.65414468893,-0.597820421726,-3.2095800911,-5.39093438611,-2.96438275779,3.0350386394,1.85393966149,-0.222978534222,-4.51694636249,-2.1210758068,-3.20121335192,-0.537157773757,-1.86894061551,55.7644770273
off_to_on,-2.15007306833,0.115650902746,-3.25311072595,-5.47210127985,-2.96693098518,2.88990744684,2.79046986402,0.530998586391,-4.71290319737,-0.887841733515,-2.6160703443,0.94256154938,-0.730873430339,79.7191121925
off_to_on,-1.70463190572,0.673517189709,-3.24914746816,-5.37127769149,-2.99085690262,2.14908535072,3.20353145467,0.95108096773,-4.78130164173,0.281729885835,-1.9919996854,2.27150182848,0.410557113243,94.0499812389
off_to_on,-1.36670407753,1.00450110964,-3.21474337472,-5.10539954058,-3.04366278853,0.866671607099,3.01996565964,0.969358621934,-4.71801236316,1.24577212615,-1.40550660993,3.29331206214,1.4105571666,97.7324703733
off_to_on,-1.16212409217,1.06580868538,-3.157692286,-4.69077301142,-3.11502890365,-0.830721600782,2.24279738071,0.575983485497,-4.515934163,1.88955940997,-0.919009070508,3.88270170852,2.14188558429,91.065170792
off_to_on,-1.08967381012,0.849975625343,-3.07470712979,-4.14157995362,-3.17795278702,-2.75741349681,0.952569275844,-0.178111060701,-4.16653008843,2.14116150045,-0.572663007434,3.96296220475,2.51182285562,75.5776350063
off_to_on,-1.12088845439,0.387365797119,-2.95156595895,-3.46969436054,-3.19257394263,-4.68940717587,-0.700866933134,-1.18642710692,-3.66249580389,1.98171872806,-0.379434791838,3.51791711871,2.47475251869,53.7822111029
off_to_on,-1.20385375369,-0.256199318201,-2.76526031453,-2.68575616293,-3.11220251015,-6.39005558072,-2.51526064465,-2.29955460319,-3.00111816692,1.44882562819,-0.324104305971,2.59647769524,2.03865648701,28.8076405689
off_to_on,-1.27062335098,-0.986566104491,-2.48789027777,-1.80122157262,-2.8907513926,-7.63764920134,-4.25964163976,-3.34378808135,-2.18773541059,0.632415550406,-0.366337991951,1.3089176629,1.26462891143,3.9669654189
off_to_on,-1.24736665344,-1.69237682775,-2.09179299959,-0.830930112487,-2.49055869574,-8.25169356745,-5.70196924288,-4.14343958764,-1.23865553075,-0.336457759432,-0.447407238784,-0.184936043734,0.259434623405,-17.6803876096
off_to_on,-1.0659434607,-2.25889250623,-1.55520168852,0.20437455428,-1.88951197655,-8.11478966315,-6.63742195396,-4.54406150106,-0.182937236294,-1.30257933752,-0.499621309876,-1.694315084,-0.837944780925,-33.7135315549
off_to_on,-0.675352533214,-2.58280696622,-0.867635717139,1.27614351227,-1.08645940713,-7.1875420571,-6.91387556403,-4.43362437808,0.937416857027,-2.10711333822,-0.457165060015,-3.02070199993,-1.87404294738,-42.6323213849
off_to_on,-0.0514552025702,-2.58616789449,-0.0342327514745,2.34723093133,-0.104106490547,-5.51473508884,-6.45142342461,-3.7589026888,2.06908248402,-2.60904684336,-0.266831704602,-3.98271468609,-2.70062327634,-44.0027575728
off_to_on,0.796455980705,-2.22758390169,0.921650435918,3.37253592383,1.0110781336,-3.22203801513,-5.25349302193,-2.5348836482,3.15081179505,-2.70469434109,0.102853002273,-4.43949782385,-3.19382206645,-38.4513981671
off_to_on,1.82330650365,-1.5091998367,1.95803534215,4.30117960374,2.19203202867,-0.503602908366,-3.40812454644,-0.8458636888,4.11829559678,-2.34263465229,0.655407721651,-4.30955570403,-3.2702438749,-27.5158185122
off_to_on,2.95064838643,-0.478430310403,3.01631338925,5.08007383314,3.35702147956,2.39802713827,-1.07917569879,1.16207185237,4.90994298897,-1.53202206216,1.36397897191,-3.58248913707,-2.89793415178,-13.377740188
off_to_on,4.07375820303,0.775909406205,4.02552725522,5.65850766204,4.41763024086,5.21740158144,1.51154643346,3.29640736149,5.47286989925,-0.343066254324,2.17312581564,-2.32197323984,-2.10082533456,1.47930715066
off_to_on,5.07273274043,2.13272771025,4.90854459893,5.99319715624,5.2878531409,7.69413513546,4.10910609198,5.33961844346,5.76832577058,1.10050007035,3.0046356339,-0.659422656078,-0.956103841022,14.6370343771
off_to_on,5.82633855624,3.4520128327,5.58947886344,6.05314218669,5.89318598157,9.60020614558,6.45423096353,7.07409786226,5.77583629063,2.63608688191,3.76665768222,1.22100718839,0.415135907231,24.0819095985
off_to_on,6.22696410532,4.59084190726,6.00153926922,5.82362620379,6.17860226521,10.7635267676,8.31260205403,8.30756030279,5.49549444101,4.08221255063,4.36499248627,3.10429781795,1.86271900767,28.470802576
off_to_on,6.19481647153,5.4201024558,6.0944163222,5.30878433138,6.11445158163,11.085193482,9.50110731752,8.89581105367,4.94807121991,5.26121673172,4.71508066957,4.77062028641,3.22576888154,27.2886385161
off_to_on,5.68953085753,5.83986739594,5.84033957251,4.5323391626,5.69958319885,10.5485825379,9.90790585444,8.76006657119,4.17290716301,6.02178090521,4.75313319428,6.02228130041,4.35226511711,20.8805491872
off_to_on,4.71762226589,5.79150753436,5.23807755021,3.53633771946,4.96135410425,9.2194118649,9.50392446817,7.89667399603,3.2238443369,6.25831793843,4.44494895751,6.70812738989,5.11727901915,10.359495815
off_to_on,3.33467750531,5.26501408174,4.31437015908,2.37798357496,3.95257479105,7.23693387882,8.34448003308,6.37801034819,2.16372219937,5.92468329364,3.79126052327,6.74226615253,5.43758381431,-2.59199273356
off_to_on,1.64180697816,4.30059052172,3.12256557242,1.12490769937,2.74582546601,4.79742938592,6.56095381441,4.34443302666,1.05815085057,5.04039269886,2.82889460162,6.114673218,5.28083340619,-15.9929693016
off_to_on,-0.223425626572,2.98428464156,1.73854412732,-0.150575548584,1.42589003879,2.13202494395,4.34368095783,1.98826339266,-0.0306363308779,3.68850870538,1.62757120814,4.89228905434,4.66823134485,-27.8660137323
off_to_on,-2.10068807974,1.43817741181,0.254315068732,-1.37755346625,0.0812649987448,-0.518541807817,1.91830232052,-0.468226427962,-1.04907496532,2.00545248615,0.282723230946,3.21043747135,3.67047249748,-36.525172177
off_to_on,-3.82367765208,-0.193669763446,-1.23006645453,-2.4922329178,-1.20422005849,-2.92929747296,-0.481381452557,-2.79811278294,-1.95606831337,0.164061983537,-1.09477660259,1.25565703575,2.39761916513,-40.8089291052
off_to_on,-5.23811019477,-1.76177241854,-2.6154247046,-3.44264556016,-2.35869087188,-4.91369309598,-2.6406129577,-4.79529676447,-2.72488134289,-1.64788935947,-2.39070695135,-0.757838895783,0.984354865151,-40.2268553418
off_to_on,-6.21878530281,-3.128231554,-3.81229646321,-4.19184421972,-3.32762918696,-6.34107813077,-4.38753903958,-6.29704348414,-3.34300345114,-3.2508977789,-3.49991243895,-2.61501837057,-0.427359745595,-35.0023467301
off_to_on,-6.68367665996,-4.18208431164,-4.74874418164,-4.71930774541,-4.07686843534,-7.14717930012,-5.61080757564,-7.20085908781,-3.81015143264,-4.49561504819,-4.33752000951,-4.12670730409,-1.70589847801,-26.0096558767
off_to_on,-6.6033142414,-4.85110164358,-5.37633127743,-5.02051761341,-4.59300288229,-7.3366323451,-6.26882692553,-7.47371276103,-4.13485234751,-5.28054955715,-4.84760354762,-5.1526095736,-2.74552607458,-14.618852716
off_to_on,-6.00426127774,-5.1085947976,-5.6736424429,-5.10491212815,-4.88137349676,-6.9775622623,-6.38972466987,-7.15259298776,-4.3302437733,-5.56327806974,-5.00828185489,-5.61767414211,-3.4778941924,-2.47519055985
off_to_on,-4.96618118288,-4.97443465542,-5.6470012791,-4.99262856723,-4.96210091676,-6.18913351751,-6.06226731285,-6.3364924731,-4.40982714636,-5.36373373167,-4.83269817254,-5.51969246566,-3.87805353085,8.75217697107
off_to_on,-3.61275516263,-4.51023319525,-5.32834594515,-4.71058162846,-4.86486523931,-5.12378824784,-5.41918274536,-5.17100225566,-4.38389415526,-4.75919936352,-4.3658555562,-4.92717426668,-3.96432520925,17.6141608705
off_to_on,-2.09745684694,-3.80938853756,-4.77053674706,-4.28848000173,-4.62325587157,-3.94646716466,-4.61530823965,-3.82762303645,-4.25721928965,-3.87174953766,-3.67780291285,-3.96784572849,-3.7922211443,23.083075306
off_to_on,-0.585824096388,-2.98335662162,-4.04065298647,-3.75534662417,-4.26951972967,-2.81340166733,-3.80364057907,-2.48055173192,-4.02839333895,-2.84990059009,-2.85411466522,-2.8093687456,-3.44341539129,24.6837684903
off_to_on,0.763689236318,-2.14599718222,-3.21205834307,-3.13699041947,-3.83042675819,-1.85304768167,-3.11260666869,-1.28399091691,-3.69089643684,-1.84700744994,-1.9849266022,-1.63492481924,-3.01143670159,22.5384189827
off_to_on,1.81800418503,-1.39808547564,-2.35614947797,-2.45469824917,-3.32476773134,-1.1514099611,-2.6276719337,-0.352922201776,-3.23571758164,-0.999384111676,-1.15394290221,-0.617001212541,-2.58618714184,17.322209637
off_to_on,2.4846531789,-0.814051252674,-1.53473556066,-1.72520429663,-2.76273257327,-0.743423373882,-2.37978765823,0.250202769936,-2.65506532867,-0.40716051729,-0.428798240408,0.107035111895,-2.23953446386,10.1402626009
off_to_on,2.72211410373,-0.432705411404,-0.793922229948,-0.961783239325,-2.14712745775,-0.611288093796,-2.34222959768,0.521203140601,-1.94652214796,-0.120516319967,0.146048100566,0.454224382987,-2.01405840231,2.34727471159
off_to_on,2.54397175032,-0.253180654726,-0.16019900967,-0.176135556639,-1.47611693512,-0.689792423243,-2.4362251297,0.511703914979,-1.11690290862,-0.133200270838,0.553062059123,0.407497930564,-1.91657652735,-4.6613198192
off_to_on,2.0163752308,-0.236614172674,0.360827490913,0.61938534655,-0.746960506681,-0.877803592458,-2.54455864755,0.318917682476,-0.185101167754,-0.384250295883,0.801655088034,0.0177465846644,-1.91739579502,-9.65505262512
off_to_on,1.24907086453,-0.313328757308,0.782923591601,1.40969699994,0.03992034118,-1.05436413428,-2.53124565046,0.0691496724435,0.816656931597,-0.767706933226,0.924590066728,-0.603863225935,-1.95542409493,-11.7414172701
off_to_on,0.381074632282,-0.39452507808,1.13514246376,2.17551699814,0.877242938305,-1.09728595196,-2.2645216659,-0.102672135748,1.84350180737,-1.14901282057,0.971351386766,-1.30233263704,-1.94844253593,-10.4829019919
off_to_on,-0.437289754804,-0.386880528767,1.45567727957,2.89283994526,1.74816412545,-0.901848493707,-1.63991577487,-0.074621552991,2.84061413634,-1.38586211168,0.999437251862,-1.90183458895,-1.8070978117,-5.94424487543
off_to_on,-1.06380410082,-0.208041795844,1.78442987884,3.53353872437,2.62505857395,-0.397212923097,-0.600134554431,0.24241220407,3.74767896953,-1.35063237932,1.06478112185,-2.23216368672,-1.45062655129,1.3329188404
off_to_on,-1.38284307751,0.199144955801,2.15524689157,4.0670733143,3.47003414365,0.441542241917,0.851122000427,0.889441551702,4.50457999233,-0.951284522766,1.21259851415,-2.15501238551,-0.822046084226,10.420069463
off_to_on,-1.32065348358,0.855679035373,2.58884251593,4.46310069177,4.23719335919,1.58731375998,2.64350645028,1.85074434431,5.05760899316,-0.147788883707,1.4698770142,-1.58643459932,0.0994215855044,20.139590203
off_to_on,-0.85551837253,1.74032407437,3.08737449331,4.6946231478,4.87640289649,2.96161451831,4.64355468745,3.05310918754,5.36536405907,1.03829266036,1.84049477615,-0.512328654785,1.29058535877,29.2276187725
off_to_on,-0.0215108315914,2.78936667799,3.63146901297,4.74121390906,5.33812234454,4.44195539699,6.66720750839,4.37315392474,5.4035280933,2.52254291942,2.30359870579,1.0053268407,2.68246777562,36.4972638307
off_to_on,1.09468230314,3.90241029788,4.18021677156,4.59183331485,5.57869664606,5.87513514241,8.49992610323,5.65184094565,5.16785575608,4.16511622715,2.8154452235,2.83253592657,4.16493198151,40.9794173069
off_to_on,2.36354109193,4.9535918794,4.67431420966,4.24679950667,5.56545110753,7.0948791038,9.92197418314,6.7143595134,4.67493305416,5.78606646851,3.31445959601,4.77733130562,5.59737900315,42.0236988842
off_to_on,3.62795966084,5.80686992932,5.04213898528,3.71859627547,5.28094973748,7.94172755389,10.7357175404,7.39283041004,3.9605758159,7.18672024743,3.72886093955,6.61214930763,6.82430644695,39.3496890478
off_to_on,4.72214322181,6.3334611858,5.20817101154,3.03136852191,4.72588114714,8.28278453625,10.7914740801,7.54890421037,3.07605748531,8.17441015327,3.98587966375,8.1017489124,7.69383339606,33.0471586852
off_to_on,5.49187718119,6.42917664361,5.10284512915,2.21914637868,3.92020510513,8.02893355924,10.0085766345,7.09332022837,2.08265581229,8.58740294347,4.02140059367,9.03311867016,8.07685216508,23.5320180492
off_to_on,5.81370556389,6.02937255679,4.67269000388,1.32302275553,2.90240310432,7.14740813985,8.38887167108,5.99986780935,1.04523833537,8.31679114756,3.78881978306,9.24350800147,7.88432765194,11.4708787207
off_to_on,5.61067180573,5.11949669887,3.88950244511,0.387657530759,1.72689983599,5.66814049249,6.02079765203,4.31189513178,0.0257342330545,7.32247418885,3.26600866158,8.64291893187,7.08045120607,-2.30948454849
off_to_on,4.86267945111,3.73974378761,2.75734607527,-0.542427841029,0.459930905291,3.68303776886,3.07334899908,2.14045067525,-0.922653650336,5.64109045671,2.45951943654,7.22807650791,5.68984689172,-16.9112838833
off_to_on,3.61017550161,1.98307005329,1.31635095041,-1.42628239772,-0.82569943073,1.3381665899,-0.219513883555,-0.345803301785,-1.7597590069,3.3847786658,1.40550817719,5.08597245865,3.79776181419,-31.4398220148
off_to_on,1.9506670414,-0.013338426135,-0.357388293302,-2.22925605151,-2.0564166791,-1.18033522015,-3.58226187852,-2.93773362099,-2.46076851599,0.730811984125,0.167252588007,2.38640619236,1.5430542414,-45.0540597988
off_to_on,0.0284535732347,-2.0822049616,-2.15609519193,-2.92471891035,-3.16363523204,-3.66505540968,-6.72628812561,-5.40788529431,-3.01632303532,-2.09669085146,-1.17044999695,-0.635644606873,-0.895291166175,-56.9915706268
off_to_on,-1.98121408918,-4.04423725802,-3.94857459062,-3.49462435711,-4.08891046893,-5.90868477906,-9.38015319602,-7.5349730558,-3.43050604645,-4.85076853,-2.50935214836,-3.7056895977,-3.31656242661,-66.5721673092
off_to_on,-3.89165513813,-5.72794105458,-5.59177301476,-3.92895388883,-4.78800562472,-7.7255337796,-11.3180371524,-9.12777789571,-3.71712778434,-7.28840724133,-3.7473595583,-6.54026836034,-5.51944104421,-73.189534311
off_to_on,-5.52561580382,-6.98872841342,-6.94452517223,-4.22425483579,-5.23353208274,-8.97072110768,-12.3830842202,-10.0456084998,-3.89495631044,-9.19685137966,-4.78856940347,-8.87859605297,-7.32329701365,-76.3029225273
off_to_on,-6.73495431581,-7.72494316886,-7.88205599622,-4.38161777496,-5.41598709327,-9.55483417638,-12.5029658819,-10.2129383848,-3.98269087835,-10.4162494998,-5.5526142897,-10.5114129854,-8.58708172032,-75.4407962022
off_to_on,-7.41679195632,-7.88880007029,-8.30964014493,-4.40451734387,-5.34318611166,-9.45239026275,-11.6959499953,-9.62657147631,-3.99449723414,-10.855937944,-5.98228500631,-11.3035169554,-9.22354429504,-70.2252392804
off_to_on,-7.52420634361,-7.49086956026,-8.17383287038,-4.29694619561,-5.03824832103,-8.70315575789,-10.0669219377,-8.35462305379,-3.9368256416,-10.502491969,-6.0486260289,-11.2072858981,-9.20709038666,-60.4204677578
off_to_on,-7.07021928818,-6.59755620193,-7.469884991,-4.06220617625,-4.53642699774,-7.40622274901,-7.79401069059,-6.52760764784,-3.80702528543,-9.41873015933,-5.75300679256,-10.2656660681,-8.57440984571,-46.0019669673
off_to_on,-6.12466212222,-5.32191051167,-6.24432564784,-3.70259399355,-3.88116954365,-5.70759647079,-5.10757662537,-4.32287218612,-3.59398415585,-7.73400249966,-5.12603003954,-8.60445200497,-7.4179159182,-27.2358961425
off_to_on,-4.80438271694,-3.80896569909,-4.59220356087,-3.22005097827,-3.11983918201,-3.78281121893,-2.26418302364,-1.94438312162,-3.28070388555,-5.62717579876,-4.2235022266,-6.41504045565,-5.87294352836,-4.75287519075
off_to_on,-3.2580800891,-2.21749134983,-2.64906663043,-2.61766494158,-2.29953099615,-1.81667369799,0.481302212629,0.399622601282,-2.84841183532,-3.30461230197,-3.12001701787,-3.93002391475,-4.1004300784,20.4026784982
off_to_on,-1.64771128149,-0.700513277777,-0.578364704951,-1.90174597833,-1.46337353561,0.0174393041507,2.90220130643,2.51843733585,-2.28156375134,-0.976006830961,-1.90095410476,-1.39484788094,-2.26734822952,46.7660249326
off_to_on,-0.128828020114,0.612898172581,1.44448984432,-1.08407460467,-0.647631650042,1.57626790344,4.82211994058,4.25761087819,-1.57293675164,1.16886397612,-0.653844871126,0.960818462663,-0.527406296966,72.502586622
off_to_on,1.1676847112,1.63224145228,3.24974178411,-0.18386070157,0.120173190091,2.76114416779,6.1302729888,5.51255526299,-0.727977441164,2.97963703732,0.539910421283,2.9484047063,0.995552018666,95.5221527236
off_to_on,2.15019415914,2.31474533282,4.69068151122,0.771033488271,0.822020945535,3.52658981419,6.78857440124,6.2356833043,0.232340608809,4.35883269434,1.61207222523,4.4393840035,2.21941730306,113.653676987
off_to_on,2.77544112057,2.66794455453,5.65885557057,1.74396398642,1.44903936087,3.88210448376,6.83006649721,6.43658674739,1.27069441124,5.26788204647,2.51262180038,5.37568117322,3.10958392827,124.866834057
off_to_on,3.05112056383,2.74540433329,6.09534288716,2.6906756274,2.00015500831,3.88705821296,6.34931789698,6.17563558952,2.33488409867,5.72530928088,3.21239810441,5.77055831296,3.67808310354,127.516649761
off_to_on,3.03169194455,2.6362333169,5.99674195763,3.56178705403,2.47995641448,3.63945566358,5.48635227177,5.55217002162,3.3615339095,5.79770502439,3.7031639489,5.70026636559,3.97643626294,120.580267882
off_to_on,2.80806358821,2.449846903,5.415086203,4.30640106535,2.89604620626,3.26009626594,4.4063708377,4.68906291543,4.28163371308,5.58505127062,3.99526602257,5.28795527304,4.08341932456,103.851705229
off_to_on,2.49258468779,2.2980744228,4.45158458582,4.87646669341,3.25620309671,2.87421964489,3.27792280114,3.71578363944,5.02726329717,5.20264917107,4.11333434255,4.68231087477,4.08959236177,78.0621841239
off_to_on,2.20138161451,2.27706101895,3.24479506603,5.23138255742,3.56569018907,2.59302888412,2.25222503746,2.75215876778,5.53866218564,4.76227185577,4.09068412089,4.03400855104,4.08085639103,44.9005019799
off_to_on,2.03641480621,2.45145026056,1.95449614249,5.34226384792,3.82503244218,2.49748705601,1.44604564215,1.89480650564,5.77074446309,4.35517403025,3.96321299616,3.47326659939,4.12339701698,6.91929254361
off_to_on,2.0696646468,2.8430408864,0.743047182403,5.19530956814,4.02854364086,2.62648410299,0.929998014688,1.20776092406,5.69821990258,4.03924621244,3.7636161076,3.09153039769,4.25215288871,-32.6724030333
off_to_on,2.33157511454,3.42552773419,-0.243644229661,4.79380225817,4.16381389518,2.97090846371,0.723328393745,0.718170969641,5.3186605538,3.83195913109,3.51666976437,2.92966566336,4.46443738857,-70.3140410171
off_to_on,2.80532832614,4.12613823614,-0.893343738034,4.15843710002,4.21227644179,3.47440102106,0.795426330789,0.417248627868,4.65312021097,3.70989677644,3.23617259966,2.97408276527,4.71961500459,-102.464964896
off_to_on,3.42776282373,4.83406551523,-1.14086762098,3.32588841049,4.1508632975,4.04071295494,1.07345624655,0.265947917721,3.74423446499,3.61474392502,2.9239025496,3.16109017731,4.94488834704,-125.999774641
off_to_on,4.09688138477,5.41469557117,-0.975997189618,2.34574932188,3.95464124299,4.54674171462,1.4548016159,0.204272014202,2.65205591337,3.46470338377,2.57067783159,3.38863953669,5.04640189651,-138.578810908
off_to_on,4.68503197394,5.72784707435,-0.444923429629,1.27619243159,3.60020280605,4.85958765992,1.82251214893,0.1627013793,1.44816668853,3.16958870149,2.15933348125,3.53363126089,4.92412834095,-138.944929269
off_to_on,5.05609929943,5.64768957786,0.355043157316,0.178864926171,3.06948293118,4.85545071781,2.06169803072,0.074055331116,0.20881912274,2.64736407752,1.66917529643,3.47222938792,4.48847147401,-127.104552847
off_to_on,5.08451041693,5.08175186034,1.2869770091,-0.886372722967,2.3535929281,4.43793824393,2.07483749716,-0.11584538051,-0.992042681369,1.83974232269,1.08127992824,3.1002782204,3.67626640969,-104.363989278
off_to_on,4.67360465774,3.98651025428,2.19079876354,-1.86624368656,1.4562203381,3.55341399648,1.79423307992,-0.440077549162,-2.08904440982,0.724618046399,0.383896033345,2.35096082547,2.46391610416,-73.2096685443
off_to_on,3.77097827222,2.37744782237,2.90283546827,-2.71784026553,0.396145455514,2.20137661914,1.1903159168,-0.906002945989,-3.03022062904,-0.67642359826,-0.422819988328,1.20727400017,0.875764039819,-37.0410495881
off_to_on,2.37877957408,0.33214810828,3.27623117025,-3.41099920234,-0.791522592139,0.438469061852,0.275083533809,-1.49453869235,-3.7799483511,-2.2965917722,-1.32342686942,-0.292352773395,-1.01358249386,0.21524152821
off_to_on,0.557553754779,-2.01415394852,3.1998271991,-3.92906926689,-2.05568524899,-1.62448969415,-0.899418624965,-2.16315436137,-4.31977251204,-4.02861790148,-2.28571405904,-2.05600590755,-3.08347794816,34.5647103932
off_to_on,-1.57696240593,-4.48020588611,2.61327660607,-4.26809826309,-3.33131870827,-3.83219252442,-2.24707921092,-2.85194730679,-4.64721746359,-5.73514018728,-3.26141798228,-3.94748213724,-5.17765879918,62.4211226981
off_to_on,-3.86381975152,-6.85630495332,1.51656543988,-4.43468214481,-4.54323495203,-6.00015983713,-3.657202602,-3.49177799491,-4.77294827019,-7.26341753643,-4.18918035351,-5.80144360462,-7.11969577966,81.0388343597
off_to_on,-6.11249462133,-8.92580854158,-0.0272608221399,-4.44289418338,-5.6113206659,-7.93389568792,-5.00621427211,-4.01324326019,-4.71685021204,-8.4624962708,-4.99951411419,-7.44248311802,-8.7316566962,88.8447327387
off_to_on,-8.12237411973,-10.4881056056,-1.89659616801,-4.31082208029,-6.45685131206,-9.44962685306,-6.17018394386,-4.35524479016,-4.50370683917,-9.20066173845,-5.62128989562,-8.70557979048,-9.85373460992,85.624994106
off_to_on,-9.70381146287,-11.3803813897,-3.92260156278,-4.05727035201,-7.00932378764,-10.3941805275,-7.03680878645,-4.47206310135,-4.15916300369,-9.38100450373,-5.98905614653,-9.45530634549,-10.3624600245,72.5400235929
off_to_on,-10.6982944127,-11.4956493229,-5.90617781208,-3.69913103393,-7.21314810915,-10.6616739782,-7.51569865134,-4.33813990177,-3.70656236784,-8.95320813395,-6.05038301934,-9.60138568173,-10.185282215,51.9631509978
off_to_on,-10.9953955091,-10.794971418,-7.63874666045,-3.24979699941,-7.03350299266,-10.2050936943,-7.54611268217,-3.9501521298,-3.16506708262,-7.92017682893,-5.77238889008,-9.10874186267,-9.30974935144,27.1619664606
off_to_on,-10.5445834246,-9.3124826141,-8.92455836092,-2.71880922825,-6.46070154005,-9.04147777812,-7.10165857976,-3.32636771574,-2.54923106063,-6.33879103027,-5.14667368058,-8.00096440486,-7.78617941206,1.86242725475
off_to_on,-9.3606136183,-7.15268595786,-9.60206028017,-2.11272039344,-5.51253207833,-7.25019977579,-6.19182885272,-2.50364490404,-1.86994538928,-4.3148144696,-4.1920386387,-6.35699139022,-5.72350672573,-20.2479007691
off_to_on,-7.52199863978,-4.48038702136,-9.56195930354,-1.43695408636,-4.23422641155,-4.96468316766,-4.86056643699,-1.53272165753,-1.13644442425,-1.99267897541,-2.95460126817,-4.30169195029,-3.27880985354,-36.0122041427
off_to_on,-5.16288236934,-1.504476238,-8.75997853501,-0.698272717131,-2.69594498806,-2.35864720505,-3.18229241325,-0.472603617017,-0.358889064287,0.458545343396,-1.50519154203,-1.99177387598,-0.641771456188,-43.2269031685
off_to_on,-2.45940360902,1.54255411426,-7.2229021119,0.0926372172248,-0.987929974949,0.371399872525,-1.2559751799,0.615116257546,0.449044883336,2.86129582421,0.0657894385748,0.401038007802,1.98410206356,-40.9374043018
off_to_on,0.387761069155,4.42703388431,-5.04725080955,0.918980453424,0.786267331701,3.02531938675,0.802125643231,1.6712782631,1.26813832388,5.04591914833,1.65558761602,2.70737274761,4.40133211922,-29.5667096162
off_to_on,3.17260842135,6.93600430574,-2.39074786941,1.7565317772,2.51786002626,5.41794016803,2.86643058498,2.64299584123,2.07262574303,6.86554585878,3.15769769539,4.77602259916,6.43715251115,-10.8585671126
off_to_on,5.70259685811,8.89624099855,0.542475439844,2.57351278986,4.10142193832,7.39505131431,4.81019214567,3.48606115221,2.83050706354,8.20794259698,4.47099603196,6.48642707953,7.958992169,12.3583447894
off_to_on,7.8149957352,10.1884907329,3.52131185331,3.3318185761,5.44316096646,8.84516135728,6.51339019284,4.16594078357,3.50524160077,9.00329683783,5.50848502156,7.75662987188,8.88516287507,36.5545431492
off_to_on,9.38917825444,10.7556208834,6.30964403123,3.98953711239,6.46805203306,9.70599711355,7.87002791651,4.65762667803,4.05865702685,9.22743021276,6.20476198161,8.5461927217,9.18977545372,57.9813130487
off_to_on,10.3538161075,10.6041233783,8.68850333514,4.50449998549,7.12513559249,9.96541693781,8.79455573552,4.94477121903,4.45469745308,8.90049282489,6.52145503531,8.85425691971,8.90161652702,73.185401768
off_to_on,10.688603543,9.79918662134,10.4761089839,4.83843428961,7.39049223248,9.65711785887,9.22718889719,5.01859819888,4.66348405038,8.0816895784,6.4500809482,8.71356862556,8.09742710772,79.487683229
off_to_on,10.4208108516,8.45425499261,11.5437603757,4.96117786548,7.26766557471,8.85213046167,9.1378940087,4.87703746817,4.66509251955,6.86097160251,6.01205189381,8.18174497162,6.8906465382,75.3611631668
off_to_on,9.61755497945,6.71655456926,11.8260585088,4.85438968208,6.78559238002,7.64754120084,8.52881390251,4.52439388698,4.45247491804,5.34885359957,5.25585967596,7.33129806401,5.41714816654,60.6569971467
off_to_on,8.3751064495,4.75041665359,11.3245903145,4.51423900369,5.99437480279,6.15410686389,7.4348993286,3.97166064996,4.03306527615,3.66557848386,4.25176358541,6.23993370152,3.81974802854,36.6474964252
off_to_on,6.80678020621,2.72034752802,10.1049429449,3.9526837194,4.95946047316,4.48441045991,5.92254197336,3.23736408833,3.42879189058,1.93075574572,3.08456882086,4.98241782079,2.23329495945,5.87965262775
off_to_on,5.03096692948,0.7756747236,8.28763780638,3.19713149063,3.75495260419,2.74296664785,4.08607448276,2.34862652266,2.6744460589,0.254382101114,1.84527744281,3.62490602124,0.771960259643,-28.1418191822
off_to_on,3.16066548287,-0.961722589719,6.03420448472,2.28849058093,2.45683543662,1.01926412234,2.04212914724,1.34199664242,1.81459268093,-1.27014126577,0.622501786405,2.22213340635,-0.480025452767,-61.4000099719
off_to_on,1.29551884772,-2.40556476424,3.53008418708,1.27782948496,1.13686328855,-0.615797687283,-0.0779746678429,0.263553178052,0.899416772722,-2.57069900681,-0.50546035523,0.817348207231,-1.4734334539,-89.8807818125
off_to_on,-0.483102197607,-3.50872495784,0.966313545861,0.222045215859,-0.142269033671,-2.11017627163,-2.1374288853,-0.832149135577,-0.0199500253853,-3.59885712639,-1.47707898563,-0.555574144392,-2.1946872349,-110.088826245
off_to_on,-2.11390834548,-4.26226758454,-1.47802885484,-0.820936355458,-1.33006139316,-3.42825454279,-4.00411035185,-1.88455768262,-0.896009879281,-4.33019148165,-2.2519414069,-1.86871202182,-2.66242042,-119.496526301
off_to_on,-3.55477442636,-4.69055595586,-3.65082294971,-1.7968554579,-2.38948557877,-4.54667377604,-5.56091974447,-2.83104876166,-1.68879514333,-4.76292111336,-2.81261076186,-3.09638423306,-2.92070636717,-116.866604156
off_to_on,-4.77980989976,-4.84339718856,-5.43794818555,-2.65916702946,-3.29650054796,-5.44958055143,-6.71533947385,-3.61204800153,-2.36859896565,-4.91527179692,-3.16389062062,-4.21209896879,-3.03003939978,-102.406721798
off_to_on,-5.77531908123,-4.78642400852,-6.76948123239,-3.37200672837,-4.03813453784,-6.12442086715,-7.40722464907,-4.17682013976,-2.91723770006,-4.82197079386,-3.32968370299,-5.18689901238,-3.05730663518,-77.7369152447
off_to_on,-6.53557837547,-4.59097946045,-7.62076139516,-3.91180114441,-4.60963758405,-6.55920646557,-7.61392082737,-4.48919451796,-3.32776440066,-4.53019710794,-3.34789796308,-5.98949284711,-3.065987125,-45.6758519103
off_to_on,-7.05923153481,-4.32468159645,-8.00862946349,-4.26744473129,-5.01130102892,-6.74181883091,-7.35200807812,-4.5323853148,-3.60278279442,-4.09521529229,-3.26406288897,-6.58816156564,-3.1076683701,-9.87596623399
off_to_on,-7.34685985207,-4.04362988623,-7.9836716567,-4.43916498538,-5.2455407583,-6.66146866027,-6.67529081563,-4.31208793756,-3.7517146515,-3.57583759859,-3.12445003821,-6.95404983177,-3.21571308363,25.6427182364
off_to_on,-7.39997274831,-3.7869154775,-7.61969992066,-4.43637033458,-5.3147505196,-6.31196930973,-5.66905594473,-3.85719294814,-3.78751964899,-3.02981468508,-2.96953073999,-7.06515399489,-3.40158586103,56.9974775047
off_to_on,-7.22134385333,-3.57376161036,-7.00193320321,-4.27489717511,-5.22026631829,-5.69608930259,-4.44106123057,-3.21774204812,-3.72343383735,-2.50926270663,-2.82854736214,-6.91016376319,-3.65400800318,80.9197094373
off_to_on,-6.81634487949,-3.40329505501,-6.21539300818,-3.97412674677,-4.96256907038,-4.82998799331,-3.11013443443,-2.46012159693,-3.57027107254,-2.0562929013,-2.71583021951,-6.4913225002,-3.94079313746,95.1418148266
off_to_on,-6.19474965812,-3.25667304814,-5.33489460953,-3.55442287674,-4.54262392376,-3.74665506043,-1.79360234324,-1.65989600472,-3.33472530349,-1.69910245177,-2.62927757018,-5.82564270402,-4.21296081225,98.6454409883
off_to_on,-5.37242058673,-3.10108890782,-4.41772786718,-3.0352532198,-3.96404651375,-2.49738527381,-0.594974521234,-0.893065095559,-3.01893739119,-1.44888446124,-2.55115638153,-4.94411616864,-4.41055074221,91.7419163532
off_to_on,-4.37235401923,-2.89506457466,-3.49972065362,-2.43421507652,-3.23563120275,-1.15061024747,0.406658569104,-0.226825106892,-2.62137548828,-1.29798631225,-2.45110655917,-3.88893780389,-4.4694729294,75.9787969632
off_to_on,-3.22473185674,-2.59440659605,-2.59491664997,-1.76701569297,-2.37369829116,0.21216536814,1.16420598746,0.288929217359,-2.13885634791,-1.21975647296,-2.29097230599,-2.70914898378,-4.32872102869,53.8898784227
off_to_on,-1.96586681229,-2.15823862896,-1.69863521061,-1.04828385645,-1.40372873669,1.50308138527,1.66615926092,0.62813760349,-1.56934068655,-1.17044531584,-2.030870163,-1.45542902261,-3.93733043782,28.626579173
off_to_on,-0.636189330742,-1.55460608208,-0.793269005962,-0.292942220235,-0.360854843885,2.63656778284,1.9356769146,0.792113059733,-0.914999075469,-1.0933555819,-1.63575757935,-0.17496020717,-3.26055559723,3.52350888138
off_to_on,0.722347698771,-0.765252513262,0.144138781778,0.482228637218,0.711051157814,3.53880024311,2.0252320466,0.809415665763,-0.184987126389,-0.925181028059,-1.08170411138,1.09267831952,-2.28484953349,-18.3416296187
off_to_on,2.06892119114,0.210728911074,1.13367959941,1.25723758022,1.76172804102,4.15661291493,2.00746218737,0.731869893968,0.602600759412,-0.604154944339,-0.361095580684,2.31778242516,-1.02133381475,-34.5347333222
off_to_on,3.36598406315,1.35457720866,2.18490682803,2.00810973534,2.7381193684,4.46448525839,1.96337614124,0.627071323264,1.4200152854,-0.0792974248527,0.513884236825,3.48046639291,0.492462437875,-43.5486541083
off_to_on,4.58042778417,2.62701985849,3.29077946654,2.70696229524,3.58880250303,4.46840757812,1.9694529352,0.568248700133,2.23060847144,0.680244250674,1.50996287146,4.56820846532,2.19274213127,-44.9490171895
off_to_on,5.68348099875,3.96899576834,4.42406582335,3.32305296663,4.26869065843,4.20581695023,2.08535620954,0.622773672577,2.99107555608,1.67696774987,2.57390917701,5.57139775468,3.99154272692,-39.3682800627
off_to_on,6.64934005573,5.30399549527,5.53672726341,3.82475494215,4.74337301623,3.74133114739,2.34395043649,0.840876476929,3.65496823373,2.87916262255,3.63604972301,6.47771311281,5.78082095716,-28.3551345656
off_to_on,7.45283235709,6.54202034543,6.56242646017,4.18224589331,4.99248014521,3.15861750193,2.74504015287,1.24618474289,4.17706511071,4.21857555265,4.61587597107,7.26647948216,7.43845790791,-14.1060197027
off_to_on,8.0666890643,7.58509141791,7.42192188151,4.37056236122,5.01157813613,2.54932692181,3.25378824926,1.82953547578,4.51804373432,5.59243501896,5.42921610985,7.904281787,8.83601409408,0.879182840897
off_to_on,8.45919280707,8.33413788395,8.03076395722,4.37258729706,4.81228966351,2.00050994711,3.80416113705,2.54712991323,4.64883682362,6.87021004597,5.99626955687,8.34303320799,9.84792339222,14.1662706081
off_to_on,8.59302306797,8.69695953216,8.30843601817,4.18152149094,4.42058597674,1.58223380309,4.30707575066,3.32355119841,4.55408306198,7.90489470862,6.24969882576,8.5213904742,10.361646746,23.728169175
off_to_on,8.42602147858,8.59680087195,8.18791229846,3.80244299839,3.87345468612,1.33718346931,4.66227559355,4.05951557896,4.23419629788,8.54798094146,6.14195280486,8.36991682124,10.2881272462,28.2121433936
off_to_on,7.91434187513,7.98091207136,7.62455137914,3.2526752187,3.21438518486,1.27383577765,4.77242932421,4.64356607244,3.70575977407,8.66669203603,5.651058992,7.81977978673,9.57172291587,27.0984774655
off_to_on,7.01806376961,6.82833282514,6.60330848942,2.56084687342,2.4882904565,1.36436076871,4.55760139897,4.96633540909,3.00017732527,8.16158601289,4.78426285767,6.81412658233,8.19867388607,20.7330030573
off_to_on,5.70888593319,5.15604975256,5.14342339592,1.76471133347,1.73657294706,1.54778225934,3.96814164868,4.93558701979,2.16074837495,6.98237992662,3.57909566383,5.32070615263,6.2031192336,10.2344169645
off_to_on,3.97905002641,3.02267525267,3.30000063285,0.907970526616,0.993027843701,1.73820238067,2.99419911183,4.49005334411,1.23854375821,5.13984889494,2.10169722129,3.3439017886,3.66974309534,-2.70492481173
off_to_on,1.85025124664,0.528897510437,1.16221595241,0.036492734864,0.281159358227,1.83716345664,1.67046937537,3.61016446087,0.287614472343,2.71194078325,0.442482940892,0.934179268249,0.732316230373,-16.0916272414
off_to_on,-0.618952110908,-2.18583354034,-1.15177704109,-0.805598379973,-0.386720201002,1.74858978621,0.0753845104952,2.32409603391,-0.639856666937,-0.15719553218,-1.29050047774,-1.80691185229,-2.43229151474,-27.9350320923
off_to_on,-3.3287580811,-4.95059841785,-3.50283803903,-1.57946811733,-1.00850385671,1.3943154763,-1.67532696094,0.708126285206,-1.49786028663,-3.26579687466,-2.97996371134,-4.727618264,-5.61463851325,-36.5371439652
off_to_on,-6.13810152575,-7.57409045172,-5.74104312016,-2.2543082218,-1.58959723324,0.728031473544,-3.44004082412,-1.11899272076,-2.24981734006,-6.37031309169,-4.50877149131,-7.63349614257,-8.58730742903,-40.7275257469
off_to_on,-8.86989982518,-9.8588580345,-7.71720092311,-2.80894779308,-2.13896582785,-0.254390959367,-5.0662640337,-3.00716706995,-2.87044709587,-9.20717920465,-5.7695106577,-10.3014534431,-11.1226018587,-40.0115920945
off_to_on,-11.3218471412,-11.6176467571,-9.29465929797,-3.23218574476,-2.66457202158,-1.50982929026,-6.4074551513,-4.7903794209,-3.34611499146,-11.5184171592,-6.67337076083,-12.4992993687,-13.0119246503,-34.6145248681
off_to_on,-13.282298972,-12.6904220464,-10.360354554,-3.52188273653,-3.1689621166,-2.94906525665,-7.33954484302,-6.30458615084,-3.6737511664,-13.0783484571,-7.15753604096,-14.0089272128,-14.0850784248,-25.4188629091
off_to_on,-14.5500221915,-12.9604189894,-10.8341280673,-3.68303336183,-3.64576246089,-4.44432834145,-7.77507686981,-7.4059216057,-3.85863210685,-13.7184026602,-7.19041951115,-14.6505959805,-14.2275546078,-13.8093056619
off_to_on,-14.9559020854,-12.3675015595,-10.67549592,-3.72518725429,-4.07772805085,-5.84252648086,-7.67317979149,-7.98695470252,-3.91146928202,-13.3470725568,-6.77426364329,-14.3054113748,-13.3939094886,-1.4511742609
off_to_on,-14.3842015248,-10.9172441158,-9.88728898636,-3.65967783171,-4.43677100851,-6.98266902277,-7.04410848527,-7.98895702176,-3.84532815606,-11.962503938,-5.9448698865,-12.9331063275,-11.6155811201,9.96248906185
off_to_on,-12.7907442988,-8.68447593199,-8.51586024784,-3.49713550595,-4.68610917776,-7.71537137686,-5.9477928264,-7.40862812419,-3.67289787748,-9.65597684672,-4.76847907447,-10.5826059392,-9.00196821063,18.9571110096
off_to_on,-10.2154987394,-5.81053097634,-6.64785651813,-3.2457051954,-4.78435701696,-7.9219824728,-4.48660511013,-6.29842098745,-3.404548298,-6.60555072561,-3.33608286859,-7.39359959771,-5.73423194426,24.4805875745
off_to_on,-6.78748152822,-2.49407218054,-4.40384574678,-2.91026427362,-4.69107764576,-7.53084860792,-2.79330368109,-4.76042627919,-3.04746099747,-3.0602873302,-1.75567903468,-3.5883522314,-2.052029096,26.037285136
off_to_on,-2.72065170465,1.02395560471,-1.92935283241,-2.49276542767,-4.37307087706,-6.52853101464,-1.01572686046,-2.93459941232,-2.60592889393,0.683408822276,-0.143169102131,0.545855155406,1.7658432593,23.7356437207
off_to_on,1.6995555694,4.48002613804,0.615935561322,-1.99363562744,-3.81052428172,-4.96439482965,0.699784890071,-0.982837365072,-2.08271520354,4.31082599257,1.38728148556,4.682105273,5.42520619298,18.2462988581
off_to_on,6.13830936514,7.61060681244,3.06989972928,-1.41397750372,-3.00212666901,-2.94780839767,2.22412398893,0.929065295689,-1.48117891185,7.52016948397,2.73255477864,8.48448404297,8.64242558898,10.6808100425
off_to_on,10.2402520698,10.1754428933,5.2796949756,-0.758171972323,-1.96834296214,-0.638127170081,3.45834161422,2.64930119899,-0.807739105309,10.0524848906,3.80873185964,11.6406954137,11.1699510122,2.41216865841
off_to_on,13.6624090048,11.9792280754,7.11251051292,-0.0363946355221,-0.752265409391,1.77143773898,4.34220961992,4.05555118679,-0.0741853788818,11.7169113869,4.55736520414,13.893031622,12.8188664261,-5.13429467851
off_to_on,16.1077496933,12.8894370711,8.46455398263,0.733451980765,0.582239251689,4.07417357964,4.85748038673,5.06623013603,0.700643862488,12.408430803,4.94933220241,15.0641844308,13.4761005228,-10.6881140295
off_to_on,17.3557481292,12.8484475481,9.26760562694,1.52481964322,1.95501436637,6.07199685095,5.02564206043,5.64620743256,1.49020131826,12.1161634355,4.985960777,15.0749245386,13.1144650454,-13.3094325828
off_to_on,17.2864528991,11.8786488654,9.49270459815,2.30289932303,3.27630478153,7.59667704994,4.90071835373,5.80649714032,2.26081967449,10.9213875655,4.69737789342,13.9515921509,11.794428427,-12.5099011718
off_to_on,15.8951664174,10.0799616021,9.15077708741,3.0264101972,4.45492658216,8.52757861788,4.55832540583,5.598234964,2.97358546772,8.98568461389,4.13829605057,11.8225196338,9.65740695626,-8.3046482941
off_to_on,13.2957894094,7.6199924195,8.29026971839,3.6506801189,5.40697452981,8.80378950692,4.08268132041,5.10202315816,3.5873297751,6.53078024139,3.38169587392,8.903799907,6.91126574978,-1.19209445908
off_to_on,9.71210729655,4.71783074064,6.99209009516,4.13170038215,6.06403637836,8.42922286437,3.55350085238,4.4143241992,4.0623853921,3.81261508303,2.51106069457,5.47605861098,3.80956042441,7.93094051543
off_to_on,5.45763830938,1.62316586854,5.36235984326,4.43067243429,6.37992857042,7.47017563236,3.03466721813,3.63293653161,4.36462806351,1.09281563724,1.61195154461,1.85492684447,0.626718421907,17.9025110798
off_to_on,0.905969042142,-1.4071128379,3.52363814418,4.5184639867,6.33514363748,6.04578472866,2.56626348583,2.84364370379,4.46925784289,-1.38903225777,0.763764608167,-1.64138595456,-2.36822248193,27.4550529943
off_to_on,-3.54538708583,-4.13242981436,1.60536497507,4.37937311058,5.93848279787,4.31271072004,2.16101397322,2.10988666484,4.3637956006,-3.43910268755,0.0324819005973,-4.72373873426,-4.93658051646,35.3769265013
off_to_on,-7.5137969359,-6.34977754618,-0.265701750846,4.01366599982,5.225699708,2.44608318169,1.80550960292,1.46680587451,4.04986674721,-4.92643242606,-0.534887513558,-7.15941696179,-6.89115305365,40.6536012319
off_to_on,-10.6688249084,-7.91062962757,-1.97432091598,3.43849918724,4.25535540031,0.619169742636,1.46586871906,0.920310740978,3.54350525797,-5.79170692778,-0.913662850989,-8.79229019067,-8.11142304993,42.5712062046
off_to_on,-12.7640397091,-8.73194734856,-3.42423856649,2.68704064536,3.10242952332,-1.01567117939,1.09682127097,0.451060986866,2.87391230402,-6.04712723057,-1.10236703521,-9.55379418766,-8.55147433291,40.7725559946
off_to_on,-13.6598915289,-8.80039041757,-4.54380203314,1.80583815722,1.85050263255,-2.3424338797,0.652695670201,0.0225019576739,2.08081540708,-5.7678946831,-1.12110961472,-9.46391447531,-8.24007809936,35.2640613262
off_to_on,-13.3352396912,-8.16959537713,-5.28940157131,0.850714686807,0.583482678016,-3.29152509474,0.098507701465,-0.408507015008,1.21076470002,-5.07688032564,-1.00772786791,-8.62256287706,-7.27328569254,26.379699351
off_to_on,-11.8863895285,-6.95112573337,-5.64661337131,-0.118333613272,-0.622124150124,-3.84342206343,-0.58065980671,-0.88030668824,0.312844453012,-4.12483342442,-0.812171282724,-7.19286010212,-5.80066729202,14.7141797217
off_to_on,-9.51390323852,-5.30034056817,-5.62910533103,-1.04262858285,-1.70350417245,-4.02578800716,-1.37353770163,-1.4162214021,-0.56565019799,-3.0689317242,-0.589794844618,-5.37872570917,-4.00697966088,1.04069365799
off_to_on,-6.49881529812,-3.3989030499,-5.27553648476,-1.87003204381,-2.61571700548,-3.90477477284,-2.24086957657,-2.01723448675,-1.3830295979,-2.0525354146,-0.394332807248,-3.39972689213,-2.09145823062,-13.771215095
off_to_on,-3.17104692732,-1.43590955584,-4.64481977237,-2.55927954042,-3.3334008905,-3.57198845936,-3.11833271217,-2.6588087644,-2.10606364423,-1.18868279647,-0.271345123794,-1.4662924591,-0.247070115959,-28.8248902314
off_to_on,0.126359871923,0.41035503741,-3.81021700882,-3.08293000481,-3.84998271781,-3.12911633067,-3.92386430351,-3.29244196279,-2.7115692295,-0.54921582486,-0.252861245052,0.241844465085,1.35806940311,-43.2451453288
off_to_on,3.07317358104,1.98822973972,-2.85278983379,-3.42862504536,-4.17470919618,-2.67244591019,-4.56839627499,-3.85178954526,-3.18661916586,-0.160549070486,-0.353798220864,1.59170165395,2.59529412166,-56.2045630218
off_to_on,5.40413144512,3.18463817352,-1.85474069355,-3.59858032894,-4.3280957568,-2.27942500602,-4.96846236468,-4.2624509711,-3.52746539589,-0.00612541392114,-0.570518837683,2.50617027197,3.38474168566,-66.9319008262
off_to_on,6.93391696313,3.93229515766,-0.893146959342,-3.60746703781,-4.33657569412,-1.99903396821,-5.05882278363,-4.45391218019,-3.73745531462,-0.034674631195,-0.881645112468,2.96574474075,3.6988841816,-74.7116536133
off_to_on,7.57246047673,4.21183404411,-0.034525568879,-3.47905038162,-4.22719974656,-1.84712902288,-4.80320378928,-4.3717604951,-3.82435949607,-0.172635202384,-1.25098169653,3.00336287109,3.56034694369,-78.8861635107
off_to_on,7.32924251414,4.04909555709,0.66942643517,-3.24210548438,-4.02317916914,-1.80716009085,-4.20148217741,-3.98819828019,-3.79760136627,-0.338615037553,-1.63216276993,2.6936859336,3.0347563385,-78.8711678165
off_to_on,6.30657296117,3.50830798805,1.18467897071,-2.92620779399,-3.74089478825,-1.83587836003,-3.29212746483,-3.30909615967,-3.66587404206,-0.457611260078,-1.97444271947,2.13873644813,2.21984817439,-74.192355819
off_to_on,4.68307326262,2.68225042009,1.49618343181,-2.55798589049,-3.38873819355,-1.87294069065,-2.14938019202,-2.37631726965,-3.43554815513,-0.472891382865,-2.22892759531,1.45209695003,1.23237240956,-64.5449381149
off_to_on,2.68965592823,1.68069474688,1.60764976211,-2.15833216491,-2.96784873056,-1.85278870328,-0.875398803263,-1.26474075434,-3.11013008162,-0.353917616509,-2.35450504672,0.743837840068,0.194425041823,-49.8714501691
off_to_on,0.581055035957,0.618460562496,1.5398881968,-1.74090626032,-2.47450699887,-1.71690166193,0.411658456942,-0.0742132559887,-2.69084525592,-0.099390089798,-2.32277914263,0.108014956448,-0.779268963458,-30.4463372954
off_to_on,-1.39366612243,-0.395697028293,1.32791097618,-1.31206204213,-1.90368715389,-1.42452831512,1.59204306241,1.08255804101,-2.17822494279,0.264717971258,-2.12144664155,-0.385974025366,-1.59187486535,-6.95068366459
off_to_on,-3.01824817003,-1.26838183328,1.01706476192,-0.872111773018,-1.25309422819,-0.960286449312,2.5593530512,2.09450736204,-1.57439751638,0.691482662937,-1.75574656886,-0.697564613254,-2.17191794349,19.4820493728
off_to_on,-4.13106587261,-1.92836179857,0.658519583734,-0.417643076163,-0.526943999812,-0.337532934931,3.23391880508,2.86702991485,-0.88565461944,1.1224176717,-1.24785126372,-0.814820706954,-2.47730346745,47.2674322868
off_to_on,-4.63947528931,-2.33055749686,0.304473411342,0.0555461894244,0.261209549684,0.402928097645,3.57274180887,3.33493125182,-0.124799167725,1.49822359736,-0.634315403345,-0.750552147592,-2.49592932617,74.4321104294
off_to_on,-4.52548030231,-2.4572152614,0.00344215161199,0.549411717297,1.08713901008,1.19851579723,3.5745477075,3.47153493293,0.687203536657,1.76906362796,0.0380703526424,-0.535900476494,-2.24331228744,98.7420338923
off_to_on,-3.84259469796,-2.31654316748,-0.2040071512,1.06104411257,1.91640217364,1.97397851741,3.27918538442,3.29249503714,1.52065964104,1.90269422859,0.717490325073,-0.212759804776,-1.75792155783,117.892267448
off_to_on,-2.70480744481,-1.93928812768,-0.288756521497,1.58091101212,2.70661164462,2.65248340624,2.76139424732,2.85360912061,2.33789944017,1.88920102417,1.35273238792,0.1736169912,-1.09505833397,129.742901256
off_to_on,-1.26942620353,-1.37384535134,-0.235602999937,2.09226226771,3.41124517527,3.16695433923,2.11976093973,2.24280069037,3.09538781969,1.74169566512,1.89855214415,0.580707679657,-0.320136212205,132.575760175
off_to_on,0.283818345073,-0.680520771402,-0.0444977656907,2.57181676364,3.98447984028,3.46990333064,1.46238015062,1.56731078886,3.74702430222,1.49301832334,2.32014001526,0.972776321097,0.497877710762,125.339574085
off_to_on,1.77473609726,0.0744726778617,0.26954290181,2.99165117596,4.38636457434,3.54024521549,0.891221548491,0.937876224154,4.24827641808,1.18915102507,2.5961847933,1.32263604954,1.29227568722,107.84844958
off_to_on,3.04308483137,0.824791284165,0.677853583261,3.32202813677,4.58758054971,3.38605562825,0.487413747949,0.452164573127,4.56064916838,0.880574518128,2.72021345736,1.61132427999,2.00330522479,80.9007378273
off_to_on,3.96515447946,1.50912660319,1.1407539099,3.53476093298,4.57308728822,3.04285666532,0.299553063772,0.179904468715,4.65592105461,0.613114022325,2.70010913265,1.82627380702,2.58159163037,46.2928500841
off_to_on,4.46486758871,2.07549187592,1.61118794331,3.60663424088,4.34410720677,2.56769948528,0.336740108771,0.151961229431,4.51958499566,0.419870713706,2.55593861404,1.95879394282,2.99031133731,6.71455281298
off_to_on,4.51850079032,2.48445920618,2.03906350319,3.52239585588,3.91813949095,2.0299564514,0.567394608914,0.355081946141,4.153020216,0.315622122594,2.31642899425,2.00172636296,3.20626401768,-34.4726481838
off_to_on,4.15295419061,2.71125649082,2.3759154598,3.27690207741,3.32698029621,1.50024173756,0.924087651356,0.733240233585,3.57407697032,0.294634221494,2.01459386015,1.9480111238,3.22004967771,-73.5562501604
off_to_on,3.43827050705,2.74669056709,2.57947625987,2.8761276029,2.61301759221,1.03917344892,1.31377409049,1.19555947545,2.81595795868,0.332235276365,1.68310382166,1.79062185266,3.03555447994,-106.859865175
off_to_on,2.47574221096,2.59690590193,2.61773278061,2.33691878336,1.82432191465,0.687728318323,1.63202699146,1.62982060984,1.92449996826,0.389854898645,1.35001311166,1.52396347645,2.66890250353,-131.152441662
off_to_on,1.38337464456,2.2820264934,2.4720844908,1.68555057139,1.00923087096,0.460715504665,1.77928253112,1.9197085294,0.95416562244,0.422637688461,1.0353928838,1.14644414927,2.14696383572,-144.029197907
off_to_on,0.280657835726,1.83377268526,2.13929332526,0.955314604179,0.211198683396,0.344440886319,1.67678427669,1.96334767293,-0.0367808843509,0.388297071169,0.749291772227,0.663610390155,1.50544785059,-144.214311974
off_to_on,-0.725465860996,1.29220123444,1.63202563528,0.183493540565,-0.535359214574,0.299013159616,1.27991909783,1.69041653487,-0.99134131756,0.255654623902,0.491262958409,0.091034777473,0.786576109153,-131.742762042
off_to_on,-1.55184125889,0.701787313166,0.977921617131,-0.59185346846,-1.20764706496,0.265047868914,0.586966999233,1.0752588743,-1.85850098939,0.0113504116701,0.251488272167,-0.543889636886,0.0363355393123,-107.992312196
off_to_on,-2.14641281576,0.107145272886,0.217274541726,-1.33486658981,-1.79515385761,0.173856309539,-0.358098301277,0.14391701935,-2.59706307073,-0.336494556077,0.0133206072664,-1.20195307263,-0.698638145495,-75.5549058379
off_to_on,-2.49104236664,-0.451241453762,-0.60045475842,-2.01425767808,-2.29835226288,-0.040339130307,-1.46930495552,-1.02616486898,-3.1781969286,-0.758378402023,-0.243117435411,-1.83433919994,-1.37441366209,-37.9573362509
off_to_on,-2.59985746105,-0.940858752879,-1.420939722,-2.60483120019,-2.72568198494,-0.427962699353,-2.62851576443,-2.31399414492,-3.5864795842,-1.20736381656,-0.536775640731,-2.38704727424,-1.95312287745,0.738748791021
off_to_on,-2.51370097781,-1.34013289791,-2.18967003463,-3.08805628308,-3.08933416787,-1.013300749,-3.70016972226,-3.56958107529,-3.8194157223,-1.62629490992,-0.881526321441,-2.80709321469,-2.40600609001,36.4104984006
off_to_on,-2.29168740288,-1.6401393731,-2.85653670166,-3.45175185722,-3.40054472527,-1.78707347964,-4.54899314433,-4.63334015975,-3.88562286996,-1.95713782514,-1.28258804635,-3.04966172564,-2.71577319256,65.362904292
off_to_on,-2.00115081227,-1.84475676792,-3.37985572483,-3.68908904226,-3.66519144494,-2.70362729558,-5.05829059571,-5.35774381103,-3.80203600902,-2.15090288538,-1.73401616444,-3.08510525439,-2.87791560854,84.7711845366
off_to_on,-1.70737217452,-1.96913458066,-3.72943207095,-3.79721690599,-3.88045798631,-3.68338827659,-5.14630152032,-5.62823445367,-3.59059701866,-2.17645924611,-2.21762075273,-2.90458522361,-2.90067850474,93.0188824379
off_to_on,-1.46440033044,-2.03655105639,-3.8883788865,-3.77586329701,-4.03318017832,-4.62048947759,-4.7783317046,-5.38042224967,-3.27493466712,-2.02668375821,-2.70349724057,-2.52325594039,-2.80354538996,89.886365572
off_to_on,-1.30805433291,-2.07396603929,-3.85355444619,-3.62624466829,-4.1002460257,-5.3947537669,-3.97291253108,-4.61104021431,-2.87750671429,-1.72077953095,-3.1521590114,-1.98019721679,-2.61428295693,76.5631319374
off_to_on,-1.2518537556,-2.10679210146,-3.6346434027,-3.35054112019,-4.05111448921,-5.8865815427,-2.80103353309,-3.3809418665,-2.41757434503,-1.3021992613,-3.51806879404,-1.33476884535,-2.36481575607,55.4800738363
off_to_on,-1.28621753355,-2.15357935047,-3.25206902699,-2.95206858065,-3.8521928755,-5.99284763442,-1.37842795477,-1.80950051651,-1.91022761189,-0.83232202487,-3.75419944255,-0.659620101967,-2.08641242619,29.9816046804
off_to_on,-1.38085383757,-2.22140198969,-2.73405863986,-2.43613012872,-3.47251537926,-5.64171725774,0.148160874415,-0.0609565062711,-1.36650280958,-0.380747509673,-3.81713358857,-0.0311526603781,-1.80482946234,3.87909765141
off_to_on,-1.48988325268,-2.30272275415,-2.11327732095,-1.81137838706,-2.88993950634,-4.80437611968,1.61897328532,1.67560680381,-0.794456032561,-0.0136729241137,-3.67214833434,0.48128756117,-1.53614050003,-19.0565677537
off_to_on,-1.55893626289,-2.37438298313,-1.42348243226,-1.09139646239,-2.0969568078,-3.50202557618,2.88112932826,3.21005703492,-0.200908085495,0.217795759015,-3.29773096152,0.825908794967,-1.28395481122,-35.5967321613
off_to_on,-1.53327220541,-2.39912639485,-0.696627862824,-0.296128138004,-1.10521919326,-1.80707420123,3.80778753692,4.37560255188,0.406523795604,0.287444566991,-2.68903226107,0.977007998663,-1.03858958203,-43.4843687749
off_to_on,-1.36589420427,-2.3297366088,0.0392352431004,0.547226374424,0.0519856212446,0.161814150252,4.31400320489,5.05046467048,1.01752839573,0.200119798382,-1.8598763317,0.940072377759,-0.778516340543,-41.7336142615
off_to_on,-1.02468210936,-2.11549131586,0.76104445168,1.40417993048,1.3198317237,2.25037503679,4.36714976556,5.1738400278,1.61772721047,-0.00698191405821,-0.843094976025,0.752407635629,-0.474080677767,-30.7587519849
off_to_on,-0.497718997319,-1.71026059524,1.45074195606,2.23400968318,2.62482291559,4.28393062011,3.99048783762,4.75390363214,2.18812330102,-0.268426736938,0.310876692691,0.478872655169,-0.0931394102095,-12.3145584826
off_to_on,0.20377800189,-1.0812590041,2.09433156696,2.99194667846,3.88026534797,6.08535662604,3.25938466149,3.86666930443,2.70553217018,-0.499746911155,1.53703788157,0.203025221104,0.392076790792,10.7448395481
off_to_on,1.04522572026,-0.217253293245,2.68023950149,3.63237871908,4.99382721669,7.49371679068,2.29067738931,2.64576864539,3.14399245466,-0.610592148136,2.76023543296,0.0147067656258,0.997830243923,34.8569710868
off_to_on,1.97114139041,0.86502898584,3.19735463106,4.11276571446,5.8763741641,8.38136165951,1.22660183697,1.26446034613,3.47699338671,-0.519996532521,3.90057434531,-0.00429542230443,1.72256992084,56.2398869309
off_to_on,2.91001818969,2.11742769855,3.6331806163,4.39782502294,6.45107404451,8.66747646849,0.215446739491,-0.0877361419428,3.68022095953,-0.171488509865,4.87936676667,0.205528203136,2.542538569,71.4134231007
off_to_on,3.78107436389,3.46066336324,3.97252301269,4.46346019942,6.66169579496,8.32650269985,-0.608459276427,-1.23062772779,3.73443584593,0.454339614267,5.62512558903,0.669451463344,3.41020459402,77.6827356527
off_to_on,4.50215849705,4.78884787059,4.19705827391,4.29989572047,6.47909505024,7.39049044515,-1.14272680363,-2.01767050526,3.62806638922,1.33193827723,6.0791181763,1.3707710288,4.25610272898,73.5188010221
off_to_on,4.99798981172,5.97807270392,4.28599758218,3.91354771864,5.90507647756,5.94518037162,-1.33042255268,-2.35569335828,3.35913329158,2.38913484083,6.20004485464,2.24873129486,4.99422494415,58.7842639483
off_to_on,5.2078927478,6.8983926117,4.21788429005,3.32729997328,4.97312508788,4.12036857118,-1.16729903708,-2.2173008575,2.93621327634,3.51240091386,5.9674876204,3.20282352075,5.53060169653,34.773734433
off_to_on,5.09224749741,7.42800715488,3.97337366206,2.57904794199,3.7458676763,2.07577878609,-0.70176399319,-1.64422850483,2.37828274009,4.55876682814,5.38387739392,4.10328311682,5.77422261209,4.0625770174
off_to_on,4.6370137322,7.46804837244,3.53866501574,1.71859551062,2.30951401921,-0.0158287751091,-0.0276012736687,-0.741162963004,1.71343870624,5.37310176526,4.47484301118,4.80670576273,5.6490371692,-29.8159957189
off_to_on,3.85587877045,6.956172628,2.90911619083,0.803208550841,0.76588602935,-1.98630430597,0.729561413485,0.339146672158,0.976649639543,5.80862534953,3.28792269289,5.17491128216,5.10551450316,-62.8226316525
off_to_on,2.78981491508,5.87716935772,2.09249101661,-0.107684975207,-0.77707365386,-3.68847987344,1.43019389351,1.41745569261,0.206819816691,5.74793697016,1.88973115728,5.09462283952,4.13017417824,-90.932205762
off_to_on,1.50408191776,4.26905095529,1.11128680906,-0.958033886203,-2.21524956479,-5.00946142927,1.94077165311,2.31330976291,-0.556461074545,5.12163681007,0.361776866574,4.49528759897,2.7516484605,-110.653624232
off_to_on,0.0829566238669,2.22355639518,0.0036654643121,-1.70028234217,-3.45765264924,-5.87947778682,2.15294130137,2.87056994396,-1.27607883513,3.92181079007,-1.20479011154,3.36248971581,1.04219329658,-119.480155885
off_to_on,-1.37730952841,-0.119364424145,-1.17733820088,-2.29945191931,-4.43405986238,-6.27551374801,1.99933404649,2.97965601348,-1.92008831723,2.20824520534,-2.71515133966,1.74489245381,-0.885908130851,-116.21099997
off_to_on,-2.77663353775,-2.58279423768,-2.36645083618,-2.73569773125,-5.10019896159,-6.2196152502,1.4638707852,2.59343407297,-2.46364198077,0.106153020429,-4.07711841412,-0.246563366157,-2.88897263698,-101.102369708
off_to_on,-4.01956592439,-4.96880579454,-3.49052083485,-3.00504324479,-5.43999181691,-5.77239864038,0.585145916285,1.73454722511,-2.8899763713,-2.20468833794,-5.20733472864,-2.44748396744,-4.80484132269,-75.8294495941
off_to_on,-5.02326774562,-7.07749336209,-4.47425154117,-3.11823410274,-5.46473043364,-5.02284311901,-0.547590380117,0.493166089913,-3.19042133104,-4.50832093788,-6.03695619469,-4.65608591725,-6.46877444028,-43.2659861327
off_to_on,-5.72423753,-8.72699613291,-5.24675124053,-3.09789652497,-5.20942692251,-4.0758300816,-1.8053366445,-0.984544476748,-3.36353797595,-6.57639230299,-6.51640866804,-6.65472527309,-7.73054531535,-7.11251466677
off_to_on,-6.08315110949,-9.77223640283,-5.74820246878,-2.97440715032,-4.72690580433,-3.03907437465,-3.03569385972,-2.51566826726,-3.41361065838,-8.19443460904,-6.61886785663,-8.23434439888,-8.47073048153,28.5759844147
off_to_on,-6.08736858453,-10.1201815258,-5.93589526128,-2.781048059,-4.08045433137,-2.01105744072,-4.08250428875,-3.90485740551,-3.34879775939,-9.18731875801,-6.3421816088,-9.21883678604,-8.61421446511,59.8995189877
off_to_on,-5.75090227803,-9.73980269784,-5.78890539825,-2.54911014826,-3.3359850724,-1.07133671673,-4.80617777022,-4.97040330856,-3.1792751443,-9.44059867441,-5.70905332566,-9.48626992433,-8.13920700415,83.5921869095
off_to_on,-5.11190361937,-8.66550528667,-5.31082807542,-2.30360766069,-2.5546805167,-0.274210564302,-5.10202367186,-5.56850193086,-2.91568144139,-8.91494066341,-4.76542514395,-8.98425122897,-7.08057825818,97.4087537871
off_to_on,-4.22798766116,-6.99357183588,-4.53018583258,-2.06017653008,-1.78698359427,0.353776723083,-4.91418075008,-5.61241682002,-2.56810131004,-7.65169800143,-3.57713407587,-7.73743048532,-5.52699224378,100.370063603
off_to_on,-3.1699425123,-4.8719938006,-3.4983922101,-1.8235617531,-1.06858786075,0.812529926724,-4.24332976125,-5.08395804332,-2.14571429951,-5.76882755337,-2.2250542067,-5.8461120658,-3.61207473005,92.8385236735
off_to_on,-2.01454069346,-2.48486452297,-2.28543690283,-1.58787728782,-0.418796504805,1.12382261401,-3.1472026024,-4.03576236235,-1.65711083095,-3.44759972205,-0.799071644402,-3.47607134671,-1.50059083939,76.4182949619
off_to_on,-0.837259111625,-0.0331605554832,-0.973728042174,-1.33857647741,0.158701262732,1.32434998199,-1.73385383908,-2.58413011302,-1.11115376218,-0.911754549012,0.608646996481,-0.840782526396,0.628768062553,53.6984427628
off_to_on,0.294288707023,2.28583451837,0.349252177583,-1.05583526933,0.672902628049,1.45756203163,-0.148607246339,-0.893469500385,-0.518163638066,1.59825907357,1.91055047067,1.82177935386,2.60196253905,27.8779136314
off_to_on,1.32550241121,4.29806633327,1.59867988809,-0.718856561316,1.14094766991,1.56549568757,1.44359469642,0.845460680986,0.108856033768,3.85269206399,3.0301840911,4.27492806677,4.26735271959,2.32603064504
off_to_on,2.2180042799,5.86896790911,2.69966603559,-0.310477897546,1.58268583003,1.68172966751,2.87813332643,2.44049090277,0.753250694236,5.65808874894,3.9076928182,6.30851424355,5.51052985344,-19.860675105
off_to_on,2.95063423224,6.91464204251,3.59329138172,0.178577003217,2.01516866285,1.82634804848,4.01037767935,3.72274132983,1.39426446238,6.87787196435,4.50385423041,7.7606081427,6.26452265147,-36.2458600589
off_to_on,3.51823985004,7.40683301305,4.24076930429,0.746414922578,2.44786698657,2.00345844683,4.73257523435,4.56773522487,2.00728758728,7.4454201915,4.80227360462,8.53309264483,6.51426261175,-45.3350468059
off_to_on,3.92855439802,7.37134940696,4.6253373993,1.37814067843,2.87928945316,2.20142057361,4.9858769737,4.91011483597,2.56486954906,7.36815812866,4.8095410659,8.59945870799,6.29492409823,-46.7177273917
off_to_on,4.19770259571,6.88042460009,4.75175764194,2.04576524153,3.29547404841,2.39555621901,4.76607261787,4.75006972499,3.03844024357,6.72238763562,4.55334663353,8.00411573168,5.68452766526,-41.0563053742
off_to_on,4.34505062694,6.04024528276,4.64359472303,2.7099142907,3.67056271822,2.55278385515,4.12245291272,4.15075902273,3.40056246036,5.63980950185,4.07875303816,6.85361315363,4.79190677465,-29.9298144132
off_to_on,4.38819839154,4.9754443122,4.33870584156,3.32316142306,3.96938692691,2.63739056543,3.15011443766,3.22726550516,3.62744464736,4.28776040156,3.44301598019,5.30117139426,3.74169531108,-15.5600870567
off_to_on,4.33888502808,3.81267022109,3.88357902297,3.83460011815,4.15172478073,2.61704578271,1.97685833403,2.12878422703,3.70138855191,2.84596879182,2.70949479603,3.52670861782,2.65832449509,-0.463284961588
off_to_on,4.20044423956,2.66537477904,3.32727536546,4.19511115357,4.17767165875,2.46818215426,0.746498522901,1.01665993116,3.61284033953,1.48301627176,1.94129409702,1.71502570027,1.65108257528,12.9215640791
off_to_on,3.96721964961,1.62170458434,2.71574939343,4.36269696633,4.01342227428,2.18000769333,-0.399196091088,0.0414210633044,3.36175733338,0.33563163034,1.19530535225,0.0349216819566,0.802085285331,22.5741780325
off_to_on,3.62606120443,0.736884059523,2.08724010882,4.30725077937,3.63670886102,1.7566439357,-1.33759444743,-0.677956117873,2.95808909671,-0.506539574693,0.517270891432,-1.37824601206,0.158562392026,27.1582090447
off_to_on,3.15971012142,0.0308093459988,1.46925586983,4.01420437742,3.04118214918,1.21717009618,-1.97920161318,-1.06968847449,2.42128815403,-1.00888047141,-0.0616253590831,-2.43461940957,-0.269749701271,26.1760546589
off_to_on,2.55158537796,-0.509168786569,0.877442885541,3.48664191121,2.23915155326,0.593651212242,-2.27690630481,-1.11763240887,1.77889467643,-1.19171280328,-0.52631372161,-3.0953838368,-0.508020577991,19.9963082259
off_to_on,1.79125136199,-0.921005847643,0.31636205571,2.7456572322,1.26230062764,-0.0725020333139,-2.22949540765,-0.861485447823,1.06436164222,-1.12255235482,-0.877431597579,-3.37157955053,-0.609145403286,9.75562863909
off_to_on,0.879709057377,-1.25758430365,-0.218061984298,1.82894285757,0.160237524917,-0.735287225704,-1.87923179262,-0.388874499774,0.31438424145,-0.902135358436,-1.12907470293,-3.3168556923,-0.643159972883,-2.84537088682
off_to_on,-0.166365326459,-1.57488800502,-0.734877655428,0.787801988963,-1.00300242977,-1.34930302774,-1.3040678163,0.179391425854,-0.433944481713,-0.646454686577,-1.30504510647,-3.01559129542,-0.684846342325,-15.818258462
off_to_on,-1.31220334739,-1.92055065875,-1.24384106893,-0.317054449513,-2.15414490122,-1.87468307262,-0.605737407073,0.708676520154,-1.14581856364,-0.467518768771,-1.43411055783,-2.56831948652,-0.801301179605,-27.1920353074
off_to_on,-2.50489625679,-2.32446331156,-1.75122719606,-1.42044593198,-3.21700361526,-2.28114437623,0.104550731593,1.07163203258,-1.79094803061,-0.455623767731,-1.54490256843,-2.07660549592,-1.0411699465,-35.3021501777
off_to_on,-3.67595395652,-2.79275623028,-2.25636844668,-2.45786248534,-4.11926695005,-2.5506737816,0.720864024945,1.16800834294,-2.34511298828,-0.665611065791,-1.6611159835,-1.62943339946,-1.42695304953,-39.0221097172
off_to_on,-4.74635287898,-3.30592677419,-2.74945485154,-3.3702876366,-4.79901741956,-2.67858004875,1.15582234911,0.940329300305,-2.79093039407,-1.10892450191,-1.79762546613,-1.29278242474,-1.95131439536,-37.9064969426
off_to_on,-5.63359982892,-3.82125018879,-3.21094205914,-4.10825953535,-5.21029391298,-2.6728670936,1.35076929889,0.383215021015,-3.11783892905,-1.75238902751,-1.95801003076,-1.1034914062,-2.57774073857,-32.2283270637
off_to_on,-6.26003493194,-4.27897881442,-3.6126809239,-4.63484689341,-5.32712038222,-2.55210429507,1.28169848715,-0.454933911887,-3.32141857354,-2.52363940881,-2.1337910848,-1.0678163059,-3.24529647402,-22.9097232822
off_to_on,-6.56138779805,-4.6112979854,-3.92063792161,-4.9273649483,-5.14560074445,-2.3421546239,0.960412593982,-1.47808136159,-3.40224901062,-3.32217985522,-2.30546595988,-1.1643884221,-3.87667756836,-11.3604748454
off_to_on,-6.49451865368,-4.75263861526,-4.09885230832,-4.97781099957,-4.68389637379,-2.07224908508,0.43104818516,-2.55561071315,-3.36456191665,-4.03428784904,-2.44518623798,-1.35068230315,-4.38836237319,0.748113002583
off_to_on,-6.04333547063,-4.64979504238,-4.11410360957,-4.79213863313,-3.98013408457,-1.77095395369,-0.237298333882,-3.54040522398,-3.21494962255,-4.549492775,-2.52071817164,-1.57168424467,-4.70143617151,11.7383317539
off_to_on,-5.22207459346,-4.2703769082,-3.94066393496,-4.38859779051,-3.08851250898,-1.46256263266,-0.960638105802,-4.28938026894,-2.96135662467,-4.77622240021,-2.50015835656,-1.76926442701,-4.75165197806,20.1716286307
off_to_on,-4.07544241577,-3.60841590563,-3.56449563422,-3.79543351804,-2.07405896513,-1.16436310079,-1.65136436137,-4.68357586685,-2.6125079821,-4.65442581615,-2.35678245649,-1.89081010432,-4.49747328257,25.0490842656
off_to_on,-2.67549941464,-2.68640171586,-2.98632608971,-3.04825571608,-1.00661784037,-0.885098992399,-2.22918505781,-4.64500913423,-2.17783248341,-4.16350611757,-2.0733900651,-1.89594763876,-3.92518804559,25.9393667184
off_to_on,-1.11557452112,-1.55356348937,-2.22317666266,-2.18736867222,0.0452874618106,-0.624776779818,-2.63031612982,-4.14796802866,-1.66783498431,-3.32464178947,-1.64557596873,-1.76060929588,-3.05062893441,23.0185066466
off_to_on,0.498127373234,-0.280760041226,-1.30812104091,-1.2552917237,1.02008849601,-0.375795184041,-2.8138707156,-3.22322626083,-1.09477891861,-2.19742462417,-1.08349766634,-1.47820680459,-1.91751235891,17.0194350208
off_to_on,2.05627005847,1.04718829587,-0.288272022016,-0.294624243137,1.86775166204,-0.125207295103,-2.76483695469,-1.95465760889,-0.473472312027,-0.871564677755,-0.411902127353,-1.05817009903,-0.592847422397,9.10254051186
off_to_on,3.45635918403,2.34056801812,0.77878495662,0.653675835349,2.55289232013,0.142210435275,-2.49354712098,-0.468783057022,0.178079924775,0.544911848168,0.331604255662,-0.522515282044,0.839795503449,0.669571117961
off_to_on,4.61179786628,3.51394557214,1.8297069813,1.55160641154,3.05619032267,0.440501231131,-2.03202881305,1.08125220559,0.838382761946,1.93911288167,1.09983871555,0.0986410639826,2.28817040467,-6.84952906601
off_to_on,5.45900573203,4.49421360936,2.80072291231,2.36509119875,3.37407227573,0.779143606939,-1.42802679338,2.53503562267,1.48268948383,3.20638466673,1.84048399831,0.771636606824,3.6593727465,-12.2047105089
off_to_on,5.96184154743,5.22652527227,3.63298313575,3.06469798728,3.51682035081,1.16018822047,-0.737740657708,3.74492544837,2.08385909393,4.26124641059,2.5011580167,1.46302053593,4.86708064711,-14.4990407716
off_to_on,6.11292478885,5.67751458787,4.27735318675,3.62620030395,3.50543647428,1.57630275687,-0.0184109172029,4.59407607339,2.61381574667,5.04477037983,3.03451315412,2.14191868082,5.8373481803,-13.3039145007
off_to_on,5.93185348166,5.83565479744,4.69816209612,4.0310559592,3.36771573829,2.01000808145,0.678197408676,5.01008697976,3.04548691121,5.52765030044,3.40277677063,2.78077983121,6.5125859167,-8.7028570007
off_to_on,5.46070872941,5.70905565636,4.87555980893,4.26683796063,3.13405078226,2.43425545707,1.3105955083,4.97256057868,3.35500590245,5.70891335811,3.58122740313,3.35466838877,6.85368514638,-1.26174665828
off_to_on,4.75756655713,5.32137329985,4.80631627939,4.32760894573,2.83349331128,2.81434524197,1.85017205907,4.51372348031,3.52390378248,5.61091349007,3.56024437514,3.83960914848,6.84052201487,8.06581413867
off_to_on,3.88896033029,4.7067445729,4.5030830695,4.21419021548,2.49054083284,3.11103692583,2.28149244156,3.71222939545,3.54099594922,5.271789645,3.34575152177,4.21071536552,6.47127088494,18.0803137339
off_to_on,2.92232315269,3.90472760277,3.99231167688,3.93424977017,2.12300425826,3.28456301176,2.60056037705,2.68118360108,3.40369414275,4.73690052115,2.95807345184,4.44089872455,5.76103540889,27.5019678315
off_to_on,1.9193802078,2.95612627607,3.31115998233,3.50212656535,1.74115957868,3.29914810815,2.81160441641,1.55218178521,3.11854219912,4.05081207017,2.42940918656,4.50085566022,4.74026592188,35.135056988
off_to_on,0.93126794886,1.90032167905,2.50380385846,2.93832259833,1.34821326234,3.12756044164,2.92313879965,0.457640205855,2.70087407715,3.25121395368,1.80027969236,4.36076613657,3.45329004007,40.0080728172
off_to_on,-0.00413850584504,0.774376875687,1.61759771773,2.26862819567,0.941937570073,2.75519372932,2.9441020036,-0.486150060095,2.17361064964,2.36571683364,1.1154049861,3.99377417196,1.95707574812,41.4724029185
off_to_on,-0.86256085872,-0.386212251594,0.699496641204,1.52289300028,0.517179796592,2.18319738249,2.88079610425,-1.19299624562,1.565329699,1.41190978916,0.419503209905,3.38091030748,0.320120800389,39.250188684
off_to_on,-1.63154317877,-1.54560704519,-0.206927457693,0.733507026197,0.0688371129854,1.43024285976,2.73515607441,-1.61604395263,0.907843484877,0.400434792831,-0.246522724873,2.51674036371,-1.37882982447,33.4307465143
off_to_on,-2.30710149249,-2.66530468425,-1.06365753099,-0.0662969027845,-0.405169951575,0.532629894949,2.5046073346,-1.75123783572,0.233584746284,-0.659731903702,-0.848628141382,1.41475411856,-3.05265031257,24.4230493161
off_to_on,-2.88954416069,-3.70226677482,-1.83950290166,-0.844174925989,-0.901389907796,-0.45740983891,2.18346967532,-1.63478970211,-0.426875340696,-1.75501873654,-1.36164071048,0.111397836401,-4.60870080166,12.8778978349
off_to_on,-3.37929854078,-4.60830300856,-2.51050907449,-1.57028109967,-1.40919961506,-1.47517466132,1.76558603872,-1.33527251496,-1.04687863782,-2.86144328719,-1.77013354198,-1.33226421425,-5.95299676292,-0.403359114252
off_to_on,-3.77353344723,-5.33129478739,-3.059650255,-2.21860741567,-1.91031457995,-2.44849448326,1.24764018986,-0.941672947813,-1.60507124687,-3.94061310512,-2.06819271603,-2.8320038422,-6.99576274707,-14.5567603624
off_to_on,-4.06419612745,-5.8184944163,-3.47602144254,-2.7679422043,-2.37957825154,-3.30386627421,0.632510439037,-0.549236204034,-2.08600725413,-4.93861589833,-2.25824387416,-4.28531805717,-7.65816022566,-28.7266851079
off_to_on,-4.23781583148,-6.02171515655,-3.75377906925,-3.20238522298,-2.78698262858,-3.97316655986,-0.0679971501602,-0.245162705896,-2.47995832623,-5.78837908088,-2.34919763897,-5.57955450056,-7.87966633462,-42.111688141
off_to_on,-4.27710703105,-5.90380830896,-3.89107042489,-3.51141815984,-3.10069954586,-4.40028078535,-0.831586408264,-0.0961460726909,-2.7820424165,-6.41547105852,-2.35422520534,-6.60254336292,-7.62530526803,-53.98378846
off_to_on,-4.16408514378,-5.44548020303,-3.88914806967,-3.68958929313,-3.29075432389,-4.54694954875,-1.62543451791,-0.139397359257,-2.9908856944,-6.74669415478,-2.2884808305,-7.2545478307,-6.89175370814,-63.6863452548
off_to_on,-3.88413728167,-4.65129925728,-3.75179634583,-3.73592070242,-3.33287089715,-4.39716580038,-2.40778617509,-0.378241683832,-3.1070978526,-6.72028469013,-2.16705133728,-7.46003773679,-5.7113009018,-70.6207765075
off_to_on,-3.43031304999,-3.55372501075,-3.48511602139,-3.65317740518,-3.21197467202,-3.95956820673,-3.13102081619,-0.782688071995,-3.13186175479,-6.29617916766,-2.00334396551,-7.1776914617,-4.15276729306,-74.2350309822
off_to_on,-2.80704403811,-2.2141722727,-3.09763373032,-3.44714483481,-2.924863511,-3.26745838361,-3.74580317102,-1.29466388945,-3.06591049289,-5.46468893555,-1.80803648741,-6.40716561253,-2.31877165101,-74.0263508178
off_to_on,-2.03257452057,-0.720487092478,-2.60063740558,-3.12604291764,-2.48164723645,-2.37630887958,-4.20576235082,-1.83697303004,-2.90909240906,-4.25207357766,-1.58862227147,-5.19153122959,-0.339156788661,-69.5674632549
off_to_on,-1.13957861983,0.819290758612,-2.00859629331,-2.70016464662,-1.90570212546,-1.35890149242,-4.47207127284,-2.32456797128,-2.66061858454,-2.72189830845,-1.34950165191,-3.61481456385,1.63911462951,-60.5594969695
off_to_on,-0.17372053459,2.28644368021,-1.33950900345,-2.18177129856,-1.23207161061,-0.298512114609,-4.517325346,-2.67647853631,-2.31996413916,-0.971646083031,-1.09251006552,-1.79472584262,3.46477017029,-46.9076982669
off_to_on,0.809759979764,3.56339810862,-0.615035329688,-1.58521483721,-0.504444725647,0.719194186943,-4.32823914688,-2.82673870975,-1.88827373269,0.875256579152,-0.81773889998,0.128681698986,4.99647314819,-28.8088017792
off_to_on,1.75103653329,4.5464518875,0.139697068753,-0.927201279303,0.228966195709,1.61470825476,-3.90686944239,-2.73288453198,-1.37002215541,2.68115484757,-0.524497681373,2.0071052478,6.11692532398,-6.83314062267
off_to_on,2.59159917772,5.15776092044,0.896669104707,-0.227066957729,0.920172939215,2.32271590261,-3.27029864898,-2.38101517765,-0.774619053115,4.30819863535,-0.212282193841,3.69911714804,6.74513570031,18.018467208
off_to_on,3.28025175411,5.35492360386,1.62593052562,0.493079537431,1.5262117159,2.79869627856,-2.44893595883,-1.78694511718,-0.117633301545,5.63289096526,0.118355123946,5.08443056849,6.84527698526,44.3024893402
off_to_on,3.778350768,5.13673155974,2.29689034607,1.20848930387,2.01339986597,3.02327097952,-1.4837768297,-0.993543712439,0.578649285451,6.55922992821,0.465097952149,6.07551085188,6.43088816929,70.1801596653
off_to_on,4.06353363995,4.54410845827,2.87984015489,1.89228434194,2.36050631527,3.00372840118,-0.423076111076,-0.0648753846007,1.2855358571,7.02868513534,0.8233520191,6.62508741905,5.56370829458,93.5318857753
off_to_on,4.13140383653,3.65587836112,3.34758528931,2.51639744679,2.56042063242,2.77246556975,0.681080741148,0.921853423496,1.9691842028,7.02567294539,1.18592870688,6.72867861778,4.3470788509,112.135535251
off_to_on,3.99494569417,2.57970674514,3.67704910776,3.05292089078,2.62009221963,2.38245729598,1.77588125607,1.8853144369,2.59274960299,6.57781779364,1.5429193045,6.42192758012,2.91454490437,123.894388265
off_to_on,3.6817853247,1.43924133394,3.85072264098,3.47577231579,2.55873411294,1.90023593765,2.81026684222,2.74879298057,3.1192259575,5.75101768537,1.88175518935,5.77326167382,1.41492302201,127.09028132
off_to_on,3.22974179913,0.359045180606,3.85785203627,3.76252378532,2.40451639999,1.39719649889,3.73666827211,3.44754505839,3.51467294989,4.64006142666,2.18746151057,4.873026883,-0.00440378316924,120.629900846
off_to_on,2.68137261252,-0.550725727929,3.69528413029,3.89619715899,2.19018161364,0.940285656872,4.51205797171,3.93398768911,3.75144801986,3.35616418927,2.44312748767,3.82071725906,-1.21393117121,104.248809187
off_to_on,2.0783671062,-1.20785313004,3.36792053206,3.86681342477,1.9481698144,0.583252620115,5.09853957991,4.18032860502,3.81104098724,2.01320366851,2.63062717899,2.71214905413,-2.11617749616,78.6395312226
off_to_on,1.45665587083,-1.56794046334,2.88875792775,3.67249878711,1.70592155814,0.359611736055,5.4637948219,4.17865727862,3.68614448425,0.714589177321,2.73162303853,1.62838539284,-2.65575063328,45.4770848735
off_to_on,0.84297919571,-1.6292556023,2.27851383901,3.3199948197,1.48201894668,0.278286997568,5.58172731727,3.93888940068,3.38168087403,-0.457441405176,2.72886567419,0.627907374726,-2.82407034503,7.32707119321
off_to_on,0.253411605847,-1.43180757904,1.56485192271,2.82448787656,1.28372635496,0.322592642993,5.43357594772,3.4852257756,2.91463433703,-1.44870502232,2.6077656711,-0.257001494529,-2.6581667859,-32.5635510216
off_to_on,-0.305989597548,-1.0507208642,0.781230450653,2.20875449055,1.10631332065,0.452786714165,5.00962665593,2.85191831555,2.31268754629,-2.23535179927,2.35816042383,-1.01935822079,-2.2337512117,-70.5765921827
off_to_on,-0.836604078,-0.584767488051,-0.0345951056399,1.50170269849,0.934303913062,0.611966188926,4.31145606386,2.07911926174,1.6118146365,-2.82146937044,1.97613831129,-1.67247571205,-1.6535123963,-103.10199807
off_to_on,-1.34326195594,-0.141608351941,-0.84237564558,0.736461758996,0.744529978587,0.734613275106,3.35442947522,1.20943919262,0.853114464729,-3.23266026077,1.46572530046,-2.24188947058,-1.03222671137,-126.942893558
off_to_on,-1.82962766754,0.1782206114,-1.60142466129,-0.0517762094805,0.510605394449,0.756714796259,2.16999146291,0.285591021759,0.0792617451571,-3.50684513677,0.840197804105,-2.75572024411,-0.480692039624,-139.696140152
off_to_on,-2.29385679799,0.296337484456,-2.27285293535,-0.82793703749,0.208220733285,0.626116096109,0.807169411578,-0.650797648916,-0.669004630386,-3.68394709518,0.122772257929,-3.23520350774,-0.0906451457972,-140.058216663
off_to_on,-2.72540529782,0.168428605168,-2.82188028811,-1.55905196152,-0.17948595943,0.311678961658,-0.66730972515,-1.55940556164,-1.35595254195,-3.79624954825,-0.653554747255,-3.68706804973,0.0773239122874,-128.01316617
off_to_on,-3.10369746284,-0.208668398709,-3.2200920837,-2.21587568814,-0.657273592028,-0.190089660279,-2.17079529577,-2.40089414708,-1.95315389204,-3.86107215235,-1.44717816111,-4.09912951372,0.00126951024941,-104.872642098
off_to_on,-3.39905971153,-0.795766352922,-3.44747911915,-2.77402198941,-1.21458892118,-0.851988977888,-3.60868180805,-3.13657722328,-2.44078995993,-3.87699940838,-2.21012898964,-4.43992891533,-0.300149072861,-73.1561809497
off_to_on,-3.57594614123,-1.51624776267,-3.49407924766,-3.21457957007,-1.82437180292,-1.61726846785,-4.88057608573,-3.72861372898,-2.80788867333,-3.82428966907,-2.89132324841,-4.66257361137,-0.771423108751,-36.3204184317
off_to_on,-3.59807835892,-2.26647051287,-3.36103503876,-3.52424727796,-2.44419390688,-2.40503591093,-5.88832278286,-4.14112291968,-3.05156607624,-3.66938394389,-3.44060523918,-4.71223352877,-1.32905256967,1.63371606195
off_to_on,-3.43476115745,-2.93024532431,-3.06090023618,-3.69509225094,-3.01974598996,-3.11942386163,-6.54520426257,-4.34239428075,-3.17547765245,-3.37273604958,-3.81324067885,-4.5361191967,-1.87419217429,36.62958367
off_to_on,-3.06737785847,-3.39537936405,-2.61707237276,-3.72407700557,-3.49036839254,-3.66147401808,-6.78534397729,-4.30808325315,-3.1877843483,-2.89860931421,-3.97440928277,-4.09431981677,-2.30725814773,65.0013652628
off_to_on,-2.49496108016,-3.56996871666,-2.06229940766,-3.61251520195,-3.79602505628,-3.94227979827,-6.57216465941,-4.02500220632,-3.09898925034,-2.22512300747,-3.90318806018,-3.3696823539,-2.54241727373,83.936533467
off_to_on,-1.73780088659,-3.39613705121,-1.43629989685,-3.36559913637,-3.88489364417,-3.89568598067,-5.90472307074,-3.49488874289,-2.91999729249,-1.3527439833,-3.59551985051,-2.37500153875,-2.5199243041,91.8163420817
off_to_on,-0.838290715858,-2.85925945962,-0.782639746572,-2.99209836548,-3.72061638847,-3.48882086421,-4.82088130817,-2.73740702197,-2.66069366412,-0.309623338105,-3.06573277369,-1.15615697331,-2.2146061337,88.4084230949
off_to_on,0.141407124046,-1.99133281341,-0.145111177569,-2.50426637106,-3.28824905984,-2.72894346316,-3.39657621012,-1.79164260084,-2.32923623706,0.847353689966,-2.34631211134,0.2095746338,-1.63936208176,74.8841118098
off_to_on,1.12482327872,-0.867970125667,0.436053725046,-1.91792232896,-2.59806452465,-1.6655074522,-1.74088375173,-0.715495604654,-1.9321292336,2.03627345957,-1.48581376097,1.6200742743,-0.84327557771,53.6557944527
do_nothing,2.02922552751,0.400609085003,0.927746316116,-1.25261085294,-1.68660170887,-0.386927129696,0.0129071859911,0.417354849332,-1.47500944769,3.15836787634,-0.545026311346,2.9590872361,0.0952922103552,28.0533826338
do_nothing,2.7752636544,1.68337491026,1.30691959012,-0.53169639206,-0.614673740876,0.987793290607,1.71946507667,1.52288787045,-0.963953544946,4.10963665969,0.40829056205,4.109697713,1.0795442585,1.88072950839
do_nothing,3.29692227737,2.8451765879,1.56253617115,0.217769643929,0.537578632012,2.32172427112,3.23561068222,2.51416651235,-0.407024110786,4.79430490558,1.30557022187,4.96871300112,2.00739661497,-21.0906011449
do_nothing,3.55035773758,3.76402394265,1.69624908036,0.9655568558,1.67812748958,3.47553067587,4.43497434929,3.30998315793,0.184272951377,5.13814504308,2.08384640078,5.45989523987,2.785004216,-37.6236858846
do_nothing,3.52027295625,4.34657690949,1.72167121777,1.67924030685,2.71220256067,4.32398006085,5.22139624991,3.84369070631,0.793939493308,5.09963085918,2.69168367052,5.54408322389,3.33871794532,-45.4479251697
do_nothing,3.22276939993,4.53971547601,1.66225372895,2.32569006063,3.55211231276,4.7713760731,5.53941171114,4.0710598303,1.4011054213,4.67714287317,3.09394013813,5.2246503874,3.62379767991,-43.5620410285
do_nothing,2.70407481377,4.33662061822,1.54796948114,2.87300615209,4.12659777953,4.76392133329,5.38044772208,3.97604436099,1.98047738226,3.91097765813,3.27479115391,4.54739277891,3.62871977943,-32.3670979682
do_nothing,2.03511823748,3.77657713814,1.41116270294,3.2927497348,4.38860127984,4.29734601009,4.7838356978,3.57354951559,2.5036462753,2.87965354759,3.23864107069,3.59473974102,3.37459609587,-13.6107584038
do_nothing,1.3025293758,2.93859961988,1.28205588473,3.56224541011,4.32049888285,3.41869795991,3.83236374621,2.90865778133,2.94114768805,1.69084325241,3.00880344939,2.47501248951,2.90996246279,9.85074788919
do_nothing,0.597188703279,1.92985490811,1.18447959439,3.66668173928,3.93613476336,2.22191005281,2.64277133156,2.05222750595,3.26504608154,0.468074844654,2.62410645374,1.30819701324,2.3018861955,34.4418505833
do_nothing,0.00186350978522,0.87058305245,1.13239534395,3.60072685683,3.27937278444,0.837549091629,1.35224096223,1.0932750586,3.45172208808,-0.664997391269,2.13384297192,0.21023436127,1.62488052573,56.356388121
do_nothing,-0.420333305415,-0.122301190469,1.12771014372,3.36940864346,2.41929908181,-0.582094072162,0.102476409618,0.129010426368,3.48449665923,-1.600544832,1.59169828151,-0.721921076444,0.94941849837,72.0804917198
do_nothing,-0.634969157432,-0.950581162098,1.15973819736,2.98808226622,1.44261642605,-1.88079264761,-0.97670097028,-0.746251023274,3.35573320035,-2.26044670781,1.04942158494,-1.42230875099,0.331864442849,78.8792921032
do_nothing,-0.64140381044,-1.54691699611,1.20646493996,2.48141370376,0.444114832858,-2.91686789342,-1.7822088991,-1.45188675087,3.06811856562,-2.60606571607,0.551041428411,-1.86327708596,-0.192615259082,75.1817256921
do_nothing,-0.473099581197,-1.8821515171,1.23753488174,1.88143225373,-0.483660969706,-3.58006158699,-2.24915212576,-1.93006502045,2.63492740855,-2.6424448315,0.128352181384,-2.05702745186,-0.613098859461,60.8112363131
do_nothing,-0.192903117121,-1.96679512524,1.21864728715,1.22483045082,-1.260328765,-3.80466289551,-2.35741580933,-2.15193586061,2.07920694812,-2.41624853027,-0.20177260085,-2.05115863547,-0.941513774428,37.0308049602
do_nothing,0.116206440861,-1.84660533301,1.116834793,0.549797703336,-1.8260058549,-3.57720945303,-2.13257248895,-2.12008688745,1.43196153035,-2.00768340124,-0.437932017786,-1.91888197288,-1.20712567021,6.39569517341
do_nothing,0.363729378973,-1.59304722481,0.905949869865,-0.107252585443,-2.14709947132,-2.93776124685,-1.64100414128,-1.86693877071,0.729547863127,-1.5175272603,-0.592598262572,-1.74538963589,-1.44791512207,-27.5668238722
do_nothing,0.465908068054,-1.29017084422,0.571616438032,-0.714676094372,-2.2189025695,-1.97456301947,-0.979896623426,-1.44931190635,0.0105935718288,-1.05113876016,-0.688643874641,-1.61246126974,-1.70036527474,-60.8082502905
do_nothing,0.359621103202,-1.01996054446,0.114932810227,-1.24795092028,-2.06474447962,-0.812759910336,-0.263440182219,-0.939926895165,-0.687190685788,-0.701797697396,-0.754531269642,-1.58369302428,-1.98946553071,-89.2801101745
do_nothing,0.0138588129819,-0.848423666828,-0.445661213087,-1.69110892698,-1.73187162983,0.401400086034,0.392926096928,-0.417029514812,-1.32992977342,-0.535863861092,-0.818883243035,-1.69267748709,-2.32073195627,-109.456372576
do_nothing,-0.563007155734,-0.814560527596,-1.07472782636,-2.0370825812,-1.2846330806,1.51885726731,0.888126656262,0.0464072697649,-1.88990424063,-0.582012821213,-0.905235856959,-1.93605461588,-2.67575107338,-118.787765855
do_nothing,-1.321418178,-0.92391316449,-1.72248611991,-2.28695063434,-0.795868099251,2.40618151669,1.14883913338,0.392395869386,-2.34703453063,-0.826238082985,-1.02774471746,-2.27264666969,-3.0122107462,-116.028181535
do_nothing,-2.17481552526,-1.14769212251,-2.32957781375,-2.44821777376,-0.337597919191,2.96180336037,1.13888276621,0.585213068232,-2.68941397424,-1.21347890031,-1.18847548308,-2.62898409027,-3.26866965905,-101.390816026
do_nothing,-3.00951605105,-1.42763166681,-2.83345351797,-2.53239917257,0.0278137713863,3.12796840318,0.863370508103,0.615252169351,-2.91291012454,-1.65576005874,-1.376678588,-2.91055556363,-3.37354255332,-76.5147601568
do_nothing,-3.69915257359,-1.68584953931,-3.17565060369,-2.55228051885,0.25495333898,2.89691582452,0.367103430791,0.498954208378,-3.01998138495,-2.04575544564,-1.5701588978,-3.01721801294,-3.25706075699,-44.2482172588
do_nothing,-4.12186304723,-1.83821716892,-3.30908044247,-2.51927210466,0.320246072886,2.31054687613,-0.272527075591,0.274895817987,-3.01795733299,-2.2738550424,-1.73854437799,-2.86051652012,-2.8644193347,-8.27891943799
do_nothing,-4.17795124672,-1.80919469482,-3.20439877455,-2.44126353185,0.223910919567,1.45371075216,-0.957111309304,-0.00332771283232,-2.91709223465,-2.24625022588,-1.84797782413,-2.38029702874,-2.16803293701,27.3376965388
do_nothing,-3.80558286069,-1.54583517576,-2.85460853958,-2.32131375439,-0.011162868345,0.442077324025,-1.58163534069,-0.276317628357,-2.72871380369,-1.90134269594,-1.86654288191,-1.55800815399,-1.17684453136,58.689076913
do_nothing,-2.99225602398,-1.02875291427,-2.27723418564,-2.15738851681,-0.343365572157,-0.593724238305,-2.0497147829,-0.488772722202,-2.46375249894,-1.22196489245,-1.76962128175,-0.424489714058,0.059028698659,82.4872629317
do_nothing,-1.78027970239,-0.278271114007,-1.51368929213,-1.94320045927,-0.71853891019,-1.52554063651,-2.28751451565,-0.598565863589,-2.13185720871,-0.241454460364,-1.54437977675,0.939214956782,1.44941094603,96.4591298409
do_nothing,-0.265247155463,0.645345099457,-0.625801157651,-1.67003837666,-1.07750062893,-2.2443548582,-2.25440482696,-0.583611302175,-1.74119403326,0.957522543096,-1.19270342433,2.4085085114,2.87123315564,99.5959779546
do_nothing,1.41259256904,1.647802087,0.310186277831,-1.3293158074,-1.36390800261,-2.67395319577,-1.94885978271,-0.445469751192,-1.29890336439,2.25147464778,-0.73211038475,3.82875837694,4.18114748548,92.2331346967
do_nothing,3.08320680403,2.61216060346,1.21148266671,-0.915448549139,-1.53143858842,-2.77980996938,-1.40876783262,-0.209128274031,-0.812075569448,3.49092742354,-0.19447137644,5.03406799057,5.23215198698,75.9536460194
do_nothing,4.56617225139,3.41418842556,1.99759325234,-0.428604470393,-1.54939269401,-2.57207132944,-0.706106005455,0.0810312104431,-0.289015103803,4.51967904766,0.37732699664,5.86886311332,5.89212467367,53.3338640395
do_nothing,5.69221271802,3.9395667578,2.59908754631,0.123131745455,-1.40606170247,-2.10233808193,0.0632809176959,0.368482253407,0.25948930233,5.1958629642,0.93433741675,6.20936252569,6.06178319561,27.5695111192
do_nothing,6.32415719582,4.10051662005,2.96523634852,0.722569656824,-1.10952451049,-1.45480175382,0.793366242099,0.593935499714,0.819176676608,5.41189376081,1.42745070569,5.98191493383,5.68954708068,2.03582342967
do_nothing,6.37460365698,3.84944092175,3.06958040355,1.34346453963,-0.685886021243,-0.733060649117,1.38317134287,0.705426810207,1.37185524513,5.1104672734,1.81342253543,5.17552405619,4.781100249,-20.1572945145
do_nothing,5.81794665859,3.18755397813,2.91273715856,1.9519049944,-0.175308656414,-0.0445273268152,1.75139489065,0.667558801922,1.8956387171,4.29428554301,2.06018849778,3.84661246982,3.40209681166,-36.555373507
do_nothing,4.69511766389,2.16714208073,2.52208715142,2.50894395556,0.373534762623,0.515344350642,1.84837120492,0.468444328519,2.36593304806,3.02801525525,2.15072581262,2.11509649038,1.67333992682,-45.6443693192
do_nothing,3.11030693569,0.886972834654,1.94836624037,2.97419897301,0.90977630358,0.876778695904,1.66365159358,0.123219180436,2.75710832434,1.43204905874,2.08492552364,0.152020341722,-0.241227994643,-46.9961814042
do_nothing,1.21996369992,-0.518675765358,1.25957476293,3.30999938418,1.38656070786,1.00541543211,1.22810566055,-0.326517505194,3.04467678411,-0.331226002708,1.8792228173,-1.83983486941,-2.15239491775,-41.2606173251
do_nothing,-0.784630084376,-1.89599816342,0.532949724161,3.48556475165,1.76632665062,0.906708764777,0.610198331942,-0.817383291967,3.2077091683,-2.07690041988,1.56405384786,-3.64995764829,-3.86724741738,-30.011314017
do_nothing,-2.69908177026,-3.09057378516,-0.154012728431,3.48067508904,2.02450900772,0.624392661536,-0.0930925679651,-1.27245145318,3.23117127787,-3.62018979474,1.17951822303,-5.08563948767,-5.21172240889,-15.472991216
do_nothing,-4.32921624483,-3.96669886585,-0.732381949553,3.28834365687,2.1512592851,0.233258207763,-0.769506404262,-1.61195032954,3.10785871055,-4.79923419668,0.769881381328,-5.99568282932,-6.05123512931,-0.172816482035
do_nothing,-5.51311356601,-4.42454629369,-1.14938799261,2.91612171844,2.15107648088,-0.172705815444,-1.30708467277,-1.76493883485,2.83965120594,-5.49498666182,0.377712760022,-6.28912546822,-6.30667927744,13.4324242258
do_nothing,-6.13913221848,-4.41284145392,-1.37387507452,2.38583604825,2.04053844535,-0.495101192239,-1.60998355102,-1.68029740561,2.43789270703,-5.64551763081,0.0384998649914,-5.94645419703,-5.96367203857,23.3002888822
do_nothing,-6.15772380792,-3.93534317471,-1.39898210545,1.73176095329,1.84458236275,-0.646712603125,-1.61234521711,-1.33543393451,1.9228168768,-5.25282661369,-0.223501586608,-5.02176570154,-5.07379268152,28.0708512958
do_nothing,-5.58565938809,-3.05025809831,-1.24177990688,0.997429443626,1.59196715979,-0.565660339068,-1.2883157679,-0.741394848343,1.32206383863,-4.38128515985,-0.397613583679,-3.63553927598,-3.74762095419,27.2246970351
do_nothing,-4.50227630334,-1.86267677773,-0.939987584153,0.231464811018,1.3106368581,-0.226065075966,-0.656816481205,0.0564471203948,0.66845399938,-3.14799095335,-0.486985942339,-1.95894873539,-2.14047609117,21.1133098507
do_nothing,-3.03838366824,-0.511066250431,-0.546263355262,-0.517060394166,1.02368313438,0.356341408121,0.219615997082,0.982351990738,-0.0027184216709,-1.70642828309,-0.506777123672,-0.191785619852,-0.432737491848,10.8632243521
do_nothing,-1.35939581236,0.850345384572,-0.120868650435,-1.20317372139,0.746484130233,1.124524005,1.24180453141,1.93839868988,-0.656549947314,-0.225747348616,-0.480604952909,1.46306679041,1.19264293727,-1.82675852889
do_nothing,0.35502807588,2.07091307423,0.27630144182,-1.78991536537,0.485395529177,1.98641160975,2.28582388049,2.81588797604,-1.26121413553,1.13143609344,-0.435866103853,2.82520065282,2.57245223765,-14.9614987985
do_nothing,1.93216610848,3.02205626864,0.593268420211,-2.25116140137,0.238120616027,2.82633459449,3.21825744719,3.50849750009,-1.7901661025,2.22964170268,-0.398690124154,3.75888123999,3.58240129461,-26.5556809207
do_nothing,3.22553578676,3.61243391128,0.792129724552,-2.57305812007,-0.00437395278256,3.52012063591,3.91282442812,3.92547075094,-2.22363615929,2.97670580251,-0.389342054758,4.1889298547,4.15067322407,-34.924705699
do_nothing,4.1299463491,3.79785323745,0.853065973879,-2.75395923276,-0.254762484,3.95182278679,4.26621553987,4.00310452935,-2.5492879194,3.33337992362,-0.41880933886,4.10821747588,4.26411245912,-38.9188591742
do_nothing,4.59057426446,3.58470308656,0.775744423769,-2.80296033804,-0.525622442608,4.0298181031,4.21110041657,3.71302131904,-2.76203502217,3.31514515229,-0.487115033645,3.57585123221,3.96635714663,-38.0691995741
do_nothing,4.60519367752,3.02661188087,0.57803254726,-2.73731025961,-0.82568003917,3.70009007104,3.72466650222,3.06614198226,-2.86312605361,2.98616829599,-0.583619479637,2.70641854982,3.34833848544,-32.6276887585
do_nothing,4.21964615318,2.21496987049,0.292306560383,-2.57912068712,-1.15665757085,2.95488211208,2.83165948157,2.11184995848,-2.85870243041,2.44645747558,-0.689249328106,1.65188495241,2.53263041601,-23.5001744547
do_nothing,3.51754623958,1.26479238997,-0.0400351817581,-2.35187440983,-1.51124199196,1.8355298152,1.6016319962,0.932479598572,-2.75809532422,1.81424787058,-0.780276250484,0.578749933015,1.65398253028,-12.0864884574
do_nothing,2.60596487301,0.298018892535,-0.375009295089,-2.0772379968,-1.8725200395,0.429059730809,0.140867501658,-0.366121238378,-2.57214680958,1.20632307884,-0.833007569245,-0.356289414198,0.838888010974,-0.0548927982766
do_nothing,1.59931061938,-0.573343451935,-0.672477937015,-1.77261742066,-2.21500279884,-1.14102544321,-1.41987476631,-1.66669614822,-2.31181546475,0.719256770533,-0.828589366911,-1.02872541942,0.18715266049,10.9134167517
do_nothing,0.603777750154,-1.26185389237,-0.901640365428,-1.44976581949,-2.50712521177,-2.72858593208,-2.94014063087,-2.85376508067,-1.98726246959,0.414402672079,-0.757086772533,-1.36352463739,-0.241876738393,19.3711266811
do_nothing,-0.295463520157,-1.71504024443,-1.04481011291,-1.11458125897,-2.71488844565,-4.18151641681,-4.28516441713,-3.82619384801,-1.60752153747,0.308890739787,-0.620104529598,-1.34488713497,-0.436454154354,24.3071835632
do_nothing,-1.04266019122,-1.92020820969,-1.09896897168,-0.768044887277,-2.80614633485,-5.3591033156,-5.33992900868,-4.5075782281,-1.1807496939,0.373985617081,-0.431431364352,-1.01712624663,-0.431946848955,25.2769748531
do_nothing,-1.61450764845,-1.90313130452,-1.07492658917,-0.40807429428,-2.75494427113,-6.1478590482,-6.02023314418,-4.85320916192,-0.714952772666,0.54106005057,-0.215502572532,-0.476574963095,-0.302837394837,22.4443033503
do_nothing,-2.01771990469,-1.72099339083,-0.994274653661,-0.0319292075819,-2.54531175371,-6.47385965371,-6.27956840663,-4.85288195915,-0.218995663491,0.714290293134,-0.00383020043997,0.144299436289,-0.148439828831,16.5327583893
do_nothing,-2.28187747395,-1.45078929656,-0.884655693159,0.361272961133,-2.17398747534,-6.31010766831,-6.11122207714,-4.52939571085,0.296344188087,0.788158796491,0.170105368806,0.698278340118,-0.0744906373724,8.697468529
do_nothing,-2.44899661951,-1.17503840241,-0.774120719125,0.768384427348,-1.65170530049,-5.67812589035,-5.54568641309,-3.93317533109,0.817532839584,0.66710078663,0.276729297082,1.04718437424,-0.173406319181,0.339393646505
do_nothing,-2.5617339582,-0.967039483214,-0.685490360441,1.18078986785,-1.00286779514,-4.64376252161,-4.64407441539,-3.13395519115,1.32786770527,0.284266264096,0.296070578501,1.0846324161,-0.506232473115,-7.10829007628
do_nothing,-2.65230862786,-0.87794076526,-0.631639801267,1.58397683013,-0.263651728464,-3.30794624551,-3.4887308097,-2.21082072209,1.80765178663,-0.383556206906,0.222317735454,0.754407588883,-1.08910746567,-12.3894788748
do_nothing,-2.73406845367,-0.927612563769,-0.612496863286,1.95822335465,0.521204118527,-1.79376755934,-2.17252063801,-1.24206611916,2.23501464101,-1.30729932711,0.0663908410352,0.0617267174214,-1.88645076196,-14.6000946923
do_nothing,-2.79717285057,-1.10073406115,-0.614292520318,2.28033323482,1.3025130866,-0.231695426421,-0.788342970975,-0.296275055662,2.58733425924,-2.40483278398,-0.144046524594,-0.924383702515,-2.812144332,-13.3052606853
do_nothing,-2.80918367428,-1.34872501187,-0.611268695409,2.5261807972,2.03113796959,1.25508824878,0.579745113328,0.574219112536,2.84311230154,-3.54849019611,-0.367343054738,-2.07812842103,-3.73883476604,-8.58496850444
do_nothing,-2.72054960304,-1.5972805896,-0.569676455443,2.67369500767,2.66232444398,2.56335655483,1.86276440767,1.33674454143,2.98407367401,-4.58015857345,-0.553170028162,-3.23262134262,-4.51430282575,-1.00573904276
do_nothing,-2.47416196263,-1.75842907073,-0.453541657779,2.70583733143,3.15937083172,3.61898484954,3.00986561975,1.97832472734,2.99721294215,-5.33206079927,-0.649761687846,-4.20219699013,-4.98279241727,8.47325451403
do_nothing,-2.01747268205,-1.74534812138,-0.231386189859,2.61312071169,3.49624755822,4.38160765274,3.98819163261,2.50260362888,2.8765023295,-5.6504840612,-0.6121223165,-4.80839506061,-5.00841278788,18.6420927776
do_nothing,-1.31520321202,-1.48774427204,0.117086087816,2.39527951779,3.65893957342,4.84448185653,4.7800489962,2.92438878357,2.62401065061,-5.41919980274,-0.410024451901,-4.90609792824,-4.49733947944,28.2067097576
do_nothing,-0.360508692812,-0.945483660628,0.595370813602,2.06182299921,3.64546667675,5.02993511818,5.37828341502,3.26287195453,2.25025471889,-4.57925973176,-0.0345748366439,-4.40621730102,-3.41560146358,35.9549571635
do_nothing,0.817377258534,-0.118377420663,1.18653852895,1.63136912216,3.4647130242,4.98137924351,5.78098337582,3.5347487059,1.77370414447,-3.14225205135,0.497744080523,-3.29173243876,-1.79975230166,40.8990109183
do_nothing,2.15052467091,0.949457716646,1.85228945218,1.12983670915,3.13434298889,4.75330533413,5.98666940724,3.74842976522,1.2194725172,-1.19491274558,1.14435008578,-1.62472552794,0.24138161852,42.3765286466
do_nothing,3.53551554655,2.17149643045,2.53502690118,0.587743949066,2.67817653617,4.40089340911,5.9909654746,3.90032725794,0.617336384321,1.10589841379,1.83951660312,0.456772227266,2.53452015445,40.1008257208
do_nothing,4.84242924633,3.42692086713,3.16288288865,0.0369945322515,2.12343222264,3.97084032425,5.78542573477,3.97384366739,-0.000687626272475,3.54757791117,2.50086361692,2.75197365002,4.85868554487,34.1591015715
do_nothing,5.92868961411,4.57404293463,3.65721852635,-0.492391671131,1.49821835609,3.49474816329,5.35876108141,3.94124718621,-0.602920603842,5.88398247563,3.03872904102,5.01909116925,6.96905066162,24.9659150469
do_nothing,6.65610100229,5.46736490319,3.94176193008,-0.97514022729,0.829570761853,2.98596615845,4.70024777545,3.76815239887,-1.16045097164,7.86285851999,3.36732228755,7.00303906948,8.62504484444,13.1853463209
do_nothing,6.90886351495,5.97607939629,3.95228733659,-1.39277743164,0.142214866946,2.44021376651,3.80468102922,3.41990991775,-1.6491391123,9.25516351345,3.41625253922,8.46566593032,9.61925408742,-0.361350633493
do_nothing,6.61012302102,6.00157647457,3.64561821503,-1.73460653777,-0.541908558536,1.83971684088,2.67792766903,2.86890377281,-2.05098471281,9.88264227372,3.14089799827,9.21474434255,9.80347226319,-14.7857158523
do_nothing,5.7347177099,5.4916216789,3.00677326942,-1.99750046716,-1.20344798315,1.1600510047,1.34198332568,2.10160441307,-2.35473745392,9.64019109111,2.53016385002,9.12807851044,9.10855624669,-29.2057984183
do_nothing,4.3162207418,4.44928092563,2.0532655627,-2.18459163059,-1.82497746273,0.378483635158,-0.16152568491,1.12424777738,-2.5557390386,8.5101641176,1.61046187375,8.16969414489,7.55547398728,-42.7951389587
do_nothing,2.44709121678,2.93533905253,0.835889005935,-2.30311292505,-2.39013205139,-0.517606180129,-1.77024359701,-0.0337993789926,-2.65509045077,6.56676732998,0.445200734253,6.39606724323,5.2560155509,-54.8051793014
do_nothing,0.271637190761,1.06379663135,-0.564257204646,-2.36177874241,-2.88282536476,-1.52364555804,-3.40288214597,-1.31960174566,-2.65832723506,3.96991451603,-0.870354787823,3.9515964968,2.40292167076,-64.5658115939
do_nothing,-2.0275571757,-1.00907946845,-2.04229979222,-2.36816951188,-3.28679803349,-2.61332395723,-4.96396400058,-2.65934711162,-2.57384468297,0.949225318152,-2.21839019796,1.05386346738,-0.749495690636,-71.4739480461
do_nothing,-4.2482137436,-3.10085217073,-3.47903483418,-2.32658537908,-3.58566924349,-3.73739842443,-6.35110480876,-3.96393260919,-2.41133590193,-2.21994302443,-3.47098515314,-2.02951919759,-3.91198307543,-74.9827482561
do_nothing,-6.18974554561,-5.02220920435,-4.75227788234,-2.23676252701,-3.76355927224,-4.8261564839,-7.46402257116,-5.13681297264,-2.18048642824,-5.24557697657,-4.50422645276,-5.00965932732,-6.79107465985,-74.6039077438
do_nothing,-7.67484813737,-6.59712093329,-5.74887430323,-2.0937091411,-3.80623727688,-5.79530578357,-8.21417773759,-6.08317517069,-1.89011301845,-7.84975702266,-5.21226706812,-7.60728282212,-9.12028045297,-69.9321743693
do_nothing,-8.56865308377,-7.68144365058,-6.3760342177,-1.88873693747,-3.70264479979,-6.55456215077,-8.53382417106,-6.71933570325,-1.54785070424,-9.79748310344,-5.5195772541,-9.5821275066,-10.6880671183,-60.695577891
do_nothing,-8.79310229972,-8.1777819301,-6.57072984079,-1.61156556028,-3.44656847712,-7.0178227823,-8.38330829211,-6.98124304359,-1.16039436854,-10.9202831056,-5.3898350618,-10.7574482022,-11.3594000301,-46.8277772768
do_nothing,-8.33481313118,-8.0449297676,-6.30611881878,-1.25319132491,-3.03819725768,-7.11359093944,-7.75568140129,-6.83110427517,-0.734204268395,-11.1320170863,-4.83031341835,-11.0369280323,-11.0884486931,-28.5518080849
do_nothing,-7.24553964326,-7.30091843408,-5.59430565895,-0.809067812411,-2.48530531157,-6.79428923147,-6.67805208022,-6.26141634524,-0.27650407588,-10.4352971089,-3.89118677288,-10.4122877022,-9.92117556754,-6.45878565999
do_nothing,-5.63528125804,-6.01951080897,-4.48517954243,-0.282067138142,-1.80384958535,-6.04325828061,-5.2095449936,-5.29602596236,0.203652439317,-8.91811467758,-2.65982746262,-8.9610605598,-7.98778130778,18.4379470336
do_nothing,-3.65901715071,-4.32078786936,-3.06151649007,0.315308515777,-1.01785168651,-4.87855697045,-3.43618143438,-3.98821554879,0.694485983123,-6.74144961976,-1.25080383228,-6.83519998065,-5.48620341505,44.6922871014
do_nothing,-1.49882902409,-2.35716750665,-1.43095086489,0.959912720343,-0.158533366025,-3.35310841201,-1.46338731191,-2.41616185176,1.18098463353,-4.11967432098,0.207157874402,-4.24225253997,-2.65890382599,70.4732650346
do_nothing,0.656287402318,-0.296691852753,0.284245148401,1.61843040562,0.737223414522,-1.55120759109,0.592891788915,-0.676391608445,1.64494394988,-1.29633779474,1.58560232332,-1.42163385676,0.234094169039,93.6785013148
do_nothing,2.63039868624,1.69434047986,1.95842385005,2.24942880527,1.62893349849,0.418145547844,2.6153695519,1.12396851631,2.06562852996,1.48167229423,2.77035414401,1.38100807794,2.94263143804,112.110276722
do_nothing,4.27798924513,3.46735707147,3.47364829138,2.80683963806,2.47486482715,2.43026107263,4.49384107976,2.87529810145,2.42103099492,3.98857169011,3.67337267068,3.93830611217,5.25111040496,123.700269632
do_nothing,5.49671745004,4.90436425945,4.72946385694,3.24450908006,3.23445290517,4.35506315479,6.13199869044,4.4731596189,2.68960745184,6.04006484468,4.24102369889,6.06186018902,6.99776836708,126.758886534
do_nothing,6.23427135854,5.92642672677,5.65042630082,3.52127552331,3.87054701299,6.06754580587,7.45210743172,5.82491855008,2.85228760073,7.50768057357,4.45783295824,7.61704563435,8.08664192759,120.217631515
do_nothing,6.48884980162,6.49716263057,6.19076541512,3.60592845884,4.35130955808,7.45731754541,8.39737996751,6.85489834672,2.89450512995,8.32593964174,4.34539855361,8.53076149678,8.49134600464,103.829608242
do_nothing,6.30365193875,6.62131160154,6.33592619118,3.48138275266,4.65166042242,8.43637705529,8.93225738381,7.5078983202,2.80797795112,8.49219012355,3.95678677437,8.79189513395,8.25085508926,78.2949520518
do_nothing,5.75652736605,6.33904678778,6.10109803802,3.14747660415,4.75423709584,8.94455555694,9.04110069971,7.75111691629,2.59199080463,8.05984991015,3.36732837498,8.44519377353,7.45845172056,45.2849421533
do_nothing,4.9465157186,5.71718096749,5.5271704531,2.62196086025,4.64991352264,8.95239284774,8.72597853217,7.57468193252,2.25399166657,7.12653226684,2.6631896814,7.57998516351,6.24577257468,7.35012510004
do_nothing,3.97931572506,4.83870371729,4.67480159326,1.93947200202,4.33797236422,8.461529744,8.00427181519,6.99107318615,1.80939976084,5.81901338291,1.92935303501,6.31568747811,4.76434559477,-32.2873913951
do_nothing,2.95373494409,3.79215493795,3.61742846433,1.14854119069,3.82604742312,7.50295430932,6.90670503205,6.0337280014,1.28062437087,4.27718424236,1.23867049107,4.78624376097,3.16712729039,-70.0412149315
do_nothing,1.95089280502,2.66219548128,2.4340737536,0.306951787556,3.12994186332,6.13360110032,5.47617970981,4.7550576122,0.695395463345,2.63901140608,0.643452293545,3.12550436962,1.59232278743,-102.3361798
do_nothing,1.0274322835,1.52241409654,1.20272089155,-0.524018411379,2.27338685617,4.43185873289,3.76747677083,3.22399813646,0.0845948311387,1.02815341859,0.170649024576,1.45520201762,0.151254720572,-126.008992889
do_nothing,0.213323717642,0.43097076641,-0.00514339467936,-1.2857780754,1.28774384073,2.49249804113,1.84757084351,1.52310590687,-0.520162331852,-0.454683287344,-0.178856975138,-0.123406143294,-1.07866920696,-138.684390555
do_nothing,-0.485877999894,-0.570807326855,-1.12844926433,-1.92826895237,0.211585777889,0.421414999152,-0.20397329308,-0.254882458348,-1.08891916827,-1.73621640121,-0.426940366392,-1.53381765145,-2.05564263893,-139.07716907
do_nothing,-1.08312597432,-1.45721437345,-2.11880615297,-2.41475653244,-0.909965221328,-1.66957448257,-2.29521695725,-2.01114156793,-1.59547766928,-2.77109232396,-0.611571031852,-2.7247225563,-2.77032253569,-127.177329864
do_nothing,-1.60163655294,-2.21503323089,-2.94121848504,-2.72497632158,-2.02629936811,-3.66780584375,-4.32338890347,-3.64558396566,-2.01899081219,-3.53915829247,-0.777943092319,-3.66737610502,-3.2390153303,-104.288752896
do_nothing,-2.06590462628,-2.83938886023,-3.57354807211,-2.85626078657,-3.0829314232,-5.46473645061,-6.17832020712,-5.06240205035,-2.3449046916,-4.0405903402,-0.968833973231,-4.35103663974,-3.49473934395,-72.9097397553
do_nothing,-2.49360015903,-3.32954225945,-4.00512756594,-2.82253727652,-4.02376951766,-6.9608966331,-7.7480504811,-6.17614551198,-2.56520114573,-4.29010401793,-1.21571578715,-4.77772799012,-3.57785105255,-36.4641617278
do_nothing,-2.88973529141,-3.68546451698,-4.23495992531,-2.65136820775,-4.7940609423,-8.07087121774,-8.92648815763,-6.91796770308,-2.67798642079,-4.31139712343,-1.53199992248,-4.95748663214,-3.52778843327,1.08793538729
do_nothing,-3.24404746338,-3.90578402585,-4.26989318794,-2.37946303133,-5.34392037289,-8.72825757604,-9.62257200498,-7.24149862424,-2.68655552275,-4.13271257775,-1.90945295214,-4.90496092706,-3.37711924289,35.7143932904
do_nothing,-3.53196297616,-3.98737072131,-4.12305399389,-2.0472913786,-5.63221853846,-8.89039262935,-9.76998049436,-7.12767850084,-2.59812316368,-3.78402533572,-2.3183297462,-4.63780671608,-3.14855783904,63.7923458935
do_nothing,-3.71888157752,-3.92646956837,-3.81268206978,-1.69354057725,-5.63049052501,-8.54247436608,-9.33614502017,-6.58785008925,-2.42244237299,-3.29592654857,-2.71120122978,-4.17685280274,-2.8550241914,82.5455591958
do_nothing,-3.76695522137,-3.7209824676,-3.36136028739,-1.35017253577,-5.32643495297,-7.70056576894,-8.32920398096,-5.66448343006,-2.17052749871,-2.69988107103,-3.0298933929,-3.54757838019,-2.50226208594,90.3803916546
do_nothing,-3.64311195143,-3.37327540521,-2.79550925793,-1.03874299296,-4.7265377402,-6.41290136714,-6.80162471312,-4.42909959695,-1.85366131405,-2.02924079647,-3.21448312606,-2.78212950836,-2.09309961381,87.0750203064
do_nothing,-3.3268639615,-2.89279115968,-2.1449345892,-0.768462931047,-3.85738049011,-4.7589498066,-4.84952471182,-2.97725550861,-1.48280299435,-1.32025499123,-3.21298386823,-1.92095837947,-1.63219000323,73.7949860021
do_nothing,-2.81646889619,-2.29779007515,-1.44219268443,-0.536232885215,-2.76528829278,-2.84583423283,-2.60721332692,-1.42081581861,-1.06843534435,-0.61234990707,-2.99024509109,-1.01322150068,-1.13004788127,52.9306094896
do_nothing,-2.13227897279,-1.61571143789,-0.721579863589,-0.328600516083,-1.51412912021,-0.801969699543,-0.237089137814,0.121879514798,-0.620808464261,0.0528576579126,-2.53469954101,-0.115310714482,-0.605390992309,27.7754307316
do_nothing,-1.31657038468,-0.881913490409,-0.0176408002901,-0.125319145463,-0.181280985114,1.23188413515,2.08431848637,1.53700038295,-0.150465844275,0.634034342604,-1.86190411683,0.71272873194,-0.0851703149797,2.08631473336
do_nothing,-0.429722637632,-0.136862968908,0.636782759231,0.0960419996524,1.14799102276,3.11358158304,4.18277930529,2.72616707069,0.331111305482,1.0939392639,-1.01428799811,1.41268430218,0.397846215641,-20.4177412267
do_nothing,0.456777641181,0.57785046958,1.21280824571,0.355134626859,2.38728790944,4.71163323018,5.90343488797,3.61604794411,0.810927258958,1.40405358704,-0.0570762533219,1.93491114698,0.809565362087,-36.5521143954
do_nothing,1.26949734069,1.22405749132,1.68780313909,0.664265240157,3.45632199369,5.91713154439,7.12646882628,4.16538892493,1.27413819856,1.54923647382,0.929082761623,2.24530473753,1.12032416605,-44.0922402145
do_nothing,1.94298838608,1.77135631043,2.04736703264,1.0249214271,4.28790539968,6.65422087492,7.77938679327,4.36850042543,1.70409769673,1.53147286637,1.85777436199,2.3313040928,1.31080059197,-42.0711405928
do_nothing,2.42893033956,2.20050539305,2.28664825305,1.4259331834,4.83391053097,6.88780578011,7.84425778474,4.25463384839,2.08285396015,1.37181073621,2.64741063467,2.20572694947,1.37686976332,-30.9081506023
do_nothing,2.70300333688,2.50523332922,2.41069230762,1.84358196248,5.06950607575,6.62740921192,7.35885416952,3.88319347609,2.39209516093,1.10979401763,3.23127128197,1.90746217684,1.33231377011,-12.3505834813
do_nothing,2.76832627909,2.69208353089,2.43363601918,2.24369496812,4.99514047512,5.92648043026,6.41138921005,3.33528292032,2.61446155545,0.800055625143,3.56558007287,1.49845978523,1.2086136302,10.7648372442
do_nothing,2.65480214996,2.7782341454,2.3767247628,2.5854800148,4.63598957944,4.8769704506,5.12938503115,2.70260028707,2.73507635322,0.506189017856,3.63448611863,1.05700772746,1.05152683631,34.8995633139
do_nothing,2.41433526464,2.78758040617,2.26531598419,2.82660630023,4.03887777689,3.59957654291,3.6639952379,2.07509581967,2.74310184366,0.292494355016,3.45126438022,0.667885374738,0.914707590016,56.2982700384
do_nothing,2.11253008796,2.74567969897,2.12521016841,2.92885346845,3.26698555458,2.23062866441,2.17174004041,1.52902577044,2.63311021992,0.214616750621,3.05559377145,0.410541615476,0.851169090018,71.5063362218
do_nothing,1.81804921027,2.67438513044,1.97879016339,2.86356092382,2.39293141391,0.90706822012,0.795992322525,1.11703551266,2.40607261345,0.310385354306,2.50733459233,0.346868554093,0.90382724909,77.8500049832
do_nothing,1.5912105201,2.58709046708,1.84152526981,2.61612422402,1.49102476162,-0.248719642397,-0.349381181858,0.861672858763,2.06981310561,0.592266508115,1.87772777142,0.510353923685,1.09662588791,73.8142107553
do_nothing,1.47357557028,2.48545683178,1.71939071355,2.18890372624,0.629598920263,-1.14236776699,-1.19208644755,0.753292201208,1.63884057151,1.04273292264,1.23930375108,0.89834970814,1.42777397804,59.2666489216
do_nothing,1.48019122637,2.35829193772,1.60766099666,1.60211641684,-0.135668093156,-1.71758277126,-1.70760910565,0.752716146945,1.13355041621,1.61352743942,0.655965913822,1.46888154888,1.86640990202,35.4972871121
do_nothing,1.59580225396,2.18293208441,1.49136553451,0.892546945321,-0.766655760428,-1.96148146102,-1.91879242693,0.798353441695,0.578868992065,2.22930171498,0.174676843922,2.14287396885,2.35356817517,5.06737138685
do_nothing,1.77579898159,1.92908201267,1.34746796018,0.110202141633,-1.24535931341,-1.90447177309,-1.88893367397,0.816824015174,0.00248403822953,2.79550314249,-0.180068763642,2.81194811855,2.80771856985,-28.5123240824
do_nothing,1.95197884873,1.5646578153,1.14857750296,-0.686694516931,-1.57383602617,-1.6146379509,-1.70945243078,0.735608596223,-0.567145190595,3.20975327454,-0.408217045743,3.35115791325,3.13446181133,-61.2312309778
do_nothing,2.04248165013,1.06281767329,0.867758540956,-1.43775280379,-1.77160852657,-1.18731214912,-1.48395017356,0.495903077848,-1.10278124712,3.37540097645,-0.532333402482,3.6352786118,3.23930113714,-89.0967254004
do_nothing,1.96461047665,0.409113073188,0.483809690425,-2.08675755307,-1.8709247541,-0.73116497477,-1.31099314292,0.0637725131389,-1.58019513282,3.2155300611,-0.592306987234,3.55666003402,3.04186674768,-108.650848593
do_nothing,1.64877008362,-0.392406428585,-0.0137317544211,-2.58751368259,-1.91055406433,-0.352633649716,-1.26813306573,-0.562112675461,-1.97957107095,2.68552110708,-0.637414717978,3.04229891111,2.48963753236,-117.417324307
do_nothing,1.05151544321,-1.31522649089,-0.620619178455,-2.90847425445,-1.92898979813,-0.140756853739,-1.39950179758,-1.34743307908,-2.28641155471,1.78234721691,-0.716968387404,2.0677345312,1.56914035267,-114.219827514
do_nothing,0.165745790358,-2.30938407025,-1.31562572026,-3.03559464498,-1.95800366247,-0.154459320214,-1.70879797812,-2.22450241084,-2.49189550535,0.549123825031,-0.870978982299,0.665651018651,0.312832962335,-99.3300446971
do_nothing,-0.973595892423,-3.30392213071,-2.06044539559,-2.97309102937,-2.01744519444,-0.414024088818,-2.15869762333,-3.09975437095,-2.59271565177,-0.926004031355,-1.12227261254,-1.07234516642,-1.19962797342,-74.4271505168
do_nothing,-2.28939090176,-4.21275957865,-2.80196730504,-2.74205603331,-2.11200630737,-0.897942246209,-2.67677772403,-3.86555244861,-2.59048624479,-2.51683778023,-1.47128237609,-3.00147972948,-2.84632742115,-42.3757188358
do_nothing,-3.66811827449,-4.94345042859,-3.47680966076,-2.37716119608,-2.23039899466,-1.54561014748,-3.16707832898,-4.41478309513,-2.49085965958,-4.07139153707,-1.89435043167,-4.93684383505,-4.47401249203,-6.85330003347
do_nothing,-4.97106789197,-5.40785289581,-4.01768520001,-1.92191764053,-2.34705998416,-2.26554918358,-3.52558505288,-4.65623617963,-2.30251399161,-5.42814827267,-2.3458609473,-6.67248130296,-5.91393632561,28.1213676177
do_nothing,-6.04976520326,-5.53339287549,-4.36089729278,-1.42314114711,-2.42614468244,-2.94806216623,-3.6573154776,-4.52859309062,-2.03617095474,-6.4344270023,-2.7639617151,-8.00445245339,-7.00085058369,58.695939918
do_nothing,-6.76376454019,-5.2734400347,-4.45407593653,-0.925353348276,-2.42725206986,-3.48061950157,-3.49243013949,-4.01096651041,-1.70377594396,-6.9646348163,-3.07910142499,-8.75518263715,-7.59286668782,81.6604389024
do_nothing,-6.99858681538,-4.61534856341,-4.26318391791,-0.465837161118,-2.31207642462,-3.76387573351,-2.99890417346,-3.12835753635,-1.3179255359,-6.93611475666,-3.22418756202,-8.79611609664,-7.58968989204,94.8295698874
do_nothing,-6.68148538487,-3.58495084995,-3.77787025523,-0.0709556773775,-2.05104503865,-3.72611026854,-2.18977662325,-1.95106301701,-0.891570334142,-6.32053712524,-3.14491762843,-8.06578392622,-6.9468409493,97.2830239703
do_nothing,-5.79293741305,-2.24670470759,-3.01441830758,0.245843753624,-1.62899288302,-3.33408336506,-1.12377444506,-0.58788962874,-0.437962780547,-5.14929215386,-2.80879046477,-6.58085794084,-5.68391090732,89.4354194819
do_nothing,-4.37225232044,-0.699231615332,-2.01581045747,0.484157480438,-1.04904740706,-2.59877561993,0.100923925493,0.826102343176,0.0292298951496,-3.51206293822,-2.21147182608,-4.43855001874,-3.88559489031,72.9310269442
do_nothing,-2.51640106332,0.933425468163,-0.848776310709,0.654959658255,-0.334133350042,-1.57517255619,1.35900509294,2.14581573941,0.495759919483,-1.54859684238,-1.37954552732,-1.80973504491,-1.69513246876,50.3821029234
do_nothing,-0.372008012763,2.51392998614,0.401936982638,0.777456128576,0.47417314573,-0.35607091805,2.51472268524,3.23419046548,0.946703117882,0.56545781584,-0.369177843794,1.07670086105,0.699268579757,24.9902666686
do_nothing,1.87869780109,3.90580658856,1.64148360681,0.874961676063,1.31935294673,0.939292582978,3.44061282944,3.97971946051,1.36654243044,2.63703608964,0.739211826159,3.9566980938,3.08355612825,0.105109617474
do_nothing,4.03641430003,4.98796664889,2.77415602946,0.970420134675,2.13577715861,2.18027074745,4.03551322364,4.31101127207,1.73950588563,4.47630076767,1.84962661949,6.55854677314,5.24031909048,-21.2187841522
do_nothing,5.90565424997,5.66786012679,3.71289170185,1.08221470551,2.85593500496,3.24146200362,4.23923127975,4.20635883306,2.05018449943,5.91700980726,2.86140131653,8.63197629841,6.9720018857,-36.6068060418
do_nothing,7.3155588523,5.89164537601,4.38795336962,1.22085433786,3.41813083977,4.01872814673,4.04165229196,3.69692040793,2.28439916735,6.83420086044,3.68092067142,9.97544822203,8.12210003052,-44.6414085468
do_nothing,8.13820483321,5.65011336591,4.7537756903,1.38698202316,3.7736534258,4.44238803983,3.48485382066,2.86297044517,2.43023201766,7.15712010627,4.23260855951,10.4584546251,8.59182082075,-44.997773858
do_nothing,8.30227175959,4.97961323628,4.79318579504,1.57095379845,3.89248324341,4.485784092,2.65778821017,1.82361892645,2.47909607133,6.87591355953,4.46774760107,10.0361812128,8.35024303209,-38.4250381751
