label,COUNTER,INTERPOLATED,AF3,F7,F3,FC5,T7,P7,O1,O2,P8,T8,FC6,F4,F8,AF4,RAW_CQ,GYROX,GYROY,MARKER,SYNC,TIME_STAMP_s,TIME_STAMP_ms,CQ_AF3,CQ_F7,CQ_F3,CQ_FC5,CQ_T7,CQ_P7,CQ_O1,CQ_O2,CQ_P8,CQ_T8,CQ_FC6,CQ_F4,CQ_F8,CQ_AF4,CQ_CMS,CQ_DRL
off_to_on,-4.87543728872,-6.58588798689,-5.51924799107,-5.96477122438,-2.05712011661,1.04400383264,3.9539861013,3.31071439805,-5.17989880533,-3.84595714625,-6.00850220605,-5.30004732878,-8.86575640161,2.34143801294
off_to_on,-5.01803489499,-6.45004614306,-4.81852945084,-6.11299722384,0.336612542899,3.11965209457,7.23901987421,4.28672257492,-4.95688449591,-4.80531586334,-5.40327691253,-6.44874872134,-8.77801670764,-14.6484321586
off_to_on,-4.13372836989,-5.08053992591,-3.28555398885,-5.03748465205,2.11805380056,3.79561525098,7.77970207427,3.13676623641,-3.88158060456,-4.9853324109,-3.99483903721,-6.51398479932,-7.01901514314,-23.7116485903
off_to_on,-2.57335567525,-2.9294658002,-1.44028843604,-3.09411117047,2.79277025495,2.99130530862,5.3576022686,0.237710559936,-2.2766934088,-4.40527624737,-2.25090563074,-5.54189148705,-4.12379477376,-25.1382832931
off_to_on,-0.805009365489,-0.57057132854,0.215140556583,-0.795716697719,2.29364046946,1.12437764622,0.763437758636,-3.34968122657,-0.516800632327,-3.20396876029,-0.591430906783,-3.76322600775,-0.819919441065,-21.5906920373
off_to_on,0.742034459938,1.47838896796,1.35729572311,1.34254487744,0.978838774509,-1.05132051662,-4.44823376284,-6.25002220816,1.07658815563,-1.59120042426,0.73170826241,-1.52528688878,2.18265587319,-16.5446674006
off_to_on,1.80265018015,2.89375038092,1.92052926423,2.93583396331,-0.517576310862,-2.70903159878,-8.46067750365,-7.25845210529,2.30123197692,0.202719693706,1.67322633247,0.795913471798,4.37214719027,-12.676703741
off_to_on,2.32850193423,3.60070490447,2.07006657809,3.80196439646,-1.52744327769,-3.22600298485,-9.79276639697,-5.7748159781,3.08571437581,1.96184658154,2.34457501066,2.87412415833,5.53160463803,-10.8362626824
off_to_on,2.45428963278,3.73331898784,2.08576108648,3.95991846519,-1.59647075205,-2.38542254566,-7.79906930612,-2.03714978427,3.45303890405,3.49661312556,2.90365191547,4.47875854775,5.72909493043,-9.96218097129
off_to_on,2.39690045879,3.5241013953,2.20730825349,3.56789905916,-0.651212025289,-0.441654424295,-2.90792105846,2.92699867498,3.46094781007,4.63835093315,3.43496182852,5.47986370422,5.2175052553,-7.90086013563
off_to_on,2.33208994193,3.17304082207,2.50600049932,2.83347741739,0.972887203335,1.96770408032,3.48344707429,7.61707143024,3.15020009385,5.2310733978,3.87380914381,5.82144405435,4.29149486585,-2.71944289319
off_to_on,2.30128147241,2.75188921269,2.83708823872,1.93358593491,2.65117445797,4.03078025082,9.42737979226,10.5389919164,2.52511131625,5.13689126872,4.00950799705,5.48534319394,3.16175373633,6.08111789081
off_to_on,2.18844595687,2.18339089996,2.89457557631,0.972653340357,3.6943058621,5.02255266222,13.0273958905,10.6884520405,1.57369235881,4.26417742952,3.56986853731,4.47038419139,1.89605901393,16.992875974
off_to_on,1.77839941337,1.30338126566,2.34903693179,-0.0120113867766,3.59841604507,4.53549625262,13.0333636702,7.87868012873,0.315160265792,2.61434832068,2.35499189342,2.80219194371,0.44693967254,26.836230772
off_to_on,0.874077154615,-0.02146022448,1.01457707144,-1.00917703349,2.23338927183,2.60940573317,9.2427121227,2.80679712699,-1.15123118606,0.329671817768,0.366037452052,0.571808140497,-1.25137168989,31.8957762277
off_to_on,-0.575504411271,-1.77213136178,-1.0232215948,-1.98257359846,-0.0962364500986,-0.276577644405,2.58209348526,-3.15919059937,-2.62432482505,-2.28280092449,-2.12690670519,-2.01667847332,-3.16409062677,29.4156737322
off_to_on,-2.39242602839,-3.70835811468,-3.37468786383,-2.83753805212,-2.73874855616,-3.34361302205,-5.15485175067,-8.39873880555,-3.82405362558,-4.77302886749,-4.61328832835,-4.61954025826,-5.07358016855,18.8547032279
off_to_on,-4.17361558423,-5.39012110018,-5.43104892373,-3.42367000986,-4.90108744606,-5.73920525432,-11.8305721949,-11.5236131434,-4.45837885522,-6.62378727359,-6.46718343397,-6.77511117603,-6.57930576379,2.37847172274
off_to_on,-5.39096616762,-6.29312120484,-6.54533720521,-3.57489646424,-5.90311573372,-6.78079484049,-15.5853192796,-11.7738212705,-4.31372166951,-7.36899560621,-7.13243059943,-7.98489757137,-7.19359728274,-15.6495587177
off_to_on,-5.56020366397,-5.98385523452,-6.24999922174,-3.17145433529,-5.39524564913,-6.1461442877,-15.3688085267,-9.20479574406,-3.33627286867,-6.72436431668,-6.30648086912,-7.84114600876,-6.50720756981,-30.0343524412
off_to_on,-4.42175563506,-4.29334962165,-4.43502395628,-2.19824232432,-3.46846443641,-3.95866897563,-11.2260354201,-4.61960977071,-1.67199773525,-4.69005893706,-4.05858718489,-6.16512509959,-4.36691727163,-36.4951972197
off_to_on,-2.06745454731,-1.42377543918,-1.4207847267,-0.774607184491,-0.623525577575,-0.74847545327,-4.26114948311,0.715014720834,0.353578982587,-1.58842712817,-0.838206773755,-3.10840518632,-0.996221455869,-33.1562574906
off_to_on,1.03838075055,2.05817493511,2.1057050034,0.858659117819,2.38630290231,2.69436153447,3.69721796158,5.4632566645,2.31349288444,1.98330233224,2.63395366498,0.825693992229,2.9952596236,-21.227496598
off_to_on,4.16052358271,5.34954604241,5.27585948642,2.39308393681,4.78368201267,5.52936125822,10.6184903551,8.59262366328,3.79194215094,5.28004081704,5.55999313465,4.86164231952,6.73186113378,-4.61180959222
off_to_on,6.49182306263,7.62689162412,7.28858361064,3.52978786519,5.99114534698,7.07943679847,14.8211429965,9.61114348661,4.49508535507,7.58473220388,7.28288319298,8.12144658856,9.29446035024,11.4336734812
off_to_on,7.3891989006,8.28343029109,7.64342787234,4.05470867198,5.78079540204,6.99366841662,15.3951114732,8.6123422647,4.32409570684,8.38540630609,7.45985461252,9.8424865616,9.98051902898,22.106022681
off_to_on,6.5710410968,7.11166651024,6.28284904294,3.88774941834,4.30884047903,5.32135624916,12.3875135645,6.14135861636,3.387970732,7.50354207652,6.13850242457,9.58185783015,8.51960116752,24.6842298285
off_to_on,4.21094818999,4.3718058236,3.59914722647,3.0921357474,2.0345048088,2.48508490503,6.72034250707,2.95401960044,1.95497768937,5.13749004898,3.71666633539,7.34559810819,5.17323462009,19.3903770693
off_to_on,0.895728592444,0.723072871411,0.306908308077,1.84491675737,-0.439772737453,-0.833776713559,-0.112538486318,-0.232672265731,0.36280095054,1.80964802271,0.806028402237,3.60145548556,0.683407515858,9.1785336862
off_to_on,-2.54025748964,-2.96045232424,-2.77423298312,0.382643475408,-2.54826837205,-3.86422420248,-6.46517893757,-2.91233516757,-1.07949175521,-1.76587091691,-1.95042822153,-0.83177151517,-3.91796573848,-1.4618597545
off_to_on,-5.25225399604,-5.83107164485,-4.95417204221,-1.05711277725,-3.90371644667,-5.9269589062,-10.9522058345,-4.8398363923,-2.16429113706,-4.85632469464,-4.04576443648,-4.98808205326,-7.58202655027,-8.24093239012
off_to_on,-6.6193006786,-7.29079105831,-5.84985118651,-2.27961997494,-4.36269756326,-6.58648764915,-12.7485108474,-5.97168196737,-2.81187810439,-6.87624338443,-5.21075306614,-7.99332482937,-9.51637654998,-8.69833561603
off_to_on,-6.4038129969,-7.1305011558,-5.45443799681,-3.15231541425,-4.00748307367,-5.7421909479,-11.7154910847,-6.35061054327,-3.04860765351,-7.50402169534,-5.42712595498,-9.27220859758,-9.37853250547,-3.12464051847
off_to_on,-4.79127855336,-5.54899707003,-4.08607718873,-3.60130809721,-3.06671888944,-3.64152120718,-8.34845026824,-6.00475325367,-2.95375101616,-6.72491288559,-4.86311607975,-8.66786077015,-7.33658318203,5.56872755716
off_to_on,-2.30503555784,-3.05620683274,-2.24494822953,-3.59598815959,-1.81482548843,-0.815246328635,-3.58662951802,-4.91534304412,-2.60262780367,-4.79919755318,-3.76842756102,-6.44688641973,-3.98751018449,12.9877907889
off_to_on,0.368993480502,-0.301223320834,-0.435471892038,-3.1357406512,-0.490205924198,2.04973081591,1.44619336586,-3.0670577021,-2.03238681694,-2.17466402334,-2.37566333475,-3.1978374131,-0.167618551189,14.988288558
off_to_on,2.58667053017,2.11435233789,0.983187293038,-2.24872221258,0.742851592411,4.27215655029,5.69988985164,-0.549976346782,-1.244475914,0.625964165388,-0.845924583375,0.339082089225,3.28046558732,9.3660494177
off_to_on,3.91400386687,3.77933818592,1.87148631597,-1.0037485539,1.78660810044,5.33765255283,8.40043748804,2.34801575324,-0.239908408556,3.11173883116,0.727338420727,3.45758853552,5.71278334614,-3.12286324566
off_to_on,4.21211974879,4.53534718682,2.29344683693,0.473092065566,2.5751706384,5.02311337192,9.16732088568,5.12106350026,0.932454561405,4.90245248768,2.26977096887,5.63502732724,6.80615911119,-18.8069182624
off_to_on,3.62340161154,4.45357194685,2.42920418835,1.99088751699,3.04087473899,3.45400051302,8.040768526,7.13153507543,2.14147114468,5.77135341692,3.66647737173,6.61276886926,6.57511628281,-32.2273971591
off_to_on,2.47733251269,3.75060242605,2.45955813856,3.30780353328,3.10556436326,1.07736495937,5.43051513304,7.78945385371,3.17518012569,5.65509418698,4.72930140579,6.39929309496,5.2971554602,-37.9836843265
off_to_on,1.15857467906,2.68489554917,2.4720595969,4.17085569566,2.70491842837,-1.44785265692,2.00586200977,6.76597912114,3.78530313062,4.64086321847,5.21612692193,5.21174475695,3.38654203727,-32.670159937
off_to_on,-0.0136623614658,1.47488794583,2.42506366922,4.37458421468,1.8346564883,-3.4207775074,-1.45095237412,4.1570119762,3.76300097117,2.94055623787,4.90269667989,3.38616408428,1.26586538843,-16.236044432
off_to_on,-0.857417427921,0.263636079181,2.1800700176,3.82167719655,0.593483277361,-4.28829095624,-4.20537221378,0.521794339669,3.01896188241,0.857306488355,3.68153107565,1.28830296136,-0.72475617406,7.71464385543
off_to_on,-1.33679135617,-0.868779609197,1.58431283338,2.56444899541,-0.804442308699,-3.80434602032,-5.72058966902,-3.23743534512,1.63602183171,-1.25535531501,1.64633609425,-0.752351796661,-2.36296348794,32.8165181016
off_to_on,-1.51893117245,-1.86478296468,0.565941317101,0.810001337396,-2.06356854861,-2.11203128267,-5.7701013972,-6.12958799837,-0.129654960879,-3.04330217387,-0.878958293674,-2.47746605518,-3.53073426272,51.7700925057
off_to_on,-1.50774151855,-2.65031073962,-0.799698838128,-1.1171283233,-2.88367532104,0.28119387497,-4.48636190763,-7.3831926593,-1.90489472414,-4.20923705111,-3.38923371247,-3.70921883487,-4.17644554913,58.5381641043
off_to_on,-1.38656588457,-3.12238879082,-2.28155713663,-2.84688876671,-3.05515521611,2.63636214425,-2.32689041884,-6.70211311468,-3.29812417164,-4.56999703448,-5.31902489122,-4.34672894703,-4.28078032595,50.2276981219
off_to_on,-1.19216879586,-3.17253709511,-3.54761476419,-4.05024311955,-2.53710478366,4.19312144459,0.0439372886316,-4.37316574626,-4.00867050799,-4.0997144021,-6.20023299868,-4.36116551735,-3.84576463896,28.0746661466
off_to_on,-0.924426187162,-2.73569681015,-4.26363476909,-4.51501324293,-1.48507866688,4.400009144,1.93569697088,-1.17912520438,-3.91012396098,-2.94287379727,-5.80476578284,-3.79435814289,-2.90940981691,-2.76908242842
off_to_on,-0.578607013797,-1.8400043181,-4.20018744993,-4.18918694541,-0.212099954613,3.09646073126,2.83057868215,1.86024400403,-3.0796527541,-1.38635331575,-4.22192528887,-2.75767319661,-1.57221891025,-34.5812906766
off_to_on,-0.177605347581,-0.630027392839,-3.30977598684,-3.18076516052,0.908593375423,0.587177027847,2.54190514179,3.83243633382,-1.76417502758,0.2088497774,-1.84094801466,-1.42329148333,-0.0136945302096,-59.1475807054
off_to_on,0.216383627475,0.653682717249,-1.74772539739,-1.71755135535,1.56719928765,-2.42186964129,1.27872886634,4.24062227251,-0.296676101624,1.50105033433,0.758670512489,-0.0013631314832,1.51953324141,-69.9719878427
off_to_on,0.519109479517,1.73705227207,0.168620938322,-0.0826931793676,1.62315390315,-5.01559417472,-0.413359615497,3.16452823335,1.00674872589,2.25973137867,2.97430908388,1.29685209467,2.75908199691,-64.0033027841
off_to_on,0.662706177327,2.39604565569,2.04627523911,1.45216484172,1.15299950411,-6.33894890296,-1.82682491074,1.21334487471,1.93285717037,2.42581476813,4.34991861472,2.3013303074,3.48200067648,-42.4220796275
off_to_on,0.635260418274,2.52923016911,3.51821905452,2.67642944675,0.420135448915,-5.86420469812,-2.33318075382,-0.7145223022,2.41190387756,2.11802914868,4.69276728404,2.91697775783,3.57551067266,-10.3114197959
off_to_on,0.498823450886,2.18934765272,4.32777725504,3.46212979582,-0.225114247871,-3.57314957708,-1.61318952196,-1.77831737856,2.50297774603,1.58018304112,4.10089291999,3.13519301517,3.07275504334,24.6587659296
off_to_on,0.371859344362,1.55896608012,4.37290645652,3.7587060419,-0.480050872423,0.00699664934632,0.204673747189,-1.52061744792,2.33554193254,1.08512904488,2.89682708706,3.01729565383,2.14251894619,54.1565117258
off_to_on,0.378552371299,0.877504464482,3.70417667835,3.57203689391,-0.20935727022,3.93232165294,2.55353521891,-0.0494716435277,2.0349471664,0.82829098503,1.4960125227,2.65534324409,1.03359061285,71.2152439073
off_to_on,0.584354810627,0.347257479372,2.48675013155,2.94268118321,0.495512218421,7.10314763535,4.59387550346,1.99416438497,1.66444587571,0.849835289505,0.26010054991,2.12639907098,-0.00698249948349,71.8676096929
off_to_on,0.946805826459,0.0559128054971,0.94669602552,1.93516665925,1.34175163654,8.58200949628,5.48973015245,3.67597693641,1.20779426285,1.0165350293,-0.611811606927,1.46078393098,-0.810980513334,56.0186886924
off_to_on,1.30794238072,-0.0521063556318,-0.677631424297,0.64174251374,1.93895338457,7.87326315304,4.7067160748,4.12938737261,0.598427539714,1.07397867735,-1.11762905279,0.640445012873,-1.33147746665,27.3937309021
off_to_on,1.43961752007,-0.141873001337,-2.16654384045,-0.805643163029,1.94536268262,5.07837004682,2.22908642585,2.90519746561,-0.219209025214,0.753805562232,-1.40562112687,-0.368742313261,-1.63403852157,-7.38531302434
off_to_on,1.13116033816,-0.403395930023,-3.33166069248,-2.22775774376,1.20403773513,0.87787078856,-1.38553771365,0.17770666688,-1.22501721182,-0.101473727076,-1.6710761128,-1.56254682798,-1.84078554947,-40.3534496905
off_to_on,0.288834669628,-0.949644289535,-4.01947043997,-3.40753943507,-0.181424903712,-3.65589326673,-5.14345195696,-3.2748110468,-2.28666879674,-1.44318430231,-2.04156704791,-2.8460083284,-2.0513661221,-64.0243225872
off_to_on,-0.992870125767,-1.73980722986,-4.1182208056,-4.1226307932,-1.86120829092,-7.35909738603,-7.90875600202,-6.31598301521,-3.17191063396,-2.99058563251,-2.49915716685,-4.01060405361,-2.27555396522,-73.0770707599
off_to_on,-2.42202945116,-2.56291265785,-3.57583231555,-4.19640876743,-3.34145768266,-9.29920691699,-8.76243959902,-7.84098755507,-3.61093173836,-4.29165822107,-2.87213509891,-4.76015107865,-2.40885449682,-65.5447606811
off_to_on,-3.57558230586,-3.09480509899,-2.42653529426,-3.55281689596,-4.14084371943,-9.02414020966,-7.30874113545,-7.17285903373,-3.38895847078,-4.85736646476,-2.90067426145,-4.78687938547,-2.26581863293,-43.2485255342
off_to_on,-4.02659278796,-3.01283326535,-0.813884564524,-2.25522322489,-3.94856306855,-6.66666579046,-3.82438529781,-4.32294591463,-2.43522896447,-4.32842796149,-2.35108644628,-3.87814598165,-1.66198108804,-11.3787416043
off_to_on,-3.49287343434,-2.12837629759,1.00684335958,-0.512108817574,-2.73019687163,-2.87958176456,0.803533948692,-0.0193182818093,-0.873251587947,-2.6188066739,-1.13346123872,-2.01827505455,-0.513784662288,22.694450043
off_to_on,-1.95517841807,-0.487184968414,2.69995976135,1.35778549374,-0.746074744599,1.37001681733,5.33512928786,4.51150745946,0.990350204999,0.0157781755307,0.625027926807,0.554068403646,1.08462028353,51.1262185079
off_to_on,0.300576718124,1.60401995506,3.91569276382,2.99457194491,1.52294088363,5.07768428445,8.54896699806,7.93671835706,2.73947730667,3.01368871247,2.58312909408,3.36191340797,2.84339819181,67.4342706563
off_to_on,2.73908007358,3.64159719425,4.37764167718,4.08193009472,3.51608597439,7.46315994851,9.60669356181,9.24873448727,3.96293937546,5.64342801361,4.26880657332,5.78566499401,4.33354979013,68.0348905044
off_to_on,4.7183081898,5.06440036832,3.96528154095,4.42247364733,4.75246811909,8.14177301298,8.29332930502,8.08793063641,4.37245785859,7.20242661747,5.21706556997,7.21738989184,5.10603990502,53.0953798398
off_to_on,5.67709168283,5.42527670891,2.76207178778,3.98119842021,4.95882096961,7.1660877218,5.05833927172,4.84738302298,3.88506291904,7.2192227308,5.11611143191,7.23047540952,4.83677465053,26.4724011653
off_to_on,5.3079657503,4.53797483148,1.04773373334,2.88478148474,4.12796490908,4.94308865661,0.850480913511,0.527759796083,2.64272529521,5.59697373222,3.91194648302,5.71266336341,3.44809597948,-5.26966492551
off_to_on,3.65833152107,2.54920820865,-0.769300677693,1.37904703311,2.49641077134,2.0709228657,-3.19167839836,-3.6021687016,0.963843901327,2.65366142783,1.83567216266,2.91892072241,1.16239961574,-34.5233628498
off_to_on,1.12536057116,-0.0901476385727,-2.26238182038,-0.239707091204,0.457116616609,-0.84118876654,-6.08598917076,-6.41798446955,-0.755365735609,-0.953889359797,-0.655646618122,-0.5759639829,-1.53527458168,-54.5557883665
off_to_on,-1.65526589464,-2.74720514652,-3.1066836732,-1.69650932619,-1.55722168169,-3.31102066534,-7.27516592973,-7.28232334856,-2.1550761367,-4.39956672121,-3.00451796351,-4.0144186841,-4.01857107983,-61.16751939
off_to_on,-3.99178450972,-4.78405988012,-3.16990985524,-2.79087626045,-3.18015176916,-5.04565801729,-6.73603893561,-6.20500869285,-3.0035238103,-6.90088963427,-4.70361970121,-6.64437972312,-5.68939327283,-53.6441836053
off_to_on,-5.33193581918,-5.73356991318,-2.54306624051,-3.41855051449,-4.17668171394,-5.92847127017,-4.90814978632,-3.7767100994,-3.23822887984,-7.9140050601,-5.4239127915,-7.90504199032,-6.14336473203,-34.7498157602
off_to_on,-5.41048340397,-5.41963035285,-1.5003833991,-3.56192532793,-4.45746483521,-5.96032347924,-2.48438196497,-0.914016806051,-2.94859709804,-7.25773853204,-5.08307259177,-7.55814930234,-5.27990546721,-9.78931132244
off_to_on,-4.30483422942,-3.9876372084,-0.401743860511,-3.2608462874,-4.05235351294,-5.19757258062,-0.151184257616,1.48160559242,-2.31335055019,-5.13752123062,-3.83931579703,-5.73098970595,-3.32399389617,14.9588849683
off_to_on,-2.3864634153,-1.84145242632,0.428940430805,-2.58119887821,-3.06688837198,-3.72217751343,1.62404344655,2.82402813561,-1.52148204997,-2.07081383741,-2.02122421897,-2.86493890633,-0.755617959589,33.9572580423
off_to_on,-0.19021329193,0.486658134873,0.807497154769,-1.59651648004,-1.64625088381,-1.6561772082,2.68766864239,2.9978814898,-0.708802085947,1.25689246492,-0.023612681214,0.40892192468,1.82782066734,43.7602369716
off_to_on,1.75123971051,2.48738540868,0.739958706662,-0.389057977875,0.0392603484766,0.795041243416,3.15759142019,2.32520944317,0.0671220755869,4.16058446769,1.79359367839,3.42692950596,3.8713382307,43.6275737988
off_to_on,3.05268732161,3.79896670275,0.403435116714,0.934552916158,1.78935695019,3.30605098411,3.28043105348,1.37245133408,0.808579704257,6.1032422197,3.17344380173,5.63816284695,4.99597952904,35.2815726623
off_to_on,3.55785226462,4.27108619976,0.0660578502285,2.22684916637,3.3654728069,5.43894017037,3.26187516789,0.685065830721,1.52967464949,6.78965487553,3.98378716585,6.70325560139,5.07025533015,21.9766357632
off_to_on,3.33891360821,3.95844261029,-0.0236847737711,3.29814597511,4.49971304149,6.71568798768,3.14917268127,0.559095338189,2.20475164646,6.19391727175,4.19888155868,6.5309336047,4.20661815965,7.2675762437
off_to_on,2.62562466435,3.05911579805,0.26260408974,3.94057211057,4.93456129683,6.74600964752,2.81693111521,0.937871362226,2.74036727556,4.52769206346,3.86076862004,5.25687683365,2.69510308862,-6.0645184251
off_to_on,1.69843756646,1.8290721876,0.879459128533,3.97641526142,4.49077106463,5.37114228532,2.05884937964,1.46771963626,2.98723580875,2.16936796709,3.04401650367,3.18405320462,0.904089028264,-16.5675540628
off_to_on,0.788442006379,0.506676131171,1.61947679189,3.31724223702,3.14299736542,2.76718436514,0.739329782438,1.68125017357,2.79078915013,-0.42213254377,1.84026536966,0.708379406498,-0.816617262484,-24.0221112004
off_to_on,0.018904137826,-0.729528638903,2.18598575672,2.01215928404,1.07161329989,-0.543036574292,-1.06949743097,1.22647036291,2.06137260737,-2.78967549523,0.36513441322,-1.75116428866,-2.20285092441,-28.8320803816
off_to_on,-0.596938964123,-1.76460834291,2.29985737486,0.263723344104,-1.33902600738,-3.79275749063,-3.03587579094,0.0438573906897,0.834909385157,-4.54568236209,-1.22386405019,-3.80883164952,-3.10186033888,-31.2487890081
off_to_on,-1.11083917768,-2.52489522428,1.80227280633,-1.60089867462,-3.5699012132,-6.17068735699,-4.63715653566,-1.58290140251,-0.70358782754,-5.42235288521,-2.71730473453,-5.15519194218,-3.46253547428,-30.8367708991
off_to_on,-1.57410892713,-2.95137155002,0.71763514624,-3.20081857512,-5.09368855908,-7.05967216477,-5.33267070318,-3.12382395899,-2.24835442794,-5.30492565404,-3.86836696538,-5.5917564143,-3.30729540753,-26.4771894517
off_to_on,-1.98418651771,-2.98889985892,-0.74422779534,-4.19605316788,-5.52350895371,-6.2357175053,-4.77672891672,-4.00782453942,-3.44833637375,-4.24759445207,-4.4373975973,-5.05973413693,-2.70472432275,-16.9601003118
off_to_on,-2.26748161174,-2.59999866777,-2.24579038579,-4.37749990444,-4.73577038353,-3.95475919323,-2.98485401483,-3.8527012318,-4.00664229279,-2.46854788628,-4.25687618486,-3.65899452299,-1.75497949288,-1.93534537371
off_to_on,-2.30521424282,-1.79654855793,-3.4184778976,-3.72349467387,-2.9222593525,-0.888641978444,-0.378708548881,-2.62635117036,-3.77063822423,-0.31892736021,-3.29470352548,-1.6471804787,-0.588398074984,17.2103983367
off_to_on,-1.98959163449,-0.670929238391,-3.96555541233,-2.40411873835,-0.547481403189,2.07718802105,2.32071040928,-0.67325931874,-2.78139403194,1.7767703761,-1.68977790694,0.592064137548,0.632322032531,37.0155863213
off_to_on,-1.28451102527,0.594693919904,-3.73904312536,-0.731376337762,1.78108883395,4.12177560685,4.32274579274,1.40569621519,-1.2648785966,3.40369942195,0.259302012039,2.61624179295,1.71953703061,52.4451413313
off_to_on,-0.263163474443,1.75432691891,-2.76992758218,0.928694256599,3.49098597156,4.74982669785,5.03965652456,2.97342130194,0.432467923752,4.24791412338,2.15597696575,4.01839945362,2.48621346616,58.2186041811
off_to_on,0.895242704191,2.5574064663,-1.24830893321,2.25350748816,4.21317252776,3.94517800943,4.30018978163,3.59018723345,1.94194790631,4.172824375,3.60298451559,4.52695597312,2.78769580104,50.6039665448
off_to_on,1.95036087493,2.82330385937,0.533524932048,3.04020709852,3.88424265221,2.16078218443,2.41958692423,3.16880294429,2.97170477638,3.25667468947,4.30604429837,4.08084077642,2.56663261299,29.0674702386
off_to_on,2.67086294336,2.50338757132,2.25266451866,3.23844950872,2.7474850399,0.146105258442,0.0929304474723,1.99099066816,3.37483767045,1.77481270189,4.15080760153,2.85202572361,1.88195382203,-2.87099236155
off_to_on,2.90350457212,1.70456514259,3.61945354343,2.93353969465,1.2529643161,-1.32876439871,-1.85454544002,0.580080616287,3.16710752923,0.126244807205,3.22788335661,1.20139003331,0.905399063355,-38.0232575696
off_to_on,2.61559538131,0.661166973778,4.41956174906,2.29141389532,-0.107344179468,-1.75429924254,-2.77019388246,-0.517453327084,2.49367723928,-1.27743834724,1.7980875203,-0.424420774084,-0.119891919756,-67.2102857464
off_to_on,1.89647346565,-0.338439870187,4.53189891787,1.48954824405,-0.969958171533,-1.06595097471,-2.41618340343,-0.952737979357,1.56232593183,-2.12813413195,0.210409547083,-1.62558991895,-0.948985250412,-81.8261173109
off_to_on,0.920065886683,-1.04578871886,3.92970936741,0.660827560433,-1.21453933446,0.337051768743,-1.05723448745,-0.707949267995,0.570961345422,-2.30530882392,-1.19901658215,-2.16830687683,-1.41020329625,-76.5270031606
off_to_on,-0.114454852711,-1.33260469494,2.6757083708,-0.130076768238,-0.982243650596,1.7480094291,0.643528150339,-0.0882844971465,-0.343577592129,-1.89972055351,-2.19326042958,-2.04913583983,-1.45804705707,-51.1661109917
off_to_on,-1.039631419,-1.22697984918,0.918572077327,-0.872972122125,-0.593235383786,2.42922550132,1.88516265389,0.424212414488,-1.11962024543,-1.16796226119,-2.67947418622,-1.48035478574,-1.18263871672,-11.2735665695
off_to_on,-1.75313636454,-0.891009694242,-1.10993032759,-1.57214829789,-0.396830124038,1.90787234094,2.04911169444,0.39493906749,-1.74851288524,-0.432964195383,-2.70186085479,-0.799614955356,-0.769899340846,33.184773428
off_to_on,-2.21832084273,-0.547897117561,-3.10555889801,-2.20202589698,-0.61342480375,0.180635286393,0.956357278014,-0.353987632877,-2.23229991621,0.034743513646,-2.39170314885,-0.33538527535,-0.425799378658,70.4845787738
off_to_on,-2.43780038369,-0.386579087645,-4.72098662658,-2.6817639047,-1.23084133171,-2.25272273031,-1.04040898366,-1.63843014066,-2.54501248845,0.112494307039,-1.89845168522,-0.277486525979,-0.293025116483,90.4855103972
off_to_on,-2.41788419745,-0.481485844882,-5.62010721934,-2.88364703854,-1.99727986731,-4.54567104614,-3.17092075533,-2.95952113654,-2.61854419931,-0.137097629731,-1.33090051666,-0.602041446539,-0.392853746085,87.6180502141
off_to_on,-2.14503050055,-0.75992865275,-5.55238704463,-2.67514231618,-2.51611371094,-5.80025057303,-4.53082062414,-3.69111823091,-2.36218288106,-0.500584635217,-0.730905151718,-1.08130731276,-0.616471159181,62.5732432104
off_to_on,-1.58886712238,-1.03140417122,-4.42970920825,-1.9792060503,-2.40804773885,-5.39779443606,-4.4312104903,-3.33724780672,-1.70892138981,-0.707069783463,-0.0868985384655,-1.37736061042,-0.771160032637,22.1458062362
off_to_on,-0.732542059121,-1.06866022176,-2.37989166877,-0.828000964593,-1.47880241749,-3.24521160569,-2.68237389266,-1.75803045708,-0.668402174938,-0.545027545195,0.623040397159,-1.18599239839,-0.664829908333,-22.7390770733
off_to_on,0.383651061416,-0.709239091812,0.247925495447,0.614364405596,0.173826303592,0.155766185968,0.299210099591,0.729236181402,0.638609216194,0.0425875145179,1.38147820726,-0.376023651498,-0.195994256676,-60.2082262163
off_to_on,1.62855946212,0.0630984390502,2.93913855482,2.07402133688,2.15878634405,3.84739964659,3.60761752849,3.42168974177,1.98370294599,0.922717795699,2.10092182214,0.93167467085,0.587589204991,-80.843943261
off_to_on,2.77849550793,1.09112555103,5.12459267196,3.2318135046,3.90297949754,6.71970551466,6.15175252688,5.45723564441,3.07754138056,1.81176400434,2.6295047915,2.38053516893,1.48765352683,-80.2617493784
off_to_on,3.55819894518,2.08488943454,6.32010419857,3.81102173063,4.83903890647,7.87610769157,7.03938352959,6.11668906211,3.64784837362,2.37732213282,2.79461533452,3.4898685454,2.21584749885,-60.0976307565
off_to_on,3.71729097924,2.71792629134,6.25479611486,3.65947109882,4.60381437419,6.9341364911,5.90082388313,5.0906121661,3.52325075513,2.36462791088,2.46908718047,3.82462475288,2.49569377268,-27.1648583195
off_to_on,3.1182710331,2.74425474169,4.94791485341,2.79780920575,3.17551670942,4.15579703769,3.03190524381,2.60939389029,2.69335958145,1.69958864756,1.63353107219,3.16192983007,2.16837921291,8.87084932229
off_to_on,1.80346508129,2.09222937645,2.70752555665,1.41684272647,0.89791823781,0.361612410781,-0.698842789393,-0.616188552785,1.32246517515,0.527928426433,0.407900125852,1.59104750056,1.26134430906,38.4941043657
off_to_on,0.0121345427845,0.89898801917,0.0485443583933,-0.175685280213,-1.62006479825,-3.3415338197,-4.1471387863,-3.62689605603,-0.290037603144,-0.826555453719,-0.964065218208,-0.494399976328,-0.00860057641146,55.0435699608
off_to_on,-1.86535648549,-0.528892273758,-2.44616904617,-1.64109438563,-3.69621259898,-5.92320095818,-6.28659863176,-5.53782815457,-1.79072054461,-1.9710024823,-2.17622184663,-2.51433646141,-1.30152248354,56.2959390126
off_to_on,-3.38722799625,-1.81508850019,-4.27889226942,-2.69990527082,-4.79182546038,-6.75620126892,-6.55561279563,-5.83576128466,-2.86834962294,-2.5800432506,-2.94805545912,-3.8914611801,-2.2671251476,44.5290403199
off_to_on,-4.18431615373,-2.63712307462,-5.15686982902,-3.1971157303,-4.67787790194,-5.79524058142,-5.03155589075,-4.54333459311,-3.33391058639,-2.5088233543,-3.1091028624,-4.24503301057,-2.66257940843,25.191184585
off_to_on,-4.06826802796,-2.82825379327,-5.04325687565,-3.12367458616,-3.49322623386,-3.54981543946,-2.37131796236,-2.19148584842,-3.15941566082,-1.83956899684,-2.64975211363,-3.51877758159,-2.43115406302,4.75473059543
off_to_on,-3.08731657251,-2.42050391688,-4.12777164301,-2.59169712904,-1.67686400094,-0.868460006068,0.455041120632,0.387285416465,-2.46566111411,-0.843698983729,-1.72009830429,-1.99526893786,-1.71187593135,-11.4458550798
off_to_on,-1.51011728792,-1.61455933271,-2.73357455585,-1.7775003346,0.198123922073,1.38121132257,2.53327326607,2.36587425562,-1.46730238821,0.126113929749,-0.577338987302,-0.190454381754,-0.776988041301,-20.6616031104
off_to_on,0.257329687945,-0.690704598049,-1.19823648812,-0.856873404641,1.62615528195,2.61678343031,3.334814272,3.21437355026,-0.397947344221,0.772133451257,0.499030134224,1.33339275222,0.0776962316731,-23.053177338
off_to_on,1.79359445307,0.102226150031,0.226489299462,0.0425744858525,2.33201837926,2.7189825058,2.88269128457,2.86869320768,0.556810744761,0.962644439169,1.29340779657,2.16700766607,0.645601327469,-20.923683081
off_to_on,2.78147593471,0.634853964652,1.42149627937,0.856405967442,2.33701022317,2.02267324422,1.69355519613,1.71619407108,1.29601647867,0.773778008231,1.71097959548,2.19123345927,0.879874524953,-17.2873965521
off_to_on,3.08617423418,0.92724451828,2.38224649671,1.56502894179,1.9081743298,1.132210841,0.524016578494,0.40915353955,1.80092315121,0.444811709437,1.78637374157,1.60046372476,0.892927775866,-14.4088966811
off_to_on,2.76872525725,1.11024612941,3.15128480409,2.15580889602,1.41550047294,0.63914371012,0.0266203815667,-0.417191092774,2.10100517534,0.264142925812,1.64398067913,0.80420411221,0.885417482709,-12.9006509283
off_to_on,2.03543152766,1.33650378802,3.73711266668,2.58741564627,1.15706615627,0.856677474339,0.456830682607,-0.409328988617,2.22811839022,0.431771738963,1.42845936044,0.24564207522,1.0347798888,-11.6984945985
off_to_on,1.14689753723,1.68133716735,4.06056982842,2.77663952661,1.22389029562,1.67773903639,1.55274493247,0.361968075933,2.1819849158,0.955391214876,1.23512683602,0.209043644159,1.39177460703,-8.85711256329
off_to_on,0.323430586162,2.07926378693,3.95797950023,2.61745026915,1.46012864604,2.61474914911,2.6408447804,1.43749704276,1.92375728676,1.62594734239,1.06929622388,0.693444065459,1.83240209532,-2.77172183867
off_to_on,-0.317774686027,2.32842637976,3.24558818195,2.02704460695,1.53618473037,3.0076969579,2.93000300672,2.16956936142,1.40096073706,2.08833245759,0.851419224789,1.40555670623,2.09155078592,6.73325947536
off_to_on,-0.773184069898,2.16735458521,1.82197376489,1.00027988862,1.10679558521,2.31992767916,1.87766703322,2.00644236132,0.592303339064,1.9848393096,0.465856606785,1.87877968792,1.87135119124,17.9429817281
off_to_on,-1.11304437669,1.39715300584,-0.234608520864,-0.352123807703,-0.00931844992324,0.403946578378,-0.522112135429,0.747018652418,-0.449116801478,1.11779266183,-0.167291700275,1.67490102277,0.984427803883,27.6484643357
off_to_on,-1.41359584831,4.56673968965e-05,-2.62004503146,-1.80212369865,-1.70312826591,-2.37280846521,-3.65451265222,-1.33862495815,-1.57656384304,-0.43396759143,-1.02831599555,0.590037643609,-0.526512220982,32.2740171743
off_to_on,-1.694640221,-1.79819672472,-4.83965291649,-3.04715906929,-3.55961505229,-5.20187972429,-6.45358660767,-3.5764837895,-2.56799593692,-2.29671880749,-1.97121379838,-1.21930757686,-2.34744833896,29.3022822055
off_to_on,-1.89229756954,-3.55652825578,-6.32569387729,-3.78771967437,-4.96934184208,-7.09206967944,-7.77666708565,-5.12456374811,-3.1806030293,-3.89894659851,-2.74979042134,-3.24709752122,-3.95833299385,18.4267047202
off_to_on,-1.88068503284,-4.73881046387,-6.60532853632,-3.81571523041,-5.3348580059,-7.22497112725,-6.85004540672,-5.29169933464,-3.22488221004,-4.65757576998,-3.09167611573,-4.79189270457,-4.7928170915,1.94914235146
off_to_on,-1.53415555199,-4.89052778183,-5.46417845024,-3.08356955995,-4.30052843637,-5.27912699545,-3.61596647332,-3.81849444539,-2.63217076934,-4.19060644989,-2.79585820006,-5.20498042432,-4.4413535474,-15.7800346383
off_to_on,-0.802834371686,-3.81102622206,-3.0465588782,-1.72888937399,-1.92050815508,-1.59938583722,1.16140596231,-1.01040742891,-1.48998632448,-2.47854951715,-1.8182985072,-4.14373536589,-2.824310194,-29.7173969673
off_to_on,0.233502251459,-1.65626769257,0.149008059015,-0.0440237156503,1.30305064799,2.86069657324,6.08966355518,2.33387806453,-0.0299304291069,0.0894665867453,-0.31219147329,-1.73392361738,-0.265999253077,-35.8056012002
off_to_on,1.36108475877,1.07239427979,3.38652049425,1.60134352159,4.53615800769,6.81581445455,9.58983353022,5.1797524226,1.43047726565,2.81078571443,1.39590267391,1.4266709185,2.56835488507,-32.3683662738
off_to_on,2.28580157407,3.65925106076,5.89043520841,2.86015451817,6.85382314518,9.05790121817,10.4384056756,6.61035859819,2.57409449219,4.88134902318,2.89053538541,4.43537517719,4.86275869664,-20.7048641093
off_to_on,2.72911161028,5.38768090279,7.06437682374,3.49838930671,7.52997348201,8.85915225596,8.2169747669,6.14936978268,3.17039995843,5.65685166659,3.78708756699,6.37194265432,5.91003021407,-4.65361302191
off_to_on,2.53132795836,5.76668176355,6.66083373555,3.44755847138,6.2800979518,6.22850370334,3.50144571725,3.93454621538,3.13349604193,4.87367910409,3.84792937385,6.60886740383,5.3535458574,10.7284832304
off_to_on,1.72138615149,4.69294789138,4.84671464796,2.80463038647,3.37270448534,1.92846575177,-2.2895098693,0.676819823352,2.5339091115,2.75044108757,3.05625100523,5.03482359972,3.32450100599,20.9014604051
off_to_on,0.522501742984,2.49040060544,2.14363632851,1.78330799219,-0.432308912741,-2.75929164292,-7.34660712638,-2.58256736964,1.56279221392,-0.0701184855418,1.62246031056,2.10846706173,0.420320467466,23.3684504886
off_to_on,-0.713605873857,-0.189858468668,-0.736564854752,0.637063179778,-4.10287865111,-6.4441315088,-10.0727382434,-4.83060928859,0.463763835899,-2.72425224896,-0.0793930949443,-1.2819757787,-2.47640391416,18.4451526284
off_to_on,-1.6236476721,-2.5777834657,-3.10595873487,-0.417267016976,-6.64308067223,-8.07508237934,-9.62775128777,-5.42817064163,-0.541914328093,-4.40935487988,-1.62419505092,-4.10906602006,-4.48247316865,9.00240321244
off_to_on,-1.95941398727,-4.03098131004,-4.49368909356,-1.24909075406,-7.39169998413,-7.27600890083,-6.22178048414,-4.31892357103,-1.31058069005,-4.64956935774,-2.66018375729,-5.54757373788,-5.00714991458,-0.712015313756
off_to_on,-1.67663917127,-4.23550674818,-4.75670073465,-1.82284832934,-6.21516485417,-4.45366244568,-1.04896925744,-2.02799091935,-1.79488906457,-3.4528324454,-3.0047927248,-5.24792041529,-3.95215374919,-6.7293788839
off_to_on,-0.95073977333,-3.29210433651,-4.07679398182,-2.16879597065,-3.53404930173,-0.642871858334,4.1206893942,0.546315335138,-2.02427674578,-1.30347298024,-2.68216038738,-3.44495632243,-1.74641753412,-6.8772928707
off_to_on,-0.110547496697,-1.65922300184,-2.8531586454,-2.33344690955,-0.17750234812,2.85642872024,7.55194131215,2.46896798893,-2.06052763942,1.00893194689,-1.89314343676,-0.862933370696,0.800477082399,-1.59461090626
off_to_on,0.487723083825,0.0252599461136,-1.5354868615,-2.33441727758,2.88374999116,4.92427085198,8.14421269702,3.10833466932,-1.9507554902,2.66638469884,-0.93180574198,1.55002159465,2.77878913537,6.26004651743
off_to_on,0.60011068363,1.17867102957,-0.461451488279,-2.14114572394,4.83681742829,4.99433271585,5.80945182453,2.35560005598,-1.69963860735,3.10912112321,-0.0798859660181,2.96332816521,3.49726491425,12.5392434702
off_to_on,0.194802305866,1.47980080182,0.242650011723,-1.69081423859,5.26160578233,3.22867708128,1.49355468261,0.645119768076,-1.27319078247,2.2316698628,0.483293884819,2.95886521188,2.72857608096,13.4631322826
off_to_on,-0.528043331244,0.972784169216,0.665650045018,-0.93279186685,4.22901767078,0.436009241651,-3.16725129864,-1.22836314334,-0.631792424444,0.41864424703,0.725356666587,1.67313479472,0.793709114209,7.1899853845
off_to_on,-1.20782683199,0.0321098449325,1.02486262273,0.118429963293,2.23785592895,-2.23460980358,-6.43410409079,-2.42468421904,0.223343431368,-1.59375677336,0.747334330971,-0.264837436721,-1.54739246579,-5.28693963082
off_to_on,-1.46305579626,-0.796905321866,1.52898944912,1.3470669838,0.0200146826088,-3.71497281693,-7.08918079496,-2.38637944209,1.21302873554,-2.9833467942,0.720910861706,-1.97755558836,-3.36381938786,-20.2683915867
off_to_on,-1.04835101804,-1.02211924263,2.24946436824,2.53670845525,-1.71447268625,-3.4052301203,-4.87387442195,-1.05726289583,2.17240631053,-3.14216613337,0.802677440076,-2.67641653804,-3.88853352534,-32.4929355719
off_to_on,0.0308314491228,-0.409036776141,3.05523028341,3.41411685063,-2.5048263109,-1.39194740762,-0.585391490633,1.08962219594,2.88151383086,-1.90552905255,1.05903286652,-1.96900579757,-2.80297260683,-36.9226919562
off_to_on,1.49246403575,0.911591853471,3.64077834338,3.72532619422,-2.2657506969,1.57916000608,4.20334312702,3.22465305689,3.12731078504,0.372242809221,1.43044984821,-0.0226772579622,-0.369858566882,-30.5647957689
off_to_on,2.8566738104,2.47534932761,3.64032046559,3.31935951533,-1.27711751939,4.36598969704,7.70208523197,4.47071339653,2.77665900752,2.92494754618,1.74869960507,2.47818318046,2.63592741154,-13.6981759226
off_to_on,3.60600338774,3.64635411564,2.78611882208,2.20981740377,-0.0499442618907,5.83676063518,8.54300405711,4.2346215632,1.83346904594,4.83061204181,1.80091351582,4.56954569004,5.17881438252,9.93296086133
off_to_on,3.37274733222,3.85323223691,1.04945594768,0.590513966351,0.877155990958,5.27946536135,6.27600266684,2.43907507871,0.457106259547,5.33043731818,1.41713331565,5.35724279324,6.3129622984,34.0572974462
off_to_on,2.08618885539,2.81378900215,-1.29388773889,-1.20367549318,1.13622658241,2.67199985078,1.5448297035,-0.429960970177,-1.06799768768,4.10149212438,0.549257548363,4.3541387933,5.51268217436,51.6724224468
off_to_on,0.0240018742469,0.665557112153,-3.70626685639,-2.7809044603,0.654167600841,-1.28138412036,-4.11855557288,-3.47824609481,-2.40443679982,1.38848801104,-0.688089818616,1.68281844241,2.86916114108,57.1451450985
off_to_on,-2.25572523304,-2.04845828836,-5.5328375438,-3.79593596544,-0.33648599831,-5.36214656996,-8.81030792919,-5.70556788106,-3.25347868194,-2.05309330066,-2.03138079098,-1.93231180656,-0.915748609685,47.9649451441
off_to_on,-4.083549111,-4.53877434736,-6.2042046754,-4.04092680172,-1.39813955426,-8.22887832525,-10.9028401831,-6.34817145728,-3.43680150493,-5.1868026861,-3.13478195375,-5.38599852443,-4.73950985473,25.6104295318
off_to_on,-4.89392888794,-6.02175078576,-5.42957109097,-3.49547946247,-2.0593404769,-8.85874802103,-9.6013699204,-5.1411331883,-2.9420266596,-7.02387921615,-3.66978038172,-7.55349980371,-7.4446376529,-4.73412816479
off_to_on,-4.41377492053,-5.98010001851,-3.31280866373,-2.32190016232,-1.99314662873,-6.89315739772,-5.2189062121,-2.41041405385,-1.91824329803,-6.94315361212,-3.42685061523,-7.6694933971,-8.18647581068,-35.5255031453
off_to_on,-2.75879758403,-4.34234074472,-0.347639029706,-0.809895721093,-1.13941262475,-2.77374419655,0.921676164721,1.03458209013,-0.624884862916,-4.89707691776,-2.38707053378,-5.59431754928,-6.70217894199,-58.8743272223
off_to_on,-0.402843186656,-1.51893904911,2.71216372551,0.708932183226,0.270289970417,2.37613861527,6.92144183196,4.16743200723,0.647163423878,-1.4361632186,-0.740721105739,-1.87529324197,-3.39360812782,-68.6475335262
off_to_on,1.97120315066,1.71849657633,5.06954987645,1.94809079129,1.79124439072,7.08670520414,10.9248876645,6.07620834252,1.6550643461,2.45631970016,1.15391330708,2.41917727961,0.800816771931,-62.080953836
off_to_on,3.68947292778,4.47534723024,6.12000913339,2.72801533223,2.91803515067,9.98698241508,11.7156106469,6.2473212419,2.2586950109,5.66590148022,2.86034927529,6.03759922893,4.7006289206,-40.4838567308
off_to_on,4.30070807121,6.01041824246,5.63103834278,2.99711447653,3.25706969519,10.2197816934,9.09202882448,4.70973673406,2.43572428042,7.2877465974,3.97689842482,7.94226888792,7.24613615543,-8.88315116739
off_to_on,3.71348980662,5.95954797998,3.80756365906,2.81205810532,2.66034925333,7.69806941215,3.90627436329,1.99901141321,2.25763647852,6.89852767005,4.241084705,7.63301323138,7.81189861106,25.2582946365
off_to_on,2.21169144747,4.43425613735,1.22249754833,2.29144228819,1.27654229288,3.12646603297,-2.23487888628,-1.03694040495,1.84120084338,4.67495254892,3.5967512875,5.29204998433,6.37301096417,53.8872841651
off_to_on,0.344893622878,1.96636541793,-1.36471968815,1.56447890348,-0.495737236712,-2.21402608568,-7.49673137196,-3.5172051826,1.29733051354,1.3250076134,2.20620974712,1.70591217177,3.47769217067,70.2929780252
off_to_on,-1.26651390066,-0.678519123651,-3.24284755791,0.734921034597,-2.1349566106,-6.84746701615,-10.3910989053,-4.79626272325,0.697714137703,-2.14200452108,0.405364252335,-2.00433855126,0.0443570974445,70.6627996174
off_to_on,-2.14304102221,-2.75287239898,-3.96174611343,-0.128738241018,-3.16104105964,-9.53187075415,-10.2122896314,-4.63657567555,0.0701367029297,-4.73053919431,-1.38475887441,-4.75045872361,-2.94272480065,54.918879527
off_to_on,-2.10147613768,-3.75914273187,-3.45663564667,-0.978516635778,-3.28368880185,-9.60685423428,-7.20416407849,-3.23943041329,-0.579819934463,-5.75855367303,-2.76545519655,-5.81825233109,-4.73612991805,26.6786225349
off_to_on,-1.30165190603,-3.58622278651,-2.04666026451,-1.76035547946,-2.4883057452,-7.16077380171,-2.42313167365,-1.13880295288,-1.23451101793,-5.04963526873,-3.45801251982,-5.07189155152,-5.02970417711,-7.61552206126
off_to_on,-0.171055076456,-2.51000406476,-0.311794740984,-2.39320478967,-1.03464444943,-2.97590866781,2.63774820693,0.993064730461,-1.83637389042,-2.96206953632,-3.36649921805,-2.9600885485,-4.00597060038,-40.1783929863
off_to_on,0.763422959494,-1.06487888049,1.10902490713,-2.76812969565,0.628612526903,1.72251106535,6.52701330521,2.55706250011,-2.28232871474,-0.252163941884,-2.59062226563,-0.331056829769,-2.22288435499,-63.6410731385
off_to_on,1.07537319238,0.163696903952,1.73155409342,-2.77218289295,2.004332313,5.63164458428,8.25799210792,3.1883319306,-2.44629098831,2.17939207926,-1.38721283962,1.87367603337,-0.389299944086,-72.7049491532
off_to_on,0.599111258389,0.750849445262,1.38263296348,-2.32985877956,2.69790072664,7.74013118502,7.55185045785,2.82584890849,-2.22299990606,3.5751565097,-0.092455103221,2.93948230266,0.888130836438,-65.336054462
off_to_on,-0.506081897003,0.575077147634,0.250297755897,-1.44571965555,2.53280150142,7.59537039515,4.84512897462,1.68500520777,-1.57628554921,3.55244730824,0.972945904289,2.60603454498,1.30015084771,-43.2378646794
off_to_on,-1.80980590248,-0.154482195923,-1.186361093,-0.229176526407,1.59740603425,5.39863430094,1.08650508779,0.15919274974,-0.571559380624,2.20946081459,1.58935023806,1.13083977591,0.91095978591,-11.4864007779
off_to_on,-2.76317887183,-0.991713212055,-2.32302946707,1.11233899024,0.211301361193,1.91076899216,-2.58988808548,-1.30698814761,0.622830536642,0.0777752172683,1.69109276711,-0.824533615444,0.0979470149025,22.6118239139
off_to_on,-2.89690580573,-1.43187094488,-2.63730630887,2.31436643346,-1.17643192151,-1.79417523015,-5.20092861981,-2.33178374059,1.76951168495,-2.05915191393,1.37246793045,-2.43980922907,-0.615200481012,51.2016901253
off_to_on,-1.99620513922,-1.11034988984,-1.87066493539,3.12025772351,-2.12519446049,-4.6495342145,-6.16104570682,-2.67179357515,2.62216328676,-3.42199878822,0.845751901754,-3.02613909275,-0.768308473012,67.7250957313
off_to_on,-0.192429911644,0.0479184086207,-0.127531665667,3.3500121495,-2.33583449279,-5.89686652019,-5.38280201415,-2.25305941697,2.99256569296,-3.48615622203,0.364055458178,-2.26373022727,-0.14305061722,68.4917945115
off_to_on,2.06019215378,1.78025129314,2.13994407162,2.9507665874,-1.73992621843,-5.28402612133,-3.22941850743,-1.16701412082,2.80240973463,-2.15095002999,0.132466882223,-0.311341932145,1.15000269054,53.5779813975
off_to_on,4.11569046779,3.55629784276,4.25758910624,2.0122104986,-0.520031311745,-3.11058152047,-0.361177342633,0.354575880124,2.10284733568,0.222250335103,0.235236472778,2.24318742003,2.70209134994,26.8034097044
off_to_on,5.33296123789,4.74407086708,5.52812935208,0.74184774029,0.944335928321,-0.115459571573,2.46142430529,1.97644489593,1.05614111839,2.91310162216,0.602980814894,4.57027880126,3.94124765118,-5.23391102008
off_to_on,5.27488906749,4.81830362183,5.44435702795,-0.591586934042,2.18919870585,2.75467335783,4.55931546076,3.30817444828,-0.11305686942,5.05527778157,1.03253851135,5.86062255588,4.32484247291,-34.8342525635
off_to_on,3.84744251208,3.54411857885,3.85348367187,-1.72803075444,2.80472107134,4.62681403848,5.46473713462,3.96924461099,-1.17928914267,5.89685618427,1.25600123714,5.57890955766,3.5265426826,-55.1485942097
off_to_on,1.33659431037,1.07705252944,1.02383655551,-2.47735836437,2.56005984616,4.95249688559,4.98904270023,3.67264349459,-1.97008645669,5.03264090648,1.03915129354,3.63321984782,1.55874475461,-61.8812379414
off_to_on,-1.66625137467,-2.05334286183,-2.40700060311,-2.75440439917,1.47806255008,3.65898563633,3.23661800166,2.31677316603,-2.39590353358,2.54127920488,0.278199389405,0.41312925116,-1.20650493003,-54.2769066611
off_to_on,-4.42548110328,-5.07353756056,-5.59003906216,-2.58033727923,-0.162961455105,1.16095891829,0.578332584234,0.0602733303935,-2.45031638486,-1.0132812308,-0.938533782846,-3.30981844815,-4.12349984317,-35.1280701291
off_to_on,-6.25962301389,-7.17302496243,-7.68657767811,-2.05498838444,-1.90285255144,-1.76787020366,-2.40771911032,-2.65467842715,-2.18615330691,-4.71894367459,-2.3288621463,-6.58658942491,-6.44006268802,-9.82508528925
off_to_on,-6.71911876817,-7.72934450863,-8.09386266606,-1.31403191855,-3.22941500109,-4.22506439313,-5.02859670201,-5.16007548669,-1.68154032106,-7.55597289444,-3.48224038223,-8.54086982854,-7.49846013768,15.2441663792
off_to_on,-5.6953486411,-6.48745559366,-6.61352159559,-0.488212337366,-3.72827466868,-5.44560965274,-6.60389445039,-6.70879129833,-1.01177386068,-8.67677906022,-3.97815273354,-8.59763802217,-6.91528400926,34.449165301
off_to_on,-3.43559326801,-3.64316583354,-3.5167313926,0.32167600051,-3.20934067167,-5.02797643592,-6.62000734569,-6.68544716422,-0.238054423256,-7.64896459877,-3.52389620733,-6.63283596211,-4.69322582179,44.2997210385
off_to_on,-0.466679571965,0.192755403337,0.512538750602,1.04876774093,-1.77149093714,-3.05521528897,-4.8844383699,-4.82429156551,0.585197967459,-4.59385884299,-2.06838713226,-3.01022132025,-1.23679472848,44.0708502492
off_to_on,2.54548063595,4.14061171079,4.54259168579,1.64741237473,0.216226207399,-0.0754416221067,-1.63537094796,-1.35942309454,1.39231079085,-0.179321806316,0.147844750586,1.49947858537,2.73131427509,35.5475016504
off_to_on,4.95906315045,7.26958063856,7.62507914592,2.07497973223,2.2145137521,3.05416222841,2.44341666983,2.95934265659,2.0911267801,4.53608020961,2.62927600391,5.89474241092,6.33263642542,22.0637356012
off_to_on,6.29962311589,8.83050584717,9.03222424114,2.28080309594,3.66783599943,5.41621706757,6.33621113527,7.01626390672,2.56331363261,8.37013410259,4.74535218496,9.17249648506,8.73570982883,7.23602571933
off_to_on,6.3511999197,8.44364058267,8.43848334717,2.21048294591,4.16773889837,6.30333134729,8.93466186004,9.6225817321,2.6859934822,10.326328826,5.90331678932,10.5585197905,9.35213470824,-6.13566691939
off_to_on,5.18008505842,6.19347737259,5.99940114597,1.82565214242,3.57588206176,5.43015408359,9.35263690197,9.8755137458,2.37022176253,9.86263426747,5.72403783904,9.68824004388,7.98053308004,-16.6273054746
off_to_on,3.09435889422,2.60693674087,2.30747720961,1.13103830626,2.06765950095,3.02317007108,7.2268918892,7.47176294906,1.6026908233,7.0451925639,4.16640450098,6.69792799105,4.86429139864,-24.0763176061
off_to_on,0.556690961054,-1.47895150655,-1.76255826421,0.195853314625,0.0806975538555,-0.240911311624,2.89986638862,2.86503244321,0.473031039915,2.54176293959,1.55868119501,2.20462749779,0.647597575523,-28.9397723507
off_to_on,-1.92443552841,-5.1256284816,-5.27727953526,-0.842663536352,-1.81788968426,-3.43236648146,-2.59646638877,-2.80229716875,-0.827720702975,-2.54706813902,-1.47773286015,-2.82379105669,-3.76314979649,-31.4862151736
off_to_on,-3.8993751968,-7.52422603112,-7.47699101024,-1.79950577008,-3.10512296139,-5.64381334778,-7.77993805742,-7.9932914249,-2.04237369839,-6.97551402547,-4.19349493404,-7.28296378592,-7.40333260352,-31.2444383493
off_to_on,-5.05722221214,-8.19008102296,-7.95537213281,-2.48271162756,-3.46182581459,-6.2609336073,-11.130310832,-11.2195289677,-2.90904788277,-9.68102356727,-5.91811634923,-10.1846594881,-9.47337365172,-27.0145788889
off_to_on,-5.26859190432,-7.07078605118,-6.7399959579,-2.74296037429,-2.86652480846,-5.14538292865,-11.5570493627,-11.4993649937,-3.23086815268,-10.0622264597,-6.24647955098,-10.8894927121,-9.5279466527,-17.4920174011
off_to_on,-4.58797095169,-4.54077786079,-4.25562170703,-2.51582109524,-1.59217481019,-2.67238062568,-8.77269112658,-8.68256596432,-2.93155280776,-8.12804290569,-5.14815146057,-9.2621677331,-7.5832618085,-2.26260011112
off_to_on,-3.22044104809,-1.28576126994,-1.18532614951,-1.84214977071,-0.106046843573,0.38994563049,-3.43873895994,-3.52766489072,-2.07825171407,-4.47599626603,-2.9660417683,-5.70704430918,-4.1127701511,17.2812952276
off_to_on,-1.4637287478,1.88983701872,1.72701595483,-0.859240217631,1.09410670753,3.12250737919,2.98319154364,2.50520248928,-0.863581612659,-0.107462135327,-0.305669067916,-1.06999900788,0.0707780198221,37.5869092115
off_to_on,0.359832515795,4.27798919814,3.87410386509,0.234732041206,1.65193352398,4.74233607009,8.64691018966,7.68987572698,0.447519119729,3.86415594737,2.14902434643,3.57256788622,4.01870088255,53.4602350017
off_to_on,1.96606588265,5.44422425899,4.92611454894,1.23142902129,1.47268664175,4.84323482156,11.882842116,10.5634571655,1.58877373748,6.52448748612,3.83427855853,7.18454941269,6.88247634949,59.4435328618
off_to_on,3.15336112494,5.31760714353,4.87827018499,1.96198008931,0.748736624453,3.51261078292,11.7266863219,10.3787802578,2.35859756986,7.39561399339,4.45686869775,9.02833663791,8.11901498674,51.6750510384
off_to_on,3.82084828404,4.17045988553,3.99850949219,2.33052841189,-0.120142120003,1.28696835129,8.23878798664,7.33063954547,2.66113803798,6.53092374464,4.0506889453,8.83872450551,7.60884671277,29.5977248751
off_to_on,3.95973068377,2.49833967368,2.70021285196,2.3232717172,-0.684807574901,-1.03851766,2.50041934921,2.47904632117,2.51204656567,4.44430378785,2.92625712169,6.86339678202,5.65544894923,-3.15729156777
off_to_on,3.62485445348,0.841667056281,1.3874931645,1.9937769726,-0.62695214328,-2.68236881699,-3.72146622546,-2.6066622095,2.01163513196,1.9037391043,1.53607207947,3.75979021184,2.86904225151,-39.1736240093
off_to_on,2.8993828195,-0.391397219856,0.326860946447,1.43356201837,0.104899420463,-3.13942673404,-8.53696907821,-6.36478277714,1.29920643496,-0.337470847693,0.306536677593,0.381888040933,-0.0268179041626,-68.9900488153
off_to_on,1.86713726304,-1.04214353891,-0.41286826301,0.741051777406,1.25658159739,-2.34502657621,-10.5392776445,-7.74610362282,0.507540153956,-1.78003199097,-0.503153337867,-2.47510612417,-2.40407526499,-83.7555771618
off_to_on,0.603586658841,-1.22041628261,-0.936563028306,0.00064881397621,2.34638514695,-0.685224665185,-9.25135987759,-6.53733749884,-0.265954753047,-2.30907920945,-0.866484435136,-4.29123845193,-3.88902223024,-78.0084991308
off_to_on,-0.811761071127,-1.22149969215,-1.42983949507,-0.722338688418,2.83768738493,1.14983828597,-5.26220829519,-3.39601954393,-0.963709721064,-2.17582012795,-0.959701713986,-4.93217482715,-4.42383118648,-51.66775013
off_to_on,-2.26906980418,-1.37306848854,-2.03755438232,-1.37309552101,2.34763175344,2.41822805632,-0.00657293202449,0.410789301241,-1.55167527625,-1.84382411831,-1.05241817718,-4.62299169915,-4.21761853044,-10.5129006774
off_to_on,-3.60385234883,-1.87064470758,-2.76440135735,-1.89364994882,0.816603397893,2.59600194682,4.73538669247,3.46945462564,-1.99485299549,-1.76195953643,-1.36426892675,-3.8025915986,-3.61261604202,35.1196223698
off_to_on,-4.59307031873,-2.66610355012,-3.4398615354,-2.21502653313,-1.42713691905,1.5696708309,7.44519568452,4.72067997177,-2.24040186951,-2.15255118557,-1.94578189882,-2.91791420917,-2.92059904314,73.1234425197
off_to_on,-4.98478777157,-3.45652720382,-3.76534156258,-2.26312855996,-3.73941921538,-0.317082193925,7.36991157274,3.82293808845,-2.21991552767,-2.89797184239,-2.63258998046,-2.23804875987,-2.29422511985,93.0885264228
off_to_on,-4.56205202709,-3.78500397486,-3.42950901093,-1.97944971419,-5.35329398979,-2.38018651059,4.74988400477,1.25284834795,-1.87293147181,-3.5728120789,-3.09441777514,-1.75998216503,-1.68338901209,89.385631959
off_to_on,-3.22600670401,-3.22270151787,-2.25012600811,-1.34989417209,-5.63360973885,-3.83578384809,0.695767086504,-1.88921978519,-1.1828668645,-3.61428695076,-2.96386891952,-1.24225513464,-0.892887169371,62.8929050403
off_to_on,-1.07033181144,-1.56779586153,-0.287482515096,-0.429563961093,-4.30788799538,-4.08086512356,-3.23549856108,-4.29546117419,-0.209087089565,-2.56998566097,-1.9982291103,-0.352663214777,0.283184691512,20.7984943564
off_to_on,1.58514967415,1.01536305306,2.11868984921,0.649162260978,-1.59166001049,-2.91515482857,-5.60995206182,-4.93781165533,0.901888745115,-0.32913777939,-0.21220448382,1.13019144659,1.90740638495,-25.48240361
off_to_on,4.22605927973,3.97806248075,4.4117944099,1.69303977542,1.84139901502,-0.625157587194,-5.62568039531,-3.4508019963,1.93628071944,2.7558171726,2.0731067375,3.14633952945,3.79374331668,-63.6375500005
off_to_on,6.24561535792,6.5118269317,5.96825511562,2.48797437487,5.04327064907,2.10090841484,-3.3807435523,-0.273227429484,2.6624541146,5.91518090349,4.29162757467,5.29218887015,5.50391658985,-84.0008749452
off_to_on,7.09797616868,7.78687018894,6.2897125354,2.85257820586,7.07544954123,4.39932309544,0.19146318628,3.50137468384,2.89596168656,8.17449564514,5.79149632208,6.90542878865,6.46076134923,-82.216866155
off_to_on,6.46141969371,7.23105129812,5.17404791642,2.68907858028,7.30292832083,5.52048924481,3.68909495905,6.51126767652,2.55856697693,8.67076581147,6.04295380169,7.27967418437,6.14744559576,-60.2313649898
off_to_on,4.35949583397,4.75452974884,2.80491977104,2.01485142767,5.60190430632,5.08167591383,5.77125846495,7.61166851277,1.70971467442,6.9670015448,4.82537011162,5.93795676187,4.32356939621,-25.3645069198
off_to_on,1.19479630613,0.836233008133,-0.275853406108,0.963332157792,2.41093150944,3.19537412386,5.65300859666,6.28573770421,0.537321868637,3.25272190419,2.32729198946,2.86419704139,1.17511519109,12.1617732629
off_to_on,-2.32659975671,-3.57012153811,-3.31044954367,-0.247264453778,-1.39424621988,0.429461922176,3.38467249665,2.83604598973,-0.691398512129,-1.64907753895,-0.879727475777,-1.40174730996,-2.66799867112,42.3932104784
off_to_on,-5.36803112464,-7.29320332458,-5.54018660944,-1.36853044484,-4.763900562,-2.38553036482,-0.183573517631,-1.70996083122,-1.70417398239,-6.48517323684,-3.99123211302,-5.85707917837,-6.26965894038,58.4808135978
off_to_on,-7.18708599438,-9.2898471072,-6.42613677375,-2.18337837505,-6.79143494466,-4.43337427761,-3.73307494099,-5.94528454792,-2.29886575763,-9.93045445913,-6.19962289689,-9.30342183038,-8.64812707184,58.3236160826
off_to_on,-7.34586070441,-8.97005060291,-5.80414829788,-2.55621304337,-6.98239098638,-5.17603043419,-5.97562598639,-8.55632051015,-2.39490271054,-10.9903755435,-6.93144430169,-10.710012115,-9.07950684719,44.5964573243
off_to_on,-5.83999089284,-6.39305063754,-3.92387911027,-2.45777789531,-5.38962651241,-4.51350942067,-6.13095283806,-8.75727663078,-2.04458709109,-9.31679373138,-6.01622465978,-9.55383904649,-7.34268667555,23.3005850976
off_to_on,-3.10229603555,-2.26493767865,-1.35964318201,-1.95947978211,-2.57391390523,-2.78751078848,-4.2044083235,-6.53658203013,-1.40219428256,-5.3309134084,-3.73268156104,-6.01812303681,-3.81819661911,1.45211235275
off_to_on,0.12423471535,2.26762579166,1.17638206054,-1.20202664055,0.592588136664,-0.633577426796,-0.963988354286,-2.63516669409,-0.663723876239,-0.108485816125,-0.718216549128,-0.973395316874,0.600570379764,-15.2398719127
off_to_on,3.00667174601,5.96478329538,3.05554740234,-0.35090217386,3.21105794085,1.25924974143,2.3694788457,1.72726111676,-0.000162557797423,4.93951766842,2.22762319614,4.26271247875,4.76234099155,-23.9263132528
off_to_on,4.86632238891,7.87044152812,3.91486036522,0.4460214229,4.63276644809,2.39053679576,4.59657215492,5.2737649175,0.491528361793,8.48941819662,4.38094637875,8.31474395414,7.59977754377,-24.9617947477
off_to_on,5.36832082453,7.59564228119,3.74074729959,1.08620657409,4.63768012266,2.60378709509,4.9942635326,7.08700917637,0.803216313198,9.6945943859,5.29593085452,10.1623128649,8.44686372726,-21.0673014713
off_to_on,4.59556648599,5.41559321849,2.8305859993,1.519864439,3.4612317013,2.1014979123,3.57709652436,6.87660146344,0.99348248616,8.41772213112,4.90928653311,9.44055029807,7.22696091733,-15.7642610752
off_to_on,2.98494955477,2.15031394173,1.6514394286,1.73951932261,1.66932882028,1.3209634378,1.06595971089,5.0118305036,1.14036225615,5.23401851318,3.51896692123,6.52883269847,4.44992020138,-11.7589347659
off_to_on,1.15116587541,-1.12754378673,0.651351360836,1.76035913244,-0.0664308873321,0.725209543087,-1.42040475825,2.32304988069,1.29031223703,1.21116012455,1.65234549968,2.40050229732,1.02205559065,-9.91451756267
off_to_on,-0.337538158533,-3.45535313579,0.0942172869636,1.60206257646,-1.20941288989,0.595419110075,-2.82808107121,-0.241151564452,1.4257944435,-2.45416341221,-0.124731382204,-1.71173418103,-2.06279177095,-9.16820581313
off_to_on,-1.15088546301,-4.28819273058,-0.0210992401814,1.28028838975,-1.52921638432,0.909562674615,-2.601231499,-1.9652650454,1.46594470656,-4.81733084502,-1.38960631844,-4.71728115786,-4.04260197689,-7.3497203211
off_to_on,-1.28713742728,-3.64711653206,0.0705918261123,0.810338980021,-1.14721478941,1.35716759511,-0.912867425901,-2.59473619821,1.3010369699,-5.45709818097,-1.97430870772,-5.99759350851,-4.60699772707,-2.49464380021
off_to_on,-1.03216867915,-2.06146475373,0.0292832254708,0.219246815432,-0.44797264932,1.48539549247,1.40165608501,-2.36184737972,0.847258138714,-4.55208920338,-1.97456987663,-5.55458837781,-3.94559702129,5.94124028753
off_to_on,-0.805908928488,-0.332821408941,-0.417407381378,-0.441653524119,0.102618133159,0.917867993019,3.18678779662,-1.81262495197,0.0992624569548,-2.74820145428,-1.66271210998,-3.93495141955,-2.61652827427,16.5047919923
off_to_on,-0.958037469761,0.788027976745,-1.32781026938,-1.09203020355,0.15897640876,-0.444011485661,3.45297197271,-1.51585458994,-0.84228811815,-0.876312268354,-1.3452904004,-1.96944764666,-1.29249006189,26.0733259113
off_to_on,-1.59515236759,0.889578466249,-2.48799701164,-1.63071319165,-0.360869944188,-2.3241763553,1.81464315812,-1.77990525654,-1.78221310483,0.370066282138,-1.22433281578,-0.432281421918,-0.485335047828,30.9800487163
off_to_on,-2.5109500992,0.0464068867771,-3.47047636203,-1.95602664249,-1.24395479605,-4.12827852308,-1.29894322476,-2.49736764969,-2.48076595818,0.678164014976,-1.31637831119,0.248499834272,-0.355412317076,28.4984539892
off_to_on,-3.25230593586,-1.22889776273,-3.79295128856,-1.99212294353,-2.07270183397,-5.14290208532,-4.7552397894,-3.18407632483,-2.72660504047,0.195352601212,-1.45863982537,0.121956931281,-0.676925515325,18.0891338183
off_to_on,-3.30129171296,-2.20817591645,-3.11933809031,-1.71213323534,-2.39984593985,-4.80905877672,-7.12388163757,-3.19889868512,-2.40784387426,-0.576362521338,-1.39635266186,-0.35741224853,-0.968629504992,1.8895760287
off_to_on,-2.3057879447,-2.25779901188,-1.42476326198,-1.14964358618,-1.93877993519,-2.9670818844,-7.23096418365,-2.05514933277,-1.55581747559,-1.02167762985,-0.913230776042,-0.568369124265,-0.733881861343,-15.789794659
off_to_on,-0.267867881971,-1.11574329506,0.94489610191,-0.394081151173,-0.694539531923,0.0261113684034,-4.65238751246,0.306538081655,-0.345132291044,-0.690128186268,0.0498939547844,-0.027917982699,0.289540013762,-29.8201767704
off_to_on,2.39029541565,0.973721612593,3.35200959443,0.428658311223,1.01660437692,3.36400860042,0.049463476222,3.40378202193,0.951377317288,0.499605756691,1.3384634509,1.36385403513,1.97431649829,-35.9848782581
off_to_on,4.92094622884,3.32411811438,5.0663218148,1.18393877964,2.66853305519,6.03171685233,5.45168144375,6.31765598517,2.03850433218,2.20932077111,2.6154892404,3.24168726577,3.8113796176,-32.4551979006
off_to_on,6.48409258377,5.05071164518,5.51798544879,1.75566550744,3.71109613728,7.1446545861,9.73172423339,7.99324671298,2.68051920652,3.80423503832,3.47202147274,4.89396135084,5.08492110834,-20.461773423
off_to_on,6.44304594392,5.40580530896,4.51263553897,2.06541199137,3.7713133864,6.26642766999,11.3072665531,7.63162052432,2.76256925951,4.60104834441,3.57645976302,5.54014041607,5.15165873054,-3.8999974453
off_to_on,4.61611439087,4.07932034604,2.32441591441,2.07961296532,2.79430929809,3.58812073861,9.42498094435,5.02654211917,2.31290257527,4.14414907893,2.80594341683,4.65939099879,3.71696238962,12.0023821656
off_to_on,1.38718552002,1.34800645647,-0.376680630103,1.80598075302,1.07018538697,-0.104317679932,4.47793154949,0.71140426505,1.48124654867,2.40164353949,1.30826284572,2.23874585408,0.996731081009,22.4819180418
off_to_on,-2.37628324133,-1.98951340245,-2.7468563433,1.28406916372,-0.864691149247,-3.67403519575,-2.07633304605,-4.15379622828,0.483774987592,-0.196735136217,-0.532137822633,-1.16360096544,-2.3064370196,24.8542541386
off_to_on,-5.58166718325,-4.87559404093,-4.0656874453,0.575927040908,-2.41653791051,-6.01077978962,-8.18197666228,-8.13147843272,-0.464277700381,-2.89722450984,-2.2147505428,-4.5750919571,-5.21525472201,19.3657860114
off_to_on,-7.26423106551,-6.3629483726,-4.00047024393,-0.239240345359,-3.14362535703,-6.41198329464,-11.87878958,-9.97814549753,-1.20484049613,-4.88492716198,-3.28795837244,-6.93569131956,-6.80780142324,8.97962739687
off_to_on,-6.91413006549,-5.95643011406,-2.7349170683,-1.06643091591,-2.90855311237,-4.83070315636,-11.9796904872,-9.0744634922,-1.66477417934,-5.57311369852,-3.49861328059,-7.4763987564,-6.54708273598,-1.81677930534
off_to_on,-4.65996489188,-3.79956804343,-0.9043594939,-1.79609003359,-1.91640385356,-1.89674164697,-8.48788223892,-5.6574906086,-1.85001450886,-4.80916695634,-2.87127840488,-6.00641339928,-4.48669031065,-8.73744201795
off_to_on,-1.2378941631,-0.632734928262,0.649705581031,-2.31078409052,-0.624392962376,1.30369639435,-2.59954279045,-0.764644609661,-1.81404423716,-2.91882959264,-1.68781545454,-2.99622136844,-1.27108470445,-9.31788414493
off_to_on,2.25034096029,2.46682324185,1.22153648453,-2.50126831226,0.442849210806,3.61699204967,3.71398752802,4.09982032427,-1.61768134753,-0.572405470178,-0.375115064825,0.581204006723,2.07677056863,-3.83056361371
off_to_on,4.71091489182,4.47126085049,0.550644386134,-2.29146193883,0.901900711462,4.24282143874,8.39778141459,7.46477765571,-1.2988064473,1.47458684136,0.656533794403,3.59704274137,4.50841079518,4.84397040592
off_to_on,5.43319894429,4.77364976036,-1.02858003461,-1.66633128517,0.662384708007,3.03330541227,10.0307243208,8.38505779313,-0.864599355951,2.66478935752,1.16290141877,5.17337297477,5.31700001838,12.3463430945
off_to_on,4.33239422678,3.40613150102,-2.67337758338,-0.69263432932,-0.0384154260002,0.556557169171,8.30933348627,6.75264240894,-0.307873809501,2.8351116905,1.14575202493,4.995892391,4.38364526933,14.5562512037
off_to_on,1.96934465754,1.02061563718,-3.34564412664,0.47792356315,-0.734777815845,-2.10681693537,4.12239648358,3.31415702985,0.362157359751,2.24823005928,0.832207208792,3.41109914338,2.20996371831,9.26801189757
off_to_on,-0.663858939485,-1.36460352022,-2.25088039677,1.6294963025,-0.930738363482,-3.76832307124,-0.809759440148,-0.613080433592,1.09122078901,1.44734340535,0.561356384907,1.26722901155,-0.278126377526,-2.79884980633
off_to_on,-2.51827897501,-2.76052907226,0.759145730033,2.52567269788,-0.322452995445,-3.594266242,-4.59697458689,-3.6252713236,1.76961362085,0.993486128885,0.62276790326,-0.44258622602,-2.0850848398,-18.0440765685
off_to_on,-2.88720945971,-2.59751352529,4.98787874532,2.96614669239,1.04305177834,-1.45574787966,-5.89519213206,-4.74163439397,2.24888465266,1.19421679995,1.11211279572,-0.99694465332,-2.5277594213,-31.1030576867
off_to_on,-1.68140755826,-0.95990021899,9.00895260551,2.84065509726,2.74061447413,1.97100529737,-4.40812507224,-3.75321277554,2.38281088434,1.93970738054,1.86490268509,-0.25642776196,-1.50070662632,-36.6705256544
off_to_on,0.526664186961,1.42979180224,11.0965721533,2.16318217054,4.09236506342,5.40537128953,-0.984374416075,-1.28196908684,2.07899532774,2.72269054819,2.50102374303,1.26249408851,0.478176827751,-31.4114625887
off_to_on,2.71400293614,3.47972905732,9.8519433868,1.07419253825,4.40984240497,7.40707698619,2.72978278075,1.47357464384,1.34156784074,2.84616531276,2.57019154832,2.5908487333,2.46397019817,-15.2978503825
off_to_on,3.80301824806,4.15666006861,4.81530376276,-0.191884650651,3.26980872733,6.91505583815,4.95398288358,3.2140472729,0.287212042551,1.74456060092,1.74735012649,2.71937939684,3.45419213288,8.10439978922
off_to_on,3.09903458558,2.91427755292,-3.17040885541,-1.36563022977,0.721832056523,3.68760957893,4.50324733191,3.06015268716,-0.874395502689,-0.708956046039,0.00322232638117,1.06313297651,2.7951588802,32.5269542926
off_to_on,0.603769064378,-0.0436639655872,-12.0177448822,-2.21097845348,-2.65679396225,-1.52412654003,1.3022303181,0.922053535664,-1.89193333968,-4.04166307416,-2.32127922355,-2.20922218427,0.47096712766,50.8084651635
off_to_on,-2.92238785687,-3.77612731969,-18.9165554671,-2.58253261797,-5.8937538662,-7.15073377703,-3.52213771069,-2.42772684335,-2.54001760008,-7.25216644161,-4.5770076842,-6.12820955371,-2.83983911892,57.0606011125
off_to_on,-6.18881344011,-6.90509672812,-21.1982445793,-2.45498005304,-7.91172429347,-11.2880950305,-8.02147172724,-5.61591937533,-2.68116643602,-9.11313631545,-5.99656232143,-9.204412535,-5.9714830898,48.5142646403
off_to_on,-7.82656254128,-8.10725539037,-17.2826079163,-1.91697723739,-7.88683229568,-12.3385265838,-10.1535595841,-7.17860431358,-2.30187835985,-8.61396536864,-5.95495793526,-9.9577117777,-7.67615478106,26.4725352663
off_to_on,-6.90904305912,-6.62404846048,-7.38542572833,-1.1336271348,-5.55598858603,-9.59355037187,-8.59361250646,-6.13764633752,-1.51146276085,-5.38736154792,-4.21234715318,-7.51167588048,-7.08553102292,-3.92198685653
off_to_on,-3.35170251556,-2.60092444832,6.29010872947,-0.291769149466,-1.36289213562,-3.55092960436,-3.32344731858,-2.42925238819,-0.505159330016,0.0456274002129,-1.04911125895,-2.02927017392,-4.06131613205,-35.0340862326
off_to_on,1.96628758456,2.8806392643,20.0080653867,0.452830515381,3.61934807679,4.15984712411,4.23704341422,2.98396011229,0.494832514093,6.32519277025,2.76498290053,5.19243527912,0.697530955361,-58.796374105
off_to_on,7.42344431065,8.10948327824,29.5227750878,1.00932339235,7.97890842402,11.2404003979,11.6316689756,8.37693772774,1.29995710379,11.6109364214,6.17149328485,12.0378399179,5.83926412912,-68.8865429698
off_to_on,11.1649567261,11.299309761,31.390321669,1.35762104991,10.3867679532,15.4378962298,16.1845134793,11.8268683236,1.79787030478,14.1506855951,8.13860823867,16.2212705421,9.7806557445,-62.4130131838
off_to_on,11.7365834867,11.2072376647,24.1626848551,1.52812720858,10.0184587568,15.2824877335,15.9550312625,11.8904791378,1.96516029589,12.8775634327,7.99244661613,16.0629129982,11.2248553237,-40.664011697
off_to_on,8.62632782573,7.60044719547,9.0587294206,1.56693159428,6.83892468192,10.6019756866,10.4924000777,8.1565987105,1.85011611146,7.82852724271,5.65430009638,11.1255174644,9.59887965661,-8.75288075115
off_to_on,2.51686362436,1.39912642668,-10.1569541254,1.5028395381,1.65211104705,2.63368804583,1.10741138641,1.47048442627,1.53640056088,0.225607348687,1.69963863776,2.47654968307,5.25950504731,25.7040855157
off_to_on,-4.85739837192,-5.56928620027,-28.1180604094,1.33080507927,-4.11045294837,-6.31766716809,-9.45898424772,-6.26610193936,1.10453735844,-7.83167873414,-2.7894897196,-7.54207373314,-0.6045448984,54.4980929579
off_to_on,-11.2220963309,-11.1361332504,-39.3868560583,1.01874218371,-8.80432749106,-13.5777738197,-17.8820393187,-12.6699257869,0.607136638876,-13.9829092013,-6.53933521183,-15.9889440728,-6.34179410322,70.8240299594
off_to_on,-14.4876898483,-13.4957412488,-40.125348417,0.534361562524,-11.0652239053,-16.9373169839,-21.3416235221,-15.6445878102,0.066449756992,-16.3423165036,-8.47041527421,-20.2381998666,-10.3536558091,70.8743195451
off_to_on,-13.4506989227,-11.812316256,-29.3851459635,-0.120272266524,-10.2272546465,-15.3547257098,-18.4863108627,-14.0869756913,-0.507651436686,-14.1138663401,-8.03203354227,-18.8376835189,-11.5834241475,54.6739582679
off_to_on,-8.23284065561,-6.52109509917,-9.58288593426,-0.882767772467,-6.53367994125,-9.29692994768,-9.93908384983,-8.28985707197,-1.09045582883,-7.87734891272,-5.37664678936,-12.0202972347,-9.8181986158,26.0017832959
off_to_on,-0.299447734901,0.78500150395,14.0366076348,-1.6266999003,-1.07100058268,-0.603474546678,1.8401698896,0.104477793741,-1.62138825218,0.559656590367,-1.31562425884,-1.68589713695,-5.71124608825,-8.54122795301
off_to_on,7.96453189077,7.85301505316,34.8351666952,-2.18551482848,4.55614796095,8.08601421859,13.3042405797,8.59580840794,-2.00208979136,8.70681309862,2.93163414847,9.15586828451,-0.530218213122,-41.0742267558
off_to_on,13.9942359201,12.4910358258,46.7092982455,-2.39847801747,8.7098874134,14.1583916002,20.9405926883,14.6087723294,-2.11824156076,14.1626914849,6.11595830838,17.3107582915,4.27086928328,-64.2312591425
off_to_on,15.8641875794,13.2747146546,45.933292379,-2.1638029204,10.2134899736,15.8418896536,22.3971903134,16.3125237971,-1.87911401533,15.3643913976,7.34311876909,20.3960831081,7.50346079622,-72.8139709956
off_to_on,12.9189414387,10.0045361854,32.3444069904,-1.48006420185,8.70171408612,12.7478460983,17.2392336927,13.2075352427,-1.26015610742,12.070748598,6.34206249422,17.5832962814,8.56898806582,-64.948605766
off_to_on,6.00432110255,3.76229917746,9.48521451634,-0.459924488511,4.71901087507,5.96779853037,7.0860841056,6.28525118803,-0.330898078712,5.42131281659,3.53216796728,9.84434126432,7.5593212919,-42.5000764534
off_to_on,-2.78240589619,-3.45022605241,-16.3658544809,0.690822434459,-0.462806281529,-2.29979108999,-4.91538165817,-2.29256708233,0.745519377262,-2.44664491884,-0.128982267289,-0.377072188494,5.12166801696,-10.6492383725
off_to_on,-10.7470817219,-9.36764784952,-37.9994892365,1.72405869187,-5.24757611118,-9.46607305369,-15.1038566491,-9.88882348405,1.74509037561,-9.09458214139,-3.4642971196,-9.95771442392,2.16026930355,23.2846817719
off_to_on,-15.4476992246,-12.1921232793,-49.375635595,2.41476548683,-8.21002384804,-13.375160167,-20.4663989421,-14.231081948,2.43995544555,-12.5613089655,-5.45610552303,-16.086962487,-0.500983210419,51.5266012966
off_to_on,-15.4630331325,-11.1571471169,-47.3816489513,2.62063708452,-8.52753413751,-12.9676206428,-19.5694280271,-14.1212347673,2.66216996942,-11.968001391,-5.56163767671,-17.1328233817,-2.36853988179,67.657705228
off_to_on,-10.832442603,-6.74177579478,-32.7147799045,2.31734921823,-6.21520585215,-8.57512638979,-12.9600462485,-9.7857695334,2.35331450157,-7.75543540555,-3.86499341167,-13.1036290115,-3.36052222448,68.132148001
off_to_on,-3.02711333112,-0.473532191272,-9.62714754177,1.59919404026,-2.09520882655,-1.76221538524,-2.92135589064,-2.75962822885,1.58314333158,-1.48527311703,-1.02163781684,-5.56737798921,-3.71106384823,53.1217203946
off_to_on,5.53277448552,5.60299981088,15.3752196116,0.646383827182,2.48354441946,5.21937571615,7.31845591721,4.64751880163,0.530692576774,4.7160282242,1.97928228565,2.92584787906,-3.7604535421,26.4594855893
off_to_on,12.2525667678,9.60545307369,35.4661131838,-0.328912949624,6.08116530946,10.1743489584,14.6466233506,10.117119747,-0.566093218053,8.87490229964,4.15050597552,9.70953297235,-3.73541813528,-5.32656704528
off_to_on,15.1746678354,10.4109321616,45.4654589291,-1.13957351037,7.61711695023,11.6578952253,17.040227438,12.0624065149,-1.47570300364,9.8058986763,4.82651841692,12.8573553938,-3.62064073554,-34.6592044073
off_to_on,13.565713614,7.97697607964,43.2436978861,-1.66574825221,6.69342297024,9.39779951134,14.1413214356,10.1023517332,-2.03234325021,7.45607523307,3.86350403611,11.7487415663,-3.17748194188,-54.8142036779
off_to_on,8.09763717479,3.29220255605,30.1627213485,-1.87103063977,3.69330294207,4.31980049438,7.26497861952,5.12339696252,-2.17107982837,2.8556193963,1.65896572335,7.17132733087,-2.0983645878,-61.5730871188
off_to_on,0.578438251696,-2.00889906907,10.4657605905,-1.79125041886,-0.368233076429,-1.81353117184,-1.13208524876,-1.07479073177,-1.9298880401,-2.29105852432,-1.0070788619,0.952436527007,-0.223540583839,-54.1797101292
off_to_on,-6.66336067709,-6.22087124993,-10.1411485567,-1.50415937587,-4.18603151651,-7.01388263992,-8.317386252,-6.41487934994,-1.42146980661,-6.2186805772,-3.24814346725,-4.72849851657,2.28348576219,-35.3477978329
off_to_on,-11.5276048914,-8.12865242162,-26.2343209646,-1.09401002597,-6.58389196278,-9.71610516029,-12.1782601774,-9.23574736953,-0.787775905109,-7.70053444553,-4.36708556642,-8.09418109889,4.89195662009,-10.3415045833
off_to_on,-12.7772284075,-7.36725901702,-34.1884714932,-0.625040255396,-6.87591836324,-9.25100841635,-11.8502310559,-8.81162986589,-0.154909173625,-6.4299268546,-4.07230096663,-8.32927153397,6.82863850576,14.5762738067
off_to_on,-10.3602111158,-4.47072373134,-33.0163913503,-0.132562659595,-5.05843522819,-5.99764183721,-7.88878126293,-5.53241258841,0.395994735235,-3.06392717675,-2.54667121066,-5.76690947005,7.33782007351,33.8505227742
off_to_on,-5.3330196169,-0.614083027134,-24.3316844021,0.367885116893,-1.77914853153,-1.18491612015,-1.96050758329,-0.702480177187,0.834054099131,1.0678355011,-0.354826549735,-1.6634007661,5.98241634764,43.9874434636
off_to_on,0.564060073281,2.84202901969,-11.5303617989,0.860640866923,1.89658423629,3.56923893492,3.80692007176,3.95379489098,1.1623792045,4.47013296328,1.77020084653,2.33099019702,2.86685769647,44.1792548512
off_to_on,5.51686219819,4.83266967486,1.46831313475,1.31082128411,4.83868926301,6.81080766229,7.57106215841,6.89701564696,1.39102526334,6.01595543299,3.1811882512,4.79664909715,-1.31593198623,36.0780724569
off_to_on,8.21811764928,4.92584267578,11.4677133363,1.65675858109,6.20665395237,7.70440885411,8.35762664589,7.27726939,1.51348825401,5.31806475896,3.52278097892,5.03506897804,-5.4494492655,22.8822479436
off_to_on,8.22854773479,3.4073344427,16.8203945552,1.81934202375,5.69262374319,6.24533236797,6.29591264011,5.17278500131,1.49850882055,2.81580017437,2.82233574462,3.25779028407,-8.32725735586,8.11716224664
off_to_on,6.01521798498,1.10143742698,17.6120891444,1.72604966179,3.58223950555,3.17673274815,2.45651643586,1.4973566374,1.30151011393,-0.438157958848,1.44253525251,0.425591456212,-9.04568414055,-5.43323984953
off_to_on,2.68166324518,-0.988549975463,15.2254954262,1.34076791502,0.62458577447,-0.335790716252,-1.61740488183,-2.37143267077,0.890844673398,-3.19845719491,-0.07757075354,-2.17994663538,-7.31794164284,-16.2830047616
off_to_on,-0.490413954922,-2.07598201293,11.5239463068,0.68739934758,-2.23530127275,-3.14039391788,-4.49488140549,-5.09788157365,0.27695325716,-4.49260136806,-1.22889228498,-3.47667133168,-3.59446470825,-24.1544857239
off_to_on,-2.51117149327,-1.87391368531,8.00898496005,-0.143038018718,-4.16655044754,-4.48563661008,-5.34276916939,-5.84457184877,-0.469550197188,-3.96036799612,-1.70904717255,-2.99353547527,1.05999535673,-29.3787305972
off_to_on,-2.99657225629,-0.666671285889,5.28115390176,-1.00631921758,-4.7023275506,-4.22687938091,-4.15044666792,-4.52434943493,-1.22107816326,-1.9498994283,-1.50799528911,-1.02397531395,5.29646005897,-32.1307099573
off_to_on,-2.2264258072,0.845087320356,2.98704965825,-1.73682982655,-3.85283230691,-2.79562282112,-1.63846015926,-1.77345473246,-1.81959717411,0.652746920229,-0.877752139186,1.52489845613,7.90889523291,-31.9066852078
off_to_on,-0.946409335345,1.85529982879,0.228834232387,-2.18773382526,-2.05483104591,-0.964268908379,1.08594535536,1.32630881495,-2.11919144395,2.78526982599,-0.205232726491,3.51668333901,8.21314878321,-27.5394392802
off_to_on,-0.00790394306405,1.79318619792,-3.77422185089,-2.26703178296,0.0129790561018,0.489439632768,2.97752105792,3.66181856528,-2.03056020358,3.61971449969,0.157918740195,4.04762527589,6.24907466507,-17.801917996
off_to_on,0.00600880009278,0.561023867276,-9.07863288935,-1.95868187097,1.6768106287,1.0847453788,3.43206954561,4.48363205545,-1.55177272813,2.86754497028,0.0411927207129,2.80640553723,2.73992340966,-2.3672173123
off_to_on,-0.977050033386,-1.42027116278,-14.7419152639,-1.32332749819,2.48908735236,0.794973452807,2.46268635199,3.64273269545,-0.773941138034,0.869896936907,-0.47857863424,0.196684200047,-1.1712760775,17.3108050385
off_to_on,-2.49669983343,-3.371645951,-19.0187782539,-0.480100757366,2.35143740441,0.00931729301413,0.626636494134,1.59536206184,0.140896557747,-1.55254884215,-1.113916555,-2.81878863354,-4.31126496833,37.6652014958
off_to_on,-3.75942629739,-4.45802527862,-19.97272143,0.423208791381,1.50552135952,-0.673325665002,-1.24653789052,-0.809760171987,1.00271938989,-3.425500949,-1.4897674218,-5.08726005888,-5.85383599006,53.5346689643
off_to_on,-3.97651786782,-4.11543809708,-16.2740062449,1.24168226174,0.405976392238,-0.727626113405,-2.40441296055,-2.66990074124,1.64324519125,-3.99519378191,-1.30387680902,-5.70431111059,-5.55603406427,59.5199193113
off_to_on,-2.70614672116,-2.27922461285,-7.86929827365,1.85777157888,-0.470049890575,0.0549698507848,-2.45782871869,-3.36080652769,1.95648408628,-3.00955939014,-0.461881655123,-4.35508276152,-3.77979448606,51.811184641
off_to_on,-0.0662468074799,0.571689171653,3.75630348607,2.19423249561,-0.803649575308,1.46088259506,-1.49859243292,-2.74216286587,1.91804277895,-0.804529513044,0.865401102314,-1.43258069369,-1.30540045366,29.8677640395
off_to_on,3.26455963055,3.5699756204,15.8602219197,2.2160951095,-0.540369779197,2.92830460935,-0.016919935059,-1.16928869816,1.57911512692,1.83067587112,2.28558092092,2.10632993882,0.982492648377,-2.71170425198
off_to_on,6.26041106152,5.75650436672,25.2027216328,1.92613038108,0.111962231167,3.77072461615,1.33264093166,0.67987634314,1.04011540829,3.95249170205,3.31467056397,5.08805133803,2.41391758586,-38.5833007208
off_to_on,7.898764769,6.40984611196,29.0429212524,1.35931219671,0.7861663599,3.46188502535,2.0119035877,2.08533952251,0.415509716786,4.81036702323,3.54701946696,6.53979626192,2.7408931206,-68.3698853455
off_to_on,7.52097673758,5.29065248878,26.0326900712,0.579825799509,1.11508326637,1.86988050016,1.81011225848,2.56051441881,-0.196796477859,4.11275233608,2.80414397958,6.02305199862,2.16499769779,-83.2794580777
off_to_on,5.07332052285,2.71653168299,16.6975686865,-0.319564707378,0.884253539236,-0.652964189262,0.904537205994,2.01861285074,-0.731579078448,2.11671272248,1.20899620358,3.76484524435,1.18953605128,-77.8538999127
off_to_on,1.14335903856,-0.55385235883,3.33249384706,-1.21949050394,0.119867816154,-3.36344640332,-0.244583374453,0.773495962237,-1.15500597978,-0.484921199765,-0.84109781775,0.547650109025,0.36795528848,-51.9493394773
off_to_on,-3.21936294241,-3.58020949104,-10.6596813389,-1.98236986561,-0.919748504747,-5.37400380419,-1.11155725076,-0.614983719141,-1.450639188,-2.82883639669,-2.793788463,-2.59072545588,0.0568669939574,-11.2302306763
off_to_on,-6.83334595814,-5.54756557313,-21.7691757217,-2.47059264009,-1.8436920606,-5.96443117907,-1.33837570004,-1.58170769067,-1.60252182483,-4.19437063048,-4.11235487449,-4.72826339617,0.274815925024,34.0990222472
off_to_on,-8.75038509853,-6.01263866726,-27.3903174796,-2.57359169216,-2.27958999339,-4.84552679962,-0.884283072286,-1.7837102854,-1.58569033635,-4.24664967532,-4.43983982595,-5.36157053045,0.720830209885,72.0363789217
off_to_on,-8.53265159641,-5.00900216442,-26.5176505708,-2.23780833551,-2.01822824602,-2.27784212842,-0.0309822407662,-1.22477121137,-1.37034342982,-3.12345260537,-3.70263175867,-4.53403316127,0.939276440399,92.2107321553
off_to_on,-6.35407478666,-2.98544530638,-19.9186160582,-1.48999216036,-1.09708338517,0.999415812101,0.754994594865,-0.232028372197,-0.938948762097,-1.34240933791,-2.12183032301,-2.75442857394,0.556782093081,88.9495096809
off_to_on,-2.90333457381,-0.613077610894,-9.75846220636,-0.444117549381,0.208240112097,4.00618284205,1.04095065016,0.70002568543,-0.308763246886,0.42565104618,-0.133114354912,-0.752506107787,-0.512860966868,63.015990046
off_to_on,0.86500375619,1.45888669878,1.16253198308,0.713954800507,1.48096244286,5.84345051269,0.632285315156,1.13018033667,0.451474805572,1.62245897261,1.75357754896,0.822286159521,-1.98707624005,21.4470044127
off_to_on,4.03611297711,2.80661910054,10.2800134519,1.76313753302,2.31197877857,5.98730839225,-0.326716420198,0.863431224457,1.2208531313,2.00188087229,3.10510136743,1.63697119621,-3.29710664237,-24.4825403721
off_to_on,5.99054349871,3.32529388278,15.9502460427,2.49676315932,2.4452991735,4.45394857046,-1.40121313613,0.0366796246449,1.84614651033,1.68870802413,3.67747264466,1.7567721806,-3.80797432809,-62.5461962886
off_to_on,6.53034740234,3.19100722965,17.743687944,2.77169005595,1.86664584762,1.78099044034,-2.04634442652,-0.937968844428,2.17872923441,1.08086094338,3.45725263198,1.54968639635,-3.09064133713,-83.0845711
off_to_on,5.84977139027,2.72158153212,16.2987090633,2.54249219736,0.803356106604,-1.16454841055,-1.84692110381,-1.54949362222,2.11770003939,0.642476276114,2.62675432171,1.46453444468,-1.13589211414,-81.6719102374
off_to_on,4.38311464525,2.20392674404,12.8485695616,1.87044203801,-0.363190701695,-3.48140806891,-0.716413184447,-1.41232277349,1.64473004603,0.678167118072,1.47455906826,1.78391424089,1.58221653965,-60.1341964846
off_to_on,2.60365127708,1.76377020775,8.64233742915,0.904753941535,-1.23917371339,-4.52844335138,1.03089564651,-0.446947226276,0.837783487643,1.18465282098,0.289524347573,2.4619268089,4.2298375418,-25.6639903459
off_to_on,0.857247734809,1.33089160066,4.49664907148,-0.157703080854,-1.56098999709,-4.11798299296,2.77149128,1.05900982129,-0.142618278386,1.84312272392,-0.722215929886,3.11983583875,5.88825860211,11.6108527248
off_to_on,-0.709100672593,0.709734478538,0.639217663725,-1.12141338682,-1.28625641037,-2.5466921103,3.79937409031,2.53887720757,-1.09180412474,2.15748054984,-1.4711607311,3.20608038877,5.88412367026,41.7704820295
off_to_on,-2.10889254643,-0.280608185772,-3.12894433299,-1.83504127408,-0.600178029771,-0.461270019136,3.60356839215,3.3552725342,-1.81284386985,1.68318725626,-1.96517735215,2.25716673356,4.05318776552,57.9377526755
do_nothing,-3.40100996519,-1.6629869159,-7.06228036438,-2.21628611901,0.163914513481,1.38624512177,2.08822461543,3.05154956386,-2.16611571058,0.252706917722,-2.25458786236,0.150976747236,0.835868906746,57.9406494038
do_nothing,-4.56236905642,-3.22350367303,-11.0851735362,-2.25403407277,0.659060313891,2.40300779515,-0.354544588954,1.54993854892,-2.10158473429,-1.8980344862,-2.37196634772,-2.75780032449,-2.83815039168,44.3733298436
do_nothing,-5.4155396385,-4.53943621914,-14.5878943948,-1.99134169841,0.662999491277,2.34682604365,-2.95487676119,-0.782666157453,-1.66478340555,-4.16128713567,-2.29651581607,-5.68772084056,-5.84262282105,23.1799872674
do_nothing,-5.65235431404,-5.11163796146,-16.5181123587,-1.49910711765,0.167823132636,1.38212355132,-4.82471562038,-3.23251444118,-0.976342163105,-5.74558701499,-1.95993457229,-7.66258961321,-7.22562938811,1.36368147371
do_nothing,-4.9507737628,-4.55501567555,-15.7519727953,-0.85230939296,-0.613389502233,-0.0110146121092,-5.27469984671,-4.97115138495,-0.193446642965,-5.95698141867,-1.29099427377,-7.84954949313,-6.52950037394,-15.3353603252
do_nothing,-3.13913347041,-2.77386737007,-11.6032148524,-0.117806536544,-1.32632253086,-1.23367828997,-4.07185676206,-5.3420154929,0.533220929977,-4.47106541664,-0.277870957529,-5.88188147707,-3.94730653486,-24.011839849
do_nothing,-0.337111432101,-0.0503308000607,-4.25882341633,0.643774147469,-1.61261851684,-1.7946604063,-1.54074374371,-4.09969947284,1.09335114518,-1.49257535988,0.981953243221,-2.04444009077,-0.260940538409,-24.9688200125
do_nothing,2.99333288174,2.99615853395,5.05570638544,1.36676102218,-1.25376716298,-1.48428564019,1.53313782843,-1.51517209939,1.43263220837,2.26277824885,2.27089672841,2.75511365814,3.41701975549,-20.9083995069
do_nothing,6.1222330168,5.57365127537,14.2834189177,1.96941029285,-0.267674859707,-0.436610341447,4.16642455377,1.69312360322,1.54851764813,5.76649682124,3.29136732224,7.23113542207,6.00683360018,-15.3799685955
do_nothing,8.2390076661,6.95551188422,21.0774582767,2.35319654412,1.07955892609,0.935784047861,5.5146537789,4.5812036929,1.47181273483,7.99276619777,3.7480405488,10.1053925522,6.80438591749,-11.1588346813
do_nothing,8.69602626029,6.71153974601,23.5082695823,2.41811146631,2.35373220218,2.1038680879,5.16221298088,6.27982007093,1.24415602531,8.24545953687,3.44565103615,10.5061698104,5.68743879607,-9.19422158827
do_nothing,7.22632415244,4.8527545535,20.6957656136,2.09213616801,3.09827300649,2.61787073185,3.26161106109,6.27151015772,0.901505807251,6.38556056618,2.3672443733,8.24751536271,3.12077517255,-8.49285387948
do_nothing,4.05802927419,1.83906936303,13.1416563478,1.36545227554,2.99519772034,2.26520687988,0.472975542486,4.55187635869,0.469701858661,2.88198211605,0.702534125796,3.89529363837,-0.0317751049283,-6.9074604801
do_nothing,-0.118944435994,-1.55391120497,2.63611319579,0.315542244329,1.98451421582,1.13703540016,-2.27278480739,1.62360538182,-0.0280559331768,-1.33035354281,-1.18771868245,-1.40087295367,-2.81346896607,-2.43540511597
do_nothing,-4.32883124645,-4.46467889729,-8.24079113956,-0.889753723427,0.29906871708,-0.414366729791,-4.10028451607,-1.67043443315,-0.557716888819,-5.13575539247,-2.86341092398,-6.25220792793,-4.48670316212,5.5600263384
do_nothing,-7.57526064852,-6.19604897363,-16.8623131092,-2.0177846276,-1.59911499238,-1.90551421791,-4.48753415559,-4.41487495481,-1.06366979149,-7.57004938272,-3.92532648801,-9.43750048194,-4.74352920605,15.7454690761
do_nothing,-9.112845972,-6.40499725536,-21.2993922487,-2.82201327676,-3.16091097851,-2.88789492516,-3.42989489093,-5.899058741,-1.46849586297,-8.09145652397,-4.12610511738,-10.2414335935,-3.75041666024,25.1072648779
do_nothing,-8.64123029026,-5.17462658335,-20.8261934082,-3.10539574824,-3.92342383857,-3.09061277026,-1.41530934815,-5.81401589303,-1.68627399052,-6.70712870212,-3.43702155177,-8.62270003826,-2.02701888162,30.0410398424
do_nothing,-6.36513719577,-2.95287317215,-16.0344232561,-2.77736492502,-3.65674936967,-2.49283929835,0.774313664237,-4.31143650622,-1.64638976704,-3.92499611722,-2.05042384987,-5.17145926598,-0.218652917595,27.8149815494
do_nothing,-2.9092267366,-0.387707136104,-8.54207979832,-1.88586376258,-2.43561097118,-1.30804723029,2.35798475068,-1.91655337914,-1.31966812444,-0.560376522208,-0.318964548787,-0.886670560192,1.14399694264,17.8177140895
do_nothing,0.876823598383,1.87932107325,-0.419864468187,-0.61265712181,-0.613079861634,0.105556454775,2.8364369549,0.664170827246,-0.736661997147,2.52765351743,1.34704508316,3.14076183138,1.80805992109,2.07101143469
do_nothing,4.15575744337,3.39087351225,6.45385915109,0.768677453269,1.29331999825,1.36983865006,2.15705030437,2.76844460052,0.0100374335204,4.67894194911,2.5906638173,6.03133623776,1.8321563635,-15.237304503
do_nothing,6.30837918515,3.96925595263,10.8904175694,1.96086665187,2.76391433933,2.20043049037,0.706858261732,3.96070621188,0.782271376664,5.57956509996,3.19390908015,7.31576202539,1.49317847962,-29.0697425675
do_nothing,7.05130685881,3.70970519923,12.5916533673,2.71755833744,3.43346445007,2.47274341828,-0.857276137261,4.11861592883,1.42775533952,5.28034466336,3.11500277729,6.98390727034,1.11882587841,-35.2429542414
do_nothing,6.44571055079,2.88936700817,12.0243935928,2.90276337937,3.19169884337,2.22570315015,-1.87232306714,3.40913420591,1.81730087492,4.10154445039,2.47199714331,5.39422835218,0.924142278728,-31.8970303996
do_nothing,4.81369845968,1.83708077124,10.0597270619,2.51841194393,2.19805486371,1.61314035091,-1.9249721941,2.17946896747,1.876492201,2.47608668144,1.48519607301,3.09864587235,0.922444713168,-20.1818245671
do_nothing,2.60592957429,0.816869523306,7.54589000066,1.6935656059,0.810680749069,0.830289026901,-1.00414837868,0.814143233991,1.60236140855,0.79724972097,0.402365447985,0.656525211454,0.944464991092,-3.89295928408
do_nothing,0.271680764761,-0.0348105801957,4.99096320596,0.640813816517,-0.541812769369,0.0473557454222,0.504064959591,-0.386378931233,1.06070519864,-0.675993703947,-0.567295165634,-1.49945039953,0.750411191551,11.8254452838
do_nothing,-1.82935733192,-0.70464735293,2.46995704442,-0.404962157888,-1.49993801262,-0.626621899308,1.97294720788,-1.26690583541,0.366057432848,-1.83433369409,-1.29175234454,-3.11511381543,0.178825763964,22.2499901586
do_nothing,-3.45865167238,-1.24625373774,-0.23200335555,-1.24608269117,-1.877396693,-1.14332223543,2.78056788117,-1.8091571827,-0.34837967219,-2.66830339331,-1.72151494857,-4.09228748898,-0.739496889857,24.6821852601
do_nothing,-4.48438387468,-1.70686528892,-3.3300562151,-1.76282659908,-1.69783630338,-1.4889142204,2.5500214667,-2.07331644297,-0.961170286218,-3.19259581093,-1.86897694125,-4.42785776156,-1.75844962147,19.3093708217
do_nothing,-4.84776282392,-2.0745535569,-6.75254905726,-1.92618287743,-1.15757810777,-1.65288314,1.29466142778,-2.12620727169,-1.38494444907,-3.38901756985,-1.77705544162,-4.1578505116,-2.49999444775,9.01590127428
do_nothing,-4.53806982087,-2.27014013701,-10.000304859,-1.78337089166,-0.533479912247,-1.61188927764,-0.583973221623,-1.99259939044,-1.57602877552,-3.19736390646,-1.49316628842,-3.33620921792,-2.61187284667,-1.77735863653
do_nothing,-3.59198414952,-2.18510429907,-12.2299488804,-1.42560655595,-0.0727540340897,-1.33821165894,-2.44203294217,-1.65029555548,-1.53187012466,-2.55611700263,-1.05850850277,-2.05182643751,-1.93274129386,-8.81161495668
do_nothing,-2.1138382934,-1.74478314778,-12.5403739153,-0.952030968432,0.0947193650796,-0.827729640931,-3.62663682748,-1.06622845287,-1.28071571453,-1.46830827966,-0.513128836984,-0.462347725167,-0.591017405233,-9.59724786827
do_nothing,-0.297684114641,-0.964547100371,-10.3508866906,-0.442715146715,-0.00819538049898,-0.130682915208,-3.70963947357,-0.250486133979,-0.869569455569,-0.054171491537,0.0911898614991,1.18843181508,1.01152744746,-4.33511384092
do_nothing,1.57286502365,0.0299332540527,-5.7142313281,0.0518904385724,-0.23185924098,0.634817413894,-2.63731803587,0.703289924621,-0.355227756325,1.44270368398,0.681830942696,2.59566867942,2.33360713805,4.18930136065
do_nothing,3.16263764439,1.03066789214,0.573805882857,0.505268888618,-0.373567570808,1.29973106069,-0.744583422572,1.61610394698,0.199925516829,2.70766806692,1.16917158536,3.46487808255,2.89798340304,11.7024189185
do_nothing,4.15841142393,1.81380934074,7.13110434462,0.899650457799,-0.268697943481,1.69072435903,1.36704219712,2.26711850809,0.729087944157,3.44989117166,1.46529268559,3.60687580226,2.4848087342,14.1285742077
do_nothing,4.35638831494,2.21700629718,12.3724724995,1.21111216969,0.135952750732,1.6908793376,3.03959279375,2.46761942481,1.16292319905,3.50233939646,1.51117412342,3.01581019008,1.23431937993,9.24491935941
do_nothing,3.73083702069,2.19441825248,14.990283973,1.40341002261,0.753929875559,1.28992172429,3.77959077347,2.13528457253,1.43561698008,2.88399923307,1.30045405047,1.89053664008,-0.388783814338,-2.31034687921
do_nothing,2.4536905498,1.82528699928,14.3623954955,1.43415322582,1.38581865003,0.600830761935,3.41236944013,1.33638605688,1.49609748905,1.79532515361,0.887845703201,0.579910073816,-1.76296184648,-17.0649203655
do_nothing,0.851289282064,1.27201463702,10.7411178381,1.27082167763,1.79038987501,-0.16848968585,2.1201922687,0.275498832554,1.32197613093,0.54543264612,0.376071916118,-0.535340354047,-2.34913003765,-29.7956171047
do_nothing,-0.691509545868,0.706023209897,5.1565728983,0.909359831554,1.77382965813,-0.782054050666,0.358478069022,-0.766577840721,0.93104223271,-0.560931600851,-0.115706292676,-1.18148942237,-1.90911310782,-35.3122040943
do_nothing,-1.84784846783,0.234461929203,-0.927682814147,0.386586519114,1.2646877674,-1.05827356927,-1.31245568112,-1.52456077786,0.384575183052,-1.33013162234,-0.490523447648,-1.2948039226,-0.614413023791,-30.3327829759
do_nothing,-2.44390373867,-0.138677100547,-6.07959004423,-0.220046429358,0.347773277332,-0.937035736718,-2.41600761293,-1.83531274635,-0.221157827866,-1.7347823263,-0.703911657584,-1.04183739044,1.00401352599,-14.7995566898
do_nothing,-2.49686269908,-0.49801441545,-9.31684739157,-0.806789424156,-0.754987010436,-0.504342676726,-2.70235383602,-1.68611467124,-0.774732702209,-1.89321856199,-0.773074796014,-0.741693649368,2.25312039065,7.83408394244
do_nothing,-2.18161180761,-0.953594938946,-10.3350505277,-1.26784607296,-1.75021496779,0.0373961444398,-2.20191246326,-1.20651061751,-1.17572574371,-1.98213366693,-0.760522985588,-0.716122477586,2.55113470116,31.4725614275
do_nothing,-1.7399274531,-1.55687943429,-9.47952139627,-1.52145353005,-2.3630603461,0.444639152343,-1.18076121354,-0.608262541196,-1.35919005153,-2.12191702493,-0.738589440252,-1.12715768702,1.67196135425,49.1473034955
do_nothing,-1.36939683467,-2.23583613139,-7.49442806769,-1.52904909023,-2.42161653957,0.526601805906,-0.024641587606,-0.0986537850631,-1.31034745231,-2.28903266857,-0.749953723124,-1.87321125195,-0.138178721926,55.1343457733
do_nothing,-1.13828396868,-2.78420743253,-5.16586445294,-1.30154212351,-1.90851295453,0.222449028763,0.900068979428,0.197378397349,-1.06446587353,-2.30117910725,-0.78195360402,-2.59627465971,-2.22529153748,46.7560616277
do_nothing,-0.962796438104,-2.91914419542,-3.00983132344,-0.891664120244,-0.963978349957,-0.368434365692,1.35826522096,0.275234539803,-0.692089497613,-1.8910996463,-0.767547591341,-2.81030156868,-3.75825796438,25.3054162165
do_nothing,-0.657955285246,-2.3922586358,-1.12915194459,-0.376437941667,0.159104266567,-1.01638966854,1.29738234631,0.234940984921,-0.275130409567,-0.845247037928,-0.614911331495,-2.10977969097,-4.04472055166,-4.19106271459
do_nothing,-0.0422905856662,-1.11351117806,0.712744790737,0.163056356728,1.17231233449,-1.44244693903,0.83107741244,0.220692414611,0.11732073671,0.849454910383,-0.255069366114,-0.378608348171,-2.81398428832,-34.2974822013
do_nothing,0.947586440331,0.763690490296,2.84712077686,0.657409993134,1.83567076697,-1.42161323079,0.173494929923,0.343410373863,0.444668959305,2.91889724451,0.312076045918,2.0900360129,-0.355442230969,-57.1833678221
do_nothing,2.18355637572,2.83842072649,5.40365450503,1.05580745027,2.02234548368,-0.870824356743,-0.443564026759,0.620999279557,0.696734653511,4.82619472721,0.994362942537,4.62560050708,2.5489340056,-66.7427845836
do_nothing,3.35093834322,4.55376396919,8.10500404463,1.32429171365,1.74536689204,0.111028805057,-0.839035885247,0.963082722408,0.882393101779,5.91729864887,1.62028058931,6.37166264957,4.88367781001,-60.2239119203
do_nothing,4.03893332759,5.36222410868,10.2577293965,1.4395010088,1.14064905924,1.26633235837,-0.918057087347,1.20758013099,1.01100797263,5.64784613823,1.98802584087,6.5813579181,5.76252657001,-38.9391131791
do_nothing,3.88863981678,4.91215588799,10.9627927277,1.38375044221,0.414522315971,2.25765972413,-0.67374628349,1.19373130201,1.07590557366,3.81201325967,1.93557118502,4.91363280181,4.7635371169,-7.89968838801
do_nothing,2.74462634875,3.18897705594,9.47409760956,1.14608997183,-0.225490107769,2.77485713917,-0.168338417949,0.839789891187,1.0484697195,0.682728987155,1.40646612154,1.61610233337,2.11005470923,25.4840539527
do_nothing,0.74987264793,0.555735575234,5.56472550163,0.730320056223,-0.633901247422,2.63327303637,0.489297471355,0.190712417975,0.887034009406,-3.00373733231,0.48525301224,-2.48725168219,-1.37658764574,53.2626833749
do_nothing,-1.6588194166,-2.32994473957,-0.253678297084,0.166558416709,-0.765042558648,1.83028131693,1.15899058849,-0.586731938938,0.558252450157,-6.23331081511,-0.614158158617,-6.2185473105,-4.5446595144,68.8775433286
do_nothing,-3.86266042944,-4.7024354773,-6.76510663694,-0.480122615438,-0.675084421629,0.543150305694,1.6784462574,-1.26177818959,0.0626268363848,-8.02105018064,-1.60710104447,-8.41584585219,-6.31001465044,68.6902576337
do_nothing,-5.24742415652,-5.91995699506,-12.3508923975,-1.11067923673,-0.489818200627,-0.92747304942,1.87703940171,-1.6277070762,-0.547113084519,-7.7404868611,-2.22584950298,-8.32779186201,-6.04345128582,52.7732511365
do_nothing,-5.40220856676,-5.66470244119,-15.4700551825,-1.60637996235,-0.350522055907,-2.24586727639,1.6063996579,-1.58344561144,-1.16459596213,-5.35929670606,-2.30642014658,-5.89259031086,-3.80603635786,24.8192059711
do_nothing,-4.26012857649,-4.0425081864,-15.156413605,-1.85487345043,-0.356793515581,-3.13003076346,0.791050223944,-1.17349958089,-1.64949486356,-1.49026250021,-1.84319580851,-1.79420101668,-0.342775522118,-8.7659093869
do_nothing,-2.12889406898,-1.54658042561,-11.3562322865,-1.78119092289,-0.525768264031,-3.41323927843,-0.513111745619,-0.567762335011,-1.86451584063,2.77304231813,-0.990602103339,2.7364304268,3.16889533448,-40.3505537131
do_nothing,0.402576814616,1.10347325419,-4.98135712307,-1.37361278396,-0.781687126379,-3.06413230464,-2.07871593564,0.0117952119808,-1.71867709847,6.19095665999,-0.00991071167245,6.31656458835,5.52995527439,-62.803581951
do_nothing,2.65101959838,3.19253996353,2.34855003104,-0.69473961982,-0.980052539801,-2.16830156058,-3.51532174794,0.38703490664,-1.20221884699,7.77467963247,0.820472331164,7.87122022322,5.94437164331,-71.0838635715
do_nothing,4.05467695431,4.23164290613,8.79120422917,0.127716497031,-0.959516256875,-0.887912899722,-4.34524050398,0.500344980671,-0.400034751759,7.11026186261,1.29887156296,6.99670634391,4.30418300731,-63.3581997249
do_nothing,4.34291765782,4.09494054889,12.8305230403,0.929329832187,-0.605398469411,0.579594928712,-4.14105659057,0.436735427528,0.523001498904,4.49515172354,1.36387375863,4.09692957526,1.23013658683,-41.4112911155
do_nothing,3.60123547134,3.02753171188,13.7042620888,1.54886023108,0.0959074267306,2.02840316022,-2.68960963326,0.378323960925,1.36216466428,0.835621998155,1.10400816756,0.23929701175,-2.14973161942,-10.2540681822
do_nothing,2.21163229486,1.52624425926,11.571400177,1.86782403777,1.03091649468,3.25393886198,-0.125337354899,0.507779344263,1.92700640872,-2.66314512615,0.710312953867,-3.2231800761,-4.60616983019,22.9983140492
do_nothing,0.694083671941,0.14111878539,7.3752478177,1.8378276785,1.9732172233,4.05508862138,3.02687247033,0.901735841205,2.09289358372,-4.90825807822,0.390534795314,-5.13147152144,-5.25399464679,50.7469555289
do_nothing,-0.489349511014,-0.727091755847,2.46679893976,1.48783038397,2.63794733282,4.24517237953,5.93765605307,1.46355945168,1.83383850877,-5.28778688446,0.278995706642,-4.93031006793,-3.87528129591,66.6723735653
do_nothing,-1.09368512952,-0.958537278586,-1.86542910001,0.910251770673,2.76397138384,3.68407090912,7.68481717902,1.93226731643,1.22651486086,-3.8665203169,0.37856169169,-2.85909384999,-1.00185571139,67.2299961078
do_nothing,-1.15494842814,-0.728374180328,-4.7875277223,0.231770384749,2.20105051139,2.33110934384,7.53929084523,1.97452377653,0.424825762161,-1.3392493862,0.559283662212,0.147704724919,2.27519877634,52.5064613132
do_nothing,-0.938062089672,-0.402136643787,-6.10172639733,-0.420770123038,0.975126301725,0.302157152417,5.2371797316,1.3306698169,-0.386014108664,1.24106046188,0.616270904534,2.81698303628,4.70238276355,26.201763512
do_nothing,-0.793326094928,-0.35666436578,-6.17137659318,-0.948323496219,-0.691504029485,-2.09711542883,1.1400649373,-0.0416680849101,-1.04058086296,2.86115255329,0.365426344423,4.02175719619,5.32467115725,-5.28641334976
do_nothing,-0.981825340819,-0.799353866412,-5.64345785301,-1.29385524448,-2.41711326347,-4.38995571589,-3.78891588282,-1.88941232185,-1.43331777934,2.925882182,-0.26087603886,3.21626167299,3.84343898201,-34.4637011319
do_nothing,-1.54227635885,-1.65915563081,-5.09746466245,-1.44110996624,-3.75034565678,-6.01352121786,-8.21055103309,-3.6953354538,-1.53607789765,1.47788316597,-1.15843392293,0.658639548314,0.740006872732,-54.6178613957
do_nothing,-2.2555995211,-2.59519628765,-4.77106892606,-1.4022227603,-4.29190914522,-6.46023344355,-10.7856796462,-4.82359426398,-1.39008030194,-0.823314913541,-2.06296782104,-2.66607936303,-2.88315186012,-61.4763409631
do_nothing,-2.72491009931,-3.1234012677,-4.47436043626,-1.20214170562,-3.81502264902,-5.43965746587,-10.5931890648,-4.7386824279,-1.0782535677,-2.95637603411,-2.63091621695,-5.40091446889,-5.69002945625,-54.1924770338
do_nothing,-2.54237154584,-2.81510309023,-3.72234779664,-0.867817828337,-2.34826359331,-3.00816822705,-7.45556139779,-3.22270484741,-0.690235308522,-3.93429496878,-2.56401051332,-6.32473103208,-6.59101632257,-35.3950094226
do_nothing,-1.4782890349,-1.49190425352,-2.0230520814,-0.426610422818,-0.192171425297,0.385689540427,-2.05646584984,-0.507468577302,-0.293674129702,-3.19493420393,-1.73318034483,-4.8284708123,-5.14406774844,-10.3063097263
do_nothing,0.383882983101,0.660494042901,0.807217024966,0.0869945105618,2.1416550316,3.97147187243,4.20487471888,2.73906016339,0.0783387368776,-0.839272966333,-0.253962590187,-1.18247316377,-1.73249393888,14.7905912527
do_nothing,2.62523722592,3.10910616913,4.44295402143,0.62201946164,4.0576695746,6.83825309994,9.59416523115,5.58406213079,0.421204344469,2.37521392077,1.51982332949,3.5103255846,2.54700145493,34.2660429339
do_nothing,4.59942022423,5.12361339505,8.0599009176,1.10665325509,5.03729548032,8.1834035956,12.5494239606,7.11383676162,0.739467557869,5.2895987688,3.0893420575,7.66855666138,6.250205521,44.5277035114
do_nothing,5.63932391928,6.01252260534,10.5691654933,1.45484273615,4.78840169821,7.55629944764,12.1595432104,6.74010033395,1.02482863564,6.75883777323,3.96446893119,9.7754767059,8.07952191193,44.6871494682
do_nothing,5.29184060254,5.36503843021,10.9959608238,1.58484309974,3.33829552181,5.01815346453,8.46032509555,4.42275310184,1.24287497293,6.07854891884,3.82772051826,8.92151228591,7.33498222768,36.3703070604
do_nothing,3.49620206618,3.2129824612,8.86186597043,1.44477444527,1.03940399358,1.159480093,2.44766588336,0.725163290671,1.3358512172,3.26720695848,2.65140390894,5.15291684348,4.16530230626,22.8203521558
do_nothing,0.638424864012,0.0525975533379,4.42150214555,1.03578792645,-1.51845210485,-3.04118042563,-4.20390146426,-3.32841680754,1.24167967625,-0.902665236065,0.72452618102,-0.501607873763,-0.468529433412,7.66771381704
do_nothing,-2.54344047529,-3.28655958984,-1.34565118577,0.422650097077,-3.66720712665,-6.48287628054,-9.63423214643,-6.55619863085,0.922158164296,-5.14183076094,-1.4243038892,-6.34276494952,-5.10517087054,-6.17355807148
do_nothing,-5.17625933035,-5.88592141997,-6.99847393063,-0.274904791042,-4.84644583235,-8.25541816205,-12.3496762365,-7.98814146165,0.388738837379,-8.07144160071,-3.18601317343,-10.5487959584,-8.26378626572,-17.1094814172
do_nothing,-6.52043222433,-7.01658019051,-11.0679928436,-0.909935843014,-4.76158129133,-7.90441537558,-11.6615597708,-7.17953075372,-0.285624922138,-8.692272627,-4.06110586052,-11.7743259675,-8.9304115644,-24.8181641754
do_nothing,-6.20065845781,-6.36149012336,-12.5130175199,-1.34759342569,-3.46669000607,-5.56456149325,-7.8746043326,-4.36204869558,-0.975347069358,-6.73194635447,-3.81746307245,-9.59585608751,-6.88643396369,-29.6705104275
do_nothing,-4.32172879943,-4.10945599489,-11.0393636433,-1.50322938761,-1.3463208222,-1.9176830075,-2.16974874817,-0.378103636429,-1.53097696108,-2.74797237281,-2.56256016809,-4.65266751852,-2.77175121207,-31.9558664867
do_nothing,-1.4315383371,-0.892346574141,-7.17310731288,-1.3660096365,0.998876919808,2.01256057845,3.77571271916,3.58311510702,-1.81947794475,2.05015422975,-0.705323622054,1.56290184446,2.13338315381,-31.32222034
do_nothing,1.65443530673,2.41107759153,-2.06678128544,-0.999244489052,2.92829878178,5.16519615683,8.30473179035,6.36178426372,-1.76297640521,6.19829935717,1.17964425736,7.19167249822,6.32915674469,-26.7392508505
do_nothing,4.10667713299,4.93864138551,2.88762518984,-0.516818726862,3.94581682648,6.75007337641,10.2677674519,7.19109192494,-1.36299509766,8.45699275972,2.53941606026,10.603331654,8.5755950091,-17.0532409764
do_nothing,5.32834900246,6.09030489082,6.49885812562,-0.0439093875021,3.83670398607,6.46399552693,9.32991754441,5.92791104912,-0.70194061413,8.20830936932,3.01821007518,10.901111628,8.27186944862,-1.9195211676
do_nothing,5.11584331403,5.68054280273,8.11635483392,0.323785363686,2.71660706775,4.55058795314,6.01129834084,3.07588252412,0.0786970439016,5.63713755985,2.56220907412,8.17121904624,5.61612758052,17.3127730242
do_nothing,3.68631942911,3.9566983231,7.75949782894,0.547300250555,0.98019761067,1.691556729,1.46405650883,-0.402313586906,0.816197153548,1.64096121391,1.42003772967,3.40453197508,1.50421089694,37.2332306124
do_nothing,1.57236631336,1.48825097353,6.00743730956,0.648130081708,-0.831238785325,-1.22836155321,-2.92594146344,-3.41496773499,1.36823221003,-2.49254100711,0.0417586086786,-1.86837015145,-2.78626467314,52.8346224967
do_nothing,-0.571661921091,-1.02712978607,3.70949511339,0.687470640905,-2.19916896568,-3.40156589091,-5.97367041223,-5.09824268932,1.64540505883,-5.52188778428,-1.08571707114,-6.09279953831,-6.011965982,58.8148114226
do_nothing,-2.18074221895,-2.9724183817,1.63835627401,0.729722931737,-2.77999606825,-4.33124298243,-7.024913918,-5.07881556743,1.62575520067,-6.64897130606,-1.60774576649,-8.17624372413,-7.33966776154,51.3689579051
do_nothing,-2.93677359997,-3.96891937256,0.221384720302,0.805578008627,-2.49368802317,-3.94744307069,-6.08620215742,-3.55778135575,1.34904775755,-5.74384809832,-1.41655886695,-7.78586754226,-6.56417726222,29.8657476895
do_nothing,-2.82635729798,-3.94093738906,-0.553670723499,0.890695996762,-1.5250055726,-2.57781488418,-3.73351422495,-1.1965568976,0.895623639071,-3.33016505775,-0.673197580878,-5.37242950997,-4.11127230505,-2.25203290173
do_nothing,-2.09131463151,-3.08121615388,-1.036620995,0.910276512188,-0.242823595994,-0.795369856877,-0.854119969056,1.14464240906,0.359180202176,-0.351315025902,0.267453975273,-1.93562486555,-0.843881507072,-37.8078576117
do_nothing,-1.10258910454,-1.74445165555,-1.67397421357,0.769642245591,0.930859825391,0.795029712461,1.67352616526,2.71586443767,-0.176470454726,2.18664456849,0.998135531633,1.36594409368,2.24701031258,-67.5449977686
do_nothing,-0.211782730896,-0.315920179936,-2.74030230848,0.400118510805,1.65640112789,1.75430947452,3.24734424695,3.12247467632,-0.649797211738,3.56137939133,1.21386942328,3.61125333073,4.35486346806,-82.7019332958
do_nothing,0.363781892345,0.897319861087,-4.16012333312,-0.197769652321,1.7725370431,1.9261875539,3.67372905501,2.42366473468,-1.02170624744,3.54829302175,0.823315574378,4.38155799537,5.07196889476,-77.7487802509
do_nothing,0.585678159508,1.72193100483,-5.49794445739,-0.932383082026,1.32553156407,1.44284281258,3.13929042306,1.05957393553,-1.26745180764,2.43620682169,-0.0224108918892,3.81476985596,4.44824922959,-52.3904212651
do_nothing,0.56278039065,2.11526273522,-6.12277644,-1.63227306584,0.52863674444,0.630646646678,2.05832289939,-0.353660639204,-1.36737467387,0.855514180458,-0.991662900018,2.45470006287,2.89637921397,-12.1107125935
do_nothing,0.467518145642,2.12183488087,-5.4803620637,-2.0908162883,-0.327257393631,-0.138259050331,0.873113167548,-1.275004647,-1.30314954378,-0.501887681437,-1.69987927249,0.975557225857,0.997452910229,33.0355247145
do_nothing,0.441572563317,1.81954015164,-3.36072843026,-2.1315124568,-0.976397110135,-0.588076746294,-0.108590356519,-1.43758069486,-1.06269552327,-1.15648299095,-1.85450995336,-0.0988393077141,-0.711281642154,71.1147585072
do_nothing,0.531910438347,1.28316744032,-0.0484159316009,-1.6723234251,-1.25812282615,-0.623671169059,-0.781136840042,-0.922929462774,-0.65190227636,-1.00436940978,-1.36370520233,-0.571220238932,-1.89021497528,91.7203920068
do_nothing,0.680901163494,0.578329251484,3.71231155227,-0.765877718436,-1.14984856815,-0.333055371971,-1.20276827953,-0.0899163732895,-0.107117413026,-0.314574216875,-0.369725679111,-0.583960322674,-2.44867046806,89.0519714469
do_nothing,0.768866339628,-0.219904841703,6.93278082962,0.400813174724,-0.748490997951,0.0819054977816,-1.48780079153,0.604265583918,0.499150014981,0.426775858319,0.803555284095,-0.481549019692,-2.4944964428,63.694227849
do_nothing,0.684775227282,-1.00343126379,8.70034068684,1.55035617415,-0.215014086682,0.409474737767,-1.69278230143,0.812351828745,1.06486264845,0.752730408457,1.76806975281,-0.596176353659,-2.22178130004,22.5121823994
do_nothing,0.390137749972,-1.62529694514,8.48664122501,2.39096499581,0.291574503493,0.519697208119,-1.75763330194,0.447140215247,1.47821847042,0.430646069937,2.20973991483,-1.05788360105,-1.79525727509,-23.330548877
do_nothing,-0.0537670709896,-1.92502421274,6.32986460273,2.70119649399,0.664177206847,0.406684413429,-1.53255815273,-0.287457122406,1.64573089335,-0.432999808284,1.99684895939,-1.71508312759,-1.28293655641,-61.6255949719
do_nothing,-0.507325159128,-1.78135886182,2.82402603367,2.39633845686,0.865196681236,0.168989404957,-0.877671562482,-0.994954892447,1.51969265801,-1.43960701071,1.22027619094,-2.20011922748,-0.660804614143,-82.636612987
do_nothing,-0.812247754515,-1.17196890346,-1.07940762221,1.55470645199,0.911274006164,-0.0564320301719,0.215535168648,-1.27092705133,1.11526134054,-2.0754876893,0.153238948694,-2.10986245322,0.122053256343,-81.794073761
do_nothing,-0.861860324036,-0.211359223194,-4.38312715238,0.39498171217,0.839084750254,-0.171563406789,1.54652688804,-0.894365166388,0.510373476181,-1.94369653607,-0.852060948464,-1.22008709882,1.05739670733,-60.7608517077
do_nothing,-0.649837192728,0.856913781437,-6.35457472603,-0.788263482767,0.673046414068,-0.167691452702,2.72194886534,0.0569078423434,-0.172552324414,-0.952885626092,-1.49101664445,0.364259826038,2.01924889228,-26.5973704497
do_nothing,-0.274945448576,1.72084186197,-6.72558155159,-1.71007632947,0.412652064197,-0.124641476281,3.27569100889,1.21875790804,-0.797783638868,0.617469801704,-1.60946644926,2.19589633227,2.76799184576,10.6328942926
do_nothing,0.100987546817,2.09822460469,-5.71683348589,-2.17434689871,0.0457162191645,-0.159635005224,2.85454658375,2.08066349804,-1.25042319637,2.20636326888,-1.24635207599,3.62570853334,3.02319038135,40.9941535681
do_nothing,0.323754742319,1.83904781074,-3.89141878372,-2.12215642589,-0.420507033409,-0.351087650789,1.39571713937,2.19914191482,-1.46269792619,3.18337323877,-0.603393095561,4.04836285462,2.57874606915,57.5265294545
do_nothing,0.314933150408,0.992245096179,-1.90582302208,-1.63560244918,-0.928926646992,-0.675920567488,-0.784006429179,1.39814298145,-1.42457659061,3.10135159107,0.0433638213735,3.15729376707,1.41212263123,57.9411485336
do_nothing,0.106948643888,-0.193194880193,-0.26171290293,-0.898657243009,-1.3632359207,-0.994708329217,-3.0398755993,-0.128385865623,-1.17673415729,1.88902210014,0.454084964946,1.1038208195,-0.262413917708,44.720357783
do_nothing,-0.171446438183,-1.33992902321,0.845076789381,-0.130719732837,-1.57146600374,-1.09851941866,-4.59128999971,-1.86027073112,-0.790236602035,-0.0958779704661,0.514803591502,-1.51179187266,-2.02707509596,23.7337525183
do_nothing,-0.354108435006,-2.06617930034,1.52673226125,0.483330679663,-1.41916127353,-0.803011237561,-4.79601669224,-3.13246786442,-0.341732411554,-2.17924007997,0.272735456295,-3.82592453128,-3.3774834934,1.96253412355
do_nothing,-0.315738362852,-2.1195107142,2.06891415486,0.843198391236,-0.853311602716,-0.0513481461173,-3.40833550915,-3.38925522637,0.106271562051,-3.61096306758,-0.0942420487961,-5.0127366548,-3.88628387428,-14.8260868013
do_nothing,-0.0348190199582,-1.47136890001,2.72808925489,0.948480593906,0.0506076345891,1.0213187832,-0.718847795189,-2.41406796594,0.51351727064,-3.84428255524,-0.359693900967,-4.59134551244,-3.35531953099,-23.6699984594
do_nothing,0.387960150312,-0.33513827418,3.55594390003,0.877574572109,1.08349192066,2.09777581015,2.490263668,-0.442520392913,0.857499586142,-2.74803685969,-0.348399423335,-2.62207562979,-1.89889232372,-24.8106753486
do_nothing,0.76659289329,0.902667984132,4.33237669957,0.741558194887,1.95022879907,2.77091007535,5.17581600083,1.89253304559,1.12108277236,-0.669212329261,-0.0136798238996,0.287644419659,0.0765564328111,-20.9049787054
do_nothing,0.908818854408,1.81629933809,4.64062491278,0.632569306363,2.36020188562,2.69156998311,6.38083267659,3.77206819506,1.28039554323,1.68145331087,0.538443893984,3.17789000218,1.99417787,-15.4835500254
do_nothing,0.704849950364,2.09262368158,4.05581903708,0.586771800548,2.13154000186,1.71884034407,5.57989018647,4.48537975829,1.3008929558,3.48140756736,1.0878627596,5.0663162652,3.2905343293,-11.3267813568
do_nothing,0.186991581174,1.64535773569,2.36739122402,0.575124397908,1.27040935828,0.0120266132406,2.89624249409,3.70009808002,1.14553732402,4.09386509588,1.38675370399,5.29611651689,3.59866465731,-9.40090241157
do_nothing,-0.468462852766,0.648347228534,-0.262580738336,0.523735837221,-0.00832216726236,-1.97986614546,-0.896726075249,1.60471957794,0.793074767421,3.30086080018,1.26008023607,3.77476547184,2.86664547215,-8.72725013815
do_nothing,-1.00263896089,-0.526386046387,-3.28078617132,0.35403862519,-1.33372680139,-3.63969151992,-4.6035501061,-1.13509211005,0.258901437529,1.3847023597,0.681000514093,1.01431495583,1.37014266511,-7.16105041965
do_nothing,-1.17752081503,-1.44481282926,-5.88508159734,0.0256579360819,-2.29280187522,-4.38108943114,-6.99546651957,-3.59724677309,-0.391552065139,-0.973270661501,-0.208559183092,-2.04428620534,-0.385209945213,-2.68907713069
do_nothing,-0.880632591198,-1.77192625773,-7.28388315904,-0.43571225786,-2.56940409726,-3.85843668586,-7.22978418842,-4.92535900936,-1.04532801696,-2.93983398975,-1.14109247991,-4.36128327825,-1.83695465899,5.34154284024
do_nothing,-0.186572601681,-1.3978340659,-6.97868657078,-0.936917607335,-2.0592383006,-2.11160581242,-5.15302731453,-4.63675441372,-1.56324771792,-3.83186868895,-1.81521829446,-5.16402843989,-2.55364203536,15.607455093
do_nothing,0.654256084131,-0.480961396198,-4.96172367522,-1.34352627205,-0.917171154835,0.412501785233,-1.37687759692,-2.80316232895,-1.81557358502,-3.36184155567,-2.00229984005,-4.21654455166,-2.37231224124,25.08914998
do_nothing,1.30134506501,0.609409634404,-1.74887239634,-1.52410887389,0.484775582824,2.97866548388,2.90703119686,-0.035410329232,-1.7212501934,-1.7366905086,-1.62870183618,-1.89564632774,-1.43957797458,30.1580709186
do_nothing,1.4552663171,1.43152476972,1.77184577684,-1.39637081179,1.67872224875,4.78959044485,6.31595020107,2.72575766994,-1.27724646157,0.425216981501,-0.803450480079,0.952677975663,-0.145205735861,28.0465361167
do_nothing,0.984628934251,1.63987715822,4.62643586787,-0.958335098988,2.26166639207,5.24658814596,7.73779038153,4.53948585006,-0.566770773964,2.32675940397,0.218712894467,3.32266056773,1.02490064892,18.1089687861
do_nothing,-0.00288866525421,1.12123182499,6.07424523417,-0.293434427734,2.03920815571,4.1558212451,6.70702787874,4.79696959664,0.258227747061,3.28692426278,1.12515121256,4.40996468588,1.66204366352,2.34897953513
do_nothing,-1.1784477815,0.0459139323624,5.84502982331,0.452061824985,1.09938872307,1.80680144799,3.56378697439,3.43582074018,1.01611434987,2.98824448675,1.65190811758,3.89309963614,1.57289809449,-15.0388869966
do_nothing,-2.09889675095,-1.18697783223,4.20815874657,1.11106357286,-0.212861135816,-1.10790626239,-0.66024096682,0.958786165144,1.54436689115,1.58601879612,1.67063866907,2.03432759977,0.835826065105,-28.9866757472
do_nothing,-2.36752798134,-2.09253084191,1.85069405494,1.54248176903,-1.4148441999,-3.70838898371,-4.59024749764,-1.74988608273,1.74262639979,-0.359068179449,1.2254143223,-0.433081530828,-0.240537663323,-35.2682764201
do_nothing,-1.79039121145,-2.28000374329,-0.387712901657,1.66737580997,-2.05839732036,-5.20781585906,-6.9705340817,-3.74334063583,1.59627924856,-2.09723965032,0.507842174509,-2.5855586143,-1.2372010499,-31.9862122188
do_nothing,-0.467905459456,-1.60391647309,-1.82229568551,1.4836841744,-1.894064191,-5.16377275493,-7.08070259895,-4.34999457338,1.17352053372,-2.97223400424,-0.218377349904,-3.65145004911,-1.77733324107,-20.2742663767
do_nothing,1.21721226926,-0.229749849465,-2.15782809849,1.05703618241,-0.966869732937,-3.6162110616,-4.96331101545,-3.40775597095,0.598022622689,-2.66422932304,-0.714349047825,-3.28783771219,-1.65642237619,-3.94132226148
do_nothing,2.71741499077,1.41183788096,-1.56473837865,0.493608238435,0.393238306161,-1.06668575983,-1.38794081598,-1.31067387434,0.00764795283981,-1.30351972438,-0.848468057887,-1.69190040449,-0.906022190549,11.8307197209
do_nothing,3.50529321296,2.7680240113,-0.572760198083,-0.0934902114844,1.68554266219,1.69187668305,2.4302290567,1.14648926771,-0.485962609646,0.585076217015,-0.635251116489,0.489884175803,0.227048433951,22.2726474051
do_nothing,3.26123071702,3.35430151309,0.171561247834,-0.61208804004,2.4181166245,3.83489008167,5.2539079479,3.06602873382,-0.823220608057,2.28345168451,-0.218434402432,2.41572310846,1.37343781204,24.6541529168
do_nothing,1.99538790262,2.92504438318,0.18553086915,-1.00481993453,2.28860706757,4.76628362727,6.23864702261,3.77611560013,-1.00028778396,3.14973783661,0.192744919792,3.36713293575,2.16908559582,19.163177596
do_nothing,0.0575379153992,1.56352807933,-0.642202473403,-1.24742701458,1.30011425388,4.2927170482,5.1959135745,3.06944168563,-1.05186727926,2.85485528675,0.408252724125,3.01210402046,2.37191087112,8.72333022019
do_nothing,-1.97193884101,-0.340583388491,-1.99886461107,-1.33647432177,-0.231588258833,2.65799087355,2.61891309883,1.26553313569,-1.02232109763,1.4991303718,0.330428891016,1.51644869954,1.92893889079,-2.17694828752
do_nothing,-3.47341990914,-2.21824308241,-3.26990328933,-1.27520251451,-1.78431664125,0.433974570465,-0.527480904477,-0.922822866942,-0.938490394073,-0.431555187191,-0.0112357207836,-0.533808490261,0.97629611497,-9.20778971891
do_nothing,-3.99479034796,-3.5076680129,-3.78823101686,-1.06578671564,-2.81260769791,-1.68629927417,-3.16780857625,-2.66556605187,-0.796289731102,-2.25009076022,-0.47514444436,-2.36442791687,-0.220282852188,-9.8359646743
do_nothing,-3.40036825197,-3.83547556526,-3.11252202042,-0.712088766455,-2.94241648353,-3.11682934248,-4.49303597066,-3.32815577731,-0.566933501571,-3.32130450815,-0.86482319644,-3.30778994116,-1.35691226776,-4.27135799122
do_nothing,-1.90943831433,-3.13046208625,-1.22519452349,-0.231056307373,-2.10693639098,-3.5494137602,-4.21877869944,-2.70357546788,-0.220007125359,-3.28872833771,-1.00527056882,-3.047919897,-2.17984746611,4.63062199265
do_nothing,-0.0118786979617,-1.63344406506,1.42850694382,0.334068920554,-0.573730198866,-3.01425394522,-2.63923135246,-1.0781713552,0.247021967373,-2.19233152942,-0.809221712197,-1.72501274817,-2.54185555707,12.4800936422
do_nothing,1.70698916324,0.195827077389,4.07792389005,0.907374379917,1.14751733268,-1.82086662107,-0.469736005957,0.890220280437,0.786743262163,-0.437777850298,-0.309163245942,0.135484581526,-2.41438628436,15.0737229191
do_nothing,2.76759985854,1.83769693587,5.89093096687,1.38711893207,2.48392726901,-0.413390627271,1.45129432155,2.43230860367,1.29890542329,1.36556505053,0.355216469874,1.83654705116,-1.86227987499,10.0947411911
do_nothing,2.95027823307,2.87927083122,6.26631475293,1.66673846198,3.00063787735,0.797828589695,2.48205439554,2.9645058303,1.651233322,2.63225225781,0.987431432421,2.7798202832,-1.00127983409,-1.83906289522
