label,COUNTER,INTERPOLATED,AF3,F7,F3,FC5,T7,P7,O1,O2,P8,T8,FC6,F4,F8,AF4,RAW_CQ,GYROX,GYROY,MARKER,SYNC,TIME_STAMP_s,TIME_STAMP_ms,CQ_AF3,CQ_F7,CQ_F3,CQ_FC5,CQ_T7,CQ_P7,CQ_O1,CQ_O2,CQ_P8,CQ_T8,CQ_FC6,CQ_F4,CQ_F8,CQ_AF4,CQ_CMS,CQ_DRL
off_to_on,4134.41264582,4140.40650342,4142.43777936,4137.15285676,4145.13150109,4160.98778646,4159.94287547,4160.49273578,4135.98011129,4130.01765331,4103.78435538,4132.04223681,4126.92954039,-31.8771456763
off_to_on,4133.7394909,4139.23717748,4141.36386809,4137.09507214,4144.84398382,4159.76941007,4158.98233034,4159.70771515,4135.96460564,4129.13611702,4103.19202975,4131.07098317,4126.52778436,-10.6118823946
off_to_on,4133.37206996,4138.26573013,4140.42591369,4137.04042121,4144.55120575,4158.53282081,4157.91304572,4158.81675259,4135.94949203,4128.47320985,4102.69835658,4130.36958556,4126.42309419,9.79212124543
off_to_on,4133.29017182,4137.49277537,4139.62487325,4136.98959281,4144.26011597,4157.30482947,4156.75901488,4157.83936638,4135.93528111,4128.03180055,4102.3052973,4129.93064461,4126.6015325,28.7990808985
off_to_on,4133.46590971,4136.91401452,4138.95784709,4136.94297404,4143.97712086,4156.111218,4155.54565288,4156.79680146,4135.92243565,4127.80935985,4102.01209281,4129.73990138,4127.04219576,45.9747611334
off_to_on,4133.86483046,4136.52053072,4138.4183456,4136.90064316,4143.70792655,4154.97602461,4154.29908057,4155.71144516,4135.91135624,4127.79811043,4101.81537466,4129.77687874,4127.71796282,61.0022442481
off_to_on,4134.44722901,4136.29921585,4137.99667474,4136.86237618,4143.45741017,4153.92089283,4153.04539782,4154.60620953,4135.90236977,4127.98531913,4101.70935248,4130.01570268,4128.59641103,73.6932123098
off_to_on,4135.16961827,4136.23331179,4137.68042314,4136.82766708,4143.22952273,4152.96450271,4151.80996669,4153.50389828,4135.8957213,4128.35372033,4101.68606941,4130.42607101,4129.64086742,83.994276739
off_to_on,4135.98629895,4136.30304386,4137.45502924,4136.7957612,4143.0272251,4152.12209933,4150.61672475,4152.42657631,4135.89156959,4128.88205557,4101.73571494,4130.97433261,4130.81155839,91.9880776997
off_to_on,4136.85097091,4136.48632159,4137.30440467,4136.76570048,4142.85245733,4151.40513012,4149.48754743,4151.39495973,4135.88998655,4129.54571069,4101.84698298,4131.62463733,4132.06681918,97.8890754196
off_to_on,4137.71832661,4136.75948056,4137.21158804,4136.73637899,4142.70614039,4150.82099966,4148.44167719,4150.42784428,4135.89096065,4130.31742943,4102.00746196,4132.3401158,4133.36432356,102.034160776
off_to_on,4138.54556953,4137.09803873,4137.15940345,4136.70660629,4142.58820863,4150.37294734,4147.49523562,4149.5415888,4135.89440398,4131.16808069,4102.20404339,4133.08404881,4134.66229473,104.868414772
off_to_on,4139.29380437,4137.47744175,4137.13109897,4136.67517601,4142.49767046,4150.06005047,4146.66083231,4148.74966982,4135.90016262,4132.06745574,4102.42333529,4133.82098815,4135.92066076,106.926536554
off_to_on,4139.92925222,4137.87377426,4137.11094234,4136.64093654,4142.43269422,4149.87735213,4145.94728216,4148.06232097,4135.90802974,4132.98507169,4102.65206765,4134.51779356,4137.10212085,108.810629835
off_to_on,4140.42425173,4138.26441655,4137.0847539,4136.6028606,4142.3907155,4149.81610963,4145.35943922,4147.4862686,4135.91776089,4133.89095813,4102.87747778,4135.14455509,4138.1730932,111.16518257
off_to_on,4140.75801625,4138.62862997,4137.04035985,4136.56011029,4142.36856168,4149.86415527,4144.8981523,4147.02457199,4135.92909054,4134.75640493,4103.08766459,4135.67537423,4139.10451977,114.650188275
off_to_on,4140.91712619,4138.94805729,4136.96795218,4136.5120945,4142.36258901,4150.00635768,4144.5603433,4146.67657298,4135.94174933,4135.55465115,4103.27190223,4136.08898347,4139.872509,119.91343384
off_to_on,4140.89574619,4139.20712794,4136.86034563,4136.45851559,4142.36882711,4150.22516798,4144.33920596,4146.4379567,4135.95548101,4136.26149754,4103.42090513,4136.36918937,4140.45880272,127.563014867
off_to_on,4140.69556614,4139.39336111,4136.71312519,4136.39940282,4142.38312603,4150.50123178,4144.22451841,4146.30092136,4135.97005833,4136.85582758,4103.52703808,4136.50513091,4140.85105958,138.141135328
off_to_on,4140.32547533,4139.49756261,4136.52468211,4136.3351305,4142.40130084,4150.81404558,4144.20305961,4146.25445215,4135.98529704,4137.32002539,4103.58446696,4136.49135099,4141.04295288,152.100203664
off_to_on,4139.80098797,4139.51391498,4136.29613999,4136.26641955,4142.41926953,4151.14263474,4144.25911615,4146.28469083,4136.00106728,4137.64028217,4103.5892475,4136.32768528,4141.03408658,169.782152701
off_to_on,4139.14344682,4139.43996312,4136.03117688,4136.19432183,4142.4331801,4151.46623026,4144.37506325,4146.37538994,4136.01730169,4137.80678652,4103.53935176,4136.01897897,4140.82973873,191.401789369
off_to_on,4138.37903919,4139.27650078,4135.73575297,4136.12018761,4142.439524,4151.76492254,4144.53200108,4146.50843802,4136.0339996,4137.81379812,4103.43463408,4135.57464785,4140.44044728,217.034828328
off_to_on,4137.53766503,4139.02736627,4135.41775672,4136.04561677,4142.43523305,4152.02027216,4144.71042595,4146.66443996,4136.0512271,4137.65960811,4103.27674036,4135.0081053,4139.88145793,246.611086838
off_to_on,4136.65170186,4138.69915779,4135.0865854,4135.97239572,4142.41775829,4152.21586032,4144.89091376,4146.82333479,4136.06911263,4137.34639262,4103.06896635,4134.33608128,4139.17205747,279.913122445
off_to_on,4135.75471341,4138.30088078,4134.75267781,4135.90242227,4142.38512961,4152.33776376,4145.0547926,4146.96503173,4136.08783826,4136.8799693,4102.81607196,4133.57786185,4138.33481895,316.580387825
off_to_on,4134.88015037,4137.84354105,4134.42701836,4135.83762165,4142.33599577,4152.37494213,4145.18478091,4147.07004438,4136.10762689,4136.26946819,4102.52405943,4132.75447972,4137.39478611,356.118767987
off_to_on,4134.06009024,4137.33969805,4134.12063234,4135.77985748,4142.26964474,4152.31952796,4145.26556827,4147.12010278,4136.12872581,4135.52693056,4102.19992398,4131.88788621,4136.378625,397.915161868
off_to_on,4133.32406092,4136.80299287,4133.84409166,4135.73084166,4142.18600491,4152.16701271,4145.28431779,4147.09872339,4136.15138746,4134.66685002,4101.85138567,4131.00013441,4135.31377021,441.256579749
off_to_on,4132.69798836,4136.24766583,4133.60704987,4135.69204748,4142.08562776,4151.91632512,4145.23107177,4146.9917188,4136.17584815,4133.7056718,4101.48661142,4130.11260181,4134.2275922,485.353057372
off_to_on,4132.20330342,4135.6880778,4133.41782368,4135.66463011,4141.96965333,4151.5698014,4145.09904638,4146.78763082,4136.20230575,4132.66126645,4101.11393639,4129.24527829,4133.14660996,529.363544829
off_to_on,4131.85623635,4135.138249,4133.28303653,4135.64935858,4141.83976004,4151.13304966,4144.88480523,4146.47807389,4136.23089761,4131.55239476,4100.74159319,4128.41614234,4132.09577149,572.423818679
off_to_on,4131.66732021,4134.61142751,4133.20733679,4135.64656263,4141.69810106,4150.61471369,4144.58830665,4146.05797852,4136.26167967,4130.3981803,4100.37745742,4127.64064408,4131.09782056,613.675391808
off_to_on,4131.64111627,4134.11969849,4133.19320063,4135.6560977,4141.54722934,4150.02614346,4144.21282427,4145.5257281,4136.29460809,4129.21760512,4100.02881658,4126.93130922,4130.17276512,652.294360381
off_to_on,4131.77616619,4133.6736434,4133.24082564,4135.67733012,4141.39001398,4149.38098278,4143.76474503,4144.88318559,4136.32952433,4128.02904302,4099.7021687,4126.29747315,4129.33745841,687.519132984
off_to_on,4132.06516754,4133.28205701,4133.34811807,4135.7091439,4141.22955026,4148.69468647,4143.25325412,4144.13561072,4136.36614467,4126.84984297,4099.4030558,4125.74514911,4128.60530008,718.676033264
off_to_on,4132.49536128,4132.95172844,4133.51077316,4135.74996959,4141.06906607,4147.98398258,4142.68992066,4143.29147211,4136.40405505,4125.69597401,4099.13593606,4125.27702973,4127.98606061,745.201850689
off_to_on,4133.04911307,4132.68729091,4133.72244437,4135.79783436,4140.91182746,4147.26629649,4142.08820213,4142.36216255,4136.44271156,4124.58174039,4098.90409769,4124.89261632,4127.48582839,766.662531133
off_to_on,4133.70466322,4132.49114298,4133.97499466,4135.85043193,4140.76104591,4146.55915619,4141.46288825,4141.3616289,4136.48144716,4123.51957372,4098.70961611,4124.58846616,4127.10707503,782.767346353
off_to_on,4134.43701523,4132.36344249,4134.25881945,4135.90520935,4140.61978992,4145.87959868,4140.82950715,4140.3059308,4136.51948446,4122.51990579,4098.5533547,4124.3585445,4126.848831,793.378053239
off_to_on,4135.21892801,4132.30217219,4134.56322892,4135.9594674,4140.49090295,4145.24359834,4140.20371727,4139.21274364,4136.55595451,4121.59112283,4098.43500802,4124.19466427,4126.70696029,798.512741703
off_to_on,4136.0219738,4132.30327398,4134.87687442,4136.01047029,4140.37692983,4144.66553686,4139.60070868,4138.10082305,4136.58992092,4120.73959856,4098.3531847,4124.0869944,4126.6745203,798.344267315
off_to_on,4136.81762171,4132.36084651,4135.1882024,4136.05555986,4140.28005289,4144.1577328,4139.03463665,4136.98944822,4136.62040872,4119.96980022,4098.3055258,4124.02461473,4126.74219063,793.193364813
off_to_on,4137.57830656,4132.46739868,4135.48591765,4136.09226947,4140.20203891,4143.73004596,4138.51810881,4135.89786171,4136.64643679,4119.28445862,4098.28885303,4123.99609427,4126.8987529,783.516733712
off_to_on,4138.27844373,4132.61414989,4135.75943709,4136.11843228,4140.1441979,4143.38956937,4138.06174443,4134.8447229,4136.66705283,4118.68479066,4098.29934034,4123.99006891,4127.13160241,769.890568911
off_to_on,4138.89535333,4132.79136643,4135.99931586,4136.13227907,4140.10735438,4143.14041854,4137.67382154,4133.84759137,4136.68136947,4118.17076112,4098.33270128,4123.99579502,4127.42727276,752.990170559
off_to_on,4139.41006165,4132.98872283,4136.19762886,4136.13252115,4140.09183185,4142.98362495,4137.36002342,4132.9224553,4136.68860002,4117.74136929,4098.38438481,4124.00365703,4127.77195457,733.566404232
off_to_on,4139.80795306,4133.19567651,4136.34829339,4136.11841445,4140.09745125,4142.91713703,4137.1232923,4132.08331845,4136.68809253,4117.39494583,4098.44977166,4124.00560944,4128.15199088,712.419889386
off_to_on,4140.07925188,4133.4018441,4136.44732112,4136.08980186,4140.12354373,4142.93592882,4136.96379366,4131.34185753,4136.67936063,4117.12944537,4098.52436403,4123.99553705,4128.55433343,690.373866325
off_to_on,4140.21932034,4133.5973684,4136.49299091,4136.04713183,4140.16897788,4143.03221277,4136.87899048,4130.7071595,4136.66210987,4116.94272091,4098.60396195,4123.96952036,4128.96694601,668.24672727
off_to_on,4140.22876579,4133.77326492,4136.48593684,4135.99145233,4140.232201,4143.1957499,4136.86382227,4130.18554558,4136.63625827,4116.8327675,4098.68482039,4123.92599738,4129.37914362,646.825196038
off_to_on,4140.11335717,4133.92173806,4136.42914912,4135.92438008,4140.31129324,4143.4142474,4136.91097974,4129.78048566,4136.60195018,4116.79792382,4098.76378229,4123.86581694,4129.78185902,626.839103699
off_to_on,4139.88375754,4134.03645752,4136.32788833,4135.84804643,4140.404033,4143.67383066,4137.01126222,4129.49260339,4136.55956263,4116.83702303,4098.83838385,4123.79218348,4130.16783126,608.938634944
off_to_on,4139.55508584,4134.11278664,4136.1895167,4135.76502175,4140.5079713,4143.95957357,4137.15400198,4129.31976909,4136.50970374,4116.94948651,4098.90692918,4123.71049749,4130.53171398,593.674815457
off_to_on,4139.14632663,4134.14795581,4136.02325249,4135.67822174,4140.62051244,4144.25606873,4137.32753751,4129.25727466,4136.45320289,4117.13535714,4098.96853293,4123.62810054,4130.87010429,581.483880934
off_to_on,4138.67961144,4134.14117539,4135.83985654,4135.59079933,4140.73899779,4144.54801684,4137.51971661,4129.29808256,4136.39109301,4117.39527207,4099.02313025,4123.55393747,4131.18149602,572.676020333
off_to_on,4138.1793989,4134.09368436,4135.65126172,4135.50602696,4140.86078991,4144.82081369,4137.71840942,4129.43313882,4136.32458521,4117.73037768,4099.07145491,4123.49815142,4131.46616359,567.428824091
off_to_on,4137.67158383,4134.00873203,4135.47015806,4135.42717402,4140.98335388,4145.06111291,4137.91201161,4129.65173894,4136.25503663,4118.14219243,4099.11498693,4123.47162951,4131.72598483,565.785595783
off_to_on,4137.18256705,4133.89149213,4135.30954744,4135.35738458,4141.10433335,4145.25734334,4138.08991862,4129.94193395,4136.18391252,4118.63242524,4099.15587229,4123.4855183,4131.96421243,567.658505825
off_to_on,4136.73831832,4133.74891015,4135.1822827,4135.29956058,4141.22161913,4145.40016142,4138.24295296,4130.29096344,4136.11274375,4119.20275947,4099.19681773,4123.55072895,4132.18520502,572.836381765
off_to_on,4136.3634645,4133.58948701,4135.10060665,4135.25625518,4141.33340843,4145.48282128,4138.36372899,4130.68570121,4136.0430813,4119.85461374,4099.24096465,4123.6774519,4132.39412958,580.996747793
off_to_on,4136.08043352,4133.4230043,4135.07570671,4135.22958089,4141.43825306,4145.50144834,4138.44694149,4131.11309942,4135.97644921,4120.58889197,4099.29174649,4123.87470007,4132.59664709,591.721558877
off_to_on,4135.90868207,4133.26019831,4135.1173003,4135.22113601,4141.53509542,4145.45520564,4138.48956809,4131.56061667,4135.91429768,4121.40573519,4099.35273462,4124.14989798,4132.79859348,604.515937547
off_to_on,4135.86403183,4133.11239207,4135.23326519,4135.23195238,4141.6232912,4145.34634639,4138.49097873,4132.01661621,4135.85795809,4122.30428739,4099.42747813,4124.50853154,4133.0056672,618.829122855
off_to_on,4135.95813477,4132.99109635,4135.42932784,4135.26246617,4141.70261834,4145.18014976,4138.45294915,4132.47072152,4135.80860136,4123.28248659,4099.51934307,4124.95387026,4133.22313417,634.076780356
off_to_on,4136.1980838,4132.90759229,4135.70882066,4135.31251252,4141.77327228,4144.96474144,4138.37957942,4132.91411732,4135.76720136,4124.336891,4099.63135639,4125.4867706,4133.45555943,649.663794006
off_to_on,4136.58617972,4132.8725095,4136.07251712,4135.38134361,4141.83584781,4144.71080499,4138.27712198,4133.33978608,4135.73450455,4125.46254851,4099.76606016,4126.10556538,4133.70657393,665.006665092
off_to_on,4137.11986015,4132.89541447,4136.51855107,4135.46766895,4141.89130831,4144.43119434,4138.15372696,4133.74267159,4135.711007,4126.65291583,4099.92538078,4126.80604132,4133.97868321,679.554682538
off_to_on,4137.7917902,4132.98442395,4137.04242343,4135.56971549,4141.94094337,4144.14046241,4138.0191162,4134.11976392,4135.69693971,4127.89983144,4100.11051794,4127.58150315,4134.27312309,692.809102026
off_to_on,4138.59010897,4133.14585721,4137.63709633,4135.68530456,4141.98631604,4143.85432398,4137.88419932,4134.4701028,4135.69226264,4129.19354473,4100.32185705,4128.42292003,4134.58976556,704.339672596
off_to_on,4139.49882039,4133.3839397,4138.29317132,4135.81194171,4142.02920153,4143.58907371,4137.76064795,4134.79469986,4135.69666776,4130.52280129,4100.55890816,4129.31914734,4134.92707624,713.797970943
off_to_on,4140.49831259,4133.70056913,4138.99914547,4135.94691535,4142.07151909,4143.36098172,4137.660445,4135.09638363,4135.70959096,4131.87498265,4100.82027361,4130.25721508,4135.28212314,720.927137615
off_to_on,4141.56598596,4134.09515305,4139.74173654,4136.08739958,4142.11525939,4143.18568939,4137.59542675,4135.3795746,4135.73023247,4133.23629741,4101.10364581,4131.22267238,4135.65063544,725.56774756
off_to_on,4142.67696764,4134.56452531,4140.50626667,4136.23055682,4142.16240938,4143.07762771,4137.57683513,4135.65000065,4135.75758498,4134.5920191,4101.40583575,4132.19997716,4136.02711023,727.659684118
off_to_on,4143.80488799,4135.102946,4141.27709203,4136.373636,4142.21487704,4143.04947883,4137.61489665,4135.91436558,4135.79046849,4135.92676542,4101.72283214,4133.17291869,4136.40496397,727.240020238
off_to_on,4144.92269375,4135.70218728,4142.03806494,4136.51406245,4142.2744178,4143.11169917,4137.71844266,4136.17998513,4135.82757057,4137.22481193,4102.04989023,4134.12506075,4136.77672485,724.437045437
off_to_on,4146.00347192,4136.35170451,4142.77301385,4136.64951619,4142.34256489,4143.27211993,4137.89458361,4136.45440622,4135.86749073,4138.47043275,4102.38164827,4135.04019263,4137.13426086,719.4607116
off_to_on,4147.02125966,4137.03888995,4143.46622644,4136.77799575,4142.42056576,4143.5356379,4138.14844752,4136.74502549,4135.90878715,4139.64825958,4102.71226917,4135.90277542,4137.46903775,712.589900997
off_to_on,4147.95181609,4137.74940372,4144.10292132,4136.89786573,4142.5093267,4143.90400677,4138.4829908,4137.05872305,4135.95002426,4140.74365015,4103.03560383,4136.69837198,4137.77240011,704.157039882
off_to_on,4148.77333417,4138.46757446,4144.66969405,4137.00788644,4142.60936762,4144.37573544,4138.89888643,4137.40152636,4135.98981935,4141.74305612,4103.34537215,4137.41404903,4138.03586796,694.530684811
off_to_on,4149.46707224,4139.17685913,4145.15492415,4137.10722546,4142.72078846,4144.94609647,4139.39449188,4137.77831713,4136.02688672,4142.63438015,4103.63535677,4138.03874094,4138.25144057,684.096791027
off_to_on,4150.01788743,4139.86034853,4145.54912992,4137.19545107,4142.84324814,4145.60724331,4139.96589519,4138.19259107,4136.0600778,4143.40731102,4103.89960365,4138.56356461,4138.41189772,673.23942862
off_to_on,4150.41465518,4140.50130237,4145.84525919,4137.27250884,4142.97595626,4146.34843107,4140.60703481,4138.64627758,4136.08841582,4144.05362491,4104.13262266,4138.9820752,4138.51108787,662.3217394
off_to_on,4150.65056242,4141.08369528,4146.03890538,4137.3386831,4143.1176773,4147.15633118,4141.30988549,4139.13962286,4136.111124,4144.56744132,4104.32958087,4139.29045338,4138.54419201,651.66792362
off_to_on,4150.7232652,4141.59275409,4146.12843992,4137.39454592,4143.26674665,4148.01542737,4142.06470035,4139.67113717,4136.12764622,4144.94542229,4104.48648084,4139.48761615,4138.50795215,641.547010211
off_to_on,4150.63490556,4142.01546601,4146.11505481,4137.44089641,4143.4210975,4148.90847725,4142.86029705,4140.23760382,4136.13765976,4145.18690515,4104.60031654,4139.5752452,4138.40085394,632.159097895
off_to_on,4150.3919865,4142.34103786,4146.00271139,4137.47869416,4143.57829747,4149.81702207,4143.68437474,4140.83414519,4136.14107951,4145.2939606,4104.66920005,4139.55772972,4138.22325509,623.624659655
off_to_on,4150.00510859,4142.56128817,4145.79799521,4137.50899004,4143.73559379,4150.72192556,4144.52384847,4141.45433889,4136.13805394,4145.2713706,4104.69245286,4139.44202309,4137.97745252,615.977382955
off_to_on,4149.48857651,4142.67095626,4145.50988002,4137.5328584,4143.88996584,4151.60392241,4145.3651879,4142.09037648,4136.12895292,4145.12652363,4104.67065735,4139.23741666,4137.66768426,609.160877575
off_to_on,4148.8598889,4142.66791616,4145.14940808,4137.55133379,4144.03818403,4152.44415687,4146.1947493,4142.73325744,4136.11434807,4144.86922872,4104.60566501,4138.95523702,4137.30006447,603.029427351
off_to_on,4148.13912934,4142.55328641,4144.72929764,4137.56535538,4144.17687421,4153.22469366,4146.99909126,4143.37301143,4136.09498644,4144.5114531,4104.50056025,4138.60847673,4136.88245279,597.352797922
off_to_on,4147.34828049,4142.33143146,4144.26349168,4137.57572143,4144.30258683,4153.92898547,4147.76526688,4143.99894314,4136.07175867,4144.0669923,4104.35958007,4138.21137153,4136.42426184,591.8249463
off_to_on,4146.51048615,4142.00985376,4143.76666486,4137.58305568,4144.41187031,4154.54228402,4148.48108689,4144.59989439,4136.0456628,4143.55108409,4104.18799176,4137.778939,4135.93620908,586.076316629
off_to_on,4145.64928804,4141.5989801,4143.25370749,4137.5877867,4144.50134766,4155.05198501,4149.13535014,4145.16451885,4136.01776524,4142.97997997,4103.99193261,4137.32649529,4135.43002113,579.68925653
off_to_on,4144.78786419,4141.11184877,4142.73920609,4137.59014083,4144.56779541,4155.44790045,4149.71803977,4145.68156481,4135.98916021,4142.3704897,4103.7782165,4136.86916663,4134.91810014,572.215956137
off_to_on,4143.94829512,4140.56370744,4142.23693993,4137.59014819,4144.60822334,4155.72245468,4150.22048407,4146.14016114,4135.96092936,4141.73951473,4103.55411394,4136.42141248,4134.41316244,563.198202905
off_to_on,4143.15088175,4139.97153384,4141.75941179,4137.58766129,4144.61995335,4155.87080334,4150.63548237,4146.53010089,4135.93410288,4141.10358585,4103.3271124,4135.99657551,4133.92786071,552.188164038
off_to_on,4142.41353627,4139.35349364,4141.31742886,4137.58238453,4144.60069528,4155.89087615,4150.95739611,4146.84211643,4135.90962351,4140.47841958,4103.10466473,4135.60647275,4133.47440082,538.769358495
off_to_on,4141.75126364,4138.72835178,4140.91974732,4137.57391281,4144.54861738,4155.78334613,4151.1822056,4147.06813884,4135.88831479,4139.87850573,4102.89393385,4135.26103972,4133.06416493,522.576964046
off_to_on,4141.17574762,4138.11485505,4140.57279132,4137.56177688,4144.46240879,4155.5515288,4151.30753307,4147.20153402,4135.87085446,4139.31673701,4102.70154177,4134.96803769,4132.70735246,503.316622759
off_to_on,4140.69505142,4137.5311053,4140.28045412,4137.54549284,4144.34133166,4155.2012166,4151.33263264,4147.23730765,4135.85775406,4138.8040896,4102.53333164,4134.7328319,4132.41265034,480.780959807
off_to_on,4140.31343899,4136.99394325,4140.04398634,4137.52461317,4144.18526055,4154.7404544,4151.25834821,4147.17227149,4135.84934507,4138.34936226,4102.3941511,4134.55824668,4132.18694408,454.863113833
off_to_on,4140.03131932,4136.5183637,4139.86197368,4137.49877653,4143.9947072,4154.17926332,4151.08704064,4147.00516434,4135.84577227,4137.95897988,4102.28766534,4134.44450141,4132.03508027,425.566688942
off_to_on,4139.84531276,4136.11698255,4139.73040398,4137.46775379,4143.77082949,4153.52932104,4150.8224859,4146.7367226,4135.84699401,4137.63686617,4102.2162077,4134.3892298,4131.95969045,393.011674282
off_to_on,4139.74843515,4135.7995759,4139.64282121,4137.43148814,4143.51542381,4152.80360754,4150.46974696,4146.36969691,4135.85278956,4137.38438901,4102.18067481,4134.38758266,4131.96108509,357.436031837
off_to_on,4139.73039312,4135.57270991,4139.59056235,4137.39012695,4143.23090109,4152.0160264,4150.03502244,4145.90881348,4135.86277285,4137.20038048,4102.18047191,4134.43241288,4132.03722402,319.192820268
off_to_on,4139.77798096,4135.43947854,4139.56307097,4137.34404404,4142.92024705,4151.18101251,4149.5254766,4145.36068129,4135.876412,4137.08123179,4102.21351258,4134.51453904,4132.18376776,278.742895791
off_to_on,4139.87556728,4135.39936278,4139.54827922,4137.29385099,4142.58696815,4150.31313812,4148.94905604,4144.73364779,4135.89305378,4137.02106171,4102.27627486,4134.62308165,4132.39421082,236.643403348
off_to_on,4140.00565696,4135.44822104,4139.53304787,4137.24039676,4142.23502489,4149.4267295,4148.3142996,4144.03760855,4135.91195195,4137.01195448,4102.36391384,4134.74586376,4132.66009493,193.532435817
off_to_on,4140.14951197,4135.57841489,4139.50365153,4137.18475536,4141.86875492,4148.53550654,4147.63014802,4143.28377722,4135.93229825,4137.0442606,4102.47042821,4134.86986478,4132.97129659,150.110389306
off_to_on,4140.28781229,4135.7790693,4139.44629392,4137.12820167,4141.49278825,4147.65225646,4146.90575984,4142.48442368,4135.95325492,4137.10695173,4102.58887593,4134.98171405,4133.31637973,107.118672703
off_to_on,4140.40133706,4136.03646021,4139.34763666,4137.0721761,4141.11195718,4146.78855183,4146.15033936,4141.65258853,4135.97398741,4137.18801846,4102.71163182,4135.06820846,4133.68300137,65.3165345457
off_to_on,4140.47164447,4136.3345174,4139.19532343,4137.01823914,4140.7312033,4145.95452045,4145.37298147,4140.80178233,4135.99369597,4137.27489807,4102.83067792,4135.11683682,4134.05835518,25.4568458765
off_to_on,4140.48172874,4136.65542502,4138.978481,4136.96801723,4140.35548371,4145.15867281,4144.58253716,4139.94567774,4136.01164516,4137.35491807,4102.93791582,4135.11629219,4134.42963619,-11.7382789309
off_to_on,4140.41663223,4136.98029792,4138.68817855,4136.9231422,4139.98967849,4144.40779039,4143.78750228,4139.09780277,4136.02719002,4137.41574064,4103.0254888,4135.05695325,4134.78450846,-45.6011318601
off_to_on,4140.26399157,4137.28990779,4138.31782716,4136.88518612,4139.63850115,4143.70687606,4142.99593068,4138.2712428,4136.03979805,4137.44579244,4103.08610136,4134.93131546,4135.11155682,-75.5404646141
off_to_on,4140.01449829,4137.56543078,4137.86350287,4136.85559448,4139.30641359,4143.05916541,4142.21537162,4137.47835861,4136.04906632,4137.43466447,4103.11332279,4134.73435383,4135.40070438,-101.061136617
off_to_on,4139.66225633,4137.7891864,4137.32417852,4136.83562016,4138.99754662,4142.46619522,4141.45282961,4136.73052676,4136.0547332,4137.37346696,4103.10186215,4134.46380082,4135.64357774,-121.780636934
off_to_on,4139.2050219,4137.9453373,4136.70185224,4136.82626136,4138.71562661,4141.92792245,4140.71474373,4136.03790722,4136.05668423,4137.2551252,4103.04780236,4134.12032507,4135.83380377,-137.441872864
off_to_on,4138.64431441,4138.0205203,4136.00156387,4136.8282065,4138.46390854,4141.44288487,4140.00698209,4135.40924229,4136.05495236,4137.074604,4102.94878255,4133.70759991,4135.96722411,-147.921747988
off_to_on,4137.98539149,4138.00438106,4135.2312947,4136.84178897,4138.24511544,4141.00839322,4139.33484692,4134.85168958,4136.04971239,4136.82905054,4102.80411949,4133.23225402,4136.04201632,-153.235190391
off_to_on,4137.23708531,4137.88998806,4134.40174994,4136.86695452,4138.06138436,4140.6207447,4138.70308506,4134.37069117,4136.04127019,4136.51784855,4102.61486144,4132.70370085,4136.05871464,-153.534433629
off_to_on,4136.4115028,4137.67410635,4133.52602869,4136.90324346,4137.91421946,4140.27544795,4138.11589951,4133.96988031,4136.03004718,4136.14257968,4102.38377047,4132.13384809,4136.0201273,-149.103502628
off_to_on,4135.52359751,4137.35731748,4132.61919042,4136.94978917,4137.80445324,4139.96745129,4137.57695822,4133.65102664,4136.01656075,4135.70689201,4102.11523233,4131.5366935,4135.93115185,-140.348019932
off_to_on,4134.59062686,4136.94397879,4131.69773292,4137.00533383,4137.73221762,4139.69136739,4137.08939782,4133.4140204,4136.00140159,4135.21627949,4101.81509617,4130.92781857,4135.79849484,-127.780624363
off_to_on,4133.63151369,4136.44202304,4130.7790006,4137.06826106,4137.69692664,4139.44168898,4136.65582113,4133.25689578,4135.98520872,4134.67778061,4101.49044946,4130.32379692,4135.63030674,-112.002473139
off_to_on,4132.66613627,4135.8626064,4129.88054675,4137.13664467,4137.69727269,4139.21299157,4136.27828883,4133.17589358,4135.96864342,4134.09960927,4101.14933683,4129.74153897,4135.43574743,-93.6814624709
off_to_on,4131.71457443,4135.21962013,4129.01947586,4137.20831151,4137.73123821,4139.00011979,4135.95830675,4133.16556275,4135.95236299,4133.49073448,4100.80043396,4129.19759876,4135.22450128,-73.5279382265
off_to_on,4130.79634233,4134.52908756,4128.21179392,4137.28091588,4137.79612388,4138.79835446,4135.69681088,4133.21890043,4135.93699535,4132.8604288,4100.45269034,4128.70747151,4135.00626371,-52.2687741924
off_to_on,4129.92963918,4133.80847311,4127.4717943,4137.3520224,4137.8885946,4138.60355794,4135.49415227,4133.32752896,4135.92311549,4132.2178075,4100.11495607,4128.284912,4134.79022246,-30.6207717709
off_to_on,4129.13064931,4133.07593446,4126.81150601,4137.41919391,4138.004743,4138.41229505,4135.35008363,4133.48190721,4135.91122467,4131.57138062,4099.79560881,4127.94130338,4134.58455756,-9.26437790609
off_to_on,4128.41292071,4132.34955107,4126.24022806,4137.48008053,4138.14017027,4138.22192706,4135.26374869,4133.67157207,4135.90173291,4130.9286399,4099.50219731,4127.68510443,4134.39598315,11.1812785716
off_to_on,4127.78684798,4131.64656305,4125.76417035,4137.5325063,4138.29008241,4138.03067573,4135.23367477,4133.88540451,4135.89494563,4130.29570054,4099.24111744,4127.52140069,4134.22935294,30.1810707154
off_to_on,4127.25928112,4130.98265306,4125.38621629,4137.57454974,4138.44939996,4137.83765436,4135.25776918,4134.1119138,4135.89105464,4129.67701561,4099.01733541,4127.45158083,4134.08734883,47.303393918
off_to_on,4126.83327617,4130.37130183,4125.10581741,4137.60461472,4138.61287796,4137.64286348,4135.33331977,4134.33953271,4135.89013381,4129.07517725,4098.83417114,4127.47315517,4133.97026862,62.2357531461
off_to_on,4126.50799759,4129.82324383,4124.91902406,4137.62148877,4138.77523316,4137.44714963,4135.45700051,4134.55691596,4135.89213947,4128.49081471,4098.69315218,4127.57972733,4133.87592436,74.7957925031
off_to_on,4126.2787759,4129.34604489,4124.81865084,4137.62438607,4138.93127467,4137.25212704,4135.62488287,4134.75323398,4135.8969153,4127.9225944,4098.59394502,4127.76112361,4133.79965758,84.9373143626
off_to_on,4126.13731764,4128.94381806,4124.7945695,4137.61297308,4139.07603428,4137.06006409,4135.83245383,4134.91845356,4135.90420159,4127.36732193,4098.53436729,4128.00367809,4133.73447225,92.7510254334
off_to_on,4126.07205835,4128.61708764,4124.83411693,4137.58737559,4139.20489274,4136.87373762,4136.07464126,4135.04359762,4135.91364817,4126.8201416,4098.5104804,4128.29066552,4133.67128093,98.4599484209
off_to_on,4126.06864345,4128.36280493,4124.92260122,4137.54816667,4139.31369799,4136.69626055,4136.34584774,4135.12097638,4135.92483059,4126.27482418,4098.51675886,4128.60286764,4133.59925477,102.409643849
off_to_on,4126.11051686,4128.1745127,4125.04388452,4137.49633618,4139.3988717,4136.53088933,4136.63999371,4135.1443837,4135.93726873,4125.72413006,4098.54632913,4128.9192538,4133.50626365,105.053588814
off_to_on,4126.17959302,4128.04264973,4125.18101872,4137.43324284,4139.45750074,4136.38081997,4136.95057112,4135.10925284,4135.95044711,4125.16023153,4098.591268,4129.2177516,4133.37938845,106.934248631
off_to_on,4126.2569851,4127.95498133,4125.316908,4137.36055151,4139.48741084,4136.24898251,4137.27070822,4135.01276757,4135.96383601,4124.57517562,4098.64294797,4129.47607995,4133.20548478,108.660546074
off_to_on,4126.32376065,4127.89713742,4125.43497203,4137.28015818,4139.48722016,4136.1378449,4137.59324626,4134.85392578,4135.97691259,4123.96136703,4098.69241528,4129.67261401,4132.97177494,110.882575724
off_to_on,4126.36169544,4127.85323647,4125.5197841,4137.19410652,4139.45637165,4136.04923706,4137.91082838,4134.63355445,4135.98918117,4123.31205032,4098.73078493,4129.78724993,4132.66644435,114.264521969
off_to_on,4126.35399703,4127.80657063,4125.55766014,4137.10449978,4139.39514329,4135.98420523,4138.21600095,4134.35427639,4136.0001919,4122.62177027,4098.74963651,4129.80223701,4132.27921867,119.456812627
off_to_on,4126.28597107,4127.74032583,4125.5371771,4137.01341233,4139.30463621,4135.94290527,4138.50132721,4134.02043075,4136.00955711,4121.88679069,4098.74139484,4129.70294537,4131.80189868,127.068573191
off_to_on,4126.14560541,4127.63830936,4125.44960182,4136.92280494,4139.18674113,4135.9245416,4138.75951255,4133.63795012,4136.01696482,4121.1054529,4098.69967977,4129.47853857,4131.22883136,137.641439175
off_to_on,4125.92405036,4127.48565734,4125.28921536,4136.83444777,4139.04408404,4135.92735615,4138.9835399,4133.21419827,4136.02218888,4120.27845733,4098.61961089,4129.12252328,4130.55729754,151.625736138
off_to_on,4125.61597683,4127.26949508,4125.05352116,4136.74985434,4138.87995256,4135.94866934,4139.16681295,4132.75777268,4136.02509549,4119.40905373,4098.49805413,4128.63315167,4129.78779923,169.359949186
off_to_on,4125.21979914,4126.97952568,4124.74333054,4136.67022949,4138.6982049,4135.98497245,4139.30330413,4132.27827654,4136.02564586,4118.50312904,4098.33379977,4128.01365726,4128.92423305,191.054279663
off_to_on,4124.73775449,4126.60852475,4124.36272321,4136.5964332,4138.50316382,4136.03206815,4139.38770371,4131.78606541,4136.02389512,4117.5691853,4098.12766379,4127.272311,4127.97394057,216.778932539
off_to_on,4124.1758372,4126.15272311,4123.91888595,4136.52896181,4138.2994984,4136.08525311,4139.41556566,4131.29197432,4136.01998753,4116.61820464,4097.88250791,4126.42229135,4126.94763098,246.457599483
off_to_on,4123.54359117,4125.61206319,4123.42183693,4136.46794708,4138.09209674,4136.13953396,4139.38344549,4130.80703134,4136.0141483,4115.66340226,4097.60317642,4125.48136897,4125.85917614,279.866405615
off_to_on,4122.85376973,4124.99031927,4122.88404707,4136.41317299,4137.88593295,4136.18986561,4139.28902454,4130.34216451,4136.00667241,4114.71987292,4097.29635169,4124.47141343,4124.72528281,316.638380104
off_to_on,4122.12187608,4124.29507623,4122.31997373,4136.36410932,4137.68593191,4136.23140016,4139.13121495,4129.907909,4135.99791104,4113.80414031,4096.97033299,4123.41773625,4123.5650515,356.273301672
off_to_on,4121.36560241,4123.53756618,4121.74552426,4136.31995993,4137.49683525,4136.25973368,4138.9102391,4129.51412113,4135.98825609,4112.93362317,4096.63474657,4122.34829041,4122.39943573,398.152567499
off_to_on,4120.60418884,4122.73236806,4121.17747005,4136.27972354,4137.32307218,4136.27113872,4138.62767772,4129.16970589,4135.9781235,4112.1260356,4096.30019771,4121.29275278,4121.25061988,441.558544667
off_to_on,4119.85772677,4121.89697974,4120.63283314,4136.24226355,4137.16863824,4136.26277073,4138.28648139,4128.8823642,4135.96793606,4111.39874302,4095.97787802,4120.28152041,4120.14133704,485.697694333
off_to_on,4119.14643289,4121.0512778,4120.12826851,4136.20638361,4137.03698542,4136.23283757,4137.89094209,4128.65836629,4135.95810644,4110.76809735,4095.6791431,4119.34465601,4119.09415136,529.726618267
off_to_on,4118.48992132,4120.21688367,4119.6794652,4136.17090465,4136.93092658,4136.18072255,4137.44662289,4128.50235726,4135.94902104,4110.24877758,4095.4150771,4118.51082061,4118.1307307,572.780070051
off_to_on,4117.90650087,4119.41645845,4119.30058822,4136.13473959,4136.85255712,4136.10705342,4136.96024574,4128.41720099,4135.94102531,4109.8531619,4095.19606125,4117.80623317,4117.27113601,613.999902096
off_to_on,4117.41252327,4118.67295086,4119.00378096,4136.09696133,4136.80319654,4136.01371239,4136.43953927,4128.40386771,4135.9344111,4109.59075774,4095.03136293,4117.25369641,4116.53315284,652.563887105
off_to_on,4117.02180561,4118.00882402,4118.79874517,4136.05686051,4136.78335174,4135.9037851,4135.89305001,4128.46136969,4135.92940642,4109.46771418,4094.92876157,4116.87172652,4115.93168872,687.71336111
off_to_on,4116.74514676,4117.44528697,4118.69241181,4136.01398933,4136.79270392,4135.78145014,4135.32992258,4128.58674882,4135.92616813,4109.48643885,4094.89422527,4116.67382054,4115.47825751,718.778684044
off_to_on,4116.58995365,4117.00155642,4118.68871243,4135.9681892,4136.83011951,4135.6518137,4134.7596562,4128.77511847,4135.92477749,4109.64533794,4094.93165083,4116.66789022,4115.18056828,745.201599406
off_to_on,4116.55998874,4116.6941732,4118.78845683,4135.91960038,4136.89368527,4135.52069729,4134.19184607,4129.0197608,4135.925239,4109.9386933,4095.0426766,4116.8558848,4115.04223319,766.553693689
off_to_on,4116.65524524,4116.5363958,4118.98931896,4135.86865334,4136.98076674,4135.39438962,4133.63591923,4129.31227921,4135.92748218,4110.35668586,4095.22657522,4117.23361838,4115.06260416,782.550305208
off_to_on,4116.87195263,4116.53769173,4119.28592959,4135.81604241,4137.08808859,4135.27937523,4133.10087437,4129.64280353,4135.93136646,4110.88556894,4095.48023015,4117.79080993,4115.23674453,793.059404863
off_to_on,4117.20270985,4116.70334411,4119.67007061,4135.76268348,4137.21183457,4135.18205419,4132.59503486,4130.00024358,4135.93668858,4111.50798986,4095.79819678,4118.51133715,4115.55553709,798.105159994
off_to_on,4117.63674028,4117.03418782,4120.13096317,4135.70965865,4137.34776441,4135.10846691,4132.12582341,4130.37258518,4135.94319244,4112.20345286,4096.17284625,4119.37369789,4116.00592616,797.866089774
off_to_on,4118.16025851,4117.52648609,4120.65563893,4135.65815096,4137.49134464,4135.0640373,4131.69956667,4130.74722117,4135.95058076,4112.94891156,4096.59458719,4120.35166623,4116.5712873,792.667920172
off_to_on,4118.75693646,4118.17195439,4121.22938197,4135.60937338,4137.63788978,4135.0533462,4131.32133734,4131.11130954,4135.95852805,4113.71947443,4097.05215845,4121.41512379,4117.23191467,782.971440699
off_to_on,4119.4084538,4118.95793406,4121.83622674,4135.56449594,4137.7827105,4135.07994459,4130.99484082,4131.45214973,4135.96669451,4114.48920253,4097.53298357,4122.53104091,4117.96561223,769.355845375
off_to_on,4120.09511574,4119.86771378,4122.45949677,4135.52457509,4137.92126498,4135.14621429,4130.72235208,4131.75756803,4135.97474001,4115.23197455,4098.02357585,4123.66457693,4118.74837202,752.498200038
off_to_on,4120.79651942,4120.88099199,4123.08236735,4135.4904893,4138.04930963,4135.25328129,4130.50470684,4132.01630214,4135.98233784,4115.92239109,4098.50998094,4124.78026415,4119.55511931,733.149812756
off_to_on,4121.49224874,4121.97446845,4123.68843558,4135.46288412,4138.16304513,4135.40098498,4130.34134827,4132.21837482,4135.98918757,4116.53668703,4098.97824278,4125.84323667,4120.36050232,712.110388779
off_to_on,4122.16257613,4123.12254862,4124.26228028,4135.44212967,4138.25925377,4135.58790415,4130.23042829,4132.35544575,4135.99502649,4117.05361989,4099.41487724,4126.82046239,4121.13970162,690.200921346
off_to_on,4122.78914894,4124.29813981,4124.78999469,4135.42829258,4138.3354236,4135.81143864,4130.16895901,4132.4211309,4135.99963931,4117.45530066,4099.8073375,4127.68193505,4121.8692334,668.236302595
off_to_on,4123.35563797,4125.47351409,4125.25967497,4135.42112397,4138.38985547,4136.06794305,4130.153008,4132.41127844,4136.0028657,4117.72793489,4100.14445471,4128.40178303,4122.52771957,646.998635434
off_to_on,4123.84832612,4126.62120975,4125.66184844,4135.42006394,4138.42174871,4136.35290672,4130.17792803,4132.32419051,4136.00460547,4117.86244359,4100.41683839,4128.95925328,4123.0965985,627.212187937
off_to_on,4124.25661661,4127.7149411,4125.98982713,4135.42426263,4138.43126199,4136.66117198,4130.23861093,4132.16078118,4136.00482116,4117.85493709,4100.61722177,4129.33953216,4123.56075149,609.520857371
off_to_on,4124.57344186,4128.73048459,4126.2399736,4135.43261687,4138.41954615,4136.98718066,4130.32975328,4131.92466184,4136.00353807,4117.70701981,4100.74073913,4129.53437016,4123.90902261,594.468904918
off_to_on,4124.79555697,4129.64650964,4126.41186914,4135.44382101,4138.38874649,4137.32523732,4130.44612167,4131.62214705,4136.00084181,4117.42590998,4100.78512432,4129.54248438,4124.13461299,582.485591384
off_to_on,4124.92370496,4130.44532337,4126.50837648,4135.45642963,4138.34197283,4137.66977713,4130.58280541,4131.26217646,4135.99687344,4117.02436483,4100.75082247,4129.36972023,4124.23533493,573.874195196
off_to_on,4124.96264528,4131.1135011,4126.53559318,4135.46892958,4138.28323647,4138.01562629,4130.73544554,4130.85615102,4135.99182246,4116.52040914,4100.64100974,4129.02896282,4124.21371539,568.805731708
off_to_on,4124.92104228,4131.64237837,4126.5026954,4135.47981791,4138.2173543,4138.3582438,4130.90043001,4130.41768499,4135.98591812,4115.93687211,4100.46151933,4128.53979739,4124.076944,567.317520588
off_to_on,4124.81121536,4132.02838513,4126.42167548,4135.48768234,4138.14982129,4138.69393405,4131.07504637,4129.96227753,4135.97941922,4115.3007444,4100.22067553,4127.92792709,4123.83666549,569.316569051
off_to_on,4124.64875805,4132.27320809,4126.30698106,4135.49128037,4138.08665399,4139.02002106,4131.25758397,4129.50691039,4135.972603,4114.64237372,4099.92904032,4127.22436546,4123.50862184,574.587556114
off_to_on,4124.45203815,4132.38377348,4126.17506638,4135.4896134,4138.03420844,4139.33497573,4131.44737973,4129.06958026,4135.96575358,4113.99452312,4099.59908082,4126.46442896,4123.11215473,582.805023177
off_to_on,4124.24159506,4132.37204841,4126.04386956,4135.48199218,4137.99897742,4139.63848865,4131.64480296,4128.66877645,4135.95915031,4113.39132145,4099.24476798,4125.68656254,4122.66958371,593.549211097
off_to_on,4124.03945408,4132.2546652,4125.93223183,4135.46809052,4137.98737237,4139.93148254,4131.85117783,4128.32291708,4135.95305663,4112.86713992,4098.88112002,4124.93103789,4122.20548038,606.324848556
off_to_on,4123.86838024,4132.05237939,4125.85927656,4135.44798444,4138.0054969,4140.21606057,4132.06864458,4128.04975916,4135.94770978,4112.45543192,4098.52370567,4124.23856869,4121.74586209,620.58209996
off_to_on,4123.75109609,4131.78937838,4125.84376726,4135.42217456,4138.05891881,4140.4953897,4132.29996425,4127.86580014,4135.94331178,4112.18757554,4098.18812447,4123.64889122,4121.31733226,635.738822297
off_to_on,4123.70948954,4131.49246307,4125.90346461,4135.39159014,4138.15244876,4140.77352107,4132.5482745,4127.78569033,4135.94002212,4112.09175877,4097.88948196,4123.19935985,4120.94619578,651.20325425
off_to_on,4123.76383766,4131.19012993,4126.05450265,4135.35757394,4138.28993307,4141.05515259,4132.81680715,4127.8216768,4135.93795216,4112.1919465,4097.64187831,4122.92360745,4120.65757903,666.396267098
off_to_on,4123.93207243,4130.91158433,4126.31080434,4135.32184774,4138.47406875,4141.34534184,4133.10858038,4127.98309926,4135.93716172,4112.50696612,4097.4579285,4122.85031822,4120.47458379,680.772347886
off_to_on,4124.22911264,4130.68571877,4126.68355496,4135.28645933,4138.70624765,4141.64918084,4133.42608043,4128.2759582,4135.93765778,4113.04974495,4097.34833112,4123.00215728,4120.41750286,693.838560152
off_to_on,4124.66628414,4130.54008996,4127.18075085,4135.25371217,4138.98643656,4141.97144647,4133.77094864,4128.7025735,4135.93939524,4113.82672762,4097.32150099,4123.39489528,4120.50312302,705.170829985
off_to_on,4125.25084796,4130.49992927,4127.80683834,4135.22608018,4139.31309862,4142.31624321,4134.14369024,4129.26134975,4135.94227991,4114.83749598,4097.38327859,4124.03676006,4120.74413781,714.427027633
off_to_on,4125.98565287,4130.58721966,4128.56245583,4135.20611034,4139.68316081,4142.68665614,4134.54342118,4129.94666141,4135.94617325,4116.07460728,4097.53672617,4124.92803931,4121.1486892,721.356449411
off_to_on,4126.86892511,4130.81987015,4129.44428863,4135.19631665,4140.09203068,4143.0844329,4134.96766804,4130.74886725,4135.95089892,4117.52365911,4097.78201749,4126.06094962,4121.72005263,725.805442913
off_to_on,4127.8942043,4131.21101639,4130.4450435,4135.19906957,4140.53366385,4143.50971238,4135.41223416,4131.65445925,4135.9562506,4119.16358179,4098.1164244,4127.41977795,4122.45647575,727.719054859
off_to_on,4129.05042975,4131.76847131,4131.5535455,4135.21648525,4141.00068208,4143.96081587,4135.87114213,4132.64634603,4135.96200093,4120.96715093,4098.53440002,4128.98129173,4123.35117561,727.138714734
off_to_on,4130.32217616,4132.49434565,4132.75495621,4135.25031927,4141.48453961,4144.43411373,4136.33665914,4133.70426563,4135.96791104,4122.90170522,4099.02775479,4130.71540396,4124.39249419,724.196100948
off_to_on,4131.69003244,4133.3848519,4134.03110754,4135.30186908,4141.97573383,4144.92397639,4136.799408,4134.80531735,4135.97374039,4124.93004761,4099.58591809,4132.58607012,4125.56420665,719.103469219
off_to_on,4133.13111203,4134.4302995,4135.36094164,4135.37188976,4142.46405454,4145.42281555,4137.24856268,4135.92459708,4135.97925642,4127.01150123,4100.19627545,4134.55238535,4126.84597155,712.140851269
off_to_on,4134.61967811,4135.61528217,4136.72104344,4135.46052667,4142.93886449,4145.92121665,4137.67212359,4137.03591615,4135.98424378,4129.10308632,4100.84456847,4136.56984296,4128.21390744,703.64064987
off_to_on,4136.12786278,4136.91905206,4138.08624899,4135.56726852,4143.38940274,4146.40815976,4138.05726359,4138.11257985,4135.98851251,4131.16077945,4101.51534256,4138.59171007,4129.64127608,693.970257817
off_to_on,4137.62645559,4138.31606869,4139.43031047,4135.69092345,4143.80510133,4146.87132128,4138.39073299,4139.12819861,4135.99190522,4133.14081307,4102.1924262,4140.57047166,4131.09924917,683.513408421
off_to_on,4139.08573472,4139.77670478,4140.72659632,4135.82962022,4144.17590479,4147.29744496,4138.65930856,4140.05750381,4135.99430269,4135.00097171,4102.85942465,4142.45929261,4132.55773305,672.651019358
off_to_on,4140.47631208,4141.2680856,4141.94880412,4135.9808354,4144.492582,4147.67276758,4138.85027002,4140.87713936,4135.99562788,4136.70184077,4103.50021072,4144.21344675,4133.98622433,661.742316996
off_to_on,4141.76996387,4142.75503357,4143.0716629,4136.14144659,4144.74701964,4147.98348293,4138.95188574,4141.56640127,4135.99584818,4138.20796572,4104.09939617,4145.79166373,4135.35466925,651.107022815
off_to_on,4142.94041845,4144.20108652,4144.07160251,4136.30781038,4144.93248723,4148.21622628,4138.95388881,4142.10789893,4135.99497578,4139.48888241,4104.64276785,4147.15734824,4136.63429954,641.009346734
off_to_on,4143.96407555,4145.56955527,4144.92736855,4136.47586296,4145.04386407,4148.35856142,4138.84792404,4142.4881142,4135.99306633,4140.51998344,4105.11767472,4148.27963082,4137.79841933,631.644464898
off_to_on,4144.82063332,4146.82458557,4145.62056383,4136.64123986,4145.07781971,4148.39945212,4138.62794725,4142.69783768,4135.99021579,4141.28319193,4105.51335375,4149.13421655,4138.82311961,623.128064027
off_to_on,4145.49360382,4147.93218973,4146.13610013,4136.79941097,4145.03294104,4148.32970114,4138.2905597,4142.73246604,4135.98655587,4141.76742061,4105.82118552,4149.7040056,4139.68790014,615.489414305
off_to_on,4145.97070205,4148.86121549,4146.46254808,4136.94582603,4144.90980065,4148.14234068,4137.83526294,4142.59214921,4135.98224797,4141.96880289,4106.03487342,4149.97946887,4140.37618239,608.668292556
off_to_on,4146.24409918,4149.58422272,4146.592377,4137.07606538,4144.71096334,4147.83296065,4137.26462264,4142.28178188,4135.97747618,4141.89069093,4106.15054338,4149.9587716,4140.8757013,602.51592273
off_to_on,4146.31053614,4150.07824359,4146.52208157,4137.18599049,4144.44092988,4147.3999626,4136.58433323,4141.81083988,4135.97243953,4141.54342492,4106.16676479,4149.64764782,4141.17876837,596.799937654
off_to_on,4146.1712994,4150.32540684,4146.25219661,4137.2718886,4144.10601931,4146.84473052,4135.80317857,4141.1930673,4135.96734365,4140.94388592,4106.08449605,4149.05903759,4141.28240298,591.213201266
off_to_on,4145.83206601,4150.31341251,4145.78720537,4137.33060594,4143.7141935,4146.17171171,4134.93288747,4140.44602574,4135.96239254,4140.11485244,4105.90696097,4148.21250792,4141.18833321,585.386170882
off_to_on,4145.30262957,4150.03584893,4145.13535042,4137.35966431,4143.27482952,4145.38840425,4133.9878863,4139.59052151,4135.95778042,4139.08418748,4105.6394648,4147.13348471,4140.90287136,578.902331047
off_to_on,4144.59652253,4149.49234849,4144.30835841,4137.35735633,4142.79844711,4144.50524981,4132.9849549,4138.6499309,4135.9536842,4137.88388806,4105.28915988,4145.85232927,4140.43667267,571.31610032
off_to_on,4143.73055278,4148.68858309,4143.32109196,4137.3228154,4142.29640005,4143.53543339,4131.9427948,4137.64944658,4135.95025678,4136.549033,4104.86477204,4144.40329611,4139.80438831,562.172505422
off_to_on,4142.72427428,4147.63610379,4142.19114246,4137.25605753,4141.78054157,4142.49459397,4130.8815226,4136.6152708,4135.94762143,4135.11666697,4104.37629956,4142.82341145,4139.02422554,551.027837997
off_to_on,4141.59941228,4146.35203287,4140.93837849,4137.15799311,4141.26287458,4141.40045284,4129.82210358,4135.57378253,4135.94586751,4133.62465959,4103.83469591,4141.15131245,4138.11742982,537.470461198
off_to_on,4140.37926391,4144.85861972,4139.58446441,4137.03040795,4140.7551982,4140.2723691,4128.78574359,4134.55070617,4135.94504755,4132.11057787,4103.25154727,4139.42608685,4137.10770425,521.140918517
off_to_on,4139.08809461,4143.18267509,4138.15236357,4136.87591409,4140.26876197,4139.13083326,4127.79325896,4133.57030967,4135.94517592,4130.6106086,4102.63875479,4137.68615066,4136.02058343,501.750516501
off_to_on,4137.75054953,4141.35490075,4136.66583977,4136.69787234,4139.81393843,4137.99691227,4126.86444569,4132.65465858,4135.94622902,4129.15856467,4102.00823053,4135.96819916,4134.88277864,479.097605539
off_to_on,4136.39109701,4139.40913382,4135.1489696,4136.50028932,4139.39992436,4136.89166057,4126.01746979,4131.82295122,4135.94814695,4127.78500548,4101.3716149,4134.3062622,4133.72151185,453.080866858
off_to_on,4135.03351865,4137.38152656,4133.62567643,4136.28769306,4139.03447951,4135.835514,4125.26830069,4131.09095721,4135.95083668,4126.51649741,4100.74002201,4132.73089098,4132.56385567,423.709025884
off_to_on,4133.70045738,4135.30968321,4132.11929531,4136.06499195,4138.72371088,4134.8476853,4124.63020826,4130.470578,4135.95417634,4125.37503449,4100.12381811,4131.26849755,4131.43609537,391.106547816
off_to_on,4132.41303148,4133.23177593,4130.65217597,4135.83732221,4138.47190918,4133.94558142,4124.11334219,4129.9695437,4135.95802067,4124.37763342,4099.53243669,4129.94086267,4130.36312793,355.515025315
off_to_on,4131.19051881,4131.18566146,4129.24532888,4135.60988968,4138.28144231,4133.14426342,4123.72440916,4129.59125505,4135.96220726,4123.5361098,4098.97423225,4128.76482055,4129.36791174,317.29013437
off_to_on,4130.05011256,4129.20801963,4127.91811776,4135.38781168,4138.15270903,4132.45596877,4123.46645974,4129.33477407,4135.96656336,4122.85703569,4098.45637311,4127.75212209,4128.47097837,276.894206308
off_to_on,4129.00674643,4127.33353356,4126.68799975,4135.17596455,4138.08415417,4131.88971422,4123.33879279,4129.19496122,4135.97091289,4122.34187152,4097.98477249,4126.90947162,4127.69001662,234.884634511
off_to_on,4128.07298519,4125.59413031,4125.57031328,4134.97884227,4138.07234469,4131.45099437,4123.33698128,4129.16275225,4135.97508356,4121.98725905,4097.56405577,4126.2387254,4127.03953637,191.898497111
off_to_on,4127.25897412,4124.01829871,4124.57811224,4134.80043088,4138.11210394,4131.14158853,4123.45301912,4129.22556226,4135.97891358,4121.78545626,4097.19756072,4125.73723451,4126.53061801,148.633925299
off_to_on,4126.57244002,4122.63049938,4123.7220445,4134.64410261,4138.19669999,4130.95948474,4123.67558392,4129.3678005,4135.9822579,4121.72489033,4096.88736695,4125.39830998,4126.17075042,105.828874985
off_to_on,4126.01873553,4121.45067959,4123.01027228,4134.51253293,4138.31808177,4130.89892645,4123.99040666,4129.57147518,4135.98499363,4121.79080106,4096.63435006,4125.21178422,4125.96375843,64.2380625194
off_to_on,4125.60091879,4120.49390391,4122.44843258,4134.40764257,4138.46715554,4130.95058381,4124.38073591,4129.81686508,4135.98702442,4121.96594523,4096.43825591,4125.1646406,4125.90981831,24.608898876
off_to_on,4125.31986134,4119.77010939,4122.03963597,4134.33056564,4138.634093,4131.10184753,4124.82788108,4130.08323329,4135.98828382,4122.23133191,4096.29779062,4125.2416825,4126.00555819,-12.3427016046
off_to_on,4125.17437813,4119.28399177,4121.78450303,4134.28164405,4138.80866128,4131.33723921,4125.31181787,4130.34955838,4135.98873724,4122.5669599,4096.21072223,4125.42621334,4126.24423855,-45.9557537503
off_to_on,4125.16137482,4119.0350263,4121.68123779,4134.26044724,4138.98056459,4131.63892778,4125.81183708,4130.59525864,4135.98838272,4122.95253079,4096.17399061,4125.70070124,4126.6160066,-75.6460169873
off_to_on,4125.27600891,4119.01762369,4121.72573794,4134.26581558,4139.13978702,4131.98733724,4126.30721696,4130.80088677,4135.98725036,4123.36811438,4096.18382276,4126.04740497,4127.10821701,-100.925393874
off_to_on,4125.51186218,4119.22141775,4121.91174139,4134.29592481,4139.2769261,4132.36182695,4126.77789842,4130.94877408,4135.98540043,4123.7947472,4096.2358513,4126.44894149,4127.70581073,-121.41820067
off_to_on,4125.86112254,4119.63167763,4122.23100812,4134.34836855,4139.38350688,4132.74142168,4127.20514205,4131.0236053,4135.9829204,4124.21494898,4096.32523448,4126.88877969,4128.39174275,-136.873712364
off_to_on,4126.31477389,4120.22983312,4122.67353581,4134.42025521,4139.45226658,4133.10556556,4127.57214546,4131.01290769,4135.97992095,4124.61314634,4096.44677637,4127.35164937,4129.14744857,-147.174514315
off_to_on,4126.86279245,4120.99409781,4123.22780601,4134.50831554,4139.47740079,4133.43487183,4127.86460037,4130.90744049,4135.97653107,4124.97599691,4096.59504618,4127.82385869,4129.95333863,-152.340329842
off_to_on,4127.49434799,4121.90017084,4123.88105687,4134.60901683,4139.45476258,4133.71183946,4128.0711694,4130.70147393,4135.97289261,4125.29261143,4096.76449575,4128.29351786,4130.78930868,-152.52713405
off_to_on,4128.19800835,4122.92199493,4124.61957699,4134.7186797,4139.38200769,4133.92150802,4128.18386521,4130.39295052,4135.96915439,4125.55467491,4096.94957431,4128.75067049,4131.63525403,-148.021512456
off_to_on,4128.96194518,4124.03254608,4125.42901398,4134.83359334,4139.25868041,4134.05202391,4128.198317,4129.983525,4135.96546617,4125.75647161,4097.14483969,4129.18733802,4132.47157466,-139.230384714
off_to_on,4129.77413876,4125.20462855,4126.29469059,4134.95012551,4139.0862364,4134.09509393,4128.1139135,4129.47848344,4135.9619727,4125.89482152,4097.34506476,4129.59748529,4133.27965891,-126.66638859
off_to_on,4130.6225795,4126.41164896,4127.20192065,4135.06482363,4138.86800136,4134.04630613,4127.93381566,4128.88654579,4135.9588081,4125.96893844,4097.54533778,4129.97691793,4134.0423334,-110.929396246
off_to_on,4131.49546333,4127.62834354,4128.13631704,4135.17450404,4138.60906617,4133.90530324,4127.6648368,4128.21955979,4135.95609077,4125.98022173,4097.74115518,4130.32312414,4134.74426792,-92.6847965901
off_to_on,4132.38137859,4128.83143498,4129.0840839,4135.27632711,4138.31612176,4133.67579991,4127.31719265,4127.49209774,4135.95391902,4125.9319952,4097.9285049,4130.63507397,4135.37232527,-72.6393117276
off_to_on,4133.26948215,4130.00019783,4130.03228592,4135.36785638,4137.99723914,4133.36544174,4126.90412872,4126.72097056,4135.95236759,4125.82920715,4098.10393871,4130.9129903,4135.91584756,-51.515219645
off_to_on,4134.14966276,4131.11691541,4130.96908848,4135.44710081,4137.66160236,4132.98551097,4126.44143691,4125.92467632,4135.95148516,4125.67810619,4098.26463176,4131.15810497,4136.36687228,-30.0239301457
off_to_on,4135.01268992,4132.16721562,4131.88396316,4135.51254007,4137.31920346,4132.55049025,4125.94687792,4125.12280214,4135.95129301,4125.48590713,4098.40842783,4131.37241382,4136.72027354,-8.83990307469
off_to_on,4135.85034643,4133.14027733,4132.76785441,4135.56313313,4136.98051046,4132.07750202,4125.43952998,4124.33540004,4135.95178468,4125.26046081,4098.53386916,4131.5584429,4136.97382585,11.4240993855
off_to_on,4136.6555421,4134.02890415,4133.6133036,4135.59831165,4136.6561193,4131.58564588,4124.93908766,4123.58235748,4135.95292683,4125.00994077,4098.6402098,4131.71903697,4137.1281899,30.2394736206
off_to_on,4137.4224061,4134.82946704,4134.41452763,4135.6179595,4136.35640179,4131.09526037,4124.4651367,4122.88278357,4135.95466108,4124.74255773,4098.72741222,4131.85717928,4137.18682206,47.1810739842
off_to_on,4138.14635495,4135.54172146,4135.16744978,4135.62238072,4136.09116084,4130.62713757,4124.03643181,4122.25443068,4135.95690689,4124.46631105,4098.79612679,4131.97584873,4137.15581095,61.9425891313
off_to_on,4138.82413325,4136.16850954,4135.86968157,4135.61225774,4135.86930442,4130.20172075,4123.67020418,4121.71316963,4135.95956513,4124.18878297,4098.8476545,4132.07791777,4137.04364642,74.347378477
off_to_on,4139.45382507,4136.71536159,4136.52045578,4135.58860234,4135.69854888,4129.83831499,4123.38152422,4121.27253409,4135.96252243,4123.91697917,4098.88389321,4132.16609118,4136.86092747,84.3543226802
off_to_on,4140.03483433,4137.1900149,4137.12051239,4135.55270116,4135.58516101,4129.55434005,4123.18274342,4120.94334738,4135.96565593,4123.65721595,4098.90726825,4132.24288316,4136.62001733,92.0584309358
off_to_on,4140.56783348,4137.60187038,4137.67194065,4135.5060583,4135.53374729,4129.36465305,4123.08303624,4120.7334415,4135.96883836,4123.41505215,4098.92064865,4132.31062773,4136.33465469,97.6861477525
off_to_on,4141.0546805,4137.96140937,4138.17798188,4135.45033677,4135.54709678,4129.28096568,4123.08805991,4120.64747548,4135.97194313,4123.19526171,4098.92725033,4132.37151521,4136.01953109,101.58550628
off_to_on,4141.49830476,4138.27959309,4138.64279829,4135.38730104,4135.62608233,4129.31137755,4123.19974543,4120.68685654,4135.97484934,4123.00184053,4098.93052834,4132.42764594,4135.68984501,104.21147591
off_to_on,4141.90256307,4138.56726703,4139.07121401,4135.31876233,4135.76962294,4129.46004286,4123.41622845,4120.84976415,4135.97744643,4122.83804006,4098.9340598,4132.48109106,4135.36084353,106.107039534
off_to_on,4142.27206812,4138.83459158,4139.46843569,4135.24652822,4135.97470807,4129.72698284,4123.73192311,4121.13127403,4135.97963834,4122.70641856,4098.9414202,4132.5339504,4135.04736264,107.880703115
off_to_on,4142.61199258,4139.09051918,4139.83976099,4135.1723577,4136.23648283,4130.10805121,4124.1377364,4121.52357561,4135.981347,4122.60890099,4098.95605554,4132.58839789,4134.76337765,110.181281785
off_to_on,4142.92785336,4139.34233631,4140.19028494,4135.09792228,4136.54839113,4130.59505409,4124.62141553,4122.01627385,4135.98251504,4122.54683924,4098.9811539,4132.64670685,4134.52157552,113.670916555
off_to_on,4143.22528123,4139.59528677,4140.5246143,4135.02477384,4136.90237185,4131.17601986,4125.16801508,4122.59676356,4135.98310765,4122.52106516,4099.01952015,4132.71124918,4134.33296069,118.997348317
off_to_on,4143.50978197,4139.85228941,4140.84660057,4134.9543192,4137.28910153,4131.83560912,4125.76046619,4123.25066228,4135.98311344,4122.53193083,4099.07345819,4132.78446477,4134.20650611,126.7665082
off_to_on,4143.78649592,4140.11376031,4141.1591015,4134.88780166,4137.69827538,4132.55564948,4126.38022612,4123.96228614,4135.98254444,4122.57933216,4099.14466487,4132.86879998,4134.14886002,137.516475456
off_to_on,4144.05996332,4140.3775457,4141.46378074,4134.82628906,4138.11891743,4133.31577524,4127.00798321,4124.71515223,4135.98143513,4122.66271393,4099.23414013,4132.96661631,4134.16411851,151.693806134
off_to_on,4144.33390398,4140.63896848,4141.76095411,4134.77066818,4138.53970975,4134.09414821,4127.62439054,4125.49249027,4135.97984058,4122.78105649,4099.34211698,4133.08007296,4134.25367216,169.633148149
off_to_on,4144.61102008,4140.89098743,4142.04949036,4134.72164476,4138.94933029,4134.86823238,4128.21080062,4126.27774703,4135.97783389,4122.93284676,4099.46801526,4133.21098938,4134.41613347,191.540934762
off_to_on,4144.89283108,4141.12446464,4142.32677315,4134.67974846,4139.33678865,4135.61559348,4128.74997361,4127.05506717,4135.97550289,4123.11603789,4099.61042206,4133.36069571,4134.64734984,217.483794901
off_to_on,4145.17954869,4141.32853218,4142.58872862,4134.64534217,4139.69174906,4136.31469313,4129.22673238,4127.80973556,4135.97294635,4123.32800374,4099.76710094,4133.52988066,4134.94050413,247.382141122
off_to_on,4145.46999877,4141.49104521,4142.82992076,4134.61863484,4140.00483024,4136.94564833,4129.6285393,4128.52856763,4135.97026991,4123.56549509,4099.93503134,4133.7184464,4135.28630209,281.009199969
off_to_on,4145.76159484,4141.59910459,4143.04371358,4134.59969708,4140.26787248,4137.49092799,4129.94597249,4129.20023582,4135.9675817,4123.82460473,4100.11047778,4133.92538024,4135.67324283,317.995542765
off_to_on,4146.05036633,4141.63962882,4143.22249617,4134.58847866,4140.47416348,4137.93596131,4130.17308242,4129.81552255,4135.96498803,4124.10074788,4100.28908709,4134.14865168,4136.08796497,357.838966859
off_to_on,4146.33104252,4141.59995311,4143.35796439,4134.58482698,4140.61861606,4138.26963598,4130.30761471,4130.36749273,4135.96258925,4124.3886635,4100.46601043,4134.3851426,4136.51565862,399.919375942
off_to_on,4146.59719175,4141.46843237,4143.44145079,4134.58850532,4140.69789261,4138.48466879,4130.35109016,4130.85158202,4135.9604759,4124.68244115,4100.63604574,4134.63061673,4136.94053065,443.518119695
off_to_on,4146.84141333,4141.2350245,4143.46429231,4134.59921025,4140.71047306,4138.577836,4130.30873885,4131.26560025,4135.95872532,4124.97557672,4100.79379557,4134.87973349,4137.34630873,487.841085141
off_to_on,4147.0555777,4140.89183091,4143.41822386,4134.61658708,4140.65666519,4138.55005628,4130.18929142,4131.60965332,4135.95739891,4125.26105939,4100.93383487,4135.1261099,4137.71676865,532.044692237
off_to_on,4147.23110871,4140.43357249,4143.29578395,4134.64024308,4140.53855805,4138.40632436,4130.00463575,4131.88598917,4135.95654002,4125.53149071,4101.05088333,4135.36243259,4138.03626817,575.263839666
off_to_on,4147.3592997,4139.85798085,4143.09071712,4134.66975811,4140.35992101,4138.15549874,4129.7693528,4132.09877691,4135.9561726,4125.77923492,4101.13997673,4135.58061999,4138.2902703,616.640776092
off_to_on,4147.4316539,4139.16608752,4142.79835701,4134.7046926,4140.1260531,4137.80995271,4129.50014965,4132.25382927,4135.95630071,4125.99659777,4101.19663169,4135.77203283,4138.46583876,655.353839877
off_to_on,4147.440238,4138.36239735,4142.41597394,4134.74459312,4139.84358867,4137.38510232,4129.21521161,4132.35828085,4135.95690873,4126.17602876,4101.21699852,4135.92772802,4138.5520888,690.645018854
off_to_on,4147.37803705,4137.45493633,4141.94307116,4134.788996,4139.52026681,4136.89882977,4128.93349792,4132.42023511,4135.95796243,4126.31034001,4101.19799672,4136.03874886,4138.54057766,721.845330436
off_to_on,4147.23929761,4136.4551685,4141.38161544,4134.83742922,4139.16467294,4136.37082378,4128.67400779,4132.44839416,4135.95941072,4126.39293324,4101.13742839,4136.09644126,4138.42562031,748.397107632
off_to_on,4147.01984588,4135.37778091,4140.73618922,4134.88941358,4138.78596172,4135.82186125,4128.45504371,4132.45168566,4135.96118798,4126.41802537,4101.03406505,4136.09278426,4138.2045185,769.872395141
off_to_on,4146.71736734,4134.24034028,4140.01405379,4134.94446336,4138.39357075,4135.27305679,4128.29349962,4132.438901,4135.96321702,4126.38086303,4100.88770473,4136.02072113,4137.87769373,785.986808054
off_to_on,4146.33163523,4133.06282957,4139.22511587,4135.00208741,4137.99693465,4134.74510711,4128.20419973,4132.41835787,4135.96541233,4126.27791611,4100.69919663,4135.87447706,4137.44871818,796.608377819
off_to_on,4145.86467608,4131.86707771,4138.38179269,4135.06179085,4137.60520835,4134.25755796,4128.19931179,4132.397599,4135.96768366,4126.10704167,4100.47043227,4135.64984966,4136.92424111,801.761097963
off_to_on,4145.32086269,4130.67610061,4137.4987752,4135.12307788,4137.22700832,4133.82812,4128.287856,4132.38313697,4135.96993969,4125.86761021,4100.20430293,4135.34445957,4136.31381194,801.62307848
off_to_on,4144.7069271,4129.51337633,4136.59269263,4135.18545567,4136.87017923,4133.47205848,4128.47532701,4132.38025274,4135.97209165,4125.56058836,4099.90462444,4134.9579498,4135.62960527,796.51941651
off_to_on,4144.03188961,4128.40208101,4135.6816865,4135.24843934,4136.54159268,4133.20167892,4128.76344325,4132.392854,4135.97405676,4125.18857346,4099.57603157,4134.49212451,4134.88605622,786.910084374
off_to_on,4143.30690322,4127.36431492,4134.78490662,4135.31155791,4136.24698382,4133.02592725,4129.15003336,4132.42339697,4135.9757614,4124.75577733,4099.22384573,4133.95101973,4134.09941843,773.373315436
off_to_on,4142.54501664,4126.42034955,4133.92194546,4135.37436088,4135.9908299,4132.95011891,4129.62906516,4132.47287333,4135.97714383,4124.26795911,4098.85392085,4133.34090146,4133.28726013,756.58512739
off_to_on,4141.76086245,4125.5879267,4133.11223104,4135.4364251,4135.77627373,4132.97580646,4130.19081775,4132.54086181,4135.97815635,4123.73230915,4098.47247376,4132.67018933,4132.46791689,737.295756648
off_to_on,4140.97028066,4124.88163922,4132.37440105,4135.4973615,4135.6050933,4133.10078945,4130.82219229,4132.6256417,4135.97876689,4123.15728883,4098.08590667,4131.94930789,4131.65992211,716.303881911
off_to_on,4140.18989037,4124.31242046,4131.72568207,4135.55682118,4135.47771703,4133.31926444,4131.50715171,4132.72436367,4135.97895996,4122.55243392,4097.70062956,4131.19047086,4130.88143759,694.429584618
off_to_on,4139.43662439,4123.88716515,4131.18129877,4135.61450021,4135.39328267,4133.62210716,4132.22727479,4132.83327056,4135.97873691,4121.92813003,4097.32289058,4130.40740645,4130.14970643,672.487026952
off_to_on,4138.72724313,4123.60849914,4130.75393664,4135.67014252,4135.34973632,4133.99727363,4132.96240519,4132.94795902,4135.97811549,4121.29537023,4096.95862183,4129.61503348,4129.48054916,651.257824784
off_to_on,4138.07784479,4123.47470905,4130.45328028,4135.72354061,4135.34396677,4134.43030317,4133.69137245,4133.06367057,4135.97712884,4120.66550428,4096.61330642,4128.82909969,4128.8879214,631.466053988
off_to_on,4137.50338921,4123.47983598,4130.2856465,4135.77453351,4135.37196934,4134.90490284,4134.39275852,4133.17559964,4135.9758238,4120.04998871,4096.29187171,4128.06579406,4128.38354817,613.755754516
off_to_on,4137.01725212,4123.61393074,4130.25372794,4135.82300218,4135.42903281,4135.40359065,4135.04568162,4133.27920481,4135.9742588,4119.46014632,4095.99861141,4127.34134607,4127.97664617,598.671691152
off_to_on,4136.63082539,4123.86346087,4130.35645856,4135.86886235,4135.50994192,4135.90837337,4135.63056798,4133.37050987,4135.97250132,4118.90694215,4095.73713832,4126.67162446,4127.67374137,586.643999705
off_to_on,4136.35317743,4124.21185382,4130.58900805,4135.91205519,4135.60918816,4136.40143361,4136.12988228,4133.44638125,4135.97062496,4118.40078226,4095.51036747,4126.07174809,4127.47858503,577.977199085
off_to_on,4136.1907855,4124.64015529,4130.94290744,4135.9525362,4135.72118125,4136.86580164,4136.52878971,4133.50476998,4135.96870646,4117.95134006,4095.32052833,4125.5557207,4127.39216764,572.843887995
off_to_on,4136.14735033,4125.12777789,4131.40630424,4135.9902633,4135.84045459,4137.28598911,4136.81572567,4133.54490859,4135.9668226,4117.56741463,4095.16920368,4125.1361011,4127.412827,571.283273215
off_to_on,4136.22370137,4125.65331291,4131.96434171,4136.02518472,4135.96185898,4137.64856526,4136.98285457,4133.56745611,4135.96504711,4117.25682457,4095.057392,4124.82371985,4127.53644397,573.204497809
off_to_on,4136.41779937,4126.19537667,4132.59965307,4136.05722788,4136.08073964,4137.94265978,4137.02640408,4133.57458775,4135.96344788,4117.02634088,4094.98558937,4124.62745323,4127.75671743,578.394555415
off_to_on,4136.72483986,4126.73346254,4133.2929585,4136.08629015,4136.19309317,4138.16038049,4136.94686743,4133.57002895,4135.96208434,4116.88166116,4094.95388695,4124.55406369,4128.06550802,586.530397378
off_to_on,4137.13745843,4127.24877008,4134.02374832,4136.11223224,4136.2957011,4138.29713633,4136.74907104,4133.55903565,4135.96100535,4116.82742598,4094.96207925,4124.60811429,4128.45323823,597.194675011
off_to_on,4137.64603414,4127.72498362,4134.77103242,4136.13487484,4136.38623786,4138.35185942,4136.44211002,4133.54832494,4135.96024745,4116.8672765,4095.00977837,4124.79196149,4128.90933474,609.894424748
off_to_on,4138.23908321,4128.14897333,4135.51413198,4136.15399889,4136.46335095,4138.32712149,4136.03915742,4133.54596099,4135.95983372,4117.00394974,4095.09652888,4125.10582668,4129.42269694,624.081908232
off_to_on,4138.90373061,4128.51139364,4136.23348619,4136.1693494,4136.52671198,4138.22914282,4135.55715631,4133.56120189,4135.95977309,4117.23940512,4095.22191788,4125.54794314,4129.98217425,639.17676135
off_to_on,4139.62624237,4128.8071551,4136.91144393,4136.18064246,4136.57703733,4138.06769312,4135.01640558,4133.60431259,4135.96006037,4117.57497357,4095.38567418,4126.1147701,4130.57703351,654.588580697
off_to_on,4140.39259771,4129.0357488,4137.53300859,4136.18757497,4136.61607738,4137.85588585,4134.44005141,4133.68634875,4135.9606767,4118.0115176,4095.58775039,4126.80126147,4131.19739729,669.739082385
off_to_on,4141.18907658,4129.20140563,4138.08650365,4136.18983633,4136.64657395,4137.6098686,4133.8534976,4133.81891508,4135.96159062,4118.54958955,4095.82838175,4127.60117299,4131.8346347,684.083009032
off_to_on,4142.00283688,4129.31307823,4138.56412817,4136.18712155,4136.67218574,4137.34841413,4133.28374882,4134.01390139,4135.96275954,4119.18957451,4096.10811593,4128.50738892,4132.48168752,697.127035207
off_to_on,4142.82245492,4129.38423936,4138.96237432,4136.17914498,4136.69738233,4137.09241948,4132.75870229,4134.28319928,4135.96413173,4119.93180482,4096.42780923,4129.51224856,4133.13331735,708.446023438
off_to_on,4143.63840418,4129.43249771,4139.28228434,4136.16565442,4136.72730835,4136.8643234,4132.30640488,4134.63840265,4135.96564847,4120.77663522,4096.78858592,4130.60785274,4133.7862627,717.696104424
off_to_on,4144.44344957,4129.47903933,4139.52953046,4136.14644513,4136.76762037,4136.68745569,4131.95429385,4135.09049599,4135.96724657,4121.72446972,4097.19175931,4131.78633237,4134.43929872,724.624188348
off_to_on,4145.23293831,4129.54791025,4139.71430864,4136.12137342,4136.82430025,4136.58533549,4131.72844087,4135.64953522,4135.96886093,4122.77573459,4097.63871513,4133.04006363,4135.09319658,729.073651051
off_to_on,4146.00497227,4129.66516295,4139.85104486,4136.09036973,4136.90344974,4136.58093791,4131.65281956,4136.32432681,4135.97042731,4123.93079523,4098.13075982,4134.36181816,4135.7505835,730.986073534
off_to_on,4146.76045201,4129.8578947,4139.95792009,4136.05345077,4137.01107226,4136.69595115,4131.74861699,4137.12211209,4135.97188521,4125.18981775,4098.66893846,4135.74484046,4136.41570897,730.399045584
off_to_on,4147.5029872,4130.15321091,4140.05622771,4136.01073065,4137.15284818,4136.95004744,4132.03360908,4138.04826428,4135.97318093,4126.55257962,4099.25382914,4137.18284919,4137.0941263,727.440176345
off_to_on,4148.2386744,4130.57714954,4140.16958381,4135.96243068,4137.33391074,4137.36019197,4132.52161862,4139.10600672,4135.97427095,4128.01823675,4099.88532251,4138.66996332,4137.79230238,722.317586328
off_to_on,4148.97574859,4131.15360456,4140.3230169,4135.90888756,4137.55863017,4137.94001319,4133.22207257,4140.29616144,4135.97512567,4129.58505694,4100.56239657,4140.20055839,4138.51717144,715.307282611
off_to_on,4149.72412075,4131.90328704,4140.54196924,4135.85055948,4137.83041348,4138.69925649,4134.13967223,4141.61693717,4135.97573349,4131.25013251,4101.28289843,4141.76906287,4139.27565151,706.737936063
off_to_on,4150.49481944,4132.84276166,4140.8512458,4135.78802974,4138.15152749,4139.64334054,4135.27418626,4143.06376584,4135.97610523,4133.009087,4102.04334511,4143.36970871,4140.07414424,696.973680461
off_to_on,4151.29935905,4133.98359483,4141.27395047,4135.72200743,4138.52295204,4140.77303215,4136.62037257,4144.62919562,4135.97627859,4134.85579203,4102.83875586,4144.99625358,4140.91804008,686.39563318
off_to_on,4152.14906077,4135.33164733,4141.83045001,4135.6533245,4138.94426897,4142.08425183,4138.16802992,4146.30284738,4135.97632241,4136.7821116,4103.66252773,4146.64169456,4141.81125114,675.382891552
off_to_on,4153.05435517,4136.88654008,4142.53740659,4135.58292895,4139.41359193,4143.56801741,4139.90217658,4148.07143971,4135.97634055,4138.77769082,4104.50636525,4148.29799459,4142.7557933,664.2937848
off_to_on,4154.02409647,4138.6413168,4143.40691775,4135.51187351,4139.92754015,4145.21052938,4141.80334875,4149.9188864,4135.97647488,4140.82980575,4105.36027323,4149.95584311,4143.75143742,653.448156822
off_to_on,4155.06491905,4140.58232107,4144.44579982,4135.44129968,4140.48125859,4146.99339684,4143.84800862,4151.82646821,4135.97690734,4142.92329026,4106.2126197,4151.60447201,4144.79544772,643.111419421
off_to_on,4156.18066577,4142.68929878,4145.65504639,4135.37241691,4141.06848517,4148.89399911,4146.00904969,4153.7730795,4135.97786065,4145.04055358,4107.05027343,4153.23154613,4145.88242174,633.48104975
off_to_on,4157.3719155,4144.93572976,4147.02948741,4135.30647706,4141.68166454,4150.88597338,4148.2563845,4155.73554822,4135.97959747,4147.16169949,4107.85881729,4154.82314478,4147.00424286,624.676111885
off_to_on,4158.63563351,4147.28938418,4148.55766716,4135.2447447,4142.31210597,4152.93981532,4150.55759902,4157.68902542,4135.98241792,4149.26475428,4108.62283555,4156.36384627,4148.15015157,616.730264024
off_to_on,4159.96496306,4149.71309095,4150.22195073,4135.1884639,4142.95018137,4155.02357543,4152.87865668,4159.60743873,4135.98665516,4151.32600589,4109.32626963,4157.83692231,4149.30693653,609.588574353
off_to_on,4161.349171,4152.1656972,4151.99885977,4135.13882278,4143.585558,4157.10363188,4155.18463446,4161.46400173,4135.99266915,4153.32045134,4109.95283348,4159.22464339,4150.45924121,603.108315659
off_to_on,4162.77375346,4154.60318989,4153.85962917,4135.09691704,4144.20745876,4159.14551787,4157.44047371,4163.23176903,4136.00083848,4155.22234419,4110.48647663,4160.50868993,4151.58997678,597.063747311
off_to_on,4164.2207017,4156.9799441,4155.77096803,4135.06371401,4144.8049424,4161.11478025,4159.61172821,4164.88422488,4136.01155038,4157.00582828,4110.91187995,4161.67065804,4152.6808269,591.15473
off_to_on,4165.66892149,4159.25005678,4157.69600016,4135.04001862,4145.36719481,4162.97784482,4161.66529324,4166.39589072,4136.0251892,4158.64563885,4111.21496694,4162.69264295,4153.71282597,585.018860168
off_to_on,4167.09479307,4161.36872089,4159.59535254,4135.02644293,4145.88382224,4164.70286332,4163.57009995,4167.74293583,4136.04212358,4160.11784758,4111.38341168,4163.55787769,4154.66698867,578.246664033
off_to_on,4168.47285298,4163.29359238,4161.42835388,4135.0233805,4146.34513741,4166.26051756,4165.29776096,4168.90377375,4136.06269269,4161.40062461,4111.40712355,4164.25140061,4155.52496621,570.399261499
off_to_on,4169.7765734,4164.98610211,4163.15430114,4135.03098712,4146.74242928,4167.62475805,4166.82315428,4169.85962707,4136.08719203,4162.47498795,4111.27868902,4164.76072178,4156.26970327,561.027803625
off_to_on,4170.97921078,4166.41266649,4164.73374916,4135.04916882,4147.06820851,4168.77345731,4168.12493466,4170.59504344,4136.11585924,4163.32550969,4110.99375135,4165.07645685,4156.88606965,549.693907993
off_to_on,4172.05469235,4167.54575408,4166.12977776,4135.07757837,4147.31642127,4169.68896132,4169.18596325,4171.09834685,4136.14886055,4163.94094855,4110.55131096,4165.19289673,4157.36144125,535.990267833
off_to_on,4172.97850717,4168.36477023,4167.30919146,4135.1156205,4147.48262541,4170.35852586,4169.99364797,4171.3620091,4136.18627832,4164.31477995,4109.95393149,4165.10848326,4157.68620675,519.56059513
off_to_on,4173.72856796,4168.85672842,4168.24360923,4135.16246624,4147.56412418,4170.77462827,4170.54018871,4171.38292842,4136.22810042,4164.44559713,4109.20783971,4164.82616377,4157.85417908,500.118076023
off_to_on,4174.28601033,4169.01668392,4168.91040531,4135.21707629,4147.560054,4170.9351477,4170.82272292,4171.16260395,4136.27421176,4164.33736101,4108.32291098,4164.35360196,4157.86289377,477.461567925
off_to_on,4174.63589795,4168.84791399,4169.2934672,4135.27823266,4147.47142404,4170.84341021,4170.84336866,4170.70719715,4136.32438859,4163.99948069,4107.31253598,4163.70322698,4157.71378056,451.488850135
off_to_on,4174.76780557,4168.36183733,4169.38374306,4135.34457795,4147.30110665,4170.50809754,4170.60916413,4170.02747461,4136.37829597,4163.44671239,4106.19336882,4162.89210875,4157.41219923,422.206349922
off_to_on,4174.67625633,4167.57767494,4169.17955857,4135.41466064,4147.05377937,4169.94302123,4170.13190419,4169.13862944,4136.43548862,4162.69887104,4104.98496078,4161.94165408,4156.9673356,389.734899935
off_to_on,4174.36099539,4166.52186337,4168.68669158,4135.4869848,4146.73582017,4169.16676666,4169.42787631,4168.0599823,4136.49541545,4161.78035669,4103.70928893,4160.87712602,4156.39195935,354.311234923
off_to_on,4173.82708818,4165.22724051,4167.91820192,4135.56006193,4146.35515921,4168.20221526,4168.51749993,4166.81456695,4136.55742768,4160.71950568,4102.3901932,4159.72699693,4155.70205089,316.285100177
off_to_on,4173.08483879,4163.73203165,4166.89402297,4135.63246309,4145.9210912,4167.075956,4167.42487547,4165.42860843,4136.6207906,4159.54778509,4101.05273937,4158.52215396,4154.9163099,276.112014308
off_to_on,4172.14953047,4162.07867097,4165.64033041,4135.7028686,4145.44405329,4165.81760092,4166.17725072,4163.93090617,4136.68469872,4158.29885563,4099.72252904,4157.29498252,4154.0555629,234.341898119
off_to_on,4171.04099768,4160.31249882,4164.18871174,4135.77011364,4144.93537407,4164.45902195,4164.80441477,4162.35213716,4136.74829387,4157.00753471,4098.42497974,4156.0783594,4153.14209123,191.603942894
off_to_on,4169.78304537,4158.48037919,4162.5751673,4135.83322743,4144.40699999,4163.0335291,4163.33803106,4160.72409758,4136.81068584,4155.70869522,4097.18459971,4154.90459124,4152.19890345,148.588238835
off_to_on,4168.40273673,4156.6292841,4160.83897956,4135.8914645,4143.87120578,4161.57501168,4161.810923,4159.0789036,4136.87097497,4154.43613922,4096.02428217,4153.80433678,4151.24897875,106.024812001
off_to_on,4166.92957582,4154.80489232,4159.02149146,4135.94432677,4143.34029598,4160.11706578,4160.25632738,4157.44817404,4136.92827595,4153.22148714,4094.9646431,4152.80555308,4150.31450849,64.6608208517
off_to_on,4165.39461434,4153.05024823,4157.16483734,4135.99157556,4142.82630513,4158.69213122,4158.70713196,4155.86221883,4136.98174212,4152.09312348,4094.02342512,4151.93250534,4149.41616376,25.2367374007
off_to_on,4163.82951488,4151.40452412,4155.3106706,4136.03323316,4142.34070406,4157.33066165,4157.19511573,4154.34925803,4137.03058938,4151.07523911,4093.21498791,4151.20487928,4148.5724159,-11.5376198012
off_to_on,4162.26560387,4149.90192524,4153.49893189,4136.06957409,4141.89412017,4156.06035069,4155.75021103,4152.93469635,4137.07411906,4150.18700761,4092.54990262,4150.63703218,4147.79893525,-45.006324669
off_to_on,4160.73294818,4148.5707714,4151.76669925,4136.10110662,4141.49607911,4154.9054367,4154.39980798,4151.64047703,4137.11173877,4149.44192924,4092.03466442,4150.237415,4147.10809088,-74.5890030087
off_to_on,4159.25948794,4147.43278281,4150.14715844,4136.12854532,4141.15477534,4153.88610674,4153.16812096,4150.48453748,4137.14298061,4148.8473702,4091.67153348,4150.00819223,4146.50857041,-99.8001179566
off_to_on,4157.87025583,4146.50259077,4148.66872653,4136.15277603,4140.87687812,4153.01801758,4152.07563624,4149.48038568,4137.16751602,4148.40431815,4091.4585099,4149.94507936,4146.00513431,-120.265174129
off_to_on,4156.58670943,4145.78748572,4147.35435608,4136.17481443,4140.6673786,4152.311948,4151.13865766,4148.63681277,4137.18516671,4148.10736669,4091.38944394,4150.03740975,4145.59851435,-135.733244954
off_to_on,4155.42619892,4145.28740772,4146.22104008,4136.1957603,4140.52948246,4151.77359338,4150.36896527,4147.95775263,4137.19591122,4147.94493385,4091.45427799,4150.2684346,4145.2854603,-146.085355688
off_to_on,4154.40158701,4144.99517619,4145.27953093,4136.21674903,4140.464551,4151.40350925,4149.7735983,4147.44229435,4137.19988687,4147.89971054,4091.63941236,4150.61585086,4145.05893377,-151.338390279
off_to_on,4153.52103246,4144.89694802,4144.5342786,4136.23890274,4140.47209253,4151.19720701,4149.35477073,4147.08484829,4137.19738686,4147.94932722,4091.92818279,4151.05254363,4144.90844234,-151.644329767
off_to_on,4152.7879427,4144.9728859,4143.98358584,4136.26328271,4140.54980428,4151.14540049,4149.1099236,4146.87546135,4137.18885268,4148.06721843,4092.30143382,4151.54752118,4144.82050238,-147.284776879
off_to_on,4152.20109498,4145.19801263,4143.61997077,4136.29084523,4140.69366427,4151.23439802,4149.03191483,4146.80027198,4137.1748619,4148.22365751,4092.73816918,4152.06701333,4144.77921412,-138.660881639
off_to_on,4151.75491961,4145.54322121,4143.43072044,4136.32240249,4140.89807076,4151.44663018,4149.10934288,4146.84209105,4137.15611179,4148.38692725,4093.2162578,4152.57569756,4144.76692887,-126.278955901
off_to_on,4151.43993307,4145.97640666,4143.39861255,4136.35859014,4141.15602588,4151.76129904,4149.32699694,4146.9810902,4137.13339922,4148.52458661,4093.71317228,4153.03801172,4144.76498519,-110.732239615
do_nothing,4151.24330276,4146.46368114,4143.50277647,4136.39984294,4141.45935868,4152.1551301,4149.66642171,4147.19557553,4137.10759749,4148.60478917,4094.2067354,4153.41950775,4144.75448798,-92.6794417426
do_nothing,4151.1495199,4146.970631,4143.71965936,4136.44637938,4141.79898106,4152.60320415,4150.10658087,4147.46282076,4137.0796309,4148.59760571,4094.67584975,4153.68819801,4144.71710256,-72.8208120901
do_nothing,4151.14115274,4147.46357263,4144.02405871,4136.49819602,4142.16516933,4153.07984227,4150.62459914,4147.75993154,4137.05044771,4148.47630144,4095.10118561,4153.81584378,4144.6358338,-51.8726046224
do_nothing,4151.19964844,4147.91076256,4144.39018004,4136.55507128,4142.5478626,4153.55951466,4151.19655924,4148.06471018,4137.02099266,4148.21851825,4095.4658034,4153.77913608,4144.49576036,-30.5408686537
do_nothing,4151.30615023,4148.28351913,4144.79267701,4136.61657836,4142.9369688,4154.01774257,4151.79832714,4148.35648944,4136.99217966,4147.80731405,4095.75568873,4153.56072084,4144.28469403,-9.49554807611
do_nothing,4151.44229577,4148.55721542,4145.20763279,4136.68210632,4143.32266816,4154.43196198,4152.40637729,4148.61690414,4136.96486575,4147.23201493,4095.96018112,4153.15002472,4143.99373704,10.6541263888
do_nothing,4151.59096353,4148.71210786,4145.61344383,4136.75088813,4143.69570431,4154.78231897,4152.9985887,4148.83057052,4136.93982713,4146.48884181,4096.07228103,4152.54384406,4143.61771291,29.382003817
do_nothing,4151.73693624,4148.73397108,4145.99157191,4136.82203431,4144.04765281,4155.05236798,4153.5549835,4148.9856466,4136.91773795,4145.58128075,4096.08882431,4151.74666744,4143.1554515,46.264266464
do_nothing,4151.8674544,4148.61451655,4146.32713616,4136.89457063,4144.3711579,4155.22964751,4154.05838112,4149.07425017,4136.89915272,4144.52017536,4096.01051795,4150.77071186,4142.60991415,60.9948089401
do_nothing,4151.97263746,4148.35158061,4146.60932355,4136.96747793,4144.66012909,4155.30611116,4154.49494377,4149.09271651,4136.8844927,4143.32353035,4095.84183664,4149.63566295,4141.98815128,73.3961249154
do_nothing,4152.04575648,4147.94907642,4146.83160445,4137.03973251,4144.9098905,4155.27839658,4154.85459214,4149.04168351,4136.87403684,4142.01602593,4095.59078441,4148.36812133,4141.30109117,83.4252517776
do_nothing,4152.0833487,4147.41671307,4146.99174822,4137.11034521,4145.11727779,4155.14791943,4155.13127398,4148.92599851,4136.86791743,4140.62825478,4095.26853118,4147.00076867,4140.56316613,91.1745107855
do_nothing,4152.08517209,4146.76949492,4147.09164274,4137.1783978,4145.28067899,4154.92078517,4155.32307341,4148.75444809,4136.86612054,4139.19570451,4094.88893865,4145.57127921,4139.79178883,96.8669786926
do_nothing,4152.05400492,4146.02702219,4147.13693049,4137.24307515,4145.40001797,4154.60751776,4155.43215392,4148.53931909,4136.86849126,4137.75751969,4094.46799407,4144.12101344,4139.00669838,100.84682997
do_nothing,4151.9953028,4145.2126223,4147.1364815,4137.30369214,4145.47668094,4154.22261157,4155.46453495,4148.29580647,4136.87474339,4136.35508702,4094.02317394,4142.69354041,4138.2292016,103.564888485
do_nothing,4151.91673171,4144.35234759,4147.10173078,4137.35971425,4145.51338912,4153.78391997,4155.42970817,4148.04128979,4136.88447321,4135.03049536,4093.57276188,4141.33304294,4137.48133887,105.559914684
do_nothing,4151.82760096,4143.47388041,4147.0459131,4137.41077136,4145.51402221,4153.31190149,4155.34010672,4147.79450608,4136.89717685,4133.82492812,4093.13514644,4140.08266572,4136.7850078,107.436321641
do_nothing,4151.73822423,4142.60538989,4146.98323223,4137.45666429,4145.48339995,4152.82875062,4155.2104471,4147.57465128,4136.91227051,4132.77704972,4092.72812512,4138.98286949,4136.16107948,109.839155134
do_nothing,4151.65923983,4141.77438648,4146.92800401,4137.49736407,4145.42703035,4152.35744603,4155.05696904,4147.40044586,4136.92911287,4131.92144948,4092.36824021,4138.06985549,4135.62854297,113.427283507
do_nothing,4151.60092278,4141.00662009,4146.89381333,4137.53300436,4145.35083502,4151.9207531,4154.89660408,4147.28920279,4136.9470288,4131.28720542,4092.07017116,4137.37412281,4135.20371305,118.845816691
do_nothing,4151.57252189,4140.32506599,4146.89272395,4137.56386738,4145.26086295,4151.54022111,4154.74610735,4147.25593648,4136.9653336,4130.89662783,4091.84620579,4136.91921697,4134.89953409,126.698807543
do_nothing,4151.58165388,4139.74903865,4146.93457772,4137.59036417,4145.16300523,4151.23521695,4154.6211896,4147.31255141,4136.98335686,4130.76423593,4091.70580985,4136.72072174,4134.72500975,137.523282417
do_nothing,4151.63378456,4139.29346922,4147.02641567,4137.61301021,4145.06272318,4151.02203728,4154.53568798,4147.46714666,4137.00046514,4130.8960135,4091.65531079,4136.78553715,4134.68478367,151.765601515
do_nothing,4151.73182326,4138.96837502,4147.17204791,4137.63239737,4144.96480222,4150.91313887,4154.50081334,4147.72346933,4137.01608276,4131.28897883,4091.69770703,4137.1114767,4134.77889058,169.761063872
do_nothing,4151.87585188,4138.77854215,4147.37179264,4137.64916352,4144.87314303,4150.91652264,4154.52450972,4148.08054433,4137.02970989,4131.93109219,4091.83260905,4137.68720449,4135.00269078,191.71755006
do_nothing,4152.06300339,4138.72343327,4147.62239644,4137.66396091,4144.79059973,4151.03530101,4154.61095811,4148.53250197,4137.04093752,4132.80151102,4092.0563132,4138.49251971,4135.34699357,217.703843876
do_nothing,4152.2874982,4138.79732306,4147.91713986,4137.67742477,4144.71887296,4151.26747159,4154.76025089,4149.06861716,4137.04945871,4133.8711885,4092.36200437,4139.49898266,4135.79836742,247.643098211
do_nothing,4152.54083904,4138.98965441,4148.24612349,4137.69014309,4144.65846333,4151.60591163,4154.96825697,4149.67356547,4137.05507598,4135.10379773,4092.7400779,4140.67086232,4136.33962659,281.311715635
do_nothing,4152.81215799,4139.28559877,4148.5967215,4137.70262896,4144.60868791,4152.03859906,4155.22668941,4150.32789289,4137.05770449,4136.45694996,4093.17856721,4141.96637298,4136.95047661,318.343708752
do_nothing,4153.088702,4139.66679556,4148.95418193,4137.71529626,4144.56775983,4152.54905527,4155.52337857,4151.00868641,4137.05737117,4137.88366363,4093.66365917,4143.33915538,4137.60829344,358.240398155
do_nothing,4153.35643685,4140.11223822,4149.30234654,4137.72843977,4144.53292766,4153.11699433,4155.84274419,4151.69042372,4137.05420984,4139.3340305,4094.18027589,4144.73994825,4138.28900594,400.385104818
do_nothing,4153.60074336,4140.59926799,4149.6244573,4137.74222039,4144.50066848,4153.71915354,4156.16645002,4152.34597141,4137.04845263,4140.75701667,4094.71269939,4146.11838742,4138.96804573,444.062305576
do_nothing,4153.80717483,4141.10463244,4149.90401263,4137.75665609,4144.46692546,4154.33027051,4156.47421519,4152.94769322,4137.04041815,4142.10232993,4095.24521368,4147.4248641,4139.62132589,488.480552248
do_nothing,4153.96224053,4141.60556234,4150.12563377,4137.771619,4144.42737842,4154.92416484,4156.74474777,4153.46862309,4137.03049678,4143.32228116,4095.7627385,4148.61237025,4140.2262075,532.798314573
do_nothing,4154.05417778,4142.08081955,4150.27590047,4137.78683871,4144.37773389,4155.47487657,4156.95675908,4153.88365318,4137.01913397,4144.37356687,4096.25142951,4149.63825842,4140.76241358,576.151799585
do_nothing,4154.0736746,4142.51166981,4150.34411647,4137.80191157,4144.31402,4155.95781043,4157.09001211,4154.17068465,4137.00681187,4145.21890208,4096.69922124,4150.46584669,4141.21285133,617.683728192
do_nothing,4154.01450621,4142.88273757,4150.32296774,4137.81631533,4144.23287117,4156.35083414,4157.12635466,4154.31168885,4136.99403031,4145.82843844,4097.0962918,4151.06580435,4141.56430754,656.572016163
do_nothing,4153.87405189,4143.18270537,4150.20904144,4137.82942853,4144.13178779,4156.63528103,4157.05068736,4154.29362933,4136.98128766,4146.18091039,4097.43543161,4151.41726326,4141.80798732,692.057313768
do_nothing,4153.65366348,4143.40482729,4150.0031792,4137.84055347,4144.00935688,4156.7968108,4156.85181871,4154.10919932,4136.96906229,4146.26446263,4097.7123025,4151.50860977,4141.93987297,723.46840526
do_nothing,4153.35886306,4143.54723425,4149.71064594,4137.84894174,4143.86542163,4156.82608847,4156.52316385,4153.757337,4136.95779528,4146.07712438,4097.92557811,4151.33792469,4141.9608872,750.244553073
do_nothing,4152.99935485,4143.61301781,4149.34110271,4137.85382097,4143.70118986,4156.7192491,4156.06325051,4153.24348902,4136.94787492,4145.62690966,4098.0769614,4150.91305283,4141.87685318,771.953988615
do_nothing,4152.58884418,4143.61008888,4148.90838081,4137.85442173,4143.51927462,4156.47812567,4155.47600408,4152.57960353,4136.93962327,4144.93153712,4098.17107992,4150.2512976,4141.69825207,788.307898385
do_nothing,4152.14466495,4143.55081662,4148.43006232,4137.85000335,4143.32366347,4156.11022793,4154.77079322,4151.78384515,4136.93328525,4144.01777818,4098.21526463,4149.37875174,4141.43978686,799.169424863
do_nothing,4151.68722559,4143.45146224,4147.92688073,4137.83987798,4143.11961657,4155.62847154,4153.96222855,4150.88003627,4136.92902039,4142.92045657,4098.2192223,4148.32928951,4141.11976929,804.557388329
do_nothing,4151.23929166,4143.33143052,4147.42196305,4137.82343223,4142.9134968,4155.05066822,4153.06971746,4149.89684186,4136.92689726,4141.68113702,4098.19461608,4147.14325949,4140.75935408,804.644631426
do_nothing,4150.82513119,4143.21236964,4146.93994196,4137.80014615,4142.71253859,4154.39879781,4152.11678986,4148.86672658,4136.92689076,4140.3465532,4098.15457216,4145.86592975,4140.38165125,799.751086429
do_nothing,4150.46955541,4143.11715622,4146.50597261,4137.76960941,4142.52456454,4153.69809273,4151.13022022,4147.82472432,4136.92888205,4138.96683625,4098.11313328,4144.54574696,4140.01075251,790.331858283
do_nothing,4150.19689297,4143.06880772,4146.14469319,4137.73153479,4142.3576615,4152.97597291,4150.1389813,4146.80706893,4136.93266119,4137.59361326,4098.08468179,4143.23247845,4139.67071126,776.960796048
do_nothing,4150.02993984,4143.08936749,4145.87917168,4137.68576902,4142.21982978,4152.26087567,4149.17307287,4145.84974236,4136.93793216,4136.27805018,4098.0833554,4141.97531046,4139.3845177,760.310184925
do_nothing,4149.98892884,4143.19880975,4145.72988214,4137.63230126,4142.11862054,4151.58102919,4148.26227517,4144.98700025,4136.94432024,4135.06891574,4098.12247861,4140.82097737,4139.1731106,741.127325864
do_nothing,4150.09056336,4143.41401125,4145.71375399,4137.57126933,4142.06077723,4150.96322082,4147.4348809,4144.24993741,4136.95138134,4134.01074172,4098.21403152,4139.81199465,4139.05446593,720.20887501
do_nothing,4150.34715752,4143.74783395,4145.84333479,4137.50296369,4142.05189682,4150.43161155,4146.71646059,4143.66515392,4136.95861321,4133.14215113,4098.3681758,4138.98506388,4139.04279881,698.373886131
do_nothing,4150.76592122,4144.20835854,4146.12610317,4137.42782911,4142.09612597,4150.00664635,4146.12871609,4143.25357926,4136.96546816,4132.49441793,4098.59285469,4138.36971047,4139.14791077,676.43653351
do_nothing,4151.34842266,4144.798302,4146.56396182,4137.34646381,4142.19590608,4149.70410623,4145.68847281,4143.02950532,4136.97136712,4132.09031298,4098.89348051,4137.98720446,4139.37470785,655.179491036
do_nothing,4152.09025364,4145.51464459,4147.15293371,4137.25961559,4142.35177947,4149.53434289,4145.4068562,4142.99987109,4136.97571472,4131.94327856,4099.27271957,4137.84980335,4139.72290805,635.328905699
do_nothing,4152.98091489,4146.34848311,4147.88307631,4137.16817451,4142.56226677,4149.50172973,4145.28868993,4143.16383139,4136.97791536,4132.05696068,4099.73038002,4137.96034253,4140.18694905,617.531831216
do_nothing,4154.00393001,4147.28511797,4148.73862019,4137.07316188,4142.82382308,4149.60435453,4145.33214423,4143.51263126,4136.97738978,4132.42511453,4100.26340463,4138.31218564,4140.7560996,602.336883581
do_nothing,4155.13718743,4148.30437275,4149.69833004,4136.97571529,4143.13087707,4149.83396992,4145.52865243,4144.02979507,4136.9735922,4133.03188394,4100.86596648,4138.88953338,4141.41477011,590.17875138
do_nothing,4156.35350098,4149.38113608,4150.73607766,4136.87706944,4143.4759539,4150.17620719,4145.86310318,4144.69162699,4136.96602757,4133.85244178,4101.52966234,4139.66807612,4142.14301121,581.367046343
do_nothing,4157.62137067,4150.48610738,4151.82160826,4136.7785331,4143.84987903,4150.61104862,4146.31430447,4145.46800692,4136.95426861,4134.85396453,4102.24379504,4140.61596267,4142.91718167,576.079818524
do_nothing,4158.90591761,4151.58672021,4152.92147394,4136.68146218,4144.24205669,4151.11354257,4146.85570437,4146.32345356,4136.93797233,4135.99690156,4102.99573335,4141.69504562,4143.71076099,574.361889527
do_nothing,4160.16995967,4152.6482102,4154.00010118,4136.58722922,4144.64081332,4151.6547353,4147.45634283,4147.21841508,4136.91689557,4137.23648824,4103.77133503,4142.86235301,4144.49527633,576.127979263
do_nothing,4161.37518925,4153.63478863,4155.02095402,4136.49719003,4145.03379353,4152.20278337,4148.08199839,4148.11073812,4136.8909089,4138.52444294,4104.55541675,4144.07172781,4145.24130911,581.170420269
do_nothing,4162.48341029,4154.51087871,4155.94775092,4136.41264793,4145.40839346,4152.7242028,4148.69648566,4148.95725788,4136.86000869,4139.81078147,4105.33225291,4145.27557067,4145.9195439,589.171074575
do_nothing,4163.45778982,4155.24236922,4156.74569111,4136.3348167,4145.75221505,4153.18520483,4149.2630527,4149.71544734,4136.82432644,4141.0456792,4106.08608499,4146.42661843,4146.50182071,599.716903678
do_nothing,4164.26407864,4155.79783933,4157.38264619,4136.26478325,4146.05352322,4153.55306441,4149.7458231,4150.34506076,4136.78413522,4142.18130968,4106.80162306,4147.4796902,4146.96215251,612.318507048
do_nothing,4164.87175732,4156.14970972,4157.83027377,4136.20347107,4146.301688,4153.79746594,4150.11122538,4150.80970687,4136.73985246,4143.17359059,4107.46452197,4148.39333486,4147.27767087,626.430847798
do_nothing,4165.25506665,4156.27527745,4158.0650129,4136.15160588,4146.4875939,4153.89177142,4150.3293525,4151.07828973,4136.69203891,4143.98377187,4108.06181607,4149.13131835,4147.42946601,641.475324464
do_nothing,4165.39388621,4156.15759691,4158.06892541,4136.10968465,4146.60400001,4153.8141588,4150.37519618,4151.12626037,4136.64139332,4144.57980803,4108.58229869,4149.66389608,4147.40329173,656.862320401
do_nothing,4165.27443077,4155.78617482,4157.83035305,4136.07794971,4146.64583607,4153.54858332,4150.2297057,4150.93662991,4136.58874276,4144.93746607,4109.01683455,4149.96882539,4147.19011072,672.013366699
do_nothing,4164.88974086,4155.15745443,4157.34436753,4136.05636912,4146.61042204,4153.08552141,4149.88062742,4150.50070378,4136.53502848,4145.04113183,4109.35859677,4150.03208399,4146.78646223,686.382093485
do_nothing,4164.23995117,4154.27507154,4156.61299782,4136.04462501,4146.49760148,4152.42246553,4149.32308974,4149.81850795,4136.48128744,4144.88428959,4109.60322268,4149.84827208,4146.19464036,699.473217042
do_nothing,4163.33232865,4153.14987294,4155.64522708,4136.04211084,4146.30978241,4151.56414802,4148.55990807,4148.8988892,4136.42862977,4144.46966272,4109.74888578,4149.42068869,4145.42267788,710.858910409
do_nothing,4162.18107949,4151.79969603,4154.45675969,4136.04793874,4146.0518825,4150.52248316,4147.60159466,4147.75928386,4136.37821271,4143.80901558,4109.79628412,4148.7610849,4144.48413731,720.192025305
do_nothing,4160.80693267,4150.24891618,4153.06956667,4136.06095723,4145.73117951,4149.31622746,4146.4660694,4146.42516164,4136.33121143,4142.92262882,4109.74854793,4147.88910805,4143.39771701,727.215765431
do_nothing,4159.23651512,4148.52777668,4151.51122561,4136.07977955,4145.35707119,4147.97036938,4145.1780788,4144.92916278,4136.28878774,4141.83847169,4109.61107202,4146.83146277,4142.18668638,731.769547277
do_nothing,4157.50154045,4146.67152355,4149.81407839,4136.1028221,4144.94075267,4146.51526993,4143.76834216,4143.30995869,4136.25205736,4140.59110545,4109.39128058,4145.6208238,4140.87817006,733.790918757
do_nothing,4155.63783964,4144.71937416,4148.01423599,4136.12835233,4144.49482242,4144.98558602,4142.27245494,4141.61087641,4136.22205692,4139.22036099,4109.09833435,4144.29454514,4139.50230608,733.313538159
do_nothing,4153.68426687,4142.71335455,4146.1504649,4136.15454452,4144.03283071,4143.41901718,4140.72958936,4139.87833697,4136.19971158,4137.76984187,4108.74279127,4142.89321643,4138.09130744,730.461348186
do_nothing,4151.68151783,4140.69704472,4144.26299316,4136.17954202,4143.56878689,4141.85492418,4139.18104073,4138.16016495,4136.1858045,4136.28530918,4108.33623361,4141.45912289,4136.67845984,725.43921218
do_nothing,4149.67090056,4138.71427424,4142.39227658,4136.20152357,4143.11664374,4140.33287326,4137.6686741,4136.50383181,4136.18094924,4134.81300827,4107.89087457,4140.03466779,4135.29708988,718.520407907
do_nothing,4147.6930998,4136.80781229,4140.57776653,4136.21877144,4142.68977789,4138.8911626,4136.23332992,4134.95469813,4136.18556595,4133.39799841,4107.41915812,4138.66081691,4133.97953906,710.031492708
do_nothing,4145.78697583,4135.01809601,4138.85672032,4136.2297387,4142.30048619,4137.56538779,4134.91324897,4133.55432032,4136.19986256,4132.0825454,4106.93336532,4137.37562289,4132.75617787,700.335156389
do_nothing,4143.9884372,4133.38203998,4137.26309361,4136.23311292,4141.95951703,4136.38710105,4133.7425769,4132.33888549,4136.22382159,4130.9046345,4106.44524014,4136.21288399,4131.65449294,689.811759799
do_nothing,4142.32942384,4131.93196669,4135.82655118,4136.22787363,4141.67565499,4135.3826156,4132.75000606,4131.33783426,4136.25719324,4129.8966563,4105.96564662,4135.20098579,4130.69827712,678.84031317
do_nothing,4140.83703292,4130.69469314,4134.57162811,4136.21334083,4141.45537536,4134.5720013,4131.95760841,4130.57272499,4136.29949531,4129.08431148,4105.50426843,4134.36196734,4129.90694852,667.779675919
do_nothing,4139.53281432,4129.69080293,4133.51706773,4136.18921224,4141.30258243,4133.96831002,4131.3799061,4130.05638428,4136.35002012,4128.48577162,4105.0693594,4133.71084339,4129.29501963,656.950756565
do_nothing,4138.43225585,4128.93412551,4132.67535589,4136.15558723,4141.21844252,4133.57706016,4131.02321765,4129.79237788,4136.40784834,4128.11112319,4104.66755225,4133.25520417,4128.87173158,646.620457221
do_nothing,4137.54447095,4128.4314362,4132.05246325,4136.11297584,4141.20131886,4133.39599866,4130.88530653,4129.77482365,4136.47186962,4127.96211018,4104.3037294,4132.99510188,4128.64086216,636.988042489
do_nothing,4136.8720938,4128.18238186,4131.64779954,4136.06229216,4141.24681129,4133.41514755,4130.95534718,4129.988554,4136.54080947,4128.03217916,4103.98095781,4132.92322186,4128.60070956,628.174519603
do_nothing,4136.41137911,4128.17962861,4131.4543754,4136.00483174,4141.34789959,4133.61713101,4131.21421025,4130.40962167,4136.61326158,4128.30681886,4103.70048663,4133.02532417,4128.74424717,620.215498811
do_nothing,4136.15249665,4128.40922017,4131.45916035,4135.94223357,4141.49518487,4133.97776838,4131.63505638,4131.00612827,4136.68772481,4128.7641747,4103.46180462,4133.28093107,4129.05943896,613.057864753
do_nothing,4136.08000449,4128.85112827,4131.64361871,4135.87642764,4141.67721983,4134.46690933,4132.1842157,4131.7393427,4136.76264361,4129.37590931,4103.26275177,4133.66422603,4129.52969956,606.560436366
do_nothing,4136.17347955,4129.4799707,4131.98439978,4135.80956986,4141.88091543,4135.04947906,4132.82231911,4132.56506529,4136.83645072,4130.10827066,4103.09967823,4134.14512256,4130.13447881,600.498630936
do_nothing,4136.40828,4130.26586801,4132.45415462,4135.74396636,4142.09200837,4135.68669469,4133.50563856,4133.4351842,4136.90761069,4130.92332327,4102.96764222,4134.69045568,4130.84994718,594.572983772
do_nothing,4136.75641054,4131.17540598,4133.0224484,4135.68198999,4142.29557211,4136.33740779,4134.18758589,4134.29936412,4136.97466296,4131.78029313,4102.86063823,4135.26524567,4131.64975622,588.421215405
do_nothing,4137.18745959,4132.17266913,4133.65673562,4135.62599219,4142.47655197,4136.95952425,4134.82031513,4135.10680321,4137.03626296,4132.63697468,4102.771846,4135.83398287,4132.50584689,581.633389785
do_nothing,4137.6695758,4133.2203092,4134.32336456,4135.57821356,4142.62030437,4137.51144992,4135.3563699,4135.80799251,4137.09121996,4133.45114753,4102.69389108,4136.36188341,4133.38927855,573.769575863
do_nothing,4138.17045151,4134.28061294,4134.98857762,4135.54069687,4142.7131201,4137.95351019,4135.75031666,4136.3564136,4137.13853042,4134.18195271,4102.61910766,4136.81606898,4134.27105188,564.379316637
do_nothing,4138.65828182,4135.3165349,4135.61947619,4135.51520567,4142.74271233,4138.24929303,4135.96030585,4136.71011356,4137.17740566,4134.79118112,4102.53979503,4137.16662848,4135.12290057,553.022128844
do_nothing,4139.10267003,4136.29266435,4136.18492118,4135.50315179,4142.69865183,4138.36686881,4135.94950594,4136.83310255,4137.20729296,4135.24443289,4102.44845963,4137.3875264,4135.91802925,539.288206391
do_nothing,4139.47545409,4137.17609913,4136.65634471,4135.50553442,4142.57273385,4138.27984551,4135.68736107,4136.69652718,4137.22788944,4135.51211276,4102.33803602,4137.45733041,4136.6317782,522.81848355
do_nothing,4139.7514322,4137.93720473,4137.00845274,4135.52289313,4142.35926425,4137.96822512,4135.15063025,4136.27958249,4137.23914806,4135.57023463,4102.20208103,4137.35973975,4137.24219905,503.323230779
do_nothing,4139.90897082,4138.55024233,4137.21980356,4135.55527678,4142.05525557,4137.41903472,4134.32417458,4135.5701359,4137.24127586,4135.40101641,4102.03493722,4137.08390438,4137.7305295,480.598406172
do_nothing,4139.93048286,4138.99385521,4137.27325175,4135.60222981,4141.66052712,4136.62671502,4133.20146893,4134.56504758,4137.23472414,4134.99325469,4101.83186295,4136.62453385,4138.0815591,454.539067154
do_nothing,4139.802769,4139.25140867,4137.15625245,4135.66279656,4141.17770736,4135.59325778,4131.78482459,4133.2701832,4137.22017122,4134.34247634,4101.58912777,4135.9818028,4138.28388133,425.149256894
do_nothing,4139.51722023,4139.31118388,4136.86102526,4135.73554374,4140.61214012,4134.32809252,4130.08531968,4131.70012558,4137.19849821,4133.45087221,4101.30407336,4135.16106759,4138.33003124,392.5479137
do_nothing,4139.0698838,4139.16643083,4136.38458182,4135.81860029,4139.97170003,4132.84773165,4128.12244429,4129.87760254,4137.17075869,4132.32702498,4100.97514108,4134.17241573,4138.21651083,356.970504131
do_nothing,4138.46139932,4138.81528967,4135.72862505,4135.90971325,4139.26652543,4131.17519075,4125.92347675,4127.83265728,4137.13814332,4130.9854497,4100.60186868,4133.03007522,4137.94370743,318.766245577
do_nothing,4137.69681462,4138.26059273,4134.8993311,4136.00631773,4138.50867982,4129.33920827,4123.5226164,4125.60159608,4137.10194058,4129.44597134,4100.1848594,4131.75171579,4137.51571346,278.390955171
do_nothing,4136.78529401,4137.5095622,4133.90702822,4136.10561841,4137.71175539,4127.37329538,4120.95990626,4123.22575507,4137.06349499,4127.73296834,4099.72572758,4130.35767679,4136.9400582,236.39573225
do_nothing,4135.73973355,4136.57342021,4132.76578802,4136.20467973,4136.89043354,4125.3146522,4118.27998613,4120.75013333,4137.02416428,4125.87451466,4099.22702539,4128.87015806,4136.22736454,193.411844451
do_nothing,4134.57629998,4135.46692976,4131.49294675,4136.30052159,4136.06001904,4123.20299065,4115.53072174,4118.22194343,4136.98527682,4123.90145519,4098.69215549,4127.31240989,4135.39094516,150.132336522
do_nothing,4133.313911,4134.20788513,4130.10857449,4136.39021724,4135.23596472,4121.07930613,4112.7617591,4115.68913191,4136.94809083,4121.84644992,4098.12527404,4125.70795631,4134.44635382,107.291010112
do_nothing,4131.97367477,4132.81657074,4128.63491037,4136.47098992,4134.43340344,4118.98464069,4110.02305451,4113.19892237,4136.91375669,4119.74302114,4097.53118824,4124.07988256,4133.41090725,65.6395271326
do_nothing,4130.57830609,4131.31520536,4127.09578072,4136.54030509,4133.66670322,4116.95887841,4107.36342996,4110.79643085,4136.88328359,4117.62463602,4096.9152514,4122.4502127,4132.30319296,25.9234647966
do_nothing,4129.15153543,4129.72738697,4125.51601576,4136.59595489,4132.94905987,4115.03961128,4104.82920124,4108.52339921,4136.85751146,4115.52385276,4096.28325818,4120.83939713,4131.14257678,-11.1418059939
do_nothing,4127.71752526,4128.07755075,4123.92087834,4136.63613226,4132.29213967,4113.26110961,4102.46292219,4106.41708639,4136.83708925,4113.47155446,4095.64134129,4119.26592313,4129.9487228,-44.8945369863
do_nothing,4126.30030676,4126.39045094,4122.33551628,4136.65949223,4131.70578262,4111.65342701,4100.30228317,4104.50935004,4136.82246001,4111.49628935,4094.99587077,4117.74605413,4128.74113656,-74.7484553599
do_nothing,4124.9232481,4124.69067475,4120.78444809,4136.66519851,4131.19777422,4110.24166428,4098.37919566,4102.82594334,4136.81385313,4109.62373067,4094.35335586,4116.29369667,4127.53874101,-100.212251088
do_nothing,4123.60856435,4123.00219569,4119.29109054,4136.65295387,4130.77369122,4109.04541079,4096.71908738,4101.38604305,4136.81128411,4107.87626371,4093.72034961,4114.9203877,4126.35949336,-120.905983709
do_nothing,4122.37687716,4121.34797148,4117.87733457,4136.62301352,4130.43682411,4108.07837574,4095.34042489,4100.20201609,4136.8145614,4106.27270281,4093.10335597,4113.63538967,4125.22005005,-136.573804954
do_nothing,4121.24683067,4119.74959078,4116.56317501,4136.57618088,4130.18817578,4107.34821463,4094.25447196,4099.27942294,4136.82330013,4104.82813573,4092.50873919,4112.44587618,4124.13548511,-147.092521828
do_nothing,4120.23476813,4118.22697104,4115.3663972,4136.51378594,4130.02653346,4106.85655012,4093.46528361,4098.61724758,4136.83694205,4103.55388904,4091.94263558,4111.35718778,4123.11906571,-152.475660592
do_nothing,4119.354472,4116.79810863,4114.30232269,4136.43764682,4129.94860827,4106.59917968,4092.96992727,4098.20833524,4136.85478085,4102.45760362,4091.41086784,4110.37313503,4122.18208688,-152.872832004
do_nothing,4118.61696854,4115.47888131,4113.38361417,4136.35001568,4129.94923465,4106.56645684,4092.75891432,4098.04001204,4136.87599181,4101.54340672,4090.9188622,4109.4963248,4121.33376543,-148.564345729
do_nothing,4118.03039669,4114.28290229,4112.62013955,4136.25351054,4130.02162022,4106.74382738,4092.81681869,4098.09485453,4136.89966475,4100.8121641,4090.47156907,4108.72848635,4120.58119166,-139.95118325
do_nothing,4117.59993965,4113.22142436,4112.01889353,4136.15103546,4130.15763539,4107.11249752,4093.12305321,4098.35157279,4136.92483891,4100.26179487,4090.07338813,4108.07077522,4119.92933637,-127.540613601
do_nothing,4117.32781649,4112.30329214,4111.5839748,4136.04569131,4130.34813104,4107.65020738,4093.65277112,4098.78596827,4136.95053861,4099.88763099,4089.7280994,4107.52403599,4119.38110927,-111.927913903
do_nothing,4117.21333051,4111.53493956,4111.31661623,4135.94068025,4130.58327258,4108.33208114,4094.37785732,4099.37192742,4136.97580828,4099.68280407,4089.43880183,4107.0890087,4118.93746427,-93.7748196571
do_nothing,4117.25297042,4110.9204293,4111.21526492,4135.83920698,4130.8528787,4109.13152385,4095.26797371,4100.08241337,4136.99974581,4099.63864318,4089.20786171,4106.76646841,4118.59754616,-73.7854657694
do_nothing,4117.44056058,4110.4615308,4111.27570917,4135.74437978,4131.14675405,4110.02113502,4096.29162268,4100.89042101,4137.02153283,4099.74506908,4089.03687275,4106.55729193,4118.35887206,-52.68068556
do_nothing,4117.76745615,4110.15783299,4111.49124865,4135.65911447,4131.45500572,4110.97360947,4097.41719422,4101.76986439,4137.04046123,4099.9909725,4088.92662987,4106.46245077,4118.21754046,-31.1716122362
do_nothing,4118.22277882,4110.00688793,4111.85290404,4135.58604438,4131.7683345,4111.96259746,4098.61396361,4102.69636959,4137.05595476,4100.36456623,4088.87711815,4106.48293419,4118.16846012,-9.93357184683
do_nothing,4118.79368874,4110.00438093,4112.3496615,4135.52743912,4132.07829274,4112.96349771,4099.85300918,4103.64795122,4137.06758527,4100.85370352,4088.88751807,4106.61961027,4118.20559048,10.4187381243
do_nothing,4119.46568732,4110.14432232,4112.96874694,4135.4851347,4132.37750206,4113.9541597,4101.1080231,4104.6055559,4137.07508312,4101.44615739,4088.9562276,4106.87303659,4118.32218529,29.3538271892
do_nothing,4120.22294599,4110.4192555,4113.69592452,4135.46047734,4132.65982524,4114.91547477,4102.35599211,4105.55346161,4137.07834145,4102.12985776,4089.08090118,4107.24323487,4118.51103133,46.4428660664
do_nothing,4121.04865523,4110.82047589,4114.51581354,4135.45428278,4132.92048856,4115.83183941,4103.57772989,4106.47952757,4137.07741444,4102.89308505,4089.25850485,4107.72944573,4118.76467439,61.3752470202
do_nothing,4121.92538855,4111.33825514,4115.41221823,4135.46681228,4133.15615246,4116.69147881,4104.75824814,4107.37529459,4137.07250972,4103.72462123,4089.48538653,4108.32988119,4119.0756258,73.9696243017
do_nothing,4122.83547583,4111.96206559,4116.36846494,4135.49776618,4133.36493041,4117.48662379,4105.88695911,4108.23594121,4137.0639754,4104.61386094,4089.7573599,4109.04149256,4119.43654387,84.1799786906
do_nothing,4123.76138012,4112.68080058,4117.36774156,4135.54629512,4133.54635765,4118.21353981,4106.95770841,4109.06010605,4137.05228237,4105.550887,4090.06979991,4109.85977162,4119.84038638,92.0964388177
do_nothing,4124.6860717,4113.48298658,4118.39343377,4135.6110286,4133.70131301,4118.87241268,4107.96864316,4109.84959077,4137.03800258,4106.5265157,4090.41774773,4110.77860083,4120.28053137,97.9407921139
do_nothing,4125.59339241,4114.35698423,4119.42945291,4135.69012003,4133.83189844,4119.46710041,4108.92192632,4110.60896206,4137.02178433,4107.53231768,4090.79602236,4111.79016625,4120.75086518,102.056823337
do_nothing,4126.4684028,4115.2911755,4120.46054944,4135.7813068,4133.94128203,4120.00476561,4109.82331369,4111.34507367,4137.00432545,4108.56061946,4091.19933559,4112.88494259,4121.24583742,104.895820393
do_nothing,4127.2977043,4116.27413493,4121.47260583,4135.88198342,4134.03351154,4120.49540616,4110.68161433,4112.06653115,4136.9863455,4109.60449025,4091.62240663,4114.05175581,4121.76048355,106.997776279
do_nothing,4128.06972802,4117.29478298,4122.45290243,4135.98928515,4134.11330595,4120.95130457,4111.50805923,4112.78312307,4136.96855804,4110.65771759,4092.06007216,4115.277924,4122.29041678,108.968984962
do_nothing,4128.77498206,4118.34251973,4123.39034949,4136.10017938,4134.18583333,4121.38641816,4112.31560538,4113.50524232,4136.951644,4111.71477466,4092.5073878,4116.54947296,4122.83179188,111.456872452
do_nothing,4129.40624881,4119.40733727,4124.27567912,4136.21156151,4134.25648292,4121.81573326,4113.11820394,4114.2433199,4136.93622709,4112.77078187,4092.9597174,4117.85141953,4123.38124442,115.1230162
do_nothing,4129.95872431,4120.47990853,4125.10159078,4136.32035222,4134.33063924,4122.25460623,4113.93006165,4115.00729201,4136.92285211,4113.82146431,4093.41280674,4119.16811182,4123.93580956,120.615380519
do_nothing,4130.43009248,4121.55165082,4125.86284484,4136.42359285,4134.4134653,4122.71811401,4114.76492322,4115.80611823,4136.91196694,4114.86310635,4093.86283929,4120.48361306,4124.4928252,128.540829972
do_nothing,4130.82052904,4122.61476264,4126.55630022,4136.51853604,4134.50970153,4123.22043542,4115.63540078,4116.64736574,4136.90390873,4115.89250391,4094.30647232,4121.78211369,4125.04982504,139.438976568
do_nothing,4131.13263254,4123.66223408,4127.18089423,4136.60272869,4134.62348646,4123.77428351,4116.55237347,4117.53687125,4136.89889466,4116.90691499,4094.7408527,4123.04835533,4125.60442767,153.758370109
do_nothing,4131.3712832,4124.68783262,4127.73756486,4136.67408493,4134.75820434,4124.39040641,4117.524477,4118.4784889,4136.89701762,4117.90400901,4095.16361295,4124.2680507,4126.1542288,171.835954566
do_nothing,4131.54343319,4125.68606813,4128.22911851,4136.73094708,4134.91636377,4125.07717156,4118.55769911,4119.47392914,4136.89824662,4118.88181612,4095.57284956,4125.42828407,4126.69670364,193.8805906
do_nothing,4131.6578345,4126.65214198,4128.66004771,4136.77213268,4135.09951045,4125.84024455,4119.65509241,4120.52269005,4136.90243203,4119.83867816,4095.96708659,4126.51787857,4127.22912705,219.961291188
do_nothing,4131.72471329,4127.58188615,4129.03630524,4136.79696638,4135.3081757,4126.68237016,4120.81661162,4121.62207944,4136.90931499,4120.77320307,4096.34522843,4127.52771765,4127.74851794,250.000639719
do_nothing,4131.75540116,4128.47169845,4129.36504219,4136.80529554,4135.54186164,4127.60325996,4122.03907749,4122.76732253,4136.9185409,4121.68422401,4096.7065061,4128.45100988,4128.25161313,283.773663554
do_nothing,4131.76193583,4129.31848002,4129.65431868,4136.79748912,4135.79906275,4128.59958705,4123.31626502,4123.95174717,4136.92967599,4122.57076432,4097.05042152,4129.28348739,4128.7348745,320.912228596
do_nothing,4131.75664489,4130.11958037,4129.91279692,4136.7744199,4136.07732253,4129.66508563,4124.63910905,4125.16703557,4136.9422265,4123.43200769,4097.37669345,4130.02353035,4129.19453076,360.914811384
do_nothing,4131.75172725,4130.87275455,4130.14942688,4136.73743061,4136.3733229,4130.79074959,4125.99601583,4126.40352907,4136.95565955,4124.26727318,4097.68520861,4130.67221178,4129.62665325,403.161302492
do_nothing,4131.75884651,4131.57613563,4130.37313483,4136.68828523,4136.68300294,4131.9651216,4127.37326559,4127.6505709,4136.96942484,4125.07599354,4097.97598067,4131.23325963,4130.02726287,446.932305146
do_nothing,4131.7887504,4132.2282236,4130.59252502,4136.62910703,4137.00170243,4133.17466173,4128.75548789,4128.89687083,4136.98297646,4125.85769583,4098.24911898,4131.71293531,4130.39246306,491.432223374
do_nothing,4131.85092883,4132.82789075,4130.81560355,4136.56230551,4137.32432485,4134.40418242,4130.12618992,4130.13087573,4136.99579372,4126.6119832,4098.50480845,4132.11983078,4130.71859168,535.815292467
do_nothing,4131.95332219,4133.37440119,4131.04953289,4136.49049453,4137.64551395,4135.63733525,4131.46831665,4131.34113087,4137.00740056,4127.33851698,4098.74330093,4132.46458861,4131.00238338,579.213596216
do_nothing,4132.10208902,4133.86744185,4131.30042427,4136.4164044,4137.95983743,4136.85713333,4132.76482133,4132.51661785,4137.01738249,4128.03699859,4098.96491765,4132.75955223,4131.24113294,620.766042998
do_nothing,4132.30144071,4134.3071609,4131.5731738,4136.34279068,4138.2619713,4138.04649197,4133.99922571,4133.64705748,4137.02540076,4128.70715125,4099.17006182,4133.01835606,4131.43284996,659.647239067
do_nothing,4132.55354798,4134.69420957,4131.87134711,4136.27234267,4138.54687803,4139.18876936,4135.15615076,4134.7231681,4137.03120315,4129.34870208,4099.35923947,4133.25546792,4131.576396,695.095204708
do_nothing,4132.85852147,4135.02978338,4132.19711543,4136.20759444,4138.80997208,4140.26828859,4136.22180085,4135.73687312,4137.03463105,4129.96136595,4099.53308627,4133.48569841,4131.67159611,726.436926586
do_nothing,4133.21446635,4135.31565885,4132.55124465,4136.15084145,4139.04726672,4141.27082338,4137.18438691,4136.68145391,4137.03562277,4130.54483285,4099.69239774,4133.72369347,4131.71931819,753.11082421
do_nothing,4133.61760772,4135.55422238,4132.9331369,4136.1040654,4139.25549707,4142.18403077,4138.03447657,4137.55164752,4137.03421295,4131.09876079,4099.8381594,4133.98342766,4131.72151516,774.685326663
do_nothing,4134.06248154,4135.74848779,4133.34092243,4136.06886981,4139.43221527,4142.9978164,4138.76526206,4138.34369048,4137.03052826,4131.62277608,4099.97157369,4134.27771562,4131.68122647,790.872904117
do_nothing,4134.54218272,4135.90209954,4133.77159757,4136.04642843,4139.57585504,4143.70461995,4139.37273932,4139.05531236,4137.02477968,4132.11648249,4100.09408,4134.61775884,4131.60253758,801.539071085
do_nothing,4135.04866055,4136.01931854,4134.2212027,4136.03744825,4139.68576406,4144.29961145,4139.85579487,4139.6856839,4137.01725169,4132.57948001,4100.20736489,4135.01274397,4131.49049787,806.706066864
do_nothing,4135.57304908,4136.10498819,4134.68503228,4136.04214827,4139.76220359,4144.78079252,4140.21620019,4140.23532639,4137.00828898,4133.01139347,4100.31335983,4135.46950695,4131.35099922,806.551116001
do_nothing,4136.10601939,4136.16447834,4135.15786792,4136.06025478,4139.80631618,4145.14900049,4140.45851602,4140.70598922,4136.99828115,4133.41191018,4100.41422494,4135.99227482,4131.19061932,801.399371548
do_nothing,4136.63813958,4136.20360604,4135.63422411,4136.09101352,4139.82006319,4145.40781731,4140.58991229,4141.10050354,4136.98764613,4133.78082483,4100.51231753,4136.58249423,4131.01643477,791.711838702
do_nothing,4137.16022851,4136.22853252,4136.10859593,4136.13321823,4139.80613525,4145.56338839,4140.61991124,4141.42261964,4136.97681303,4134.11808888,4100.61014529,4137.23875224,4130.83581017,778.06875741
do_nothing,4137.66368988,4136.24563724,4136.57569812,4136.18525473,4139.76783967,4145.62416029,4140.56006376,4141.67683517,4136.966205,4134.42386068,4100.71030445,4137.95679173,4130.65617027,761.149083233
do_nothing,4138.1408144,4136.26137126,4137.03068543,4136.24515904,4139.70896957,4145.60054819,4140.42357048,4141.86822099,4136.95622287,4134.69855272,4100.81540438,4138.72962074,4130.48476288,741.706841532
do_nothing,4138.58503927,4136.28209361,4137.46934498,4136.31068748,4139.63366017,4145.50454688,4140.22486049,4142.00225016,4136.94723011,4134.94287229,4100.92798058,4139.54771184,4130.32842132,720.545235937
do_nothing,4138.99115578,4136.31389532,4137.8882526,4136.37939622,4139.54623761,4145.34930018,4139.97914167,4142.08463496,4136.93953976,4135.15785166,4101.05039927,4140.39928463,4130.19333511,698.489463181
do_nothing,4139.35545747,4136.36241686,4138.28488598,4136.44872756,4139.4510657,4145.14864472,4139.70193661,4142.12117528,4136.93340367,4135.34486442,4101.18475703,4141.2706611,4130.08483757,676.359220566
do_nothing,4139.67582345,4136.43266441,4138.65768951,4136.51609983,4139.35239586,4144.91664401,4139.40861817,4142.11762089,4136.92900449,4135.50562441,4101.33277972,4142.14668097,4130.00721827,654.941890082
do_nothing,4139.95173335,4136.52883111,4139.00608683,4136.57899781,4139.25422522,4144.6671279,4139.11395847,4142.07954851,4136.92645059,4135.6421642,4101.49572492,4143.01116156,4129.96356717,634.967344988
do_nothing,4140.18421296,4136.6541287,4139.33043997,4136.63506047,4139.16016712,4144.41325151,4138.83170394,4142.01225413,4136.92577409,4135.75679105,4101.67429212,4143.84738583,4129.95565574,617.085251041
do_nothing,4140.37571191,4136.8106355,4139.63195563,4136.68216326,4139.073338,4144.16708583,4138.5741882,4141.92065966,4136.92693193,4135.85201965,4101.86854491,4144.63860098,4129.98385946,601.845629232
do_nothing,4140.52991766,4136.99916616,4139.91254215,4136.71849224,4138.99626407,4143.93925139,4138.35199368,4141.80923356,4136.92980988,4135.93048266,4102.07784921,4145.36851087,4130.04712458,589.68331651
do_nothing,4140.65151285,4137.2191692,4140.17462348,4136.74260768,4138.93081077,4143.73860498,4138.17367145,4141.68192497,4136.93422926,4135.99482271,4102.30083151,4146.02174603,4130.14298093,580.906812151
do_nothing,4140.74588625,4137.46865809,4140.42091879,4136.75349521,4138.87813737,4143.57198853,4138.0455274,4141.54211166,4136.93995598,4136.04757109,4102.53536065,4146.58429713,4130.2676016,575.69183491
do_nothing,4140.81880997,4137.7441811,4140.65419911,4136.75060267,4138.83867867,4143.44404802,4137.97148099,4141.39256218,4136.94671156,4136.09102018,4102.778556,4147.04389913,4130.41590861,574.079743301
do_nothing,4140.8760971,4138.04083408,4140.87703291,4136.73386142,4138.81215445,4143.35712808,4137.953,4141.23541236,4136.95418552,4136.12709739,4103.02682399,4147.3903561,4130.58172188,575.980791561
do_nothing,4140.92325481,4138.35231858,4141.09153386,4136.70369111,4138.7976062,4143.3112457,4137.98911186,4141.07215606,4136.96204879,4136.15724812,4103.27592327,4147.61579841,4130.75794709,581.182010402
do_nothing,4140.96514801,4138.67104591,4141.29912304,4136.66098775,4138.79345952,4143.30414329,4138.07648928,4140.90364917,4136.96996733,4136.18233511,4103.52105787,4147.71486635,4130.93679608,589.359320794
do_nothing,4141.00568813,4138.98828604,4141.50031787,4136.60709521,4138.79760907,4143.33141821,4138.20960539,4140.73012615,4136.97761571,4136.20256016,4103.75699605,4147.68481646,4131.11003199,600.093322906
do_nothing,4141.04756097,4139.29435861,4141.69455873,4136.54376137,4138.80752218,4143.38672322,4138.38095148,4140.55122785,4136.9846898,4136.21741329,4103.97821152,4147.52554885,4131.26923049,612.888066083
do_nothing,4141.09200605,4139.57886212,4141.88008287,4136.47308021,4138.8203568,4143.4620296,4138.58130883,4140.36603979,4136.9909184,4136.22565257,4104.17904264,4147.23955599,4131.40604746,627.192008396
do_nothing,4141.13865868,4139.83093634,4142.05385362,4136.39742189,4138.83308877,4143.54794315,4138.80006501,4140.17314046,4136.99607311,4136.22531651,4104.35386424,4146.83179578,4131.51248417,642.420314792
