label,COUNTER,INTERPOLATED,AF3,F7,F3,FC5,T7,P7,O1,O2,P8,T8,FC6,F4,F8,AF4,RAW_CQ,GYROX,GYROY,MARKER,SYNC,TIME_STAMP_s,TIME_STAMP_ms,CQ_AF3,CQ_F7,CQ_F3,CQ_FC5,CQ_T7,CQ_P7,CQ_O1,CQ_O2,CQ_P8,CQ_T8,CQ_FC6,CQ_F4,CQ_F8,CQ_AF4,CQ_CMS,CQ_DRL
off_to_on,-1.16770404594,-0.244784487203,-0.626937495656,-0.676039116516,-1.40210578818,-2.40325692148,-4.88419614527,-3.45841252991,0.35410857188,-0.747851901984,-5.20575962251,-1.94331709147,-2.64717379363,51.2764041763
off_to_on,1.36566630245,0.680443678601,0.0939300226071,-0.0278155608834,1.78981026793,3.61064833598,7.59378234447,3.05393608112,-0.331046971891,1.08087586652,3.97061569119,3.84276879565,3.83985257464,-14.6618689294
off_to_on,0.29491018779,0.0607658080208,0.871830728966,1.00007450892,0.642758994199,0.790095375549,1.54636838387,2.23982348866,-0.067265898002,0.414955659456,2.87393252211,-0.765941282031,0.0217997747863,-45.4739862087
off_to_on,-1.94730764997,-1.33604048286,-0.738526205621,-0.337411150815,-1.86469103194,-2.8610082004,-7.57728663408,-3.65240623047,-0.0504189453947,-1.3877952582,-3.66606404902,-3.52059773325,-3.60688720071,48.0389124075
off_to_on,0.631319575624,0.524007797931,-0.074361473446,-0.609081436324,0.0287335990068,-0.430340365825,0.833975900194,-0.879352788591,0.389487076386,0.319951213181,-1.34264679345,2.32282272883,1.70737168025,38.3736319173
off_to_on,1.49507841745,1.08238808876,0.264636462936,-0.0567907484404,1.01637559123,1.70087780639,5.34021585503,2.6033096572,-0.246958104605,0.687539274874,2.0396790829,1.4527445755,1.69540995617,-60.0840219326
off_to_on,-0.178376291261,-0.145673768612,0.168948240822,0.890334924132,0.96412383413,1.98329949712,0.558647287836,1.92710104904,-0.00398963492113,0.157760192536,2.44315789351,-0.659015238021,-0.659721657298,-87.7895993548
off_to_on,-2.6934540473,-1.87212479745,-0.491648275373,-0.137162115677,-2.5821347939,-3.83845242454,-7.10321678113,-4.42985762444,-0.177810382884,-1.23638510191,-3.61583054277,-2.74420743128,-2.50929110157,170.335672201
off_to_on,1.93388841146,1.22966413228,0.525630754076,-0.569199810568,1.07822089162,0.601816957617,1.93273725906,0.0924362804893,0.402012129752,0.725183284278,-0.296503013386,2.19796580221,2.29877167393,23.8861283897
off_to_on,1.43603444367,0.806113571654,-0.274512714317,-0.384236138792,1.26862807348,2.42261475501,5.72119803608,4.01745066249,-0.292808278223,0.332602364953,2.50839650576,1.13938364027,0.608770983392,-199.930431844
off_to_on,-2.09728081376,-0.662508708972,-0.209475169386,1.18870410072,-1.58478613565,-1.89489691251,-3.58972904954,-1.99255457693,0.200241945181,-0.346050291892,-0.476896029617,-2.10869593933,-2.16022924611,20.22817219
off_to_on,-0.0453780881811,-0.592678048261,0.196261832868,-0.355043027666,0.539756621875,0.607941277067,-1.87136851632,-1.48686194341,-0.312156434657,-0.182852688718,-0.997362265803,1.2208942074,1.76496976325,204.554345199
off_to_on,0.859753918872,0.214342251511,0.688174024725,-0.296160014069,0.202125093286,-0.122153104808,0.934031323615,1.22692103739,0.343999879505,0.251761122863,-0.44241085347,-0.861481819254,-0.645205930415,-32.9735166013
off_to_on,-0.307579495564,0.215345956189,-1.16266130852,-0.418161721438,-0.974383647433,-1.35681517954,0.710926103107,-0.268516084454,-0.300466394741,-0.315505894478,0.81635560182,-0.780943171901,-1.42882728653,-228.528947606
off_to_on,1.24888970642,1.34843074548,0.236647948051,0.697484476576,2.21597967939,3.35490035088,3.391643701,1.93039847387,0.390776644836,0.904042221692,2.21840921003,3.93421593697,3.50351517535,62.9940276551
off_to_on,-2.2554611579,-2.09592030119,0.590358129951,0.0935436463115,-2.14438078448,-2.55516161933,-5.03996496798,-2.46651297758,-0.434066779266,-1.08670728144,-3.9960019771,-3.58535053824,-2.5563175494,229.162669826
off_to_on,0.191777530066,-0.321066440014,0.248360148019,0.0457709748785,-0.508083792399,-1.25456401905,-1.78298296376,-1.00822724588,0.296656142742,0.128106801095,0.262889883586,-1.35799594035,-1.20984356774,-75.4018950748
off_to_on,2.14632939684,2.00447167943,-1.36023683225,-1.18432930462,2.48738414759,3.01119681362,5.63536566287,2.90775621926,-0.294935475956,0.595878570565,3.80633054962,3.51852086481,2.58147936922,-228.325684109
off_to_on,0.0417362261805,0.668295976956,0.840664801889,0.858018284755,0.346979878471,1.05462837545,2.38128894323,1.6050738205,0.486893400183,0.458103083067,-0.451249344763,1.2806601499,1.22226799065,70.387222204
off_to_on,-3.58407038328,-3.44555808474,0.243577122087,0.667012483728,-4.52830537032,-5.63435150391,-8.84575914574,-5.48691645046,-0.485601905478,-1.7981823351,-5.61833131165,-5.27471858809,-4.52071212558,252.787880908
off_to_on,1.40119773022,0.898138486238,-0.0148737052286,-0.364345173431,1.93415539342,1.61677151804,-0.503775748768,-0.11618127549,0.328845493702,0.691371358683,2.26163652774,0.359297493359,0.543154835504,-100.994351232
off_to_on,3.96922111523,3.26630521047,-0.810296744146,-1.49360044103,5.3679634515,7.521901259,12.3614902185,7.93998381932,-0.408871773683,1.66067957971,7.25397593317,6.93406083823,6.11112744767,-226.046973708
off_to_on,-2.90622247677,-1.67615677826,0.706475936484,1.44798549143,-4.92640387054,-6.40409098664,-5.0672242836,-3.38400466686,0.553799917734,-1.04767958511,-5.57802460568,-3.87749214057,-3.90218631651,68.7563300375
off_to_on,-3.99008884438,-3.52285432301,-0.166403757833,0.472174035285,-4.70472083556,-6.43453190871,-12.2523995702,-8.80995439679,-0.411920263724,-2.31467861735,-7.43356365906,-6.63264520893,-5.99516311835,267.337808345
off_to_on,5.31916453936,3.61138147531,0.216456034541,-0.680405778973,8.20873665783,11.1098360209,11.6895590466,8.757454935,0.335364836147,2.98632396903,10.0014293543,8.24864259943,8.17472831826,-111.195899839
off_to_on,0.992470669364,1.37441637284,-0.487300196219,-1.06523825592,0.473086974036,0.627296345635,5.36653397551,3.99160878894,-0.623249132847,0.37860674909,3.12763469093,1.60400204892,1.44225289305,-222.844946076
off_to_on,-3.40674535377,-2.47229728883,0.482883702402,1.34957226593,-6.03739924816,-8.43646836388,-9.79020577852,-7.63487048423,0.704852299096,-1.97097386086,-8.56644019725,-5.97337059406,-6.41656206323,57.8128693178
off_to_on,-1.8404385902,-1.91609683036,-0.45914708728,0.1567198318,-0.565227807678,-0.543564693602,-3.44259967172,-2.9021104412,-0.297238227314,-0.892365376145,-3.0733157515,-1.90957731955,-1.59895534483,280.405600742
off_to_on,3.68343769058,3.20251671516,0.385622947993,-0.308577323835,5.49977217095,7.57897577396,7.86169372385,6.82166988765,0.17752458373,2.67352077428,8.78538675196,6.09156750428,6.87075298842,-111.470120632
off_to_on,1.95717634245,1.01030991972,-0.223558378591,-1.13606007108,0.66340530006,1.13079506273,3.44531498539,2.59641086052,-0.662004422956,-0.0187020221694,2.58171931112,1.9568679859,1.05405677592,-226.626060537
off_to_on,-3.81440792905,-2.49202639574,0.623661359716,1.24259768526,-4.88039325118,-7.43240311686,-6.55203000555,-5.81332979819,0.832312573139,-1.8922135975,-8.48097781074,-6.67435845182,-7.06676430515,51.745353751
off_to_on,-2.32395286094,-1.45575891233,-1.2823905578,0.133454557188,-1.39608969201,-1.70780822417,-4.17924602695,-3.3283618528,-0.306866869183,-0.509706476442,-2.51222297505,-1.33724010194,-0.25441021499,286.941821666
off_to_on,4.78068600534,2.96302370063,0.62797643269,-0.253128274282,5.12049406869,7.59794929823,5.91531798704,5.81481307364,0.0438664848162,2.39961395602,8.23503362871,6.75865067013,6.62301516848,-106.548757027
off_to_on,0.900335927592,0.510474583035,0.835547546278,-0.9706733053,0.880431063838,1.38409543208,4.11852334389,2.81526888855,-0.484325430948,-0.364996595791,1.7965380849,-0.0788355883934,-0.962277040599,-234.597886347
off_to_on,-3.0588192209,-1.43704280344,-0.341298954669,1.02998680081,-3.16345088635,-5.4760403172,-2.7297653938,-3.36784210217,0.743966335276,-1.06234610698,-5.60707317616,-3.80914851648,-3.33780101453,53.7212773693
off_to_on,-2.55000283573,-2.03274239345,-1.86549900612,0.118672753454,-3.59531277471,-4.91489310789,-9.12504334798,-6.2128775025,-0.386286656856,-1.01492042769,-5.15116431323,-3.28295950366,-2.61224870866,284.44212466
off_to_on,4.32572664862,2.37163618773,1.87325619272,-0.196586221431,4.88143226544,8.07635872403,5.8372797445,5.41454096982,0.153339559685,2.04569097271,7.62215766694,5.81584826724,4.93154690285,-98.3310485879
off_to_on,1.55173614169,1.44687720156,0.873520968183,-0.856017138043,3.09401917457,4.12040472493,9.19472325592,6.08559978849,-0.394024152793,0.379837497113,4.71786335308,3.00766816872,2.81296441992,-243.404006848
off_to_on,-3.66700337273,-1.66088041801,-1.76073048458,1.01240871843,-4.69550279985,-8.25866901894,-7.50856677669,-6.25058169304,0.516732963264,-1.53227737857,-7.90343331187,-6.3680113039,-5.21070200474,61.0180812384
off_to_on,-1.30619408073,-2.06395820796,-0.966716585543,-0.122967436148,-2.86496646352,-3.00613740581,-7.1820552037,-4.89169850236,-0.319174827123,-0.781214869924,-3.77145957493,-2.04714102549,-2.66173325604,275.60665262
off_to_on,2.68444875366,1.82546187982,2.81340875364,-0.12050439171,3.7357173826,6.2693142165,5.94315236655,5.50226072508,0.273138663388,1.91714314484,6.69616869429,5.19084792985,4.501986641,-89.1729224666
off_to_on,1.61951368067,1.97178601944,-0.874372762347,-0.507917662481,3.32454539113,3.81445885175,6.76768187201,3.80115818897,-0.420371874783,0.0931362798177,3.54959673935,2.37019650315,3.1338403676,-251.4002023
off_to_on,-1.48622694021,-1.24230458134,-1.41139762615,0.690316650899,-2.44041063045,-4.3171424477,-3.29922391708,-2.86794947506,0.374286898648,-0.946090770382,-4.67497715737,-3.92344935788,-3.614093315,71.3881766492
off_to_on,-3.49403777914,-3.0127554953,0.681404487667,-0.187146107498,-5.60334662695,-6.85229206912,-9.51049119872,-5.79342956176,-0.229975856071,-0.94216282876,-5.47193025128,-4.53710681648,-4.87144136973,263.369893638
off_to_on,3.1052492064,2.4975723115,1.17706014195,-0.000904625312879,4.37348434117,6.33307163657,5.10055117673,3.71399991809,0.300653417576,1.69690049998,5.7563501156,6.44250829153,5.59563625308,-80.8335731612
off_to_on,2.06529975527,1.70414223405,-1.32041670491,-0.365749288373,4.09184529649,5.38293689021,7.25875012248,4.3941074773,-0.385519815527,-0.163335536517,3.81327330392,1.57580715913,2.23393532341,-257.724375109
off_to_on,-2.03368095593,-1.6216141801,0.261743663636,0.519993119515,-3.29111562725,-4.84683568254,-2.58303532769,-1.8281601957,0.249854380342,-0.422794178661,-3.64609574732,-4.37151919388,-3.20452062447,82.5808598169
off_to_on,-2.06558994723,-1.76509426063,0.382573407652,-0.187642817524,-4.06257398547,-5.52045610316,-7.33942075499,-4.52259951912,-0.173677051857,-0.422953460227,-4.11391549727,-0.708076367532,-2.01249368209,250.804457449
off_to_on,1.31523677684,1.48089458466,-0.332010955675,-0.0217497112577,2.45373005021,3.29282520533,-0.208656842873,0.0223179637459,0.29354185452,0.145986033121,1.93636245537,1.53744709416,0.525794484246,-74.549026456
off_to_on,2.23691628735,1.30502292428,-0.228902313151,-0.270313708281,4.44336180733,6.8735195037,10.0599999138,5.93459773696,-0.255248206087,0.701252104504,5.42361809634,2.15518416655,3.91331241285,-262.409966201
off_to_on,-0.884919623113,-0.826954061941,0.843873033215,0.56719497916,-2.38412207806,-3.70548140176,-0.684648006812,-0.0964170932414,0.0416838896689,0.197207987462,-1.96007031879,-0.849777771038,-0.0945888821596,93.2090600359
off_to_on,-2.32587392505,-1.38000789643,-0.534393449219,-0.294172437688,-4.16116669876,-6.4556905692,-10.4868469854,-6.49854174249,-0.114146935345,-1.38984127255,-5.60236925809,-2.73677391704,-4.97280218547,240.055539231
off_to_on,0.936854840991,0.799639470007,-0.401312965104,-0.20641942132,2.59416583821,4.02913402799,2.6430299353,1.66054773941,0.387271008699,0.457820117829,2.6421137844,0.828005293469,0.724297482655,-70.1599073328
off_to_on,1.17198995441,0.64385133931,0.278918490162,0.158658912686,2.19102424947,3.77672032147,7.01986049479,3.69778787826,-0.250530060888,0.755852555021,3.36780845432,1.42067738121,3.7336798762,-267.799248284
off_to_on,0.887072410344,0.244844406105,0.757107884375,0.304231068981,-0.147792519606,-0.593302677477,-0.34846077036,0.244407032105,-0.171870611775,0.0910278460183,-0.239642204348,1.95556602238,1.26169191822,102.709669178
off_to_on,-2.08831637247,-1.03251262751,-0.664240265621,-0.339096811919,-2.90136745212,-4.83095312796,-6.34260127335,-3.1426409505,0.0989509756068,-0.987588169183,-3.83382938338,-3.28145068963,-5.00367072814,241.094917903
off_to_on,-1.17957793443,-0.322593858369,-0.454049439857,-0.0206253820406,-0.50841795702,-0.46599060243,-0.83474479049,-1.37604792483,0.40847659828,-0.0647377008059,-0.455384559064,-2.17071770385,-1.21994144659,-83.3811886395
off_to_on,2.76651688003,0.948470566562,0.454374846707,-0.054712364568,3.36273875508,5.77468959999,6.08359149974,3.10724353415,-0.426992003943,0.845472131584,3.99209690099,4.60501858338,5.61040977126,-279.567522784
off_to_on,0.280333924066,0.233004563682,0.450380347874,0.406745868383,-0.166413001133,-0.64655785158,-0.0127340506901,0.962665320985,-0.16564845061,0.186975731964,-0.0432662341097,0.296354101609,-0.220633648569,168.782940571
off_to_on,-1.56338894816,-0.191112782057,-0.212557846154,-0.0847349515389,-1.69951211058,-3.51626689797,-2.65541829386,-1.05576286567,0.417694658655,-0.534490658851,-1.95581138114,-2.24676386366,-3.27324685661,168.773437423
off_to_on,-0.918769015295,-1.03735783853,-0.634530304726,-0.5543595068,-0.968524343272,-0.785794119577,-2.15665663971,-2.25755025625,0.0336094866911,-0.777875725763,-1.70936908768,-1.75136800412,-1.31340132678,-93.9101686269
off_to_on,0.89574845404,0.13125971585,0.184474008296,0.258638599164,0.782463513979,2.2066528101,0.636423650577,-0.384446600388,-0.364518020147,0.697663445767,1.19468852469,1.25044699416,2.48682224136,-187.996936379
off_to_on,2.20488735435,1.84876582339,0.538280453102,0.541491640328,2.67601948875,3.00212016267,5.56029984623,4.65938903222,0.0212038568423,1.37245046543,3.99176451629,4.51241496781,3.4781436409,109.554935623
off_to_on,-1.78015009142,-0.919040999481,0.341739586323,-0.270537610349,-1.51783980329,-3.16069577079,-2.38947366848,-0.836373025542,0.407045433732,-1.5573357245,-2.78863366751,-3.73704070206,-4.31249000114,143.337927673
off_to_on,-1.86733903676,-1.62508602316,-1.26820635469,-0.712116521899,-2.52740774526,-2.32163583178,-4.55940329767,-4.30097700211,-0.282393937094,-1.0384919117,-3.38216920734,-3.46075123728,-2.41305119086,-88.8566446181
off_to_on,1.95535495651,1.42849171074,0.130439861226,0.609550717253,1.28025861813,1.98895688981,1.75587869617,0.984673023544,-0.0683711329116,2.10576475894,2.79809160868,4.35668839259,4.22841319451,-97.1241421
off_to_on,0.9826349036,0.680636968253,1.27090145808,0.377086537545,2.06420734462,1.96950746735,2.8202202503,2.85889046818,0.036351911155,0.0035351877787,2.20147725366,1.44464719531,0.889392315045,42.5617044241
off_to_on,-0.725179882355,-0.806129713891,-0.418031490706,-0.403917287394,0.238710411643,0.76240508253,1.80634890691,1.23245078703,0.266518642404,-1.36719670564,-0.63719992511,-2.19867777236,-1.82229954169,64.8622677957
off_to_on,-1.92063321626,-0.741073459962,-1.25318132622,-0.472666186653,-3.61422527892,-4.75424795293,-4.8783121351,-4.23915490505,-0.328991743085,-0.20344167826,-3.86267029818,-2.62442556649,-2.44213187963,20.9291134432
off_to_on,1.52215834265,1.14877480496,1.08264524777,0.544236666067,0.904081883603,0.464259633091,-1.56258729571,-0.581374012094,0.131006794635,1.66804892963,1.36515647908,3.13142625064,2.48796003641,-72.5611210451
off_to_on,1.04305983923,-0.409993421034,0.364881860624,0.120427252018,2.58205286467,4.24029164573,4.18035975075,3.51202076274,-0.0789981344735,-0.657175043975,3.26835890799,1.09570490882,1.55687960659,-29.1155186103
off_to_on,-1.38928777306,-0.171129947768,-0.865166893888,0.0341295026198,-0.818090823682,-0.734854537988,1.86473248447,0.247212212015,0.261152085742,-0.888377837757,-1.2726213326,-2.63754106385,-2.12211294345,-2.76718916254
off_to_on,0.111970317715,0.641495985851,-0.0609031553766,-0.803181738283,-0.895313164064,-2.10727946733,-1.68044270568,-1.3012506368,-0.356646523875,0.715216843851,-1.8666855244,1.1830469966,0.0465834059892,158.483388422
off_to_on,0.179646495509,-0.601689278637,1.26390111713,0.65593421213,-0.932576314716,-1.714322846,-5.13343052855,-1.89390454917,0.246731233199,0.490839425815,-0.487301221434,-0.456774479441,-0.137469698826,-57.2752139814
off_to_on,-0.299732153138,-0.65821845122,-1.39047083005,0.160232779939,0.388132732099,1.91034024462,1.41756368238,-0.0317501001268,-0.186273979222,-1.04163157884,1.7876068671,-0.722615125328,0.208683797666,-192.20982171
off_to_on,1.12381876883,1.49889942776,-0.0258350760404,-0.125987551364,3.0338924555,4.25388182005,8.80374481965,4.67112737713,0.299156900842,0.590301390509,2.28035290201,2.72774915704,1.88694796341,96.6456169545
off_to_on,-1.1235155292,-0.387288045713,1.27743418441,-0.624132431698,-1.88405003329,-4.12360596254,-4.84334052665,-1.55183147933,-0.377920144022,0.00103630832129,-3.5103254612,-1.82113117263,-2.13863391147,195.354896696
off_to_on,0.285603647774,-0.484768016558,-0.0869749685415,0.72780331788,-2.21933646406,-2.90610886301,-7.22653147426,-3.92112063956,0.310808568653,0.161043707878,-0.941805865856,-0.786014768153,-0.0568033305506,-110.857583506
off_to_on,-0.342818858529,-0.711947904348,-2.1451270402,-0.170120052232,0.550119117351,2.4838713796,4.11483601863,0.0745734832596,-0.273554415473,-0.836729213748,1.72155323328,-0.201606534477,-0.12120644517,-194.118968818
off_to_on,0.746115326915,1.33569167638,1.56919985476,0.0129444472636,3.69605972002,4.50041186779,8.01244965825,5.70948187983,0.350552430548,0.803260469723,2.82146837071,2.45786969503,1.74279804612,113.29045759
off_to_on,-0.0286344459725,0.33782051524,1.26029034451,-0.364785161967,-1.02650218331,-2.9795347616,-5.08172870998,-0.834869738823,-0.378300008568,0.109219520261,-2.50899681954,0.0241330108005,0.217045706677,197.299061761
off_to_on,-0.684769550347,-1.01563069805,-1.49029416159,0.53566474107,-4.06125883166,-4.89767139205,-7.77462218529,-6.29638812956,0.312352885602,-0.433708331811,-3.40189956643,-3.63259442613,-2.98940792827,-135.37496368
off_to_on,0.174932248518,-0.970953008773,-1.43839475157,-0.431181152868,1.53918816121,3.97818281573,7.23363645268,2.29927914247,-0.341260653612,-0.365051464842,3.80792741953,1.37791593076,0.896809661622,-143.77321212
off_to_on,0.38476625003,1.75133713628,2.441326577,0.409218369473,3.60303683655,3.22629038575,4.27535065607,5.21285541989,0.485387564325,0.877654925153,2.51767979216,3.01433067091,2.58484485415,76.4413077619
off_to_on,-0.529580568397,0.339136337404,0.0234541459686,-0.435301674483,-1.77651682837,-3.25435653947,-7.23236186874,-3.55685632662,-0.491798043127,-0.476299070208,-4.80936051356,-2.38587714124,-1.74615590393,172.055920351
off_to_on,1.31275279809,-1.02712586375,-1.39660133478,0.285824814446,-1.78603137463,-0.760016034387,1.31748143579,-1.50294701466,0.302250086596,0.320764491215,0.607285100864,-0.352627693159,-0.255154969228,-96.1508244321
off_to_on,-1.80117007808,-1.37263362558,-0.283457136285,-0.108253540263,-0.97643103761,-1.27463980723,1.16357071796,0.335589000471,-0.231584201914,-0.71890636495,1.72528530607,-0.458663271354,-0.822878361666,-119.579122977
off_to_on,0.435003066454,2.34896632878,1.42599394813,0.245411093076,3.84948002592,3.72764506082,-0.0853701711978,2.10931368808,0.456030372929,0.598892801913,0.421253626266,2.11543320235,1.81386741291,36.571175992
off_to_on,0.843369354736,-0.0321760575391,-0.467085121083,-0.651778110541,-0.0351312789443,0.885063255006,0.391735334702,0.0139658809914,-0.664308575068,-0.0718874719692,-1.73148586007,-0.835766661486,-0.396488619274,138.648714933
off_to_on,0.114201756852,-1.2721125776,0.114717025166,0.770484481815,-3.28925168512,-3.91105123166,0.341169394791,-1.38087917397,0.511608273917,0.232883962271,0.574609399448,-0.661629771732,-0.20411885966,-40.1901811743
off_to_on,-0.980525640723,-0.384853680259,-0.8502926088,-0.302799373998,0.0117166387838,-0.965517442128,-1.67133212616,-0.728000971035,-0.192755027258,-0.5976136501,0.422009328062,0.562978819352,-0.178735105477,-102.642940978
off_to_on,-0.345660472813,1.3087814038,0.32977242595,-0.0660068562931,2.72204945402,3.33247023118,-1.40290806446,0.588362106995,0.201493593975,0.0880672540158,-1.00665897888,-1.31140371027,-1.48923386649,-2.8121395532
off_to_on,1.00690232133,0.0789560486239,0.595679075902,-0.406821731674,0.102988207605,1.92132637433,4.13199796718,1.65339226376,-0.56750707405,0.334736131479,1.29923014139,1.76037199277,2.34557581373,107.01074875
off_to_on,0.957245857952,-0.519975465873,0.678230455996,1.02544732733,-1.73158913934,-3.23934251844,1.18661704413,0.299942378988,0.740050540401,0.581034054819,0.593433385412,1.48721112017,1.54916036195,12.3592716637
off_to_on,-2.15080495319,-1.1339366766,-2.15749761068,-0.624285130913,-1.45324680642,-3.28969345971,-6.80902805074,-3.87780458638,-0.423883367144,-1.51552174893,-3.27073068735,-4.6704945762,-4.79219483647,-91.066492471
off_to_on,0.57346538941,1.77047679045,0.482168301321,-0.178217596854,3.03756279444,5.25654038358,2.28258097861,1.89607756548,0.115456814657,0.851565840889,2.37320473882,2.05277726873,1.52277660471,-27.9415757189
off_to_on,0.331324478388,-0.235817542936,1.74975691074,-0.103065686872,-0.487293634071,0.661090751846,3.80013603587,1.80167652218,-0.329342985507,0.14572471396,0.867237441787,2.18808187544,2.32724004918,73.7566449862
off_to_on,1.11262688933,-0.718467717945,-0.229449349522,0.960017467181,-0.626722048569,-2.38004575565,0.109000515418,0.144357122325,0.67840268837,0.266159772155,-0.878129638387,-0.818317041616,0.00264126615224,51.3395803404
off_to_on,-1.40851671344,-0.277689095285,-2.56569212257,-0.740104037043,-0.925001096061,-2.3241339116,-5.02209587844,-2.90186475796,-0.506763495456,-0.983048629596,-1.61549274359,-2.69102407939,-2.88406388623,-78.7261711308
off_to_on,-0.717304997809,1.17779292105,1.59920334747,-0.10982944246,0.439275598452,1.96195725047,-0.63564947802,-0.601842310775,0.106969052893,0.364994279344,0.866356865406,0.952538110005,-0.0814832174575,-36.6614903168
off_to_on,1.5743767743,-0.519260279261,1.4241366137,-0.105174466232,1.76011570145,3.99280279185,6.92683484494,4.1956400802,-0.227816241864,0.502020041936,2.31172727231,3.08731866647,3.20451435924,38.0971999812
off_to_on,0.197419331045,-0.4601199917,-1.32118934812,0.914980836293,-1.04741156081,-3.5005472962,-1.31922683728,-0.259591698408,0.636769207888,0.0137703645308,-1.69765322743,-2.1258330597,-0.498911750732,72.9975704549
off_to_on,-1.34875501108,0.325874378006,-1.33965467793,-0.648228718816,-1.66100408405,-3.65242142739,-6.58700625205,-4.63181274287,-0.512265836965,-0.939751750197,-2.20154722085,-1.85129702806,-2.57072917087,-60.0935988506
off_to_on,0.60516671739,0.562379563714,2.00731073402,-0.162405232243,1.9019902042,5.03243467425,3.25427131099,2.05955248309,0.051082086994,0.678326322482,2.79073245495,2.36363282709,0.721433066062,-35.3982391242
off_to_on,-0.347737564603,-1.08501886522,-0.187337260814,-0.0543300384367,-0.283669807621,0.814041238563,3.68519451146,2.36431879727,-0.135645630608,-0.00362442331417,0.259180295317,-0.461377720898,0.946690626605,4.10452947043
off_to_on,1.13877681913,0.886377825702,-0.903059069083,0.694957195061,0.243551313565,-2.64923719421,-1.04428750408,-0.369209996871,0.599080150425,0.330057087208,-0.708964021487,0.898290787918,1.75143219735,79.1668991795
off_to_on,-0.954986172481,-0.403199767566,0.20755955908,-0.438988405969,-1.19081730392,-2.05454811299,-5.40100861687,-3.50199755584,-0.522438509101,-0.923543883542,-2.14110028154,-2.28351870945,-3.47267043066,-37.3660456005
off_to_on,-0.298547878182,0.0352406728279,0.695778032289,0.0635744633412,0.63819493114,3.85968327832,2.99250220693,1.44944884385,0.041734058061,0.441665778438,2.18643047775,0.669156054459,0.212904801126,-28.0974529423
off_to_on,0.736346594403,0.176781300088,-0.842330914286,-0.519278983203,0.770020525209,0.662420544035,4.5232694738,3.01420905932,-0.0673802644246,0.41198368963,1.65784325118,2.17349884149,3.0154434497,-24.1763200384
off_to_on,-0.0938437447114,-0.14915428301,0.390121946786,0.642546242464,-0.964486376106,-3.97532141642,-4.79472816546,-2.32622687761,0.477791368185,-0.227609818461,-3.06193862504,-2.02517977684,-1.73149159343,73.1493676514
off_to_on,-0.418758373192,-0.233297609562,0.168978694539,0.204161187041,-0.038753238485,1.38461710065,-1.6254898212,-1.65616278354,-0.415270326185,-0.501247026092,-0.16611628954,-0.348048701321,-0.93940388766,-14.6995032333
off_to_on,0.385829969571,0.524119629876,-0.0477319759196,-0.304722116449,0.741634380358,2.24337455309,4.001431412,2.10933698772,0.0219456674749,0.420896063324,2.22180381273,1.2226605854,1.15775779112,-17.417198613
off_to_on,-0.0582044149692,-0.188845410108,-0.669414248544,-0.860120037845,-0.291693415787,-1.57651002925,0.00847443065073,0.706006421861,-0.0834141502788,0.145060416138,-0.176211806571,-0.254542095534,-0.113232912766,-43.7122648837
off_to_on,-0.109449252546,-0.153040927548,0.542972480387,0.989397100123,-0.368206118659,-1.01431039023,-2.16345155753,-0.951149919913,0.409027105162,0.07648012096,-0.952940973327,0.0916556229559,0.198190951321,58.4551191538
off_to_on,-0.702759844818,-0.443872383165,0.518292850958,0.55925878549,-0.638265892509,0.0459511764847,-1.51474438587,-2.2103546871,-0.287064701979,-0.843760303313,-1.68509784656,-1.49985172439,-1.2748194301,4.2680408733
off_to_on,1.92883385916,1.13745729126,-0.432380300578,-1.01915276744,2.5210419142,3.43691491794,4.46362606896,3.16638052949,-0.03408649477,0.789180007218,2.93203497235,2.18508969186,1.76312686031,-5.18636132094
off_to_on,-1.14320153218,-0.375258144041,-1.0032947972,-0.581653099765,-1.45861394156,-2.58375210801,-0.827541727811,0.673555843989,-0.082930355566,0.143974107142,0.492024474355,-0.345324622704,-0.481103841577,-54.4071490698
off_to_on,-1.62195883417,-0.926078358949,1.03922943276,1.29986496318,-2.47215824784,-3.24987412205,-4.51043606065,-3.95275702606,0.334024241341,-0.59321161424,-3.10411688694,-2.20591171238,-1.65836139184,43.5728646776
off_to_on,2.34702512686,0.492245460719,0.759403304436,0.154131705333,3.11318871489,5.08312729341,3.55469313156,1.56442350931,-0.158527184086,0.0709337295008,0.475111136303,2.04965237221,1.70704879561,5.29405486578
off_to_on,0.345121987963,0.965217541326,-1.13424532821,-0.91763757035,1.24043512562,0.855938326687,1.53275355724,2.56575094763,-0.0911674924917,0.343335696847,2.31717911303,0.46875473785,0.625861590139,23.682221206
off_to_on,-1.89747749731,-0.596691534522,-0.676469753611,-0.402300168737,-3.02670101448,-4.7306297616,-2.23782267968,-1.61908867166,-0.0659716957672,0.0363480518041,0.0501316215355,-1.11577246948,-1.08704797742,-61.9478890224
off_to_on,-0.213346825615,-1.16077701407,1.21986379552,1.03019181384,-1.18579772478,-0.219121537956,-1.28137346923,-2.16270640391,0.239233878746,-0.34156767972,-3.03522242857,-1.02226313901,-1.55873266208,-0.238808034002
off_to_on,1.55217796354,0.940586670753,0.484856463524,0.407811139976,3.17837694537,4.46790042012,1.12092737097,1.3105013435,-0.0293283112945,-0.204905284584,0.448286943393,1.24372978369,1.74108017648,66.3749439367
off_to_on,0.799413183814,1.22217429511,-1.02759436375,-1.11795811511,1.62022951516,0.587031287712,2.85909477728,2.90561076556,-0.14572664465,0.723338424009,3.86262897195,2.12435323576,2.58679737194,-19.349614536
off_to_on,-2.36194456854,-1.56804397156,-0.577141129864,-0.343031353979,-4.44514510323,-5.85269017146,-2.86620824243,-2.58787585507,-0.032370895669,-0.159658631114,-2.64323512385,-3.5271866086,-4.22190841575,-47.7618349168
off_to_on,-0.0426003984264,-0.495698908376,1.01472322613,1.20781667531,-0.339060982607,1.46054876713,-1.08707692925,-1.65671266984,0.131650572921,-0.630539916443,-1.83263915496,0.0139907595978,-0.497055107156,22.1068529665
off_to_on,2.00774398907,1.33205654737,0.585394335804,0.151551281878,4.00163756441,4.42890016248,1.39508017771,1.97105864086,0.0871809400165,0.257364485652,2.22589879893,2.80451636188,3.82283844419,27.5263689797
off_to_on,-0.29243710548,0.0474776508695,-0.993649568744,-1.21975059449,-0.306214426383,-1.79328897016,1.03193841502,1.05219831363,-0.192983190776,0.491225388696,0.660939369489,-1.05290310887,-0.737940093002,-9.91210768793
off_to_on,-1.00513677786,-0.534019030802,-0.557913773348,0.228014588647,-2.58718770047,-2.21251531183,1.32900579619,0.0885528515969,0.0240816634295,0.0770675169621,-0.408461653997,-0.487889998126,-1.69085192137,-38.1887356878
off_to_on,-0.863380907822,-0.636938717327,0.97898799745,0.82543255122,-1.16001584325,-1.05329282338,-5.24902926158,-3.53355068794,0.0035082298752,-1.14723842051,-2.32710324593,-1.3632079523,-1.24592448871,51.2844649937
off_to_on,1.75349036989,0.7070435952,0.467341332543,-0.272506055349,3.49073598939,3.94153722595,1.07951321179,0.97653682151,0.190826641849,0.572007607826,1.36630086701,1.68727090089,2.57511260979,-14.649622897
off_to_on,0.604554080718,0.543634541605,-1.02950837611,-0.568968191286,0.948609543169,1.12385560682,6.576725623,4.4871519793,-0.2089350406,0.915937846921,2.4622786745,1.67433241582,1.46687626383,-45.8889573784
off_to_on,-1.85459090026,-0.364533161865,0.0655086207528,0.529769170666,-3.92823812683,-5.17738547249,-4.16803621556,-2.5301749252,0.0506068336324,-0.663608912396,-2.25545224643,-2.60048378716,-3.07645390589,48.8958726868
off_to_on,-0.118434587303,-0.940340173138,0.208424870701,-0.328292921846,0.0283202030626,0.353023250308,-5.39749802484,-3.98992390435,-0.108414502455,-0.895199874772,-1.84339346807,-0.93880504455,-1.11160703245,38.3550123136
off_to_on,1.18151745085,0.431850925619,0.510759251559,0.245626951747,3.07666014985,4.13530079908,5.63291308355,3.08104972712,0.32257430062,0.806198309481,2.34780906664,1.8783880289,2.55224942465,-61.1547749189
off_to_on,0.334483111239,1.1214059048,-0.50418107721,0.20226909005,-0.1491459989,-0.213461681132,4.32648469057,3.55850216574,-0.293056377046,0.783211824721,1.74518914089,1.85241863682,1.88639414286,-87.787228507
off_to_on,-0.511124728856,-0.31787727209,-0.0245098711472,-0.27602824117,-2.12155027848,-3.35575188026,-6.99994729924,-3.06015705302,0.0966198768297,-0.69117620563,-2.64391159527,-2.21532307742,-2.87449899543,171.948009508
off_to_on,-1.67945914833,-1.94691620799,-0.303757308979,-0.718545673573,-0.868910281997,-1.13416041438,-3.25703411594,-4.37485221272,-0.134623084785,-1.28665224332,-2.17961969889,-3.30651322495,-2.95169341555,23.7258227568
off_to_on,2.12159915675,1.67850362716,0.729917820041,1.1898256302,3.31806359865,5.20301023628,10.0574533152,5.49917259142,0.361998975004,1.8012747073,5.00481232184,5.58861221643,5.57300161886,-202.330634326
off_to_on,0.201246191606,0.763708576939,-0.0219223599101,0.0833266003823,-1.04795809481,-1.15563363457,-2.34141343985,1.69285905845,-0.405554303668,0.0130471044431,-1.08895763377,-0.182199322588,-0.17274043418,21.4936013575
off_to_on,-1.39703686052,-1.2828900937,-0.539966367663,-1.00361220123,-1.57844562086,-3.51328368837,-7.8298392589,-4.90140205614,0.241832842557,-1.15697252453,-3.44279219425,-4.53346417216,-4.2941374324,206.164045153
off_to_on,0.138776039822,-0.611739758397,-0.387092448581,-0.307025164662,1.07474548801,1.35809913227,5.63819140202,-0.0144602878225,-0.16773121337,0.146833420055,2.27428153082,2.11344916166,1.74393776983,-33.5284133543
off_to_on,0.769514013993,1.47104916299,1.2422664975,1.68397226314,0.199679903976,1.88764896892,3.55333478921,3.27085095459,0.28250410584,0.991058139317,1.37896809613,2.14960844165,1.86507422592,-231.124977033
off_to_on,-0.255462502443,-0.238099956257,-0.452818297815,-0.703375642584,-0.415372814681,-0.200809650277,-5.02739986507,-0.0985217266358,-0.413985606097,-0.747863074617,-1.67940601694,-2.007055224,-1.22761691084,64.6339542749
off_to_on,-0.108660790501,-0.661226492886,-0.469660804089,-0.797476916073,0.463941251597,-1.81942163868,-1.35249595166,-2.24090121176,0.41606467753,0.079466290814,-0.366932267724,-0.491458198654,-0.511149024352,230.830040928
off_to_on,-0.105093830157,-0.0212136419067,-0.154959645591,0.192360359836,-0.348255229241,-0.335633159455,3.18171021075,-0.614789950549,-0.314887300715,0.02725293636,0.424784131163,1.05233102212,0.137589317131,-76.2033555943
off_to_on,0.477862572164,0.983978999124,1.04078274638,1.17479761896,0.132913286925,2.7897193715,2.52730179844,3.1978189733,0.257861207411,0.270589824312,1.43070032966,0.492024838837,0.921484607035,-230.845041847
off_to_on,-1.3836617936,-1.10002533458,-0.600425505979,-0.85132040673,-1.24407008023,-2.03662500535,-5.28017589234,-1.53248323189,-0.352165305438,-0.752294183457,-1.9994055527,-2.35014197882,-1.533555271,72.0071922374
off_to_on,1.9934094484,0.589808859549,-0.0932075070634,-0.251691315122,2.46240735704,0.588671836349,0.43637467438,-0.648589325226,0.489853442558,1.07602216781,0.687534626437,2.93517292369,1.91734174515,254.550194721
off_to_on,-0.546171153097,-0.129843560898,-0.324249597067,0.0667069034078,-0.664408000289,-0.271673576088,3.06093983753,0.118100948944,-0.466809421967,-0.566558010018,0.338228518999,-1.04964115023,-1.09117711687,-101.902336451
off_to_on,-1.53446884989,0.176749627333,0.862427507572,0.847289876572,-2.14438851035,-0.423003953362,0.104173142696,0.706448607357,0.321728775914,-0.358982904722,-0.0298036677172,-1.85297198873,-0.822349482647,-228.446788598
off_to_on,1.00727272163,-0.429532725505,-0.349867890421,-0.912770075524,1.06107491054,1.22882910024,-2.14950836722,0.374130664512,-0.297486658547,0.279855696154,-0.378869129082,2.3134219934,1.39196491929,70.2388144216
off_to_on,1.13256582299,0.111327447589,-0.206288637331,0.343095553764,1.95615519244,-0.442502256006,-1.71232320323,-1.25075037867,0.428016255442,0.659914069651,-0.300273541606,-0.272467298374,-0.393900933646,269.14988291
off_to_on,-1.13725243991,0.403537258643,-0.326956822633,-0.0638010564804,-1.06531453107,-0.71931807345,3.4552914001,-0.068991936891,-0.496123276819,-0.739419486497,1.19321584459,-0.85731254735,0.112577465217,-112.100487859
off_to_on,-0.455131449554,0.191253969385,0.983677529729,0.121959914611,-1.80599008388,0.510948283041,1.55087003199,1.79212055015,0.426680150496,-0.0586837121522,-0.418766701407,0.502323183973,-0.100345801657,-225.128533094
off_to_on,0.0725229118207,-1.44006653252,-0.562773565051,-0.400385493467,0.342262289128,-0.418520722767,-4.79356102818,-1.66594595725,-0.367804255891,-0.125040331268,-1.88264515151,-1.15872870952,-1.62487611282,59.1196689165
off_to_on,1.75763610508,1.31086977739,-0.161224878308,0.841742076759,3.35224462797,1.59082936674,1.26765429371,0.626097538789,0.384072764151,1.2833057167,3.00380063803,2.35598382014,3.03042067756,282.245400379
off_to_on,-1.52790515373,0.128266124766,-0.0566522012142,-0.790785122802,-2.35450361928,-1.93851553456,1.20552597495,-0.539316282341,-0.402180079364,-1.22594553313,-1.35025940772,-1.3044083579,-1.14639964561,-112.319516267
off_to_on,-0.359950015487,-0.541717935566,0.7460557027,0.0227685136731,-1.58978245765,0.509803500562,1.44363953672,0.812460984468,0.413547986161,-0.230995494644,-0.945905184705,-0.945731742111,-1.49254347695,-228.857934739
off_to_on,0.521765214077,-0.569693224468,-0.729247814686,0.331964749451,1.44811566234,0.45630725662,-1.80556842046,-0.0574352017254,-0.446248422952,0.60851870744,1.07456143715,0.835480589275,0.829923817768,52.9778983516
off_to_on,0.887279517542,1.17615085221,0.164787419089,0.375543408254,1.63268077743,-0.208135352145,-2.38766846296,-0.895115819976,0.436975388788,0.720801923651,0.356716888046,1.03177397537,1.37280903976,288.727304306
off_to_on,-0.718627034988,-0.434651563,-0.0544395405037,-1.01504945577,-1.22980650841,0.508741300006,2.90779801787,0.589604562677,-0.352704180834,-1.27823748818,-0.747526352025,-0.916350999148,-1.00110481585,-107.327630064
off_to_on,-1.01636134522,-0.31487133425,0.478302863446,0.68678096222,-1.65605954193,-1.04575834896,1.74710105398,0.303562150171,0.295325564144,-0.00404636482056,-0.238183254943,-1.22824189498,-1.09827200942,-236.811718262
off_to_on,1.02590789823,0.208312824022,-0.677094964135,-0.118134812901,1.10997040781,-0.135524494561,-2.97289659038,-0.616617513881,-0.336091423504,0.83149291292,0.527293224318,1.66924051545,1.26593661288,54.9868760726
off_to_on,1.34401157238,0.329657112405,0.426342952433,-0.0094037924013,2.10475338086,1.89803753585,-0.440922109172,0.917119092632,0.404200637132,0.311169358199,0.786571078011,0.807849434371,0.747378931596,286.092492242
off_to_on,-2.69021377814,-0.867732218129,-0.158909895628,-0.023277634681,-2.55317992797,-1.72663933023,0.535019556266,-1.53561834834,-0.405371060623,-1.55097357961,-2.02025340578,-3.12466017979,-2.32589586423,-99.0447278532
off_to_on,0.975161386613,1.03808083141,0.0621358873735,0.215743070244,0.277388063296,0.642882067447,2.86568442115,1.11468650966,0.318507583085,0.988004418303,1.40017520839,2.56028299325,2.075867887,-245.604645327
off_to_on,1.19623510901,-0.486758522393,-0.0801506022959,-0.73950700759,0.517154327425,-0.724360392988,-2.19934721883,0.403409555575,-0.208325034631,0.259099564419,0.288278363057,-0.107814560939,-0.596959680366,62.3800859693
off_to_on,-0.711576214361,-0.150004538968,0.369951306528,0.807821301964,0.436499392918,0.650271886846,-1.77015847549,-0.719914078319,0.210070474195,-0.295897973802,-0.62380694333,-1.3452949671,-0.702462298068,277.08993119
off_to_on,-1.14800249367,-0.0291347588491,-0.756205294471,0.0176663158008,-0.420611962033,0.855795694534,1.8034306046,-0.582617160408,-0.350567572832,-0.507059105335,-0.757547140968,0.72672299374,0.717358032807,-89.8514655217
off_to_on,1.01380258503,0.397392943355,0.480216382786,-0.394898759213,-0.437049461525,-1.35084642325,0.937821458786,0.777841954962,0.408493259441,0.619451048429,1.07107997429,0.222688356639,-0.0547628718214,-253.578647657
off_to_on,0.833687872253,-0.0243819141981,0.38049291056,-0.522848290661,0.342269616185,-0.371876096123,-0.244467917363,0.893997132814,-0.235444862182,0.00652733939363,1.13114583108,0.16395020129,0.240116179943,72.8715940574
off_to_on,-1.09109255275,-0.213761725179,-0.423974201527,1.14214831886,0.200044644892,0.978562566447,-2.00432003897,-1.45364001549,0.088369084085,-0.179031477052,-2.45146460579,-0.779279368371,-0.735055708467,264.699510003
off_to_on,-0.696946808585,-0.531385733156,-0.73086017819,-0.254495505001,-0.0811437389875,0.791113448372,0.439526081114,-0.498349042964,-0.224259430186,-0.39984256042,-0.368088597662,-0.248135460097,-0.302226496651,-81.521912076
off_to_on,1.60662861871,0.951195451045,1.25527313673,-0.576682904679,0.278892251855,-0.676372350969,2.86294428428,2.43624021775,0.390546791801,0.798119656721,3.93486975298,1.97797153907,2.01603514666,-259.866428812
off_to_on,-0.771952816121,-0.163197715812,-0.0878269869852,-0.0200042801165,-1.47530714044,-2.77272546143,-3.36667589438,-2.28394717353,-0.260598171551,-0.509611786451,-2.72797272389,-2.02355902908,-1.83275024683,84.1782605683
off_to_on,0.240285695556,-0.259664531402,-0.923667597782,0.707189118361,1.82414636709,3.8067367854,1.59253751577,0.601237421753,0.0659645860938,0.103868382545,-1.48536671931,0.464028389404,0.106318432888,252.03015847
off_to_on,-0.31914235582,-0.449441247434,0.092017556089,-0.28819413064,-0.0101326234694,0.607657894102,1.16972762656,1.56973807837,-0.158490696826,0.000387206926342,2.35525441161,0.769630540371,0.810279229749,-75.2974306666
off_to_on,-0.420397790796,0.55659173415,1.14078257852,-0.100798643664,-1.82025575978,-4.12412061354,-4.11174694316,-2.61962397443,0.320902084364,-0.0923367303104,0.370266196819,-0.978294349018,-0.670638597923,-264.503906073
off_to_on,0.982091710292,0.338061383873,-0.803643927169,-0.264867370398,1.06170184717,1.30303132026,2.61466570319,0.404017632283,-0.205052857693,0.13119561721,-1.46819996203,0.429628169432,0.275614480595,94.894234453
off_to_on,0.236256973921,-0.293447229245,-0.332307384029,0.244291657174,0.987888672684,2.73633624663,3.90181203937,3.00072134523,0.0241628638819,0.278444961562,-0.0953869315532,0.531021336603,0.515699743582,241.238330587
off_to_on,-1.03618353994,-0.569870400919,0.550123813684,0.284609024436,-0.963690188014,-1.17188520577,-4.8463435352,-1.751816273,-0.105651519267,-0.525217458383,0.990216490439,-0.379895730776,-0.546810892512,-70.9670010632
off_to_on,-0.606775922531,0.0927093140615,0.00607324929943,0.0746921379051,-0.91910111631,-2.53910224046,-3.97778566033,-3.26721699611,0.234640968849,-0.27121507323,-0.645539724378,-1.50615187766,-1.43335955771,-270.008652359
off_to_on,1.31308770428,0.861053186825,-0.391456889051,-0.868744215764,0.943992833308,1.13198544586,7.32514586692,3.06293340213,-0.117367549975,0.946531577354,0.305649787121,1.58044363247,1.97565623826,104.810554547
off_to_on,1.49541486695,0.277314307928,0.481429280562,0.218984319639,1.5563542066,3.20039322944,3.8167922849,3.70573646243,-0.0256881409939,0.273075932489,1.10127370029,2.53155522952,2.21536591729,241.881303631
off_to_on,-3.05808071773,-1.81330408707,-0.193413802761,1.02376466197,-2.37914885702,-2.8253966511,-11.2290782154,-5.71608439046,-0.056733050786,-1.89931649517,-3.02985067584,-5.0878884248,-5.36826167332,-84.2073164403
off_to_on,-0.419914003529,0.384768694757,-0.554778794435,-0.385237096123,-0.358374036686,-1.49300531556,0.155873227522,-1.53688597264,0.136456120541,0.869014235063,1.49739429004,0.332370785031,0.634101486554,-281.284530982
off_to_on,3.35559452334,1.89136975538,0.71694685119,-1.14720491971,2.35212821531,2.28439100054,11.2090612637,6.13452244977,-0.0102942889338,1.70238368174,2.79413803139,5.42814757511,5.56294409524,170.193653826
off_to_on,-0.472904618173,-0.844296457455,0.399166483595,0.560474186324,-0.449374643162,0.846242365893,-3.3968398534,-0.584563896375,-0.0845126476224,-1.68183704691,-3.22941164547,-2.8203281194,-2.8064455576,170.132459748
off_to_on,-2.76382075047,-1.50017546081,-1.11610031222,1.21692543255,-1.54324605013,-0.989202398284,-8.13340537819,-4.4107690178,-0.00641257247872,-0.799631383658,-0.857222092933,-3.35479385111,-3.74245492722,-95.128514691
off_to_on,0.186947563085,0.597454523327,-0.0416259121372,-0.755732511054,-0.216252290076,-2.61013185159,2.34369608526,0.00951653090243,0.0383743947167,1.40296762077,2.10310411791,1.94251965953,1.98154950723,-189.387741496
off_to_on,3.1602046959,1.73686111138,1.22297545804,-1.18759674167,2.3205700564,2.82363615429,7.99537686732,4.50826082659,0.0960370432142,0.546276934143,1.08874219615,3.81785655944,4.17972891102,110.793332684
off_to_on,-0.712508543677,-0.919201827304,-0.325163089808,0.851169073692,-0.382356788937,1.94188826465,-2.27728314727,-0.0789715993201,-0.1483908912,-1.15827670608,-1.69057350521,-2.28771594625,-2.26704391669,144.503075653
off_to_on,-3.01225406063,-1.44150691683,-0.941683059442,1.33380215823,-2.59791258582,-4.17846010563,-8.44440193416,-4.98851724858,0.0541278846945,-0.402560567624,-1.72670164843,-4.08514039774,-4.31304310656,-89.75815881
off_to_on,1.39834993819,0.917636915206,0.185521758724,-1.39616785528,1.64420884823,0.46022277585,4.25926672002,1.49773193314,-0.0588871175953,0.772949090678,2.27772379069,3.39378848025,3.00932164485,-98.3691331134
off_to_on,1.83854041759,1.16730219343,1.06995627413,-0.779879454839,1.19893902487,2.67190244249,5.92556242995,3.61980509176,0.188051516322,0.549814612554,1.12387404358,2.60693303598,3.12112650616,43.216803006
off_to_on,-0.893391854505,-0.874369089035,-0.418371556739,1.33833448803,-1.22260654652,-0.681889122243,-4.04825616516,-1.73715613198,-0.205239606907,-0.558642527843,-1.84731032882,-2.45916428067,-2.07998044219,66.2895206276
off_to_on,-0.846126550321,-0.597779342112,-0.692368771019,0.481750131365,-0.179733431153,-1.3211058666,-3.20089419128,-1.74059377923,0.119875788721,-0.617348496801,-0.712797341909,-2.05701518553,-2.81506532163,20.3920243923
off_to_on,-1.06662104692,-0.0084376180281,-0.0341204689265,-1.43263718581,-0.70175793682,-1.08045571652,1.27963487379,-0.127346392392,-0.152463475048,0.0153719596298,0.408531693325,0.269778622247,0.331648089619,-74.0409707359
off_to_on,2.4708292151,1.29357952441,1.09505803833,0.340957315601,1.92248554334,3.17976444763,4.03371853423,2.56175043476,0.263035319752,1.57385298707,2.50486708363,4.81180000612,5.12486456602,-29.1659781566
off_to_on,0.386296250465,-0.497739998337,-0.299112032362,0.540540068665,-0.137099722474,-0.425078320038,-1.96123253367,-0.37501490326,-0.25275181856,-0.892226653534,-2.01427174684,-2.19486218042,-2.18127669161,0.0331815943185
off_to_on,-2.31814794602,-0.746976622349,-0.73341406179,-0.124079991451,-1.80671312556,-2.52868067878,-1.97751519797,-1.75193437408,0.186837789569,-1.00405300978,-1.2543159767,-4.29437977604,-4.31053523252,157.072477361
off_to_on,-0.511810266507,0.0396790748751,-0.154372355948,-0.403009170897,0.109987316868,0.526625302365,0.88262518359,0.110463684063,-0.232946115911,0.679133674686,1.78717971481,2.89698554097,2.73432697577,-59.269427645
off_to_on,2.40800588631,0.862333998004,1.27595070506,0.566258675464,1.96132119901,2.14579210859,-0.290149694531,0.734651979657,0.296798064684,0.878985163678,-0.13981924121,2.88497409458,2.68795514814,-190.73962767
off_to_on,0.644096816892,0.0160715307587,-0.473766964916,-0.742894423884,-0.0536327866624,0.07579605962,2.57217491126,1.26345851799,-0.246914740903,-0.573203483644,0.126067907949,-1.62880270531,-1.3864927991,98.3471368439
off_to_on,-2.69570033274,-0.671339140049,-0.62673509712,0.433669719652,-2.38112123667,-3.05244770567,-0.707762908646,-1.09105268266,0.22720098104,-0.44922710993,-0.2229696637,-3.19421681483,-2.60660390387,193.73927947
off_to_on,-0.609712824528,-0.589884139702,-0.056949301414,0.438206079324,0.262587917349,0.449156722722,-4.24474716567,-2.21946439003,-0.361707561146,-0.370398808885,-1.74860478904,0.918722351047,0.274326516715,-112.202441951
off_to_on,3.45994861414,1.48366060627,1.04323115846,-0.407640940604,3.24537206412,4.10232918801,3.27610394439,3.02349438103,0.454516903741,1.35871656547,2.29358560376,4.49768677755,3.78154183511,-192.306913948
off_to_on,-1.06384887701,-0.335871963825,-0.458508270428,-0.818722383452,-2.40029011335,-3.34649103738,1.24393789837,-0.258726125588,-0.335623156825,-0.265262543582,0.472129763969,-2.74882970325,-1.5924996616,113.804756625
off_to_on,-1.61100504192,-0.524295369954,-0.338272752785,1.21115994201,-0.725705945674,-0.697625960583,-0.305755611643,-1.01367160736,0.200382943957,-0.68206877961,-1.51741990026,-2.14813757232,-1.84326284702,196.191113754
off_to_on,-0.00130055503055,-0.562608890712,-0.239097092318,-0.0484171201815,0.854327287132,1.40288358783,-2.35358334248,-0.223581504447,-0.281370367304,-0.642990836939,-1.59030124164,0.663535623379,-0.394708866572,-136.024516258
off_to_on,1.74298427122,1.32859185317,0.907419835765,-0.574098813968,0.702729720366,0.278769835612,-0.791297087984,0.356900020941,0.460010845725,1.54535146219,3.06007079858,2.93728674814,2.82391141655,-142.669902751
off_to_on,0.217707512462,-0.106393037182,-0.396021125247,-0.409150628521,0.00671632104281,0.397793560327,3.35629523713,0.640741474973,-0.494202098997,0.103365227201,0.645184609422,-0.0831489322774,0.610846530231,76.8142724662
off_to_on,-1.90684485119,-0.972926945246,-0.0586324158147,1.22595502411,-1.19340178705,-1.55389400691,1.13975624342,-0.156242110896,0.389808561104,-1.26302700266,-3.86173376664,-4.10781386356,-3.75933211468,171.225901236
off_to_on,-0.177556963996,0.0896968875925,-0.469280293809,-0.689876588464,-0.316659847191,-0.591618140073,-3.63391996513,-0.788078165844,-0.294349647182,-0.349237570747,1.31353973968,1.08739680453,0.558073008223,-96.4053691176
off_to_on,2.28773827453,1.14363946603,0.730717594106,-0.0260929362344,1.91227385447,2.55640210073,-1.73952721103,0.24558282994,0.246115441507,1.68041738338,3.23793330331,3.99153947781,3.24259085912,-119.076102533
off_to_on,-0.983691284326,-1.00416753397,-0.12269463749,-0.0254012064905,-0.578278153816,-0.363940939891,3.60988337538,-0.11061808746,-0.254965662059,-0.440356894017,-3.50208668277,-2.63432024888,-1.87505981239,37.0283811954
off_to_on,-0.609904678873,0.35661129917,-0.0421515350663,0.302707808152,-0.581278290539,-1.3507644771,3.82694808825,1.83340016618,0.393930188178,-0.505485921184,0.155828937903,-0.959406586718,-0.17822084561,137.936174961
off_to_on,-0.531037057006,-0.255991389793,-0.602222917758,-0.443627661422,-1.22506921394,-1.81004202308,-7.45698396708,-2.53170556119,-0.574859114847,-0.79022324797,1.29140451069,-0.272688030354,-1.0916144044,-40.1311228625
off_to_on,1.70348751269,0.215300565975,0.700337669311,0.616054881439,2.28236308762,4.07598220375,0.0560857615787,0.287658804453,0.511518861865,1.42239756407,0.664946049813,2.293889616,1.47467209387,-102.683650341
off_to_on,-0.31512565768,-0.0480731142891,-0.0434562903803,-0.526132532478,0.197088202831,-0.00584695456382,6.14057571483,1.96320573599,-0.196674258023,0.209875483977,-1.727453066,0.275586892156,1.11590268949,-2.12285422254
off_to_on,-1.16019831145,0.384980746527,-0.0235330817418,0.0796906570682,-1.95824176528,-4.11464162314,-2.62551678941,-1.37576929583,0.0838358617933,-0.966103199128,-0.558108230531,-2.63016074949,-1.66538446878,106.277241899
off_to_on,0.34324082903,-0.775464556675,-0.631050333618,-0.030107822402,-0.0237018414357,1.45567424144,-2.36485594267,-0.610672547693,-0.401783293189,-0.664102452002,2.17802327703,0.207925942565,-0.993511681995,12.6421350217
off_to_on,0.71839966412,0.170630346911,0.754139383375,0.53571415045,1.43162249496,2.5469821546,1.8921411948,1.25193919544,0.672027171131,1.44435577569,0.218330224266,1.7510375507,1.24033788477,-91.4748031763
off_to_on,-0.167317539372,0.638864674037,-0.200527085988,-0.664396024027,0.45168261405,-0.983284741055,-0.0857502105134,-0.351969130145,-0.444914945804,0.0824837363286,-2.48318777498,0.493073062207,1.44384969632,-27.0413250917
off_to_on,-0.00838062878772,0.00900808043541,-0.0127039421495,0.223658879968,-0.873869146111,-1.40329205803,0.326111712887,-0.0712502734905,0.102639231471,-0.672694844455,0.470755161627,-1.1699869136,-0.805866893436,72.9253222019
off_to_on,-1.5026137989,-1.43722856962,-0.307745840757,-0.0854224109461,-2.43596638028,-1.36374367614,-0.866259250143,-1.18804369203,-0.22178897354,-1.03581956985,1.27277150032,-2.66142840575,-3.25923162054,51.7954019828
off_to_on,2.08660978817,1.39752790696,0.536002475511,0.340558369481,3.46178116039,3.90642334866,1.2665510357,2.18958967963,0.541292463119,1.714847941,1.77065489795,4.06821151318,3.47547294352,-79.3079568251
off_to_on,-0.117155281622,0.0923203566868,-0.459416245525,-0.313694645341,0.710992457103,-0.365847543451,-1.41502927085,-0.360459143474,-0.447990778089,0.0644697608126,-3.7791417738,0.266513043262,0.943901371787,-35.7091844332
off_to_on,-1.43072862345,-0.695735091652,0.193185139136,0.192785455786,-3.20928819284,-3.21208961797,-0.159555233982,-2.1200873,0.133451343435,-0.980686034056,-0.586152539265,-2.93307878068,-2.41988674389,37.2283943388
off_to_on,0.121032915847,-0.313597858376,0.082135941115,-0.467653346379,-0.289719522984,0.359828053382,1.29306600233,0.687179748864,-0.227218280303,-0.557785339114,4.00798827927,-0.205084482811,-0.929608153311,73.5614287003
off_to_on,1.43066867415,0.977439609325,0.146842316941,0.564006462212,3.22423847295,3.01572789033,0.510646673473,2.53702904294,0.558978481652,1.38720149094,0.246403747026,2.25589328366,2.15684865759,-60.7261240172
off_to_on,-0.358839323323,-0.142159848355,-0.860321066115,-0.0669087425537,-0.197252512992,-0.101245146706,-0.699898243908,-0.950487497436,-0.451716515327,0.189617698401,-4.00405963732,1.05206281878,1.22640334738,-34.5153572344
off_to_on,-1.16113748338,-0.612514017879,0.85077639757,-0.0976401659493,-3.13189694815,-3.53345288221,-3.05770971833,-3.3822257576,0.0479268640768,-1.13438987466,-0.484522475988,-3.04960891733,-2.85532819062,3.28527682984
off_to_on,0.0855580121282,-0.176443586383,0.261164112628,-0.498922738284,0.669440201985,0.692301751646,2.33912451862,1.56910915856,-0.0832921646826,-0.471458706512,4.26157044635,-0.879245679313,-0.565887986828,79.7543154625
off_to_on,1.77647744193,1.23244622244,-0.709003188187,0.692361577638,3.31577536057,3.92485580918,5.41514603882,4.80329004877,0.471032228878,1.82715957374,1.28140290739,4.32255999,3.61786240671,-37.9583615531
off_to_on,-1.3049046164,-0.750898761297,-0.469753609409,0.00772329594272,-2.55867204548,-3.02154386837,-7.08451900799,-4.58852521222,-0.44676966568,-0.706381329237,-6.42612701325,-1.82953451003,-2.04593895687,-27.3602632017
off_to_on,-0.158460032212,-0.353181737663,1.2697331403,-0.360656907326,-0.59124781791,-0.42478811576,-2.01058107706,-2.16617957199,0.0403723918664,-0.660732955931,1.34554795117,-1.48488386199,-0.728351779067,-24.8766644276
off_to_on,-0.0918401697091,0.0721677072513,-0.195009429849,-0.194604279723,0.983037902828,0.677792214603,6.3104380934,3.69372439664,-0.00813403610653,0.0865913525847,4.6124472091,0.357040684734,0.790972568397,73.6829704106
off_to_on,0.709302182076,0.906707808475,-0.797609280148,0.585664110006,0.318903982992,0.0703953103983,0.601699295091,1.19714710342,0.355725713222,0.763237723271,-1.25356969106,1.24756887145,0.144599441735,-15.1872932307
off_to_on,0.534585221757,-0.400648151895,-0.0881241121329,-0.354065713989,-0.0056240161403,1.48579246042,-3.44722818625,-1.87094513739,-0.366443119137,-0.126267191385,-3.1459638897,0.789573308023,0.376047529147,-16.8645962462
off_to_on,-1.69713266022,-0.964832712156,1.06261460797,0.259268644678,-0.868335018034,-1.94266548591,-2.76395042346,-2.20016859379,0.0364159682089,-0.516524950731,-0.301738352171,-2.45266001881,-0.955763411522,-44.249531045
off_to_on,0.283419655464,0.662872537964,-0.310488455276,-0.333584460926,0.211930369256,-0.956694878152,2.86498186834,1.39668254052,-0.0201448949352,-0.180946985882,3.48297346069,0.253334945165,0.198724724553,58.8732621578
off_to_on,1.65868677363,0.910354498826,-0.47075872691,-0.0486040926693,0.682119537421,2.3632947144,4.51854047494,3.02441484501,0.265699611225,0.685023141009,0.81929531453,1.68409088427,0.406134118292,3.92737146635
off_to_on,-1.22791834002,-1.02808867385,-0.345715562713,0.356525235218,-0.463500590004,0.206241468694,-2.95991588991,-1.70340946359,-0.178181678149,0.0511945819377,-3.93124600712,-0.423745305568,-0.273094383712,-4.82822477595
off_to_on,-0.215910576663,-0.225272362292,0.900174028179,0.239003825453,0.429550155714,-1.4131652935,-4.89637874776,-2.35324782359,-0.0821426077827,-0.332414591241,-0.126424129477,0.0287705446476,1.03749911572,-54.767970778
off_to_on,0.17166722175,0.289026630951,0.292112083577,-0.847226466186,-1.03240065108,-1.47255591677,0.691552845544,-0.0473088317907,-0.053415095383,-0.699627786117,2.37729250218,-2.18823151788,-2.14570794921,43.8514579785
off_to_on,0.53839977253,0.728632181057,-0.999374207109,0.256507571576,0.600912371288,2.96399123337,8.68809865563,4.00822877309,0.294588297592,1.05528075093,1.71775258235,1.81627618157,0.879536120977,5.0883443324
off_to_on,-0.235075906102,-0.440181224279,-0.392371547639,0.658968412694,0.766003261475,0.128142082553,-1.90842555605,-0.152940686542,-0.0575708866499,0.255280189428,-2.78416141212,2.15756737681,1.82062207324,23.8973893341
off_to_on,-0.365430119798,-0.74993762627,1.33355435402,-0.408275950831,-0.871326571227,-2.72096846347,-10.7991463433,-4.93949248527,-0.253053474359,-1.10795873611,-2.27600491636,-3.09019775469,-1.84247982981,-62.1120572351
off_to_on,0.307726722841,0.408573166427,0.157292313264,-0.477576333977,-0.172607424273,1.18542316156,4.50780852171,1.28042353504,0.0111700124314,0.16040969798,3.51951131117,-0.783323281176,-0.634420400879,-0.342041603824
off_to_on,-0.353687915433,0.765940629839,-1.47800731021,0.586324370976,-0.0290724205223,0.540240206319,9.28808390033,3.79423920145,0.313827759681,0.724896472057,1.1929447492,2.13208903331,0.962735717836,66.7899150877
off_to_on,0.749718281988,-0.201870351557,0.225090674776,-0.0443665692808,1.30108545682,0.607654802774,-3.42332301446,-0.27276771002,-0.0688785022048,-0.0665625625357,-1.97986270875,1.65381518413,1.43681619585,-19.8145572374
off_to_on,-0.272818998566,-1.10346693811,1.29216227635,-0.2329369057,-0.777773513731,-1.06856546966,-10.0230926285,-3.87061373978,-0.263646952585,-0.603354756438,-1.9815030453,-2.98071322144,-1.66651559275,-47.3415180363
off_to_on,-1.11316541456,0.305740074817,-0.42605086173,0.262066377482,-1.7353810697,-1.73158703948,2.70921909025,-1.00368892718,0.070742874016,-0.128975747416,1.01411225344,-1.70633191038,-1.6299452228,21.3527226088
off_to_on,1.54222036909,1.39659551102,-1.09028395581,-0.309622282486,2.64044206256,3.57750262502,12.6144397142,5.76846074154,0.151070710007,0.860962308262,3.79223179684,4.72686474243,3.26932099628,28.5358509018
off_to_on,-0.217743299154,-0.75003210505,0.744218715379,0.0515189031301,-0.117647600508,-0.604056561351,-5.78630009144,-0.241194308322,0.107372982315,-0.112202563442,-2.09613309759,-0.859844197094,-0.415435362228,-9.7257718646
off_to_on,-1.20153487301,-1.18837192941,0.392267740369,0.358130768169,-2.65798795642,-3.44264718735,-11.7588862917,-6.0829250876,-0.284367994425,-0.875981778159,-3.79637268795,-3.52252027117,-2.50884140921,-40.5528462923
off_to_on,1.05075116131,0.987765578402,-0.398450298658,-0.0979889990721,1.97024200338,2.73622359514,8.56450242137,1.95406853514,-0.0132239312515,0.47142452072,2.79807064702,2.12412883105,1.49448643199,53.4414188272
off_to_on,0.040125749415,0.567974105224,-0.128975830622,-0.633078210546,0.946601456455,1.3238470687,7.97349523419,4.37780621189,0.105983359655,0.390265832889,2.45697865428,1.02285833531,0.663925758147,-13.0398287338
off_to_on,-0.230605811061,-0.232126351411,0.201621893999,0.645565326527,-1.63911955935,-2.21562195176,-7.82524186292,-1.46532406815,0.321603564884,-0.0294214169591,-1.03611533093,-0.215622465942,0.00873399493946,-49.771872415
off_to_on,-0.694841154785,-1.20810957384,-0.337549409234,0.0820124592827,-0.89853524161,-1.38118541093,-6.42468373724,-4.37850832002,-0.457727894151,-0.885691453268,-3.83267190417,-2.03490400771,-1.82766403118,49.1627282256
off_to_on,0.862431676504,0.634815860972,0.542018028345,-0.319954396339,2.539142574,3.41176426705,8.63521750919,2.40376640214,0.00365917474055,0.599139983576,1.5286829025,0.915819928805,1.04766853278,42.6169645405
off_to_on,0.534032297266,1.03552625178,0.012748939369,-0.193337482429,-0.384509645753,-0.184305297026,3.14290986189,3.21614166683,0.139382404261,0.522661475477,3.93992545678,1.93736497165,1.4852799667,-63.0405330098
off_to_on,-1.32415305023,-0.592138062787,-0.560029482873,0.504982201333,-2.45843785745,-3.55020207275,-8.51404196058,-3.12248973603,0.345602464666,-0.617138882897,-1.97230733844,-2.1238335997,-2.1057390361,-92.436360964
off_to_on,-0.0965403169716,-1.11416795236,-0.249858482567,-0.306978492342,1.73771548159,2.34539933091,1.68219687942,-0.846506813822,-0.544987065834,-0.412538670415,-3.1360230323,-0.0763023975262,0.347472461291,177.381003677
off_to_on,1.45251507183,0.85051145507,1.19994705476,0.148515565221,1.14476251941,1.35469999093,4.77322289295,1.99273856898,0.140550797058,0.837371862288,1.23634446389,1.32779060456,1.1507140948,24.496982458
off_to_on,-0.485825042117,0.645146903407,-0.404941076784,-0.151117990849,-1.89025685159,-2.24597943459,-3.89078208459,-0.861315014872,0.00702556450706,-0.216798229925,2.91998619189,-0.913986383459,-1.22495432218,-207.204262857
off_to_on,-0.561239985027,-0.231686864955,-0.781708585338,0.0761821790968,0.538719610407,0.989538508867,0.353638871885,0.940829720522,0.369045060988,-0.0168786560467,0.276075444302,0.563753000662,0.871240925067,23.2627495855
off_to_on,-0.790913627959,-1.34016649537,0.0932183059212,-0.0713242857521,-0.31330591528,-1.02836710692,1.09920392245,-1.09269810145,-0.489723497257,-0.612783854835,-5.14140833522,-0.870725289643,-0.545932475957,209.280283618
off_to_on,2.00846811343,0.965650714514,1.18755224344,0.258658669866,1.13665210212,1.26324034951,-0.372347623931,-0.296266020734,0.192406792973,0.833379609854,1.69922532554,1.0561772529,0.158899329827,-36.2712785013
off_to_on,-0.346624823489,0.561048392512,-0.644441364563,-0.406200723769,-0.462376482693,0.510386024795,-0.789587890743,0.923835751802,-0.171257925051,-0.218011198683,4.1342517623,-0.794888455295,-0.414052985035,-233.216806115
off_to_on,-1.40619189542,-0.180962144906,-0.570128036917,0.488777137677,-1.01709252676,-1.69203982817,0.772278964887,0.465275963993,0.444620131125,-0.0656140542434,-1.71161464497,0.134694357276,1.0870900995,68.6768873454
off_to_on,0.290721579627,-1.14715651862,0.0687391225573,-0.546888970701,0.679678328967,-0.0345424325682,0.475599999912,-0.967983470672,-0.388207143166,-0.284412992566,-3.82083594579,1.01996094754,-0.12508510559,231.488868444
off_to_on,0.960048147753,0.35562508838,1.13294783461,0.240953390171,0.643168168263,1.21777562975,-1.54050622608,-0.886308888658,0.142348534295,0.209310931185,1.68077180311,-1.86588093679,-2.30344512213,-81.3526614891
off_to_on,0.177267876066,1.20479498926,-0.78438853156,0.240665835325,-0.464115657076,0.58556677802,1.4917051584,1.83044835051,-0.280677835864,0.235455615953,4.0113183696,0.850732702431,2.21196626637,-229.581744399
off_to_on,-0.611115496296,-0.0580445540578,-0.28109731166,0.10018153186,-0.264385227235,-1.30196601667,0.18582930494,0.55282778301,0.523367020418,0.191911871652,-2.41049896735,1.68174580592,1.69141964444,77.0271236033
off_to_on,-1.55490093706,-2.22731745159,0.0864699242807,-1.07808293603,-0.59425683216,-1.51360681118,-3.27821988339,-3.23561387684,-0.351065051825,-1.13669396471,-4.03059997496,-2.9052643063,-4.20662254729,253.139837476
off_to_on,2.27584374055,1.47090591911,0.745391878002,0.96909997681,1.69258873752,3.11887830414,4.33821234192,2.30799101814,0.152152661053,0.911336274166,4.7411035916,1.34750926566,1.55144614967,-108.972359961
off_to_on,0.288340320192,1.07036596328,-0.679519215916,0.357686787562,-0.999551797154,-0.790910152902,-0.53684364299,0.693879539341,-0.360006877974,0.182333135903,0.479881201873,0.57019162949,1.79804783195,-224.213955992
off_to_on,-1.35950948759,-0.772277363443,0.166482147708,-0.674857624104,-0.0249158523171,-0.739180114656,-3.13742817195,-1.23072442503,0.494234089039,-0.148584624691,-2.88606713835,-0.147925255173,-0.563966677535,76.0620799745
off_to_on,-1.03973024879,-1.62748608021,-0.140140177152,-0.660075435598,-0.243650661745,-0.796830317301,0.701870274577,-0.718985911376,-0.253291373093,-0.877819205598,0.0831656215206,-1.15718495816,-2.11428933365,265.823933303
off_to_on,1.74434921774,1.42150571357,0.211890358494,1.36464932867,0.174912504155,0.556274775705,2.61664332408,0.848409733022,0.227736567749,0.762090393784,2.05239329737,0.22646796236,0.653025951107,-120.468866258
off_to_on,1.16363012072,1.04820455391,-0.17886861526,-0.394735457914,1.04215875877,2.49526013732,0.529573189618,1.33856865317,-0.560972087934,0.428109018012,-0.292383972605,1.9052798299,2.49650861793,-218.842694657
off_to_on,-2.04258305506,-1.09493880471,0.593518180345,-0.340737637494,-0.901312904659,-2.15570491705,-3.82801743796,-1.23169815798,0.504576034312,-0.363526569327,-1.89800696251,-1.34367212951,-1.37686124378,65.7300972652
off_to_on,-1.18613158426,-1.29712744288,-0.93932649372,-0.200898964613,-1.14784028406,-2.29193381469,-0.781685381472,-1.87058298247,-0.0414819570891,-0.987268858887,0.830563219336,-1.54594985858,-2.22827585804,277.738502599
off_to_on,2.68299243979,1.60194811518,0.224004744973,0.626640627719,1.77558635737,3.30031940278,5.10179241417,2.53247942893,0.104891570379,1.09201815519,2.11281287725,2.14116600553,2.02440060096,-121.889783674
off_to_on,-0.156707170795,0.444123774679,0.572905497709,-0.323487198013,-0.226217263327,0.416335040076,-0.369797308878,0.430163129597,-0.663391932094,0.219193057148,-2.79103068584,0.0852137528411,0.964293573172,-221.615321741
off_to_on,-0.86065147535,-0.579724263568,0.0882814683759,0.314712405409,-0.0138226423664,-1.12000196781,-3.40012533383,-0.943791558885,0.633730249837,-0.253521469569,0.291506286031,-0.254102063714,-0.391813845915,60.9399381711
off_to_on,-1.57417040852,-1.49213456579,-1.15033784834,-0.56312930556,-1.58965082989,-2.45582990999,-2.54903620947,-2.36640074043,-0.0233063921878,-1.25167334615,1.42696135334,-2.4867252914,-3.11642881373,283.399161891
off_to_on,2.00338590042,1.6176458738,0.716612556122,0.183174198216,1.32666919399,2.51933649433,5.85976262894,2.54925693364,-0.0252610398959,1.34996184584,0.437490677698,2.49244471154,2.73215177818,-118.075188718
off_to_on,1.12280920494,0.650987855712,0.335556411851,0.117371835601,1.09033371471,1.93968639047,2.30512278192,2.06533209711,-0.526012275622,0.475601984857,-2.33797506983,1.81321147623,1.86770774159,-229.372369254
off_to_on,-2.18153355748,-1.31980051204,-0.116826662915,0.611314835513,-1.63880262711,-2.98136263709,-7.30083279118,-3.52911507456,0.579456305265,-1.11074430946,-0.0610186296044,-3.983030498,-3.6049770302,64.6812159941
off_to_on,-0.564036437039,-0.458687665359,-0.687369394582,-1.10008916321,-0.264241034973,-0.678607416865,-0.451528648222,-0.840619228299,-0.097761464536,-0.444653320811,3.4992580541,0.630608796772,0.341625651468,280.142090233
off_to_on,2.05459073449,1.38312748989,0.533898630708,0.179143056729,1.17650819948,1.99013502599,5.9182955808,3.23816900734,0.0815589912669,1.38115449017,-1.67402804026,2.83517086152,2.37524759247,-110.798062335
off_to_on,-0.50594513562,-0.462989756838,-0.0983507430121,0.579721042726,-0.542982518162,0.107899377215,-0.0710530213902,-0.329850587876,-0.50287353252,-0.438742033188,-3.42053163613,-2.06660938728,-1.62270629217,-238.493279575
off_to_on,-0.329722488066,-0.111213065642,0.382122651954,0.189853813294,0.515098063379,-0.106205277556,-2.82522111332,-1.26423715527,0.441219795732,-0.219370862163,3.94655084862,0.0756549699667,0.402065707043,73.8357501679
off_to_on,-0.542324764617,-0.167150238363,-0.437568629699,-0.898485576617,-0.699117427759,-1.86117442553,-3.41604516339,-1.16231906756,-0.0140809186915,-0.383754825885,0.519442629711,0.0749047846424,-0.353339848504,270.771210193
off_to_on,0.626475945439,0.14949999294,-0.220521605025,0.247127763906,0.0474049587367,1.41482438403,4.21783010432,1.97733172579,0.110145225832,0.582609653052,-2.43861579187,0.253406325076,0.0696896672769,-102.387150168
off_to_on,-0.246133612551,-0.30564324484,0.155077811894,0.236037207452,-0.265676173481,0.19757537639,3.48349573896,0.377583196262,-0.554605418932,0.00232116284046,-0.494571807122,-0.395552084613,0.0183532627313,-247.120249053
off_to_on,0.869901652752,1.05808486931,0.800303334191,0.376884839717,1.4504295442,0.0870274930568,-4.00643922917,-1.03807305706,0.45168122448,0.11758371724,2.24047546481,1.19678883816,1.01665377332,85.8564721532
off_to_on,-0.469982886943,-0.641082462014,-0.696530553146,-0.487292108449,-0.305608973452,0.139696457717,-3.62430185541,-0.297165883411,0.0455377855266,-0.689975228654,0.0892798104202,-0.712563512749,-0.757240157505,258.277397469
off_to_on,-1.80387220235,-1.17217402323,-0.510952932566,-0.27662402736,-2.55305585866,-2.17287996827,3.1295604168,-0.346927379617,-0.0478515393915,0.119127975188,-1.96346740567,-2.29537387026,-1.91387684261,-94.5737148693
off_to_on,1.8829735935,1.29395482504,0.484313425456,0.00726706642398,1.82408652703,1.5543385674,5.02333543393,1.486253461,-0.385009530204,0.839994615824,0.659500158624,3.31514709609,2.71960027707,-254.222206543
off_to_on,1.51693779115,1.00221516874,0.80595069127,1.10173729217,2.22737018375,2.16636248965,-4.2492246084,0.654176931518,0.428158974632,-0.209240512749,0.739016235743,0.67545976051,0.658910985097,98.2842011394
off_to_on,-2.99218434839,-1.91008106621,-0.803388621531,-0.57287006435,-2.97865724818,-2.72050143827,-4.92862142132,-3.05741971432,-0.0277978127885,-1.18760733878,-0.507681760617,-4.16947362145,-3.26775898344,245.764594549
off_to_on,0.196244445794,-0.0101300262938,-0.515402613932,-1.06381439262,-0.369895017658,-0.432879830383,6.60279055289,1.34753119512,-0.10480688957,1.04909367487,0.854669085698,2.18585579681,1.44407108774,-88.605028272
off_to_on,1.59958380479,1.03703391858,0.501106528146,0.656297642992,1.43051762543,0.645593904591,0.471369615171,1.34843011461,-0.185224917737,0.200595266275,-1.92103037617,0.95264846825,0.758855672015,-259.705554422
off_to_on,0.280001216522,0.465907280894,0.833984599155,1.30906491747,0.92603688494,2.08451253946,-3.94074568742,-0.664766557819,0.323298529862,-0.457692374988,1.02452032486,-0.41810393327,0.18088323249,109.661069238
off_to_on,-1.33737020489,-1.06288563883,-0.788541284211,-1.18730233005,-1.20144236461,-1.10941038577,1.29012975335,-0.907540967609,-0.0718814259974,-0.188697310018,1.35984146903,-0.582319206693,-0.961002664295,235.308731902
off_to_on,-0.452083242216,-0.573781583253,-0.621842952628,-0.88023449298,-1.12881180686,-2.54204103192,0.706011896097,0.00018140222185,-0.13549008499,0.185621420687,-1.87596269048,-1.04876890476,-0.95532628024,-84.1622468126
off_to_on,1.17676821305,1.044514151,0.665858365789,1.12384719134,1.24995312864,1.97606509516,-0.326362840864,1.31557409606,-0.0113947063215,0.332335760069,0.39964057751,1.75772885699,2.10644517333,-266.533346117
off_to_on,0.139079740048,0.611249526831,0.763237833173,0.775233751341,0.514848588168,1.19849693395,-0.607240222737,-0.818256119346,0.221809754463,-0.205018151287,0.386252069179,0.306426836461,-0.26458285695,121.04326627
off_to_on,-0.0873580839844,-0.933550747834,-1.01029639454,-1.31720699265,-0.0488873449049,-0.503423641846,1.69513178588,-0.0660364950691,-0.114481034739,-0.319158910145,-0.295459524177,-1.05415423175,-1.35541042654,234.934266522
off_to_on,-0.798531715488,-0.693382711465,-0.306545304483,-0.251002822544,-1.11689757214,-1.58670407188,-0.582756312875,0.675868749017,-0.175457616234,0.287462284512,0.750104439518,-0.543828882005,0.676916792014,-96.9616626492
off_to_on,-0.761013490581,0.76194021132,0.872851487916,1.07653399423,-0.724705751272,-0.715154656745,-3.38293569624,-1.7106570141,0.203498464713,0.0899008262882,-0.84578392719,0.255056001641,0.0573825116312,-276.67383107
off_to_on,2.40695299191,0.976734361436,-0.0406383006249,-0.139612285245,2.63983101881,3.4834874318,3.72891557421,1.50166370986,0.0724308334027,-0.0881705747839,-0.310553384643,1.94988116843,0.413095901898,184.092775701
off_to_on,-0.118293602531,-0.947057181824,-0.510825251858,-0.651292803962,-0.562327953815,-0.818311485324,1.81702085384,0.893173697638,-0.17803581178,-0.177560847675,0.543866600937,-1.56174426884,-0.692118869053,163.920173202
off_to_on,-2.56552867468,-0.808619568574,0.132960509027,0.319609884982,-2.03758438111,-2.7095326481,-3.76644375249,-1.88765569996,-0.10250625625,0.214562802898,1.08707709514,-0.891294088207,0.466406367104,-106.78435335
off_to_on,0.679985317766,0.787841732943,0.176777598753,0.262464331165,0.905861901534,1.21118935091,-1.59910666613,-0.237226911934,0.30128485037,0.0424239466152,-1.24074253313,1.16646719058,-0.193276236346,-183.598571281
off_to_on,1.85629647751,0.6015307718,-0.0690885703081,-0.472558065676,0.703887771654,0.958993788869,2.95798750553,0.975842424995,-0.0647725525804,-0.418430802732,-1.55035390222,-0.320145664677,-1.00584197403,120.205907186
off_to_on,0.304960463271,-0.0356303905627,0.105257996524,0.24804082977,0.666207142438,0.956440777284,3.7978423098,1.63609259248,-0.153267817118,0.63959961885,3.05125644581,1.54510070127,2.53913204261,140.699592354
off_to_on,-2.89534994043,-1.46093658129,-0.271002737024,0.33890922759,-1.52538026696,-2.2804878191,-5.37617060779,-2.28504352404,-0.100413110334,-0.362409299123,-0.644161120129,-2.17642967984,-1.5288055471,-98.9523811348
off_to_on,0.307946908296,0.460573928325,0.13389517541,-0.465566317937,-0.660663233654,-0.577468793929,-2.94416815438,-1.16674890108,0.374825231695,-0.231391197406,-1.75712441446,-0.808844737761,-1.57545658503,-94.8503368766
off_to_on,2.95247212124,1.52018325661,0.123007743121,-0.458457105898,1.76530617887,2.34981415312,6.44417187833,2.74376958457,-0.143675531867,0.419204587993,1.03670621236,3.25837186103,2.40907538948,51.0735368673
off_to_on,-0.923266250912,-0.711145153779,-0.0472399673015,1.06488807469,0.31634606051,-0.138932986232,0.778196417929,0.171451511569,-0.128140058155,-0.0312457698153,-0.0427278383986,-1.17311184642,-0.254235093547,63.5282382428
off_to_on,-2.26345689344,-1.37497331627,-0.30268749231,-0.047698537841,-1.19573158203,-0.813325993899,-4.44504231979,-1.80399405218,-0.149708875739,-0.310448356614,0.756960249118,-1.60854450377,-0.881207118273,14.1295678032
off_to_on,0.812102211811,0.898939941849,0.525816246404,-0.940674797207,-0.783916911574,-1.23361580553,-1.36240166875,-0.396876457705,0.495653737088,0.295399573541,-0.276015323449,0.928979996715,0.000683541552727,-72.998416786
off_to_on,1.67402696174,0.849833296362,-0.339886958287,-0.0736210196133,1.11477843854,0.844117950957,3.44142009226,1.07873275777,-0.252519901781,-0.229824762119,-2.02398919489,0.493228205952,-0.0718094458957,-23.1964016681
off_to_on,-0.0579226643745,-0.358964218275,-0.14485022249,1.38941680845,1.4780439094,2.56627899145,2.97805123553,1.74257729694,-0.115434863982,0.273289664565,1.99529518285,0.383814106193,1.20025796935,-0.384371385301
off_to_on,-2.38157469,-1.18905579276,0.310403260181,-0.4852058514,-2.44384423894,-2.89445754803,-5.26313200009,-2.73691749522,-0.089421945429,-0.350615196167,0.755231293543,-1.44069858763,-0.884270768245,152.160232285
off_to_on,1.21237773738,0.809437092486,0.25980237058,-1.04796917258,0.475900721159,-0.284666275183,-0.482715627336,0.0560566695003,0.463306128762,0.473726451568,-1.07734724233,0.961725245371,-0.015910637375,-60.4368920961
off_to_on,0.737303616948,0.244588952521,-0.849036643167,0.251733904845,0.610040596099,1.03618842438,2.8096282495,1.41407864873,-0.337130396045,-0.457443507595,-1.77753905027,-0.696307208248,-0.792592948654,-185.287697421
off_to_on,-0.121888774386,0.328183811139,0.478962103433,1.53356640103,0.0579670707349,0.851993076264,0.835432478853,-0.0286255460252,0.0471266235691,0.0630223596917,2.13078984077,0.732411857061,1.42235909103,99.1856145108
off_to_on,-0.427619888298,-0.800823515139,0.316375813351,-1.03405941449,0.322814205453,-0.138600701166,-0.616952999042,-0.242374527463,-0.156435115249,0.274669133807,1.4131095603,0.995508478088,0.712485637411,189.430427636
off_to_on,-1.00371625864,-0.594857487552,-0.161927933597,-0.801547544268,-1.23035707081,-2.41566118883,-3.29409876536,-1.17425298777,0.360915502822,-0.00812678778522,-3.05193929908,-2.96809615052,-2.88389745516,-114.344297923
off_to_on,1.03196957147,1.19708410004,-0.769049752789,0.571641685551,-0.206141881581,1.26198574275,1.16905988927,0.40927386716,-0.258593326029,-0.383505892463,0.195385860622,1.33517592478,1.19805877713,-186.843773179
off_to_on,1.65158791236,0.947667309485,0.957110409899,1.23390710932,2.32571880364,2.66647818719,4.54350097416,2.1816687383,0.184522093765,0.275641532675,2.51254510664,2.72028727015,2.43277455769,114.064312509
off_to_on,-2.71500702869,-2.43345824696,-0.152666985525,-1.28439544673,-1.26561554679,-3.13988294265,-3.11452489672,-2.07626265656,-0.363047550179,-0.232773364302,-1.85032686608,-3.83294657735,-3.3174804849,193.14875656
off_to_on,0.268128832054,0.492628940866,-0.284083051504,-0.393187895856,-1.26287042103,-0.272097314449,-2.45421484949,-0.518035070371,0.362483178901,0.724604841957,0.289533529602,0.84059570477,1.08048995601,-137.870803713
off_to_on,1.4647628747,1.56227381666,-0.20037845204,0.729463971539,0.499358047559,1.84674141505,1.26040765084,0.952616353708,-0.114759870166,-0.778677610963,0.00593092253538,1.75891371231,0.956129826455,-138.78309364
off_to_on,0.0432317674835,-0.326865781365,0.639187176342,0.665398554367,2.39959641256,0.497011828985,3.58680716805,1.02061344497,0.194318099765,-0.0862791447106,-0.0254838323111,-0.952340986084,-0.945770072445,77.1725228265
off_to_on,-1.55602256598,-1.61709082326,-0.459285139415,-1.17729987289,-1.9813489113,-2.55456960656,-1.74791198865,-1.26214584894,-0.558885019195,0.409049846199,0.0564186575034,-1.18414972548,-0.322779105177,169.331096998
off_to_on,0.564993988276,0.943664515332,0.225811411986,0.155590731522,-1.56669495442,0.921793378776,-3.33651301512,-0.625583850328,0.476287364866,0.548961690532,0.588255011694,1.50166015699,1.30726484367,-97.877911747
off_to_on,0.791520385331,0.488306646992,-0.28125759059,0.31673067247,2.39181753797,2.23181719825,1.98538291411,1.18135532888,-0.0394226903227,-1.04089841531,-0.5593761916,0.2043640265,-0.783983875606,-116.819796949
off_to_on,-0.538607943215,-0.0761227019096,0.296388760858,0.506337846751,0.651402834185,-2.54900283826,2.06880851162,-0.0658368082842,0.105442036745,0.0284801810538,-1.1181662147,-1.81322713058,-1.04677124616,37.6583276991
off_to_on,-0.0814009696016,-0.555450562608,-0.23617539963,-0.993341129201,-2.08910301515,-0.420534499047,-0.26755486356,-0.261309744886,-0.574560478625,0.657428583658,1.67167771487,1.45636477826,1.92266361825,136.794989924
off_to_on,0.172141074582,-0.165233292822,0.356142503174,0.294056438568,0.0320167409749,2.71885629281,-2.31234135883,0.388384223475,0.540207571711,0.328204733916,0.948461030568,0.857642076014,-0.0377891180421,-41.023736772
off_to_on,-0.961450609523,0.0309718387809,-0.423932830475,0.374218756633,0.475180194549,-2.12170922198,-2.60607816214,-2.24032759841,-0.113404079142,-1.36703199774,-3.42147388323,-3.20390462063,-2.97395171951,-101.881317688
off_to_on,2.30594904816,1.83723806045,0.168288558628,0.0645885654982,2.39337089123,1.09707815917,7.48468168164,3.26882764829,0.165502247943,0.918989751034,2.18377543738,3.29466797077,3.64736506529,-1.26813898538
off_to_on,-1.66068299333,-1.97376694687,-0.024674443149,-0.929080077319,-2.84847724151,-1.06768623789,-1.30075612963,-0.0697622914046,-0.511123837486,-0.00649009470555,0.611752164563,-0.723122028634,-1.0351879048,105.595340055
off_to_on,-1.21922761577,-0.812071638559,0.346117354451,0.885400675658,-1.49853553001,-0.384605357112,-7.73257933843,-3.68067778104,0.358655240763,-0.069110805273,-1.14511615241,-2.10665928752,-2.03747012641,12.407550416
off_to_on,2.34957298778,2.01039730792,-0.597466669105,0.0809926613071,3.57956491101,2.61176935758,4.0585538085,1.66815783448,-0.0642544130011,-0.319040458227,-0.0952071487933,2.13327660941,2.19524516891,-91.8291700088
off_to_on,0.353840026157,0.618006597214,0.312809255356,-0.492127709824,0.726404752401,-0.947964768865,6.66421107839,3.33388443663,0.376902115222,0.473930900532,0.526720171049,0.342127445529,0.318973898739,-26.0137949261
off_to_on,-2.59692074658,-2.33239313345,0.00999830312201,-0.408357866808,-3.79186469906,-2.80456986391,-5.27965741941,-2.54110235227,-0.711057766558,-0.317398181562,0.117342260148,-1.40696446878,-1.61235096391,72.3954675887
off_to_on,0.398154655982,-0.0125282044188,0.181597367814,1.17268169407,-0.369227582043,1.16539059721,-6.708513316,-3.22628167668,0.261126940548,-0.0614702408869,-0.562011478954,-0.504538290297,-0.242007719794,52.2034561495
off_to_on,2.31139954259,1.84680235335,-0.562398936208,-0.42192256083,4.02424870178,3.55624295973,7.60918638945,3.39399956472,0.199891024799,0.0862262496053,0.0651499424153,1.32317673319,1.55119212772,-80.367762902
off_to_on,-0.0821750876909,0.52649373017,0.57120943833,-0.55540675785,0.564876557809,-1.0663852615,6.36170536394,3.73370965114,0.266888697533,0.84589500369,1.40514457365,1.71703690706,1.03936162032,-34.7142525046
off_to_on,-3.5346700129,-2.65791073126,-0.24311446202,0.0133324562082,-5.73774387227,-6.06036790945,-12.1189261503,-6.33692922939,-0.822754083279,-1.53451087512,-2.50359746217,-3.909166048,-3.68816098724,36.6899969112
off_to_on,1.71521563464,0.331793116405,-0.00627699335446,0.911968989526,1.79555852934,4.3971634479,-0.973191330954,-0.68871445685,0.397412022883,0.316350186052,1.16367935317,0.730344660352,1.28841810278,74.5325456485
off_to_on,2.55032243311,2.17174162184,-0.092557485121,-0.393104415897,4.47242808928,4.32949189318,11.4673778246,5.85208189734,0.247705541422,1.2617948876,1.58335914345,2.9239223741,2.63180578459,-62.0997192582
off_to_on,-1.38914066239,-0.0876689851116,0.431640543053,-0.42062800131,-1.94330090551,-4.4749210698,-2.39156760161,-0.815889412667,0.00201131173444,-0.311533633875,-1.7541946874,-0.653274931456,-1.33252109584,-33.7286802298
off_to_on,-2.76186096186,-2.66422964388,-0.561096229023,-0.219824497051,-3.99421053529,-3.63821082215,-9.55084344367,-4.92644771343,-0.575742465045,-1.76630312642,-0.945046900662,-3.07530501004,-2.52447285213,2.68951403937
off_to_on,1.3813756355,0.823220207926,0.234007293586,0.967295144477,1.82434293573,3.75857532515,4.03570163119,1.35795676859,0.470960431181,1.10202500936,1.80641034649,0.482788815612,1.27914680908,81.1175788578
off_to_on,3.2883893322,2.32594824568,0.0840871778045,-0.18097938382,4.14216604844,4.37152539748,7.79936506232,4.32783439594,-0.0384839975815,1.3744904341,0.681943006503,4.30505488827,3.11069921163,-39.3263452567
off_to_on,-1.93417544359,-1.18767827916,0.126859253667,-0.512733812806,-2.36765183283,-4.34961832783,-5.3123138065,-1.72941842048,0.0101801696092,-1.19998855186,-1.98734556242,-1.98159635124,-2.24878150016,-26.8719835714
off_to_on,-3.63184198357,-2.0283195921,-0.482540846053,-0.387600780888,-3.91539824271,-4.37230027386,-5.35827153614,-4.02597235739,-0.202897089738,-1.38123597776,-0.172373742583,-4.28298100719,-2.86775812909,-25.5328573834
off_to_on,3.43158026347,1.97503888486,0.296822680003,0.933588175118,3.54971959004,5.60415910741,5.94544747294,3.04805303956,0.26074062392,1.84501282554,2.16796233184,4.0308200339,3.64187205657,75.2232525451
off_to_on,1.79680776303,0.413662293778,0.179060197141,0.198833517871,1.63434799016,1.81261641553,0.805644692582,1.40201121653,-0.300336068298,0.269780772453,-1.66280264294,1.40646301586,0.212551803704,-16.3062299933
off_to_on,-2.47586491075,-0.948226000187,-0.170777966147,-0.684902202766,-1.97983552549,-3.22110696596,-1.3695876159,-1.07947211065,0.2776145387,-1.01274845171,0.735576753438,-2.08545307243,-1.29793724159,-16.6981631758
off_to_on,-1.53722970158,-0.206744485747,-0.300076189142,-0.650778551327,-1.53970361285,-2.4007640187,-1.38090153091,-1.57776950558,-0.0306461608946,-0.362897984251,-0.191665900161,-1.72134620586,-0.831285851922,-44.93513261
off_to_on,1.98305632718,0.496865797874,0.514451892408,1.11141407999,1.39671198425,2.51003344324,-1.6538386129,0.206459058156,-0.0718128202444,0.719655060099,-1.40885930536,1.32463983851,0.291237176744,60.3683953415
off_to_on,1.40166412922,-0.100773694756,-0.187261105846,0.405031703269,1.47621446088,2.92993434696,4.4064427405,2.52216538734,-0.227923842616,0.491869740256,2.58943255811,2.83577891224,2.20428309754,3.21558353054
off_to_on,-1.87876278679,0.108433601215,-0.238978246746,-0.949808337306,-1.5290434925,-3.13352801268,0.689718980422,-1.24987865756,0.354190196954,-0.711251549192,-0.621814155456,-2.65021500131,-1.20555108696,-4.94951532497
off_to_on,-0.510862219297,0.117952600751,0.206137578575,-0.532678337138,-0.224701517871,-1.27934851404,-4.57231619174,-1.51721983498,0.0166227652095,-0.37982837922,-2.30069434556,-1.48621410764,-1.65449751854,-55.4633288269
off_to_on,0.821901233648,-0.513857299894,0.315117995149,1.02607376074,0.466368074768,1.86239087391,-0.376513822235,1.49706262053,-0.188710591137,0.687814098935,2.00056572837,2.22822676364,1.05924823548,45.2185012388
off_to_on,-0.00794198783901,-0.252972897249,-0.594197675621,0.421080519966,-0.692824345193,-0.0934271654095,3.36042529338,-0.606549734338,-0.164160717132,-0.0156245182688,0.399761103535,0.171791151296,0.872509423402,4.5935747882
off_to_on,1.12979781904,1.27617544799,-0.0213438036368,-0.889975268142,1.76491965238,1.30800054993,2.8625061197,0.933349697748,0.258002584201,-0.140385070393,-1.01644375676,0.036575599265,0.563365247702,23.9129169374
off_to_on,-1.37569238322,-0.347395705735,0.776842665066,-0.376636537849,-0.692983841533,-1.78227561026,-5.46451834146,-0.0372630777021,0.191879032052,-0.180560878042,-0.0556182373163,-1.67427131819,-2.33407148859,-62.9003025544
off_to_on,-1.24510442198,-1.23875824523,-0.303002887818,0.703660717702,-1.83536690281,-1.63320017127,-2.71823661111,-1.91414781461,-0.302987572748,0.0754925925068,0.665508848931,0.256458163061,0.160871969901,0.232581466292
off_to_on,1.92408519734,0.5188053443,-0.812708816846,0.347223689285,1.22415563493,2.64123299821,6.65312629646,0.770858027977,-0.188325966105,0.0841115005464,-0.865865942934,1.7170461083,2.05770512207,67.7149673829
off_to_on,1.02281177252,1.06977486287,0.495999053154,-0.431805881445,1.23337026307,0.949853704142,1.45948175341,1.94314512573,0.310912249712,0.0388555416294,0.344523777483,-0.702915867408,-0.554457474333,-20.6676998412
off_to_on,-1.31870169654,-0.0202417773006,0.987636997355,-0.442823676594,-0.1225751256,-1.25588182374,-5.20285647458,-0.173187085336,0.238600246807,0.358587729154,2.20362695761,0.287371050967,-0.126536530789,-48.4697147713
off_to_on,-2.33398519859,-1.96137066982,-0.917416379549,0.252964342686,-2.49674574883,-2.81529457198,-3.36396578088,-3.65346620913,-0.464137326954,-1.02016726792,-3.75950546076,-2.26558114609,-2.31030998063,23.1741578592
do_nothing,2.13382531601,0.5903406371,-0.898660207107,0.531408117319,0.513434559756,2.02517790647,6.38149258728,1.29482647112,-0.0210167960206,0.340894552346,-0.163731944594,0.833482530768,1.4691852387,28.417289425
do_nothing,2.94332357315,2.300020595,1.1850902594,-0.222185539995,3.09723104442,3.52577283918,4.06687012533,4.51941490036,0.287832651388,1.22113638701,5.23746187035,4.22679978231,3.71773854586,-11.4376710686
do_nothing,-3.28198438741,-1.30923049294,0.862609698338,-0.272036031765,-1.17854842036,-3.0400139611,-8.34983587442,-3.1361344813,0.135703433361,-1.07723432165,-2.80174217003,-3.50422266051,-3.77402453859,-38.4711281156
do_nothing,-2.611413972,-2.21190609835,-1.61853481378,-0.334584136296,-2.86230476836,-2.78353686285,-2.2018263195,-3.54398470428,-0.465704069726,-0.852272538162,-3.99677878133,-3.47733350444,-2.87662420033,52.3555170196
do_nothing,3.75008328121,1.93586597276,-0.405750841734,0.648834730952,0.979992379615,2.13959940913,7.23630336543,3.290552621,0.165561256543,1.49302937266,3.64696458939,4.24293123389,4.35367690703,-13.6873951432
do_nothing,2.2192092246,1.72472631496,1.50769796104,0.240925455171,3.22037620419,3.57796383645,2.26835376411,3.1252123995,0.175697569211,0.1027535058,2.97128634984,3.07672495512,2.30698872678,-48.635588621
do_nothing,-3.59414372222,-2.00661724548,0.398288190871,-0.448867699941,-0.884120359813,-1.61035928811,-5.88306427361,-2.70262715163,0.0327525083062,-1.09815528183,-3.34632706546,-4.25245519291,-4.08511802678,50.3995515552
do_nothing,-2.78528375944,-1.72777029913,-1.75234093549,-0.668031739045,-4.43343635386,-5.91428609095,-4.80475792699,-4.56988273033,-0.451166256629,-0.0844989745439,-3.49512023533,-3.98681029399,-3.11635981069,38.801596002
do_nothing,4.86909105709,2.77615037643,0.0742778087063,0.835069751654,2.9364615112,4.61330977328,8.49495867972,4.82620285469,0.451017986284,1.2618122964,4.89879676047,6.41007389432,5.70963982392,-60.3182122285
do_nothing,1.42867050732,0.464046892087,1.3024773942,0.396104086821,2.80677029169,4.09787269557,3.43239876323,3.26775788003,-0.0468834685564,-0.639220361119,1.69715684603,1.83295032538,1.43747838548,-91.8832306514
do_nothing,-4.35602962299,-1.90471425897,0.29140532181,-0.503960402187,-2.88208510559,-5.00088213018,-9.12164811828,-5.4666142846,-0.166524601602,-0.377604435888,-4.31156511609,-5.64635488835,-4.8641377739,175.773345382
do_nothing,-0.907892820713,-0.537877573077,-1.71678048819,-0.818462640128,-1.56756262532,-2.30983169954,-1.41153956252,-1.56827165472,-0.17472319024,0.223409655683,-0.784784960252,-0.962305893075,-1.16140438562,24.4059782267
do_nothing,3.56066645638,1.6054975993,0.231854218702,0.963786235956,1.82495881961,3.70801182619,7.6190949548,4.68430743307,0.645050079967,0.270879484999,3.11589721062,3.97893325292,3.76937405379,-204.932223811
do_nothing,1.22398386795,0.63088947823,1.16536726985,0.282406909817,1.58904183815,2.31810552728,1.32793826905,0.867675590882,-0.532109414351,-0.0442561915466,1.17621340061,2.45126159918,2.50514824129,19.9196600628
do_nothing,-3.3884995877,-1.33761442747,0.310940525093,-0.434974167422,-1.34531780674,-3.41355336948,-7.18696860973,-3.80348201723,-0.063584780192,-0.142546165211,-2.95170221737,-4.65061412797,-4.61234034606,210.938890898
do_nothing,-1.79988464822,-1.22622525533,-1.79324264068,-0.608533337686,-2.12916114473,-2.40776708945,-1.16845647557,-1.2111011576,0.237111664223,-0.562404330627,-1.48052565532,-3.32758669756,-3.17562158272,-34.4216481428
do_nothing,4.78795316722,2.32147984159,0.402314581601,0.677997560475,2.52852524734,4.59515979087,8.37997546672,4.83423576376,0.312365523728,1.2710270779,4.19386192345,7.60981990642,7.34636388833,-234.473507521
do_nothing,-0.322727733805,0.0720972008275,1.265380509,0.120541750345,0.110582206535,-0.594360729175,-2.94477773809,-1.3672349666,-0.722547274101,-0.761360897369,-1.29734357892,-0.516235928259,-0.340768439276,64.4002176477
do_nothing,-3.30853945267,-1.62743184977,-0.266793304564,-0.0227789395002,-0.810195299989,-1.62641310085,-4.36890114644,-2.35534719631,0.370188003941,-0.428807110348,-1.47838333758,-5.62732745274,-5.65413910048,236.218180365
do_nothing,0.447585669098,-0.112675308136,-1.32247509503,-0.577370897627,-0.640223327066,-0.215526811821,3.11335227203,1.07506089133,0.111401330738,0.644630532918,0.808284199047,1.4488433184,1.34011254838,-78.4409784076
do_nothing,2.64941153403,1.73355221292,0.776099088951,0.349075959724,0.733573776397,0.770343974492,1.3671249108,1.02000873987,0.0342611827079,0.447848627734,0.159954157369,4.08260879998,4.21980464166,-234.273025947
do_nothing,-0.760891190245,-0.628100547761,0.421592815384,-0.020855794824,0.601492610138,0.963305317329,-1.88499991716,-0.239271248724,-0.461467750368,-1.20522948863,0.0975634665675,-1.59552458075,-1.63816319232,72.3834021194
do_nothing,-1.8063258642,-0.905912237505,-0.136123916824,0.491225382102,-0.882591889554,-1.121175631,-0.398731086479,-0.87155407202,0.479590198738,0.389886939265,0.013844830577,-3.31588859809,-3.30437017723,260.480193183
do_nothing,0.790283998864,0.466855386724,-0.501860342185,-0.645541323786,-0.0835411317935,-0.384338676737,1.97776904897,0.105616450383,-0.212647060482,0.731306227763,-0.336265457044,2.36798068091,2.3368608534,-105.01264154
do_nothing,1.21633020629,0.778777255898,0.149564844092,-0.0663901498052,0.888836828084,0.852832241682,-0.671758158665,1.13771739276,0.165026281113,-0.231462703246,0.16274147647,1.86510672222,1.74544457658,-232.037148397
do_nothing,-1.38021037152,-1.06790989662,-0.0315394040266,0.156164524218,-1.23116275383,-0.864384203368,-3.54874690748,-1.75952001203,-0.313433964506,-1.19965974585,-0.720088604486,-3.12717597489,-2.87470635192,71.0692529669
do_nothing,0.996352428786,0.712038333647,0.880674575718,0.708217624169,1.27038133095,1.84280204498,5.25396777582,1.70701418544,0.354198762697,1.26271803143,1.82716173284,1.68091132538,1.63105941422,275.404690891
do_nothing,-0.881430591438,-0.445775417516,-1.01223924826,-0.779064413951,-0.699824937617,-1.80688655636,-0.0200972134979,-0.300386952509,-0.300758809961,0.0040344924878,-1.25398622355,-0.599246941244,-0.747126464993,-115.644832939
do_nothing,-0.143975614737,0.117143626322,-0.240111907753,-0.144313274031,-0.260086684574,-0.583783641124,-5.01279185614,-1.5765765767,0.298343717199,-0.385124020613,-0.448083702717,-0.250089729939,-0.246489420122,-228.931653614
do_nothing,1.21371200569,0.134893984188,0.791045593873,0.19960357539,0.698216256942,2.17297023239,1.25695335781,1.08054573154,-0.307052059347,-0.465782630504,0.600835644672,1.38576242754,1.38224022459,60.1546343313
do_nothing,-0.285175284998,0.211455586606,0.473367294855,0.737478222719,-0.234754518135,-0.439362738541,4.33803727902,1.31568738869,0.293304584188,0.668764997396,0.160392330856,-1.08007140344,-0.758206042224,288.767585697
do_nothing,-1.22472027224,-0.647944620679,-1.51603211184,-0.827604371436,-0.480277082872,-1.63315028329,-0.920358645086,-1.3562593472,-0.32496191482,0.0935411266812,0.410151975942,-0.670450267475,-0.847812905206,-115.890189398
do_nothing,0.567848622728,0.271528617165,0.632130299987,-0.0448617833872,0.477864193226,0.469438896255,-4.98845680654,-1.29131193407,0.353523454777,-0.159778147889,-0.94110431585,0.950532031236,0.567834162181,-233.153081032
do_nothing,0.846822860355,0.286801195908,0.690691683287,0.230010018323,0.210709465273,1.69185420149,1.45982794909,1.56008047573,-0.287203480525,-0.642098188447,-0.631201610854,0.5149736492,0.683833182223,54.2769251834
do_nothing,0.0748850230337,0.200454502897,-0.410624738604,0.41888118238,-0.105412576375,-0.354690880034,5.57530967008,1.86630298852,0.234099219252,0.81711646376,2.18911853355,-0.190717083295,0.353839246276,295.364974996
do_nothing,-1.98056073739,-1.0645588145,-0.74751561033,-0.603165105331,-1.43317353605,-3.23224486816,-3.91637382754,-3.54267688989,-0.306922819512,-0.321958204151,-1.31465216964,-2.34035376943,-2.45065191399,-110.649174304
do_nothing,1.37374151269,0.70347074182,0.787846443528,0.150259219839,2.15807486904,3.35767086261,-1.96622984087,0.696339484648,0.3629243285,0.30550184288,-0.190524628588,2.56508100183,1.60826797617,-241.784230824
do_nothing,0.812043436814,0.359460815922,0.149392194882,0.0740469833882,-0.235255213929,0.760147245696,1.67761896595,2.05451752896,-0.275615903007,-0.451612922583,0.218235515733,0.683687758697,1.16012095669,56.6807862273
do_nothing,-0.910963497829,-0.23802027773,-0.246092066119,0.175513704693,-1.70539306839,-3.08899021198,1.17058742279,-0.989230640587,0.193530438034,-0.0341622928424,0.193617947895,-2.13895157205,-1.18586469389,292.628536819
do_nothing,-0.755192655998,-0.744666505898,-0.664194510674,-0.54504955315,0.564456115068,0.605035752888,0.471355254631,-0.950456359579,-0.238398291454,0.242791547901,-0.122314445552,-0.451423355271,-1.23960378812,-101.930957695
do_nothing,0.702768356726,0.488211062612,0.780128199834,0.639651727784,1.20424650275,1.65354384832,-2.06332965084,0.371037765156,0.283648083967,0.44992539045,0.105152231998,1.55658138643,1.14915637049,-251.291070733
do_nothing,1.10625206349,0.811905447354,0.285482433945,-0.158384388054,0.0243799181261,0.196245467197,-0.693300616097,0.90870633951,-0.249941480657,-0.556865490968,0.309720573196,1.69271677672,1.91503257016,64.5174367456
do_nothing,-1.09946940941,-0.665248481138,-0.55139862108,-0.386520923594,-1.55219070539,-1.77143286284,1.89228218468,-0.0973504341715,0.235849237849,-0.419348438071,-1.03089453102,-2.91348422229,-2.4618904941,283.362625468
do_nothing,-1.41822548946,-1.08478599352,-0.676994282987,-0.0386727434123,-0.656657401131,-0.933119123195,0.752087812404,-1.59344583809,-0.23848248356,0.394743840572,-0.190395447724,-1.90838969908,-1.51370919157,-92.2119233872
do_nothing,2.70031163583,1.58066309549,1.17899196555,0.917148901376,3.20900730247,3.32014735362,-0.320491452575,1.60356403627,0.165903789848,1.07556418604,2.75533332466,5.37641714125,4.46683370488,-259.918423611
do_nothing,-0.68627348088,0.0188181480404,0.153696799324,-0.557260895062,-1.0726341298,-0.868591513884,-3.64492833014,-0.280361164992,-0.120245430506,-1.2996509665,-2.21405342925,-1.16627182684,-1.97372283313,75.4389146127
do_nothing,-1.5430572873,-0.95274747683,-0.94880937187,-0.583180978416,-2.23385130089,-1.77428418149,3.04927531103,-0.305905860854,0.217106814267,-0.343213280415,-1.10981365032,-3.75783729549,-2.1160270642,270.613912952
do_nothing,0.770096242568,-0.151753168031,-0.317722776811,0.320492435441,0.849558324972,-0.21038218452,2.00975778249,-0.116903967791,-0.267318947996,0.879058045735,1.44600256396,1.2488200911,1.9788948736,-83.3527446461
do_nothing,1.15814212548,0.925189240735,1.27977245983,0.92014978488,2.05477587831,2.02109601091,-3.4937705237,-0.0856374288442,0.114003073945,0.406198976411,0.83765584807,2.96650359812,0.846788175285,-266.730521271
do_nothing,-0.657106049842,0.11668342487,-0.168850025155,-0.662963783131,-0.454197170071,1.20695212053,1.16460026366,1.34721448452,-0.00443606846822,-0.591749327059,0.422338518709,-0.157092840035,-0.75960626211,87.1079022764
do_nothing,-1.25413297036,-0.808635919192,-0.727714448718,-0.555956835485,-2.59318946875,-3.86253591557,-0.132843051973,-1.47086632473,0.133996291953,-0.635200536821,-3.08716255896,-4.36574589354,-1.69171378007,257.565261516
do_nothing,0.793692476943,-0.322706838704,-0.3226214246,0.123105865053,1.02471815327,0.164097478454,-0.99908737174,-0.931596518069,-0.228655439754,0.222208411978,-0.34255431521,1.05240297642,0.999027414995,-76.6635905906
do_nothing,1.40755332241,1.04504986982,0.965474721798,1.0489851473,2.24361186543,4.02781668319,3.38240536799,2.8408411916,0.0791465196003,1.43040326302,5.18029654743,4.92873874106,2.33555173924,-271.735762797
do_nothing,-1.20439795757,0.244036939877,0.341844842547,-0.170671077576,-1.36010510382,-1.70158328528,-1.25017902338,-0.828405732354,0.0248780580264,-0.646130454905,-0.986214703248,-2.56201220785,-1.93200761656,98.0931683586
do_nothing,-0.912499182555,-1.07519317351,-0.931001336635,-1.24878851711,-0.946631751768,-2.12697428296,-4.11275119698,-2.1240564688,0.119029999692,-1.63304928915,-5.78352452603,-3.75838762095,-1.8661363708,246.434228551
do_nothing,0.290706841715,-0.567870490239,-0.638733555868,0.0173782007868,-0.337893608872,0.24603596607,1.70699944246,0.594580696065,-0.200920063807,0.791784905819,1.10701572603,1.74567193963,1.35306048082,-71.9825562864
do_nothing,2.30307794727,1.95283096585,1.26299124931,1.76993575236,1.90343629269,2.93080118376,6.46479678738,2.90230651284,0.0171939829058,2.10946352044,7.78545630783,5.11616990171,3.4079484402,-277.436719924
do_nothing,-1.01438741745,-0.183275333469,0.614612904197,-0.301817123422,0.675638829478,-0.374542021805,-4.30642927499,-1.17784081332,0.119913013555,-1.47718119418,-3.08635916037,-3.1338505492,-2.83008864554,108.091478166
do_nothing,-3.37277680058,-2.21833924749,-1.52500191586,-1.96647007445,-3.04638543855,-3.69872722485,-7.296926648,-3.91315557255,0.00388987863942,-2.06872539979,-8.57107037132,-5.6736613155,-4.02955685893,247.030073527
do_nothing,3.16702953693,1.33088955987,-0.460315568105,0.535004709906,0.523295041822,2.08050538181,8.21492918959,3.39588420466,-0.114011876489,2.3187371482,6.06323598008,6.20363530633,5.64387936843,-85.1188965486
do_nothing,2.09167714377,1.34894189185,1.83287520737,2.12413821916,2.20954872352,1.86340111108,3.91609968157,2.39736710643,-0.00515240484388,1.01909249659,6.34188775442,2.44521228666,1.31329175298,-289.316169706
do_nothing,-3.67357064725,-1.54510072142,-0.165075308079,-0.959117104138,-0.295347930179,-1.3870900725,-8.13868684434,-3.67360892183,0.158062811235,-1.96139915944,-6.28226429562,-5.60742824717,-5.09121587557,174.81090981
do_nothing,-0.781385000184,-0.567131285779,-1.53115373202,-1.89991165123,-1.80993415429,-1.12331533535,-1.18034315265,-1.0881451206,-0.154268812251,-0.53259278576,-4.73946924357,-0.482279366872,0.136537941711,174.316349517
do_nothing,3.03759624846,1.28295273787,0.55045650212,1.2332770725,-0.341057623785,0.193837876926,5.52520571814,2.66195795424,0.0759959560857,1.37301780335,5.32995310192,3.56868687692,3.30258752448,-96.9140813154
do_nothing,0.5214777418,0.118171697533,1.02463726068,1.35311728135,2.41257776878,2.14218518621,1.74144570563,1.58354839596,-0.0346076369005,0.604791167858,4.80051984262,1.16518486662,0.860411507648,-195.509874806
do_nothing,-2.94945267975,-0.950995356231,-0.681135586962,-0.994149292381,-0.380507205675,-1.4324364292,-5.26767770806,-3.32592420859,0.0464824266522,-1.18361871105,-6.0190368151,-3.79370350708,-3.70514502412,115.049062502
do_nothing,0.173852053477,0.134727673011,-0.560089870765,-1.07791134736,-1.83985697466,-0.987205509788,-1.17782934292,-0.952366396443,-0.112209252473,-0.640751116576,-3.39773779889,-0.662426819822,-0.690360596784,147.258883294
do_nothing,2.47621175542,0.731140706262,0.837843187258,0.73409456147,0.859938302833,1.93927170011,5.23464500757,4.09498003423,0.162831534726,1.32572692925,6.27053453339,4.06194698862,4.25102899784,-91.2724640958
do_nothing,-1.17145747158,-0.615496047129,-0.21985841131,0.769075005111,0.213259686837,-1.55102480244,-1.30888409902,-1.48035335689,-0.100639465584,0.0724882863957,0.565099120704,-1.17665042293,-0.917110570084,-102.404439605
do_nothing,-0.500509250451,0.17265960551,-0.393565298723,-0.0721093436135,0.729500003397,0.617568401978,-1.68921871064,-1.87460559588,0.0181128700664,-0.744668538771,-3.70235521131,-1.80052466776,-2.4692464987,46.0155481701
do_nothing,-0.183258744291,-0.0873811019728,0.342048640647,-1.17642533548,-1.02761405446,0.623057202875,-0.288981321303,1.01337992574,-0.0816177941088,-0.212259652802,-0.445531395313,-0.178674172818,-0.10498299629,67.6665463706
do_nothing,0.69218767547,0.223804523445,0.550798464927,0.137422207572,-0.302005076912,-0.733324270178,1.12479526058,1.29030508403,0.194210164982,0.795282364413,2.66087227487,2.36946266551,3.09604774656,20.6668013444
do_nothing,0.517337614005,-0.0878637208259,-1.09058110689,0.994950236563,1.04216616903,-0.18813384233,1.42895092582,-0.490677139689,-0.162411914145,-0.19292570142,0.0169406966174,0.281064195449,-0.434905532853,-77.5054680413
do_nothing,-1.21272069644,-0.427118248801,0.000719294711872,0.419162791233,-0.79875710454,-0.512626357215,-2.59121471832,-1.97388087224,0.0928846445504,-0.391093372525,-2.08167538621,-3.91079398401,-3.76102373508,-27.814259488
do_nothing,0.12905561144,0.528595769051,1.15098344868,-1.67283349508,0.371372290265,1.86735657036,0.268324636043,1.35976356776,-0.176468156175,0.246847227325,1.33969100968,2.19002419802,2.7540095688,1.25424794931
do_nothing,1.17752241651,0.447941306521,0.00653238061123,0.0445752010792,0.98614062898,0.315676499442,2.40835100037,2.18232780121,0.278971423661,0.280686388874,0.423100541198,3.05519730938,2.12339671542,158.065608554
do_nothing,-1.37314811659,-1.36444631518,-1.73730421892,1.40556048165,-2.27674195641,-3.77650615398,-2.47846080202,-3.1507706323,-0.214944321034,-0.771221414171,-2.25936234108,-4.28902667899,-4.31030050703,-61.8883623166
do_nothing,0.640598344666,0.654985152008,0.683707041905,0.29517015132,0.710414288684,2.00572656293,0.327807525422,-0.208300563842,0.143251612994,0.823926337791,2.47456289733,0.0844866738611,1.52975289628,-191.031181946
do_nothing,0.257202177819,0.681444680783,1.46734441483,-1.91864335035,1.68708932611,2.38311835376,0.954776486928,2.16263095298,-0.236538459677,-0.280812565273,0.104834842581,2.55966183839,1.92943557186,100.19300444
do_nothing,-0.455772929054,-0.491987377259,-0.62252295593,0.170056726237,-0.258346651825,-1.21872307172,0.400221030692,0.615095519408,0.317963635479,-0.246795828847,-1.81936887095,0.0926837545183,-1.69686780276,194.838233766
do_nothing,-0.207587384337,-0.651375404388,-1.74078151636,1.67308760923,-2.52249019043,-2.97679348621,-1.37060600831,-2.51578122715,-0.238656071813,0.130408920546,-0.223149029776,-2.38179965616,-0.905583216982,-114.724433985
do_nothing,0.762675874249,0.779043892318,1.20182325424,0.117882548315,0.890377533072,1.59662896596,-0.700115995535,-0.443135514655,0.189812104651,0.357346778277,1.7663658208,0.0449981164904,1.68514115894,-192.46037158
do_nothing,-0.509173712761,-0.314195179014,0.939913621261,-2.394124074,2.3580844331,2.69747257025,2.10900503283,2.53930126225,-0.287799199166,-0.596809892299,0.460465729145,2.01403084773,-0.0842111523966,115.047529209
do_nothing,-0.334845550945,0.278930150302,-0.372663181695,0.87944720599,-1.23852977962,-2.02640674186,-0.028719242156,0.0916737553343,0.327471519187,0.298754860392,-1.94039525805,-0.257579659533,-1.32990714126,197.372301304
do_nothing,1.28764066813,0.393256132051,-1.4972171354,1.75901463148,-1.14135732907,-0.546342981083,-0.862865515301,-1.49303590871,-0.227287251558,0.376067453884,-0.163368831749,-0.371198230918,1.68291594676,-137.968508271
do_nothing,-0.945605731757,-1.34095059379,0.666248726072,-0.816216804779,0.0952904534484,-0.174621106948,-1.00693872805,-0.756504155001,0.207951980601,-0.47675237852,1.5746912065,-1.54555082682,-0.856195403698,-142.892121089
do_nothing,-1.92090980039,-0.360455805843,1.0612350062,-1.87682980411,-0.167012946792,-1.05028366429,-1.06454129175,-0.421776534396,-0.328389837092,-0.780327983322,-0.796592639981,-0.764535366639,-2.31096549519,77.5641901063
do_nothing,4.20521229939,3.4105765334,0.036053386905,1.59089045512,3.75091121984,5.61970422683,6.0840821306,4.85623803756,0.364759139232,1.91243590394,1.37277521408,6.1628391874,5.21744569572,172.229406017
do_nothing,-1.15707650222,-2.10315015821,-1.64315554822,0.796456366094,-2.73047706043,-3.06703394986,-2.92575205779,-2.29399879348,-0.267490011796,-0.739632360392,-2.08544256062,-3.59665164489,-2.15489161064,-97.5406785163
do_nothing,-3.98231151993,-2.68762264851,0.239878183411,-1.03745699609,-4.08782268567,-6.09417833732,-6.07828699112,-5.4156363007,0.236635141275,-1.30884380983,-0.544627292738,-5.36815688622,-4.29456418437,-119.501867731
do_nothing,2.67289609468,2.87410727355,1.37922243746,-0.775893624132,4.22480660201,5.26925639465,4.68160629916,3.93628484017,-0.311840087847,0.793611759106,2.3739100748,5.34679060433,3.88483563337,37.4831137476
do_nothing,3.49101058888,2.17263402758,0.204001710369,1.30167566746,4.10156779606,5.78336188109,5.48252727657,5.12784442955,0.34218086445,1.40037083138,0.53526683772,3.9001221309,3.1203696375,138.576489702
do_nothing,-3.64058558568,-3.4413204917,-1.91347582453,-0.239983435667,-5.1919280146,-6.18262916293,-4.76545902954,-4.57182587378,-0.308627694381,-1.2036784596,-1.87314566786,-5.02919659131,-4.17231580589,-40.4517846809
do_nothing,-2.61550064335,-1.02364965861,0.435825822021,-0.183786257392,-3.8866134579,-5.79794130333,-6.11282085486,-4.90955854855,0.295268772688,-0.943353973587,-1.98369128446,-3.77573031004,-2.68946417737,-103.29641176
do_nothing,3.52934099808,2.49570934186,1.13621550204,-0.210916421719,5.58380429519,6.91702010154,5.38924237561,4.66020697421,-0.280235263827,0.729073453212,2.3104223807,4.80794701061,4.13299386576,-1.83863494787
do_nothing,2.75835379376,1.36611655454,0.242530749577,0.201410944745,4.00689308776,5.81825987028,7.08254119124,5.45705297333,0.243936294369,1.601906851,3.91967251568,4.34931531965,3.15543499689,106.483447897
do_nothing,-4.49341666853,-2.51303109676,-1.59392537417,-0.123681129197,-6.63834718135,-8.33556559508,-8.26463593023,-6.31331940529,-0.263699294875,-1.56725120909,-4.95941170057,-6.10200219465,-5.57049205447,13.0459336762
do_nothing,-1.07806303618,-0.898138359942,0.289297615261,0.552299615374,-2.16426483246,-3.25711954885,-3.64856410634,-3.18656514881,0.31454655884,-0.779553990539,-2.61367045284,-2.25883243617,-1.18936760073,-92.294504585
do_nothing,2.90927198384,1.32346277335,0.833263889045,-0.528848440728,4.69683955308,5.8322002808,6.50993036314,4.8418709373,-0.269305677651,0.927811024132,4.78486220316,4.00524543348,3.95864011252,-26.7138711222
do_nothing,1.77988221589,2.08684810485,0.395075198755,-0.19607603852,2.92979520192,3.95219781898,2.70288968994,2.83864985266,0.178586787649,1.29205813534,2.84423398902,3.14687645089,1.83515607016,72.6261021993
do_nothing,-2.7501879329,-1.83049749901,-1.2897494593,0.107258673533,-3.92439078275,-4.54551917293,-4.69164370384,-3.61223579236,-0.200723155412,-1.50694131451,-5.32843361612,-3.49324161661,-3.72719287823,52.7537746757
do_nothing,-2.16381210193,-2.0580054036,0.0997440321452,0.913003241306,-3.92649014395,-5.34437083928,-3.15018992787,-3.30521390985,0.274419527276,-0.735170577183,-2.52967412067,-4.23225248824,-2.45215070623,-80.2628905669
do_nothing,3.05088668908,1.8402884121,0.686183041185,-0.8607072646,4.09646680636,4.88810886534,4.55477852101,3.43918243999,-0.246392270243,1.37800302927,5.84166632969,4.65090564582,4.54384410805,-35.219988051
do_nothing,1.9845134977,2.13752880814,0.36358389689,-0.405595236258,4.15532282626,5.38958837568,2.14246864752,3.14272030898,0.199272171363,0.480636619882,1.31783283789,3.32957818094,1.58613263885,36.4319526789
do_nothing,-3.51022323257,-2.28001330847,-1.05289734452,0.471816639974,-4.44776758261,-5.17823775608,-3.93590846055,-3.64775677924,-0.252389310757,-1.54791396296,-5.42306887031,-5.04898187314,-4.53917499786,74.8760630788
do_nothing,-0.513637542609,-1.05162269576,0.162503665287,0.947831783701,-3.08979517448,-3.95313864916,0.188112975736,-1.36515878231,0.269374039442,0.576081048185,0.464447223478,-1.12598214209,0.121584177975,-61.71733836
do_nothing,1.86908109319,1.05711386022,0.543444179917,-1.09589937945,2.79467814004,2.93407631066,0.114877253498,1.33452497133,-0.161266133297,0.351788161847,2.47543505299,2.46864479763,1.91531095768,-33.834831531
do_nothing,1.29205682335,1.6171988024,0.03277723939,-0.579129728218,4.40212453362,5.63164691642,1.68753579476,2.40247987576,0.135878508833,-0.116746520916,1.28987802459,2.56621390787,1.71520258587,2.08542440408
do_nothing,-2.1119389967,-1.1721359497,-0.741966693631,1.03975087753,-3.67841260137,-3.9730686632,-0.0934852615844,-1.42484384659,-0.265056321561,-0.387201357405,-2.68768792019,-3.15334461317,-2.49663396582,81.2261787514
do_nothing,-0.89604573594,-1.24715817626,0.592066968057,0.717853685932,-3.73418979077,-4.8824390229,-1.62865788504,-2.21881786457,0.264257995729,0.476722459222,-1.35831260174,-2.12192942189,-1.82460986629,-38.9060699065
do_nothing,2.1183944713,0.792514251732,0.0562490785867,-1.57728437164,4.14319936138,4.76887940958,0.83713406289,1.96018695922,-0.0601436765903,-0.0877535054638,3.18990836901,4.03828223584,3.40070747828,-26.5031450129
do_nothing,-0.140583323318,0.966083946524,-0.402048907418,-0.0284122686487,1.81524672143,1.96206393034,-1.4782763205,0.232169385252,0.00237054206562,-0.522466190213,-0.403577310824,-0.390553132616,-0.0465617633459,-26.3401659057
do_nothing,-1.08678412032,-0.290407686501,-0.0732849929887,1.21915239594,-2.87950160502,-2.43259958631,2.08764488328,-0.449159783098,-0.17922466586,0.357001658306,-1.61976175213,-2.32101668588,-1.97108455208,75.1360956173
do_nothing,0.50592569277,-0.698060876704,0.919266716226,0.0341105597163,-0.632879333414,-1.02138728803,2.53344708273,0.858393186498,0.206758282974,0.854659688423,1.22879229005,1.50857929646,0.698446081404,-16.0367264989
do_nothing,-0.301070380505,-0.590972173901,-0.763131096679,-1.32465582964,0.773354030002,-0.366153412365,-6.14932483405,-2.16663701085,-0.000306914459041,-1.23634382297,-0.752805566869,-0.170459731342,-0.0384383043494,-15.8789529742
do_nothing,0.572845311409,1.21248925387,-0.52577159168,0.393349623594,1.36431264064,2.6705148321,0.232459504633,0.707904110405,-0.0305745295107,-0.250983078637,-0.000888650255305,-0.183111531206,0.591882516076,-45.8140468473
do_nothing,-0.188403487549,0.590638915464,0.959962125118,0.901460734867,-0.682752949518,-0.0285100549468,6.21542415797,2.13695567802,-0.177958174769,1.17782374557,0.983819376672,-0.112459885961,-0.264951544557,60.1672905158
do_nothing,-0.126309615394,-1.024598737,0.348579906283,-0.297724964797,-0.574321418295,-1.91028823818,-0.934478356713,-0.919643089161,0.185499987409,0.309726043844,0.186277924711,1.11275761745,0.131707167531,3.20461990628
do_nothing,-0.194897545773,-1.16487678721,-1.26303654317,-0.85980601673,-0.437233012788,-0.883230718021,-6.75279552523,-2.23327184057,0.0515583905249,-1.57098012796,-2.03363359186,-1.2836030166,-0.984059435576,-3.77577021375
do_nothing,-0.0701052747641,1.41195697167,0.219049862074,0.485366050178,0.291882865969,1.53239336331,1.9342139471,0.752381710418,-0.0671719179693,0.00787988599526,0.179253982039,-1.22599277007,-0.0399647447514,-56.3004194598
do_nothing,1.04593479773,1.38394750325,0.968592122863,0.496773409205,2.04057640599,2.56875024347,7.43168363047,3.0598132656,-0.163939226182,1.83384849818,3.28789617373,3.632322238,2.81551688161,44.9892886988
do_nothing,-0.975286736092,-2.03937827529,-0.396924855577,-0.312653760873,-1.67870205406,-3.29361922308,-5.12588660769,-1.94958948298,0.160346231846,-0.717150901057,-2.23383380653,-1.62905565088,-2.27848092226,4.25830131235
do_nothing,-0.362218039719,-0.868164964679,-0.698680023748,-0.392190578897,-1.637312361,-1.56009565123,-4.02553372192,-2.21923602313,0.0883718168481,-1.32550309317,-1.87557087504,-2.51151094189,-1.80611318228,25.2942291814
do_nothing,1.10259146269,2.11017474867,0.487942079881,0.224922196557,2.03219123178,3.3568236796,5.28013689188,2.30163956747,-0.10285884329,0.883856133906,2.46126954861,2.85870112515,3.01639674128,-63.6502137806
do_nothing,-0.611998859409,0.174082201877,0.36963849815,0.289562558883,0.759591289607,0.267138837555,-0.162733063904,0.488516474709,-0.111224532034,0.631134375517,-0.0130637906069,0.0573268126215,-0.0654718867764,0.137013412073
do_nothing,0.00674600652385,-1.43031863915,-0.418914900737,-0.130611587794,-0.905996455674,-1.39471532334,-1.34340682945,-0.266771942648,0.0959932673666,-0.274512265524,-0.198716133086,-0.861302912997,-1.04968719513,67.0530553928
do_nothing,0.277068206027,-0.165665397557,-0.081848989981,-0.176537034922,-1.55255513843,-1.69862306342,0.21299761394,-1.32979963258,0.119984587694,-0.643232124536,-0.891437680532,-0.52921978945,-0.769681719781,-19.4025855429
do_nothing,-0.492636304944,0.955071872081,0.161334174209,-0.0637509782774,1.00992762927,1.63486090814,-1.24960779453,-0.488709386558,-0.118805856414,-0.249360387887,-0.641016557602,0.0130498521989,0.318652802016,-48.8418638453
do_nothing,0.29575681726,0.379904674173,0.104714804172,0.241376393645,2.05259187251,2.49671071051,1.43356972203,2.86954954896,-0.0313016984475,1.16828641869,2.29009438471,1.59076857625,2.01125499424,23.2863440763
do_nothing,0.132429530536,-0.919039072798,-0.141659822472,0.0889046388533,-2.03759970729,-3.26975854929,0.850808671308,-0.962479175286,-0.0399888344863,0.106526954475,-0.335199268851,-0.687861657169,-0.999331577228,27.0777126218
do_nothing,0.342726085762,-0.019028858967,-0.0303673892488,-0.185436478757,-0.652601342383,-0.392047096564,-0.363021464169,-1.85873640634,0.197511738261,-1.20537188829,-1.55741915009,-0.670994531874,-1.34244670414,-10.0011940708
do_nothing,-1.25520285415,0.151498580389,0.0585330738695,-0.257163335008,0.900718450226,1.77399213392,-2.71289653183,0.509402533398,-0.0907723213781,-0.347128814767,-0.473375245135,-1.10052239585,-0.573730803509,-38.333329359
do_nothing,0.508575499029,0.493622633366,0.106477351576,0.404682214963,0.900581702868,0.359361215285,1.30054744333,1.72087356694,-0.0759541440808,1.75592501212,2.12246068884,2.43621492182,2.96169272183,52.1168888606
do_nothing,1.56166376383,-0.078487218763,-0.228213235889,-0.0118911736202,-0.310484135564,-0.573473946083,3.69588518472,0.138639498156,-0.0770620209189,-0.0194818088426,0.532394420125,1.14375591615,0.707288393015,-15.3994273303
do_nothing,-1.84635839028,-0.738432958716,0.152268630658,-0.0945621636211,-1.92750823919,-1.75067291545,-3.7303120077,-2.76270763596,0.324410761652,-1.95230401181,-2.82189462743,-4.81716975743,-5.0383026109,-46.3934225415
do_nothing,-0.360430683207,0.269977008566,-0.0433231215872,-0.271618643597,1.37581792546,1.63401830492,-1.33576772613,0.923847869547,-0.228472384193,0.514088445794,0.668772012027,1.86654704432,1.58447211108,50.0172035365
do_nothing,1.93404277915,0.68450534718,0.156250081384,0.371941132241,1.56579433151,1.40039610248,3.38242452795,2.50931311875,-0.0473240610729,1.79648558338,1.64976751398,3.71949813982,4.27011752381,38.2665193418
do_nothing,-1.03109960757,-0.694825125132,-0.344638717386,-0.100878312839,-2.38805937841,-2.42066718978,-0.726489028122,-1.98861432445,0.0276486287517,-1.01535772089,-0.638473827353,-3.65374406494,-2.76805568054,-61.2742984212
do_nothing,-0.377270090732,0.268843746911,0.254111783556,0.0277911971309,0.160911976815,0.0998965730062,-1.01732095141,-0.79176584617,0.269318588766,-0.899264878463,0.0820226330874,-0.595884391337,-1.97754083791,-89.7273010934
do_nothing,0.256134115659,-0.157007785774,-0.0664669910013,-0.127185919317,1.41901348545,1.19294022774,-0.369150367026,0.624898921099,-0.411407698026,0.186917179993,-1.93247598095,1.55113563566,0.753368893669,174.54652481
do_nothing,0.707770026876,0.130371546507,0.249076583739,0.0991096317095,0.00188662785855,0.984929205322,2.20076480519,1.79078136066,0.247461808553,1.44732511977,1.70201823519,1.05185259701,2.93673591052,24.2766989056
do_nothing,-0.923262137923,-0.263112761703,-0.529513582533,-0.255693563954,-2.13199532398,-2.92118466765,-1.82399069861,-1.55335344186,-0.0687929529673,-0.527768767419,1.6983490589,-1.55384246744,-1.01467928653,-204.958272847
do_nothing,0.0266839763274,0.534612015088,0.273986159253,0.629633291458,1.28475509037,0.406148740891,-1.62211615657,-1.69914257824,0.133582598876,-1.20516058091,-2.64164653832,-0.797693029188,-2.88624156826,21.0440435461
do_nothing,1.0077008411,-0.0945625059684,0.126663173241,-0.43972379568,2.05826852165,3.9649627783,4.85263030943,2.98893472958,-0.324227472058,0.315480192911,-0.533469455929,1.73816010963,1.36207191874,209.557588493
do_nothing,-0.817478930037,-0.644796248972,0.218309403256,-0.236920733923,-2.92026236578,-3.4065267753,-1.83740360218,0.0593755259095,0.358639226586,1.51230412766,2.26515596117,-0.182101269274,2.14527845255,-34.1176468347
do_nothing,-0.504890550541,0.0015309688471,-0.828414566592,0.104554365768,-0.735216910245,-2.25210110835,-5.09860650561,-3.12347616052,-0.213203923831,-0.789925866046,-0.105173374369,-0.858785079119,-0.902025105734,-233.907398339
do_nothing,1.00348256743,1.19321728203,0.448107378699,0.815792563482,3.52124112534,4.65889493496,4.67175456796,1.60047505529,0.138932481776,-1.02197124948,-1.61666658767,0.17062556766,-2.08769853341,64.6256812856
do_nothing,-0.150261624065,-0.501424024064,0.478984637853,-0.775101455693,-1.03716808433,-0.299636305716,3.45969025109,1.72905681593,-0.241409307296,0.389818522556,0.211836749651,0.0090956348366,0.588068933836,234.840433539
do_nothing,0.280012052695,-0.741396854584,-0.288896485967,-0.37150499467,-1.81063347535,-2.65587645517,-4.3554590398,-0.767083137539,0.3227348148,1.63365170597,1.85335046581,1.75997000758,3.31084552767,-77.8731462122
do_nothing,-1.78493280659,-0.495747497313,-0.814392143678,0.513990154686,-0.496689621115,-1.17354713942,-5.07782795991,-3.09336487214,-0.256933132337,-1.51957438379,-2.33559003091,-3.08448546399,-3.47982415014,-233.175750719
do_nothing,1.17632965838,2.03750917721,0.888004403885,0.75697201636,3.03894414366,3.77738537585,7.30895816825,2.41440095407,0.19928060991,-0.391485975854,1.26947652498,0.824918146259,-0.397753865316,71.8688914469
do_nothing,1.9224914529,-0.0760826767077,0.201683286482,-1.12808094121,0.27322407422,0.998597960595,3.62350629063,2.77311658985,-0.263949655943,0.9467937478,1.1221386871,3.10979352443,3.36438828553,259.143662614
do_nothing,-2.23301889374,-2.279926883,-0.426552587763,-0.111790759094,-3.70232827011,-4.47375815514,-8.91915549578,-3.70102884479,0.32709416926,0.240433848152,-3.16989426738,-3.01755787842,-2.04965779459,-104.347183308
do_nothing,-1.49575124142,0.152680039332,-0.627248906447,0.630917448878,0.205250112716,-0.286320345874,-0.422479654563,-1.44959375185,-0.29103231901,-0.830121550717,1.60294897421,-1.33486945232,-1.53611310777,-230.446603656
do_nothing,2.70999561495,2.79687636054,0.95031242188,0.534940190312,3.80068496594,3.89695523628,6.96896183338,3.53606890893,0.231820296154,0.165033846329,2.65936263115,2.91421945453,2.32509690537,70.0253789465
do_nothing,0.919604112472,-0.810785767873,0.0578480456575,-1.1649931363,-0.455569499611,0.878157837844,-0.715079603587,0.63307329134,-0.216288606299,0.137243093893,-3.60776963939,0.615447491416,0.616528735187,274.08738168
do_nothing,-2.24758654933,-2.20480815283,-0.424135067329,0.104542842761,-3.27874781112,-3.57718503379,-3.64384489858,-2.20794513524,0.238211757102,0.53048713959,-0.344050219548,-1.94532295857,-1.67122289872,-115.051943046
do_nothing,-1.69219197698,0.146523308916,-0.573866427039,0.624590294913,-0.797615225713,-2.9353498661,-1.82596164977,-2.23749751386,-0.291861985347,-0.850437490063,2.63916273484,-2.16758092642,-1.81768337059,-226.849648929
do_nothing,3.3603458608,2.77983755135,0.954893676565,0.272116459154,4.85865200234,6.25334202528,4.01966878641,3.68153730059,0.313476137106,0.136988965324,0.51764342294,3.80936786965,3.44234692291,58.7898113089
